Data from BG_HRD10591_087.txt Node
Date: Fri May 16 15:27:30 EDT 2025
User: Yrep
Spectrometer: HR+D1059
Trigger mode: 1
Integration Time (sec): 1.000000E-1
Scans to average: 1
Electric dark correction enabled: true
Nonlinearity correction enabled: false
Boxcar width: 0
XAxis mode: Wavelengths
Number of Pixels in Spectrum: 2048
>>>>>Begin Spectral Data<<<<<
223.165	-24.62
223.4	-24.62
223.635	-24.62
223.869	-22.62
224.104	-21.62
224.338	0.38
224.573	-10.62
224.808	-20.62
225.042	-3.62
225.277	-5.62
225.511	5.38
225.746	2.38
225.98	5.38
226.215	16.38
226.449	19.38
226.683	20.38
226.918	14.38
227.152	25.38
227.387	46.38
227.621	38.38
227.856	37.38
228.09	18.38
228.324	55.38
228.559	63.38
228.793	57.38
229.027	59.38
229.262	70.38
229.496	69.38
229.73	70.38
229.964	73.38
230.199	74.38
230.433	80.38
230.667	73.38
230.901	67.38
231.136	87.38
231.37	84.38
231.604	81.38
231.838	81.38
232.072	94.38
232.306	78.38
232.541	81.38
232.775	84.38
233.009	86.38
233.243	79.38
233.477	90.38
233.711	74.38
233.945	76.38
234.179	82.38
234.413	85.38
234.647	81.38
234.881	74.38
235.115	83.38
235.349	61.38
235.583	72.38
235.817	73.38
236.051	77.38
236.285	63.38
236.519	88.38
236.753	84.38
236.987	68.38
237.221	74.38
237.455	74.38
237.689	75.38
237.922	74.38
238.156	66.38
238.39	66.38
238.624	55.38
238.858	65.38
239.091	66.38
239.325	80.38
239.559	62.38
239.793	74.38
240.027	83.38
240.26	74.38
240.494	68.38
240.728	63.38
240.961	79.38
241.195	69.38
241.429	71.38
241.662	68.38
241.896	79.38
242.13	66.38
242.363	78.38
242.597	82.38
242.83	78.38
243.064	82.38
243.298	81.38
243.531	81.38
243.765	70.38
243.998	66.38
244.232	88.38
244.465	73.38
244.699	55.38
244.932	65.38
245.166	79.38
245.399	72.38
245.633	70.38
245.866	73.38
246.099	78.38
246.333	78.38
246.566	69.38
246.8	71.38
247.033	74.38
247.266	74.38
247.5	81.38
247.733	58.38
247.966	70.38
248.2	84.38
248.433	80.38
248.666	67.38
248.899	82.38
249.133	66.38
249.366	80.38
249.599	58.38
249.832	73.38
250.066	75.38
250.299	80.38
250.532	89.38
250.765	76.38
250.998	72.38
251.231	84.38
251.465	80.38
251.698	78.38
251.931	72.38
252.164	76.38
252.397	75.38
252.63	77.38
252.863	73.38
253.096	79.38
253.329	65.38
253.562	69.38
253.795	75.38
254.028	95.38
254.261	77.38
254.494	91.38
254.727	78.38
254.96	67.38
255.193	78.38
255.426	72.38
255.659	86.38
255.892	79.38
256.124	89.38
256.357	74.38
256.59	94.38
256.823	81.38
257.056	78.38
257.289	77.38
257.521	75.38
257.754	77.38
257.987	89.38
258.22	79.38
258.452	76.38
258.685	82.38
258.918	83.38
259.151	67.38
259.383	65.38
259.616	80.38
259.849	68.38
260.081	86.38
260.314	84.38
260.547	84.38
260.779	87.38
261.012	85.38
261.244	71.38
261.477	81.38
261.71	82.38
261.942	74.38
262.175	77.38
262.407	84.38
262.64	89.38
262.872	87.38
263.105	84.38
263.337	88.38
263.57	65.38
263.802	80.38
264.035	86.38
264.267	79.38
264.499	72.38
264.732	73.38
264.964	90.38
265.197	100.38
265.429	86.38
265.661	76.38
265.894	66.38
266.126	76.38
266.358	89.38
266.591	64.38
266.823	84.38
267.055	78.38
267.287	71.38
267.52	67.38
267.752	73.38
267.984	72.38
268.216	85.38
268.448	80.38
268.681	86.38
268.913	85.38
269.145	96.38
269.377	88.38
269.609	70.38
269.841	86.38
270.073	82.38
270.306	73.38
270.538	55.38
270.77	83.38
271.002	76.38
271.234	78.38
271.466	92.38
271.698	75.38
271.93	84.38
272.162	72.38
272.394	84.38
272.626	77.38
272.858	71.38
273.09	76.38
273.322	63.38
273.553	83.38
273.785	73.38
274.017	81.38
274.249	82.38
274.481	86.38
274.713	82.38
274.945	83.38
275.176	84.38
275.408	79.38
275.64	77.38
275.872	66.38
276.104	71.38
276.335	84.38
276.567	85.38
276.799	87.38
277.031	77.38
277.262	78.38
277.494	62.38
277.726	76.38
277.957	77.38
278.189	81.38
278.421	82.38
278.652	88.38
278.884	72.38
279.115	90.38
279.347	91.38
279.579	75.38
279.81	62.38
280.042	78.38
280.273	72.38
280.505	80.38
280.736	79.38
280.968	93.38
281.199	73.38
281.431	75.38
281.662	76.38
281.894	90.38
282.125	83.38
282.356	88.38
282.588	76.38
282.819	77.38
283.051	79.38
283.282	79.38
283.513	87.38
283.745	80.38
283.976	88.38
284.207	88.38
284.439	87.38
284.67	70.38
284.901	81.38
285.132	80.38
285.364	86.38
285.595	73.38
285.826	94.38
286.057	78.38
286.288	81.38
286.52	85.38
286.751	84.38
286.982	80.38
287.213	83.38
287.444	84.38
287.675	79.38
287.906	78.38
288.138	86.38
288.369	106.38
288.6	75.38
288.831	94.38
289.062	87.38
289.293	87.38
289.524	76.38
289.755	82.38
289.986	82.38
290.217	81.38
290.448	78.38
290.679	78.38
290.91	89.38
291.141	90.38
291.371	74.38
291.602	97.38
291.833	84.38
292.064	74.38
292.295	85.38
292.526	79.38
292.757	84.38
292.987	72.38
293.218	77.38
293.449	76.38
293.68	89.38
293.91	78.38
294.141	86.38
294.372	81.38
294.603	82.38
294.833	85.38
295.064	87.38
295.295	80.38
295.525	72.38
295.756	79.38
295.987	83.38
296.217	74.38
296.448	86.38
296.679	75.38
296.909	89.38
297.14	88.38
297.37	92.38
297.601	91.38
297.831	83.38
298.062	78.38
298.292	86.38
298.523	78.38
298.753	75.38
298.984	82.38
299.214	85.38
299.445	74.38
299.675	77.38
299.905	84.38
300.136	78.38
300.366	81.38
300.597	97.38
300.827	76.38
301.057	93.38
301.288	84.38
301.518	81.38
301.748	74.38
301.979	108.38
302.209	78.38
302.439	75.38
302.669	81.38
302.9	85.38
303.13	78.38
303.36	90.38
303.59	73.38
303.82	77.38
304.051	78.38
304.281	81.38
304.511	66.38
304.741	86.38
304.971	87.38
305.201	73.38
305.431	86.38
305.661	85.38
305.891	76.38
306.121	84.38
306.352	88.38
306.582	67.38
306.812	92.38
307.042	76.38
307.272	81.38
307.502	76.38
307.731	84.38
307.961	67.38
308.191	73.38
308.421	83.38
308.651	95.38
308.881	85.38
309.111	87.38
309.341	88.38
309.571	77.38
309.8	84.38
310.03	74.38
310.26	95.38
310.49	90.38
310.72	69.38
310.949	74.38
311.179	89.38
311.409	82.38
311.639	87.38
311.868	88.38
312.098	77.38
312.328	80.38
312.557	81.38
312.787	83.38
313.017	92.38
313.246	84.38
313.476	85.38
313.706	85.38
313.935	74.38
314.165	94.38
314.394	85.38
314.624	93.38
314.853	71.38
315.083	81.38
315.312	81.38
315.542	80.38
315.771	100.38
316.001	86.38
316.23	71.38
316.46	92.38
316.689	76.38
316.919	75.38
317.148	95.38
317.377	81.38
317.607	77.38
317.836	83.38
318.065	91.38
318.295	68.38
318.524	80.38
318.753	72.38
318.983	80.38
319.212	95.38
319.441	85.38
319.67	70.38
319.9	63.38
320.129	78.38
320.358	74.38
320.587	89.38
320.816	74.38
321.046	82.38
321.275	87.38
321.504	82.38
321.733	80.38
321.962	84.38
322.191	88.38
322.42	75.38
322.649	92.38
322.878	84.38
323.108	87.38
323.337	77.38
323.566	68.38
323.795	82.38
324.024	86.38
324.253	82.38
324.482	74.38
324.71	85.38
324.939	84.38
325.168	88.38
325.397	75.38
325.626	84.38
325.855	81.38
326.084	88.38
326.313	80.38
326.542	86.38
326.77	72.38
326.999	71.38
327.228	77.38
327.457	70.38
327.686	87.38
327.914	102.38
328.143	81.38
328.372	94.38
328.6	89.38
328.829	74.38
329.058	81.38
329.287	86.38
329.515	86.38
329.744	90.38
329.972	84.38
330.201	88.38
330.43	78.38
330.658	98.38
330.887	89.38
331.115	77.38
331.344	81.38
331.572	92.38
331.801	66.38
332.03	82.38
332.258	84.38
332.486	85.38
332.715	66.38
332.943	92.38
333.172	93.38
333.4	87.38
333.629	87.38
333.857	72.38
334.085	88.38
334.314	74.38
334.542	88.38
334.771	77.38
334.999	83.38
335.227	65.38
335.455	74.38
335.684	95.38
335.912	80.38
336.14	90.38
336.369	86.38
336.597	93.38
336.825	73.38
337.053	82.38
337.281	89.38
337.51	76.38
337.738	88.38
337.966	85.38
338.194	80.38
338.422	80.38
338.65	93.38
338.878	67.38
339.106	80.38
339.334	81.38
339.562	73.38
339.79	73.38
340.018	83.38
340.246	68.38
340.474	79.38
340.702	79.38
340.93	71.38
341.158	59.38
341.386	74.38
341.614	84.38
341.842	81.38
342.07	79.38
342.298	81.38
342.526	70.38
342.754	87.38
342.981	71.38
343.209	88.38
343.437	96.38
343.665	73.38
343.893	79.38
344.12	107.38
344.348	90.38
344.576	85.38
344.804	89.38
345.031	78.38
345.259	85.38
345.487	85.38
345.714	82.38
345.942	80.38
346.17	86.38
346.397	86.38
346.625	76.38
346.853	76.38
347.08	71.38
347.308	75.38
347.535	87.38
347.763	70.38
347.99	94.38
348.218	86.38
348.445	97.38
348.673	73.38
348.9	89.38
349.128	91.38
349.355	66.38
349.583	74.38
349.81	77.38
350.037	79.38
350.265	102.38
350.492	68.38
350.72	88.38
350.947	77.38
351.174	80.38
351.402	74.38
351.629	78.38
351.856	87.38
352.083	78.38
352.311	70.38
352.538	82.38
352.765	85.38
352.992	88.38
353.22	65.38
353.447	75.38
353.674	80.38
353.901	94.38
354.128	97.38
354.355	80.38
354.583	83.38
354.81	77.38
355.037	87.38
355.264	82.38
355.491	86.38
355.718	84.38
355.945	85.38
356.172	84.38
356.399	77.38
356.626	88.38
356.853	78.38
357.08	75.38
357.307	84.38
357.534	81.38
357.761	80.38
357.988	75.38
358.215	93.38
358.441	80.38
358.668	85.38
358.895	91.38
359.122	80.38
359.349	74.38
359.576	84.38
359.802	87.38
360.029	78.38
360.256	100.38
360.483	89.38
360.709	80.38
360.936	87.38
361.163	81.38
361.39	66.38
361.616	71.38
361.843	76.38
362.07	80.38
362.296	93.38
362.523	89.38
362.749	77.38
362.976	71.38
363.203	85.38
363.429	74.38
363.656	84.38
363.882	83.38
364.109	81.38
364.335	86.38
364.562	62.38
364.788	70.38
365.015	86.38
365.241	93.38
365.468	74.38
365.694	67.38
365.92	81.38
366.147	68.38
366.373	87.38
366.599	86.38
366.826	95.38
367.052	70.38
367.278	78.38
367.505	81.38
367.731	79.38
367.957	91.38
368.184	95.38
368.41	75.38
368.636	93.38
368.862	87.38
369.089	81.38
369.315	84.38
369.541	78.38
369.767	75.38
369.993	78.38
370.219	84.38
370.445	85.38
370.672	83.38
370.898	85.38
371.124	90.38
371.35	76.38
371.576	77.38
371.802	73.38
372.028	82.38
372.254	81.38
372.48	86.38
372.706	89.38
372.932	64.38
373.158	85.38
373.384	84.38
373.61	83.38
373.835	74.38
374.061	89.38
374.287	86.38
374.513	82.38
374.739	95.38
374.965	81.38
375.191	83.38
375.416	81.38
375.642	81.38
375.868	78.38
376.094	70.38
376.319	80.38
376.545	84.38
376.771	85.38
376.997	94.38
377.222	92.38
377.448	93.38
377.674	72.38
377.899	70.38
378.125	65.38
378.35	80.38
378.576	72.38
378.802	73.38
379.027	97.38
379.253	96.38
379.478	90.38
379.704	92.38
379.929	72.38
380.155	74.38
380.38	82.38
380.606	85.38
380.831	70.38
381.057	87.38
381.282	72.38
381.507	85.38
381.733	82.38
381.958	83.38
382.184	70.38
382.409	88.38
382.634	71.38
382.86	86.38
383.085	102.38
383.31	80.38
383.535	74.38
383.761	87.38
383.986	78.38
384.211	62.38
384.436	77.38
384.662	75.38
384.887	75.38
385.112	87.38
385.337	86.38
385.562	89.38
385.787	75.38
386.013	77.38
386.238	72.38
386.463	90.38
386.688	96.38
386.913	71.38
387.138	73.38
387.363	77.38
387.588	70.38
387.813	86.38
388.038	91.38
388.263	78.38
388.488	80.38
388.713	79.38
388.938	80.38
389.163	70.38
389.387	68.38
389.612	70.38
389.837	69.38
390.062	78.38
390.287	84.38
390.512	78.38
390.736	81.38
390.961	76.38
391.186	71.38
391.411	80.38
391.636	79.38
391.86	81.38
392.085	75.38
392.31	80.38
392.534	77.38
392.759	82.38
392.984	78.38
393.208	84.38
393.433	76.38
393.658	78.38
393.882	82.38
394.107	81.38
394.331	87.38
394.556	77.38
394.78	76.38
395.005	88.38
395.229	82.38
395.454	85.38
395.678	70.38
395.903	95.38
396.127	83.38
396.352	74.38
396.576	82.38
396.801	77.38
397.025	76.38
397.249	76.38
397.474	81.38
397.698	78.38
397.922	74.38
398.147	81.38
398.371	87.38
398.595	82.38
398.82	77.38
399.044	79.38
399.268	66.38
399.492	71.38
399.717	73.38
399.941	78.38
400.165	91.38
400.389	88.38
400.613	86.38
400.837	66.38
401.062	81.38
401.286	77.38
401.51	67.38
401.734	75.38
401.958	74.38
402.182	89.38
402.406	85.38
402.63	70.38
402.854	82.38
403.078	79.38
403.302	88.38
403.526	62.38
403.75	76.38
403.974	74.38
404.198	59.38
404.422	86.38
404.645	77.38
404.869	70.38
405.093	81.38
405.317	73.38
405.541	87.38
405.765	76.38
405.988	84.38
406.212	89.38
406.436	76.38
406.66	80.38
406.883	78.38
407.107	94.38
407.331	80.38
407.555	77.38
407.778	73.38
408.002	93.38
408.226	74.38
408.449	84.38
408.673	78.38
408.896	87.38
409.12	74.38
409.344	74.38
409.567	79.38
409.791	86.38
410.014	78.38
410.238	78.38
410.461	90.38
410.685	77.38
410.908	70.38
411.132	87.38
411.355	77.38
411.578	74.38
411.802	96.38
412.025	65.38
412.249	72.38
412.472	76.38
412.695	88.38
412.919	76.38
413.142	70.38
413.365	83.38
413.589	78.38
413.812	78.38
414.035	85.38
414.258	58.38
414.482	74.38
414.705	72.38
414.928	76.38
415.151	80.38
415.374	85.38
415.597	94.38
415.821	81.38
416.044	78.38
416.267	84.38
416.49	78.38
416.713	88.38
416.936	85.38
417.159	81.38
417.382	58.38
417.605	82.38
417.828	75.38
418.051	71.38
418.274	69.38
418.497	74.38
418.72	82.38
418.943	90.38
419.166	94.38
419.389	78.38
419.611	79.38
419.834	65.38
420.057	81.38
420.28	89.38
420.503	67.38
420.726	86.38
420.948	70.38
421.171	66.38
421.394	54.38
421.617	78.38
421.839	76.38
422.062	71.38
422.285	75.38
422.507	76.38
422.73	68.38
422.953	88.38
423.175	76.38
423.398	73.38
423.621	86.38
423.843	75.38
424.066	72.38
424.288	80.38
424.511	84.38
424.733	82.38
424.956	68.38
425.178	87.38
425.401	85.38
425.623	71.38
425.846	82.38
426.068	85.38
426.291	82.38
426.513	79.38
426.735	79.38
426.958	84.38
427.18	88.38
427.402	72.38
427.625	88.38
427.847	77.38
428.069	97.38
428.292	86.38
428.514	92.38
428.736	73.38
428.958	79.38
429.181	77.38
429.403	79.38
429.625	74.38
429.847	76.38
430.069	74.38
430.292	66.38
430.514	84.38
430.736	75.38
430.958	77.38
431.18	82.38
431.402	76.38
431.624	80.38
431.846	86.38
432.068	88.38
432.29	87.38
432.512	73.38
432.734	89.38
432.956	77.38
433.178	77.38
433.4	90.38
433.622	92.38
433.844	76.38
434.066	89.38
434.287	66.38
434.509	87.38
434.731	76.38
434.953	88.38
435.175	82.38
435.397	88.38
435.618	92.38
435.84	66.38
436.062	81.38
436.284	78.38
436.505	73.38
436.727	76.38
436.949	87.38
437.17	78.38
437.392	71.38
437.614	85.38
437.835	77.38
438.057	94.38
438.278	82.38
438.5	78.38
438.721	79.38
438.943	84.38
439.165	81.38
439.386	83.38
439.608	78.38
439.829	75.38
440.05	85.38
440.272	87.38
440.493	77.38
440.715	78.38
440.936	86.38
441.158	79.38
441.379	81.38
441.6	62.38
441.822	79.38
442.043	62.38
442.264	77.38
442.486	89.38
442.707	80.38
442.928	88.38
443.149	84.38
443.371	81.38
443.592	84.38
443.813	79.38
444.034	84.38
444.255	88.38
444.476	75.38
444.698	78.38
444.919	76.38
445.14	149.38
445.361	113.38
445.582	76.38
445.803	70.38
446.024	87.38
446.245	79.38
446.466	76.38
446.687	88.38
446.908	72.38
447.129	80.38
447.35	67.38
447.571	84.38
447.792	79.38
448.013	93.38
448.234	79.38
448.455	89.38
448.675	83.38
448.896	86.38
449.117	79.38
449.338	70.38
449.559	77.38
449.779	80.38
450	81.38
450.221	89.38
450.442	87.38
450.662	83.38
450.883	82.38
451.104	76.38
451.324	66.38
451.545	83.38
451.766	86.38
451.986	94.38
452.207	81.38
452.428	83.38
452.648	81.38
452.869	84.38
453.089	87.38
453.31	66.38
453.53	79.38
453.751	82.38
453.971	80.38
454.192	74.38
454.412	79.38
454.633	76.38
454.853	79.38
455.073	81.38
455.294	85.38
455.514	79.38
455.734	87.38
455.955	76.38
456.175	72.38
456.395	83.38
456.616	69.38
456.836	92.38
457.056	77.38
457.276	71.38
457.497	80.38
457.717	76.38
457.937	82.38
458.157	70.38
458.377	69.38
458.598	93.38
458.818	95.38
459.038	64.38
459.258	76.38
459.478	78.38
459.698	76.38
459.918	81.38
460.138	70.38
460.358	79.38
460.578	76.38
460.798	72.38
461.018	76.38
461.238	73.38
461.458	59.38
461.678	70.38
461.898	85.38
462.118	72.38
462.338	78.38
462.558	76.38
462.777	92.38
462.997	79.38
463.217	66.38
463.437	93.38
463.657	72.38
463.876	80.38
464.096	71.38
464.316	76.38
464.536	70.38
464.755	69.38
464.975	82.38
465.195	77.38
465.414	78.38
465.634	84.38
465.854	74.38
466.073	76.38
466.293	88.38
466.512	80.38
466.732	94.38
466.951	66.38
467.171	80.38
467.391	66.38
467.61	93.38
467.829	91.38
468.049	86.38
468.268	64.38
468.488	92.38
468.707	101.38
468.927	82.38
469.146	90.38
469.365	76.38
469.585	72.38
469.804	78.38
470.023	96.38
470.243	73.38
470.462	80.38
470.681	94.38
470.901	72.38
471.12	82.38
471.339	81.38
471.558	71.38
471.777	85.38
471.997	78.38
472.216	82.38
472.435	74.38
472.654	72.38
472.873	81.38
473.092	76.38
473.311	80.38
473.53	77.38
473.749	84.38
473.968	78.38
474.187	89.38
474.406	73.38
474.625	74.38
474.844	74.38
475.063	76.38
475.282	84.38
475.501	81.38
475.72	86.38
475.939	78.38
476.158	86.38
476.377	87.38
476.596	89.38
476.814	79.38
477.033	87.38
477.252	72.38
477.471	74.38
477.69	79.38
477.908	73.38
478.127	77.38
478.346	60.38
478.564	76.38
478.783	69.38
479.002	73.38
479.22	76.38
479.439	86.38
479.658	88.38
479.876	66.38
480.095	93.38
480.313	81.38
480.532	86.38
480.751	81.38
480.969	68.38
481.188	81.38
481.406	82.38
481.624	83.38
481.843	85.38
482.061	88.38
482.28	88.38
482.498	75.38
482.717	76.38
482.935	81.38
483.153	78.38
483.372	85.38
483.59	74.38
483.808	72.38
484.027	80.38
484.245	93.38
484.463	70.38
484.681	94.38
484.9	97.38
485.118	78.38
485.336	91.38
485.554	84.38
485.772	92.38
485.99	98.38
486.209	88.38
486.427	69.38
486.645	60.38
486.863	76.38
487.081	74.38
487.299	86.38
487.517	69.38
487.735	86.38
487.953	82.38
488.171	80.38
488.389	69.38
488.607	87.38
488.825	92.38
489.043	71.38
489.261	63.38
489.479	79.38
489.696	79.38
489.914	77.38
490.132	72.38
490.35	94.38
490.568	78.38
490.786	89.38
491.003	84.38
491.221	86.38
491.439	75.38
491.657	84.38
491.874	69.38
492.092	79.38
492.31	81.38
492.527	90.38
492.745	74.38
492.963	85.38
493.18	97.38
493.398	80.38
493.615	70.38
493.833	94.38
494.05	86.38
494.268	76.38
494.485	80.38
494.703	83.38
494.92	91.38
495.138	83.38
495.355	72.38
495.573	76.38
495.79	86.38
496.008	77.38
496.225	72.38
496.442	82.38
496.66	82.38
496.877	69.38
497.094	80.38
497.312	61.38
497.529	82.38
497.746	86.38
497.963	77.38
498.181	66.38
498.398	65.38
498.615	78.38
498.832	92.38
499.049	95.38
499.267	77.38
499.484	77.38
499.701	86.38
499.918	87.38
500.135	93.38
500.352	92.38
500.569	90.38
500.786	81.38
501.003	89.38
501.22	74.38
501.437	89.38
501.654	67.38
501.871	77.38
502.088	77.38
502.305	82.38
502.522	88.38
502.739	81.38
502.956	73.38
503.172	81.38
503.389	81.38
503.606	65.38
503.823	77.38
504.04	94.38
504.256	84.38
504.473	76.38
504.69	95.38
504.907	86.38
505.123	75.38
505.34	78.38
505.557	92.38
505.773	103.38
505.99	84.38
506.207	88.38
506.423	79.38
506.64	89.38
506.856	83.38
507.073	80.38
507.289	79.38
507.506	92.38
507.722	94.38
507.939	93.38
508.155	79.38
508.372	81.38
508.588	88.38
508.805	84.38
509.021	70.38
509.238	89.38
509.454	87.38
509.67	84.38
509.887	90.38
510.103	78.38
510.319	79.38
510.536	72.38
510.752	69.38
510.968	92.38
511.184	86.38
511.401	79.38
511.617	76.38
511.833	76.38
512.049	79.38
512.265	89.38
512.481	92.38
512.698	79.38
512.914	77.38
513.13	79.38
513.346	81.38
513.562	86.38
513.778	94.38
513.994	79.38
514.21	89.38
514.426	79.38
514.642	83.38
514.858	78.38
515.074	81.38
515.29	84.38
515.506	78.38
515.721	85.38
515.937	77.38
516.153	74.38
516.369	79.38
516.585	76.38
516.801	72.38
517.016	79.38
517.232	95.38
517.448	82.38
517.664	76.38
517.879	62.38
518.095	83.38
518.311	82.38
518.527	87.38
518.742	91.38
518.958	73.38
519.173	90.38
519.389	77.38
519.605	80.38
519.82	102.38
520.036	78.38
520.251	70.38
