Data from BG_HRD10591_004.txt Node
Date: Fri May 16 15:26:49 EDT 2025
User: Yrep
Spectrometer: HR+D1059
Trigger mode: 1
Integration Time (sec): 1.000000E-1
Scans to average: 1
Electric dark correction enabled: true
Nonlinearity correction enabled: false
Boxcar width: 0
XAxis mode: Wavelengths
Number of Pixels in Spectrum: 2048
>>>>>Begin Spectral Data<<<<<
223.165	-23.38
223.4	-23.38
223.635	-23.38
223.869	-12.38
224.104	-23.38
224.338	-8.38
224.573	-18.38
224.808	-13.38
225.042	-6.38
225.277	-2.38
225.511	-4.38
225.746	2.62
225.98	6.62
226.215	14.62
226.449	9.62
226.683	28.62
226.918	28.62
227.152	21.62
227.387	31.62
227.621	43.62
227.856	46.62
228.09	46.62
228.324	58.62
228.559	55.62
228.793	74.62
229.027	68.62
229.262	60.62
229.496	55.62
229.73	68.62
229.964	87.62
230.199	75.62
230.433	75.62
230.667	84.62
230.901	82.62
231.136	82.62
231.37	70.62
231.604	72.62
231.838	77.62
232.072	76.62
232.306	87.62
232.541	80.62
232.775	74.62
233.009	75.62
233.243	75.62
233.477	79.62
233.711	85.62
233.945	74.62
234.179	70.62
234.413	76.62
234.647	76.62
234.881	86.62
235.115	71.62
235.349	85.62
235.583	76.62
235.817	74.62
236.051	68.62
236.285	79.62
236.519	81.62
236.753	75.62
236.987	82.62
237.221	89.62
237.455	78.62
237.689	72.62
237.922	77.62
238.156	77.62
238.39	77.62
238.624	72.62
238.858	73.62
239.091	72.62
239.325	77.62
239.559	79.62
239.793	70.62
240.027	89.62
240.26	70.62
240.494	74.62
240.728	80.62
240.961	77.62
241.195	77.62
241.429	77.62
241.662	78.62
241.896	59.62
242.13	67.62
242.363	72.62
242.597	78.62
242.83	72.62
243.064	72.62
243.298	79.62
243.531	81.62
243.765	84.62
243.998	73.62
244.232	66.62
244.465	87.62
244.699	92.62
244.932	69.62
245.166	72.62
245.399	72.62
245.633	80.62
245.866	81.62
246.099	92.62
246.333	77.62
246.566	85.62
246.8	66.62
247.033	77.62
247.266	68.62
247.5	83.62
247.733	77.62
247.966	90.62
248.2	75.62
248.433	73.62
248.666	77.62
248.899	85.62
249.133	76.62
249.366	87.62
249.599	78.62
249.832	73.62
250.066	70.62
250.299	70.62
250.532	68.62
250.765	75.62
250.998	64.62
251.231	71.62
251.465	68.62
251.698	74.62
251.931	72.62
252.164	75.62
252.397	74.62
252.63	76.62
252.863	78.62
253.096	75.62
253.329	84.62
253.562	88.62
253.795	75.62
254.028	80.62
254.261	73.62
254.494	79.62
254.727	67.62
254.96	75.62
255.193	80.62
255.426	89.62
255.659	73.62
255.892	87.62
256.124	74.62
256.357	79.62
256.59	86.62
256.823	84.62
257.056	66.62
257.289	73.62
257.521	92.62
257.754	73.62
257.987	93.62
258.22	73.62
258.452	90.62
258.685	88.62
258.918	78.62
259.151	74.62
259.383	84.62
259.616	83.62
259.849	87.62
260.081	66.62
260.314	90.62
260.547	77.62
260.779	78.62
261.012	81.62
261.244	84.62
261.477	82.62
261.71	94.62
261.942	87.62
262.175	86.62
262.407	76.62
262.64	86.62
262.872	75.62
263.105	78.62
263.337	74.62
263.57	99.62
263.802	95.62
264.035	84.62
264.267	77.62
264.499	92.62
264.732	77.62
264.964	71.62
265.197	85.62
265.429	75.62
265.661	84.62
265.894	93.62
266.126	77.62
266.358	94.62
266.591	72.62
266.823	62.62
267.055	64.62
267.287	85.62
267.52	86.62
267.752	87.62
267.984	88.62
268.216	76.62
268.448	72.62
268.681	74.62
268.913	91.62
269.145	80.62
269.377	86.62
269.609	86.62
269.841	91.62
270.073	82.62
270.306	86.62
270.538	100.62
270.77	85.62
271.002	86.62
271.234	62.62
271.466	85.62
271.698	77.62
271.93	77.62
272.162	80.62
272.394	82.62
272.626	76.62
272.858	85.62
273.09	84.62
273.322	92.62
273.553	82.62
273.785	84.62
274.017	79.62
274.249	87.62
274.481	86.62
274.713	92.62
274.945	86.62
275.176	70.62
275.408	69.62
275.64	87.62
275.872	69.62
276.104	86.62
276.335	94.62
276.567	83.62
276.799	70.62
277.031	90.62
277.262	83.62
277.494	73.62
277.726	74.62
277.957	69.62
278.189	87.62
278.421	90.62
278.652	92.62
278.884	68.62
279.115	89.62
279.347	84.62
279.579	83.62
279.81	82.62
280.042	75.62
280.273	84.62
280.505	84.62
280.736	78.62
280.968	85.62
281.199	81.62
281.431	93.62
281.662	84.62
281.894	68.62
282.125	84.62
282.356	79.62
282.588	92.62
282.819	82.62
283.051	72.62
283.282	100.62
283.513	84.62
283.745	87.62
283.976	84.62
284.207	82.62
284.439	92.62
284.67	83.62
284.901	87.62
285.132	86.62
285.364	84.62
285.595	84.62
285.826	83.62
286.057	96.62
286.288	86.62
286.52	75.62
286.751	81.62
286.982	72.62
287.213	84.62
287.444	78.62
287.675	96.62
287.906	83.62
288.138	94.62
288.369	94.62
288.6	78.62
288.831	85.62
289.062	83.62
289.293	100.62
289.524	80.62
289.755	74.62
289.986	88.62
290.217	87.62
290.448	80.62
290.679	80.62
290.91	89.62
291.141	74.62
291.371	92.62
291.602	72.62
291.833	85.62
292.064	96.62
292.295	88.62
292.526	87.62
292.757	91.62
292.987	84.62
293.218	87.62
293.449	70.62
293.68	79.62
293.91	78.62
294.141	83.62
294.372	89.62
294.603	83.62
294.833	90.62
295.064	82.62
295.295	101.62
295.525	84.62
295.756	76.62
295.987	87.62
296.217	82.62
296.448	84.62
296.679	90.62
296.909	92.62
297.14	89.62
297.37	78.62
297.601	66.62
297.831	73.62
298.062	86.62
298.292	94.62
298.523	84.62
298.753	90.62
298.984	88.62
299.214	93.62
299.445	91.62
299.675	86.62
299.905	75.62
300.136	60.62
300.366	86.62
300.597	66.62
300.827	81.62
301.057	79.62
301.288	77.62
301.518	85.62
301.748	69.62
301.979	81.62
302.209	88.62
302.439	70.62
302.669	94.62
302.9	102.62
303.13	79.62
303.36	74.62
303.59	94.62
303.82	96.62
304.051	92.62
304.281	100.62
304.511	87.62
304.741	88.62
304.971	79.62
305.201	80.62
305.431	85.62
305.661	80.62
305.891	66.62
306.121	93.62
306.352	89.62
306.582	88.62
306.812	80.62
307.042	73.62
307.272	84.62
307.502	88.62
307.731	73.62
307.961	82.62
308.191	92.62
308.421	84.62
308.651	91.62
308.881	89.62
309.111	79.62
309.341	86.62
309.571	82.62
309.8	81.62
310.03	95.62
310.26	78.62
310.49	87.62
310.72	80.62
310.949	95.62
311.179	78.62
311.409	92.62
311.639	101.62
311.868	92.62
312.098	87.62
312.328	77.62
312.557	81.62
312.787	104.62
313.017	98.62
313.246	87.62
313.476	84.62
313.706	79.62
313.935	98.62
314.165	87.62
314.394	73.62
314.624	84.62
314.853	97.62
315.083	88.62
315.312	85.62
315.542	82.62
315.771	84.62
316.001	93.62
316.23	73.62
316.46	82.62
316.689	89.62
316.919	84.62
317.148	91.62
317.377	86.62
317.607	78.62
317.836	75.62
318.065	83.62
318.295	84.62
318.524	77.62
318.753	85.62
318.983	85.62
319.212	99.62
319.441	87.62
319.67	91.62
319.9	101.62
320.129	94.62
320.358	89.62
320.587	87.62
320.816	94.62
321.046	87.62
321.275	78.62
321.504	91.62
321.733	102.62
321.962	100.62
322.191	82.62
322.42	78.62
322.649	91.62
322.878	98.62
323.108	80.62
323.337	94.62
323.566	98.62
323.795	107.62
324.024	87.62
324.253	79.62
324.482	84.62
324.71	89.62
324.939	79.62
325.168	94.62
325.397	92.62
325.626	86.62
325.855	75.62
326.084	78.62
326.313	94.62
326.542	86.62
326.77	84.62
326.999	84.62
327.228	80.62
327.457	91.62
327.686	83.62
327.914	80.62
328.143	93.62
328.372	86.62
328.6	89.62
328.829	93.62
329.058	84.62
329.287	92.62
329.515	85.62
329.744	98.62
329.972	82.62
330.201	73.62
330.43	96.62
330.658	93.62
330.887	83.62
331.115	91.62
331.344	90.62
331.572	82.62
331.801	101.62
332.03	81.62
332.258	79.62
332.486	83.62
332.715	84.62
332.943	87.62
333.172	82.62
333.4	94.62
333.629	88.62
333.857	97.62
334.085	83.62
334.314	70.62
334.542	88.62
334.771	87.62
334.999	99.62
335.227	102.62
335.455	91.62
335.684	85.62
335.912	90.62
336.14	77.62
336.369	72.62
336.597	78.62
336.825	105.62
337.053	92.62
337.281	77.62
337.51	80.62
337.738	78.62
337.966	91.62
338.194	87.62
338.422	78.62
338.65	84.62
338.878	92.62
339.106	91.62
339.334	86.62
339.562	92.62
339.79	93.62
340.018	78.62
340.246	90.62
340.474	68.62
340.702	86.62
340.93	83.62
341.158	99.62
341.386	80.62
341.614	86.62
341.842	90.62
342.07	75.62
342.298	91.62
342.526	77.62
342.754	92.62
342.981	84.62
343.209	90.62
343.437	90.62
343.665	95.62
343.893	89.62
344.12	99.62
344.348	91.62
344.576	77.62
344.804	82.62
345.031	86.62
345.259	96.62
345.487	100.62
345.714	90.62
345.942	85.62
346.17	86.62
346.397	79.62
346.625	84.62
346.853	87.62
347.08	84.62
347.308	90.62
347.535	91.62
347.763	78.62
347.99	84.62
348.218	88.62
348.445	100.62
348.673	75.62
348.9	91.62
349.128	98.62
349.355	90.62
349.583	79.62
349.81	85.62
350.037	85.62
350.265	84.62
350.492	72.62
350.72	78.62
350.947	80.62
351.174	85.62
351.402	78.62
351.629	84.62
351.856	84.62
352.083	85.62
352.311	89.62
352.538	93.62
352.765	84.62
352.992	93.62
353.22	91.62
353.447	101.62
353.674	92.62
353.901	91.62
354.128	74.62
354.355	88.62
354.583	81.62
354.81	77.62
355.037	102.62
355.264	82.62
355.491	89.62
355.718	89.62
355.945	99.62
356.172	89.62
356.399	107.62
356.626	82.62
356.853	85.62
357.08	92.62
357.307	74.62
357.534	85.62
357.761	86.62
357.988	102.62
358.215	92.62
358.441	89.62
358.668	93.62
358.895	99.62
359.122	90.62
359.349	74.62
359.576	78.62
359.802	73.62
360.029	81.62
360.256	74.62
360.483	77.62
360.709	90.62
360.936	102.62
361.163	80.62
361.39	95.62
361.616	75.62
361.843	88.62
362.07	78.62
362.296	81.62
362.523	84.62
362.749	77.62
362.976	95.62
363.203	87.62
363.429	93.62
363.656	91.62
363.882	98.62
364.109	87.62
364.335	85.62
364.562	82.62
364.788	67.62
365.015	102.62
365.241	88.62
365.468	84.62
365.694	85.62
365.92	91.62
366.147	86.62
366.373	78.62
366.599	82.62
366.826	78.62
367.052	85.62
367.278	86.62
367.505	101.62
367.731	86.62
367.957	93.62
368.184	87.62
368.41	96.62
368.636	89.62
368.862	100.62
369.089	84.62
369.315	77.62
369.541	83.62
369.767	92.62
369.993	84.62
370.219	82.62
370.445	86.62
370.672	79.62
370.898	86.62
371.124	96.62
371.35	96.62
371.576	93.62
371.802	88.62
372.028	84.62
372.254	80.62
372.48	104.62
372.706	79.62
372.932	92.62
373.158	81.62
373.384	70.62
373.61	107.62
373.835	83.62
374.061	88.62
374.287	83.62
374.513	101.62
374.739	84.62
374.965	93.62
375.191	79.62
375.416	87.62
375.642	99.62
375.868	94.62
376.094	84.62
376.319	89.62
376.545	80.62
376.771	77.62
376.997	92.62
377.222	86.62
377.448	82.62
377.674	78.62
377.899	80.62
378.125	85.62
378.35	93.62
378.576	80.62
378.802	82.62
379.027	88.62
379.253	85.62
379.478	87.62
379.704	86.62
379.929	85.62
380.155	94.62
380.38	87.62
380.606	70.62
380.831	103.62
381.057	91.62
381.282	84.62
381.507	78.62
381.733	83.62
381.958	83.62
382.184	81.62
382.409	94.62
382.634	73.62
382.86	81.62
383.085	79.62
383.31	84.62
383.535	86.62
383.761	78.62
383.986	76.62
384.211	80.62
384.436	80.62
384.662	80.62
384.887	90.62
385.112	78.62
385.337	87.62
385.562	79.62
385.787	89.62
386.013	87.62
386.238	88.62
386.463	90.62
386.688	95.62
386.913	73.62
387.138	90.62
387.363	77.62
387.588	91.62
387.813	74.62
388.038	92.62
388.263	91.62
388.488	81.62
388.713	90.62
388.938	86.62
389.163	99.62
389.387	77.62
389.612	82.62
389.837	86.62
390.062	94.62
390.287	87.62
390.512	100.62
390.736	80.62
390.961	73.62
391.186	85.62
391.411	86.62
391.636	84.62
391.86	82.62
392.085	91.62
392.31	88.62
392.534	72.62
392.759	83.62
392.984	89.62
393.208	83.62
393.433	80.62
393.658	82.62
393.882	81.62
394.107	98.62
394.331	92.62
394.556	86.62
394.78	96.62
395.005	82.62
395.229	86.62
395.454	91.62
395.678	98.62
395.903	91.62
396.127	97.62
396.352	100.62
396.576	79.62
396.801	84.62
397.025	75.62
397.249	80.62
397.474	83.62
397.698	78.62
397.922	63.62
398.147	79.62
398.371	78.62
398.595	100.62
398.82	88.62
399.044	92.62
399.268	86.62
399.492	93.62
399.717	89.62
399.941	102.62
400.165	104.62
400.389	69.62
400.613	66.62
400.837	94.62
401.062	90.62
401.286	87.62
401.51	90.62
401.734	86.62
401.958	81.62
402.182	83.62
402.406	88.62
402.63	92.62
402.854	80.62
403.078	82.62
403.302	85.62
403.526	104.62
403.75	82.62
403.974	91.62
404.198	93.62
404.422	81.62
404.645	99.62
404.869	72.62
405.093	90.62
405.317	80.62
405.541	99.62
405.765	89.62
405.988	79.62
406.212	85.62
406.436	90.62
406.66	88.62
406.883	87.62
407.107	105.62
407.331	94.62
407.555	90.62
407.778	94.62
408.002	93.62
408.226	88.62
408.449	87.62
408.673	82.62
408.896	91.62
409.12	85.62
409.344	87.62
409.567	80.62
409.791	81.62
410.014	69.62
410.238	89.62
410.461	86.62
410.685	90.62
410.908	90.62
411.132	99.62
411.355	90.62
411.578	84.62
411.802	87.62
412.025	94.62
412.249	74.62
412.472	76.62
412.695	80.62
412.919	83.62
413.142	91.62
413.365	99.62
413.589	90.62
413.812	90.62
414.035	91.62
414.258	85.62
414.482	87.62
414.705	84.62
414.928	90.62
415.151	81.62
415.374	88.62
415.597	95.62
415.821	102.62
416.044	85.62
416.267	88.62
416.49	80.62
416.713	76.62
416.936	91.62
417.159	80.62
417.382	85.62
417.605	88.62
417.828	76.62
418.051	85.62
418.274	88.62
418.497	85.62
418.72	85.62
418.943	89.62
419.166	81.62
419.389	102.62
419.611	87.62
419.834	83.62
420.057	92.62
420.28	89.62
420.503	81.62
420.726	95.62
420.948	80.62
421.171	72.62
421.394	79.62
421.617	85.62
421.839	70.62
422.062	82.62
422.285	86.62
422.507	87.62
422.73	93.62
422.953	102.62
423.175	90.62
423.398	90.62
423.621	93.62
423.843	87.62
424.066	87.62
424.288	90.62
424.511	83.62
424.733	86.62
424.956	70.62
425.178	85.62
425.401	84.62
425.623	82.62
425.846	84.62
426.068	83.62
426.291	75.62
426.513	78.62
426.735	98.62
426.958	86.62
427.18	72.62
427.402	76.62
427.625	86.62
427.847	88.62
428.069	81.62
428.292	92.62
428.514	95.62
428.736	86.62
428.958	103.62
429.181	96.62
429.403	78.62
429.625	89.62
429.847	78.62
430.069	97.62
430.292	88.62
430.514	86.62
430.736	84.62
430.958	90.62
431.18	78.62
431.402	88.62
431.624	70.62
431.846	89.62
432.068	91.62
432.29	74.62
432.512	84.62
432.734	90.62
432.956	94.62
433.178	80.62
433.4	74.62
433.622	92.62
433.844	88.62
434.066	80.62
434.287	78.62
434.509	92.62
434.731	89.62
434.953	77.62
435.175	84.62
435.397	80.62
435.618	77.62
435.84	92.62
436.062	79.62
436.284	89.62
436.505	90.62
436.727	92.62
436.949	91.62
437.17	86.62
437.392	79.62
437.614	82.62
437.835	95.62
438.057	94.62
438.278	86.62
438.5	88.62
438.721	86.62
438.943	100.62
439.165	85.62
439.386	82.62
439.608	100.62
439.829	84.62
440.05	88.62
440.272	95.62
440.493	83.62
440.715	98.62
440.936	84.62
441.158	93.62
441.379	76.62
441.6	89.62
441.822	103.62
442.043	87.62
442.264	72.62
442.486	84.62
442.707	87.62
442.928	79.62
443.149	85.62
443.371	90.62
443.592	94.62
443.813	90.62
444.034	84.62
444.255	95.62
444.476	94.62
444.698	101.62
444.919	76.62
445.14	172.62
445.361	114.62
445.582	98.62
445.803	84.62
446.024	87.62
446.245	95.62
446.466	102.62
446.687	86.62
446.908	86.62
447.129	74.62
447.35	81.62
447.571	86.62
447.792	65.62
448.013	81.62
448.234	82.62
448.455	75.62
448.675	83.62
448.896	82.62
449.117	94.62
449.338	95.62
449.559	86.62
449.779	90.62
450	73.62
450.221	76.62
450.442	80.62
450.662	86.62
450.883	95.62
451.104	86.62
451.324	86.62
451.545	86.62
451.766	96.62
451.986	88.62
452.207	79.62
452.428	76.62
452.648	90.62
452.869	79.62
453.089	80.62
453.31	84.62
453.53	79.62
453.751	88.62
453.971	84.62
454.192	89.62
454.412	83.62
454.633	76.62
454.853	74.62
455.073	90.62
455.294	87.62
455.514	88.62
455.734	88.62
455.955	69.62
456.175	76.62
456.395	72.62
456.616	90.62
456.836	83.62
457.056	97.62
457.276	92.62
457.497	85.62
457.717	82.62
457.937	92.62
458.157	76.62
458.377	79.62
458.598	87.62
458.818	73.62
459.038	82.62
459.258	86.62
459.478	79.62
459.698	87.62
459.918	84.62
460.138	80.62
460.358	82.62
460.578	96.62
460.798	99.62
461.018	85.62
461.238	90.62
461.458	89.62
461.678	86.62
461.898	86.62
462.118	89.62
462.338	93.62
462.558	83.62
462.777	79.62
462.997	81.62
463.217	82.62
463.437	93.62
463.657	89.62
463.876	91.62
464.096	90.62
464.316	85.62
464.536	95.62
464.755	77.62
464.975	80.62
465.195	108.62
465.414	101.62
465.634	84.62
465.854	98.62
466.073	73.62
466.293	87.62
466.512	91.62
466.732	74.62
466.951	86.62
467.171	96.62
467.391	72.62
467.61	77.62
467.829	86.62
468.049	97.62
468.268	90.62
468.488	79.62
468.707	75.62
468.927	79.62
469.146	87.62
469.365	92.62
469.585	98.62
469.804	88.62
470.023	69.62
470.243	82.62
470.462	87.62
470.681	74.62
470.901	86.62
471.12	93.62
471.339	91.62
471.558	86.62
471.777	83.62
471.997	75.62
472.216	91.62
472.435	88.62
472.654	64.62
472.873	85.62
473.092	70.62
473.311	83.62
473.53	95.62
473.749	105.62
473.968	82.62
474.187	97.62
474.406	90.62
474.625	79.62
474.844	84.62
475.063	73.62
475.282	86.62
475.501	85.62
475.72	88.62
475.939	90.62
476.158	81.62
476.377	84.62
476.596	82.62
476.814	90.62
477.033	97.62
477.252	75.62
477.471	89.62
477.69	84.62
477.908	86.62
478.127	84.62
478.346	88.62
478.564	75.62
478.783	68.62
479.002	87.62
479.22	78.62
479.439	99.62
479.658	82.62
479.876	86.62
480.095	79.62
480.313	92.62
480.532	91.62
480.751	99.62
480.969	84.62
481.188	99.62
481.406	100.62
481.624	91.62
481.843	90.62
482.061	87.62
482.28	77.62
482.498	73.62
482.717	85.62
482.935	95.62
483.153	86.62
483.372	82.62
483.59	90.62
483.808	78.62
484.027	88.62
484.245	106.62
484.463	82.62
484.681	80.62
484.9	90.62
485.118	90.62
485.336	89.62
485.554	89.62
485.772	99.62
485.99	82.62
486.209	88.62
486.427	97.62
486.645	98.62
486.863	99.62
487.081	85.62
487.299	91.62
487.517	96.62
487.735	90.62
487.953	84.62
488.171	92.62
488.389	90.62
488.607	86.62
488.825	82.62
489.043	94.62
489.261	89.62
489.479	83.62
489.696	88.62
489.914	83.62
490.132	82.62
490.35	90.62
490.568	96.62
490.786	89.62
491.003	87.62
491.221	81.62
491.439	85.62
491.657	80.62
491.874	92.62
492.092	75.62
492.31	83.62
492.527	74.62
492.745	81.62
492.963	94.62
493.18	93.62
493.398	99.62
493.615	86.62
493.833	93.62
494.05	80.62
494.268	92.62
494.485	90.62
494.703	82.62
494.92	78.62
495.138	95.62
495.355	76.62
495.573	82.62
495.79	84.62
496.008	83.62
496.225	104.62
496.442	86.62
496.66	84.62
496.877	85.62
497.094	87.62
497.312	83.62
497.529	75.62
497.746	95.62
497.963	92.62
498.181	85.62
498.398	95.62
498.615	92.62
498.832	87.62
499.049	86.62
499.267	85.62
499.484	79.62
499.701	109.62
499.918	109.62
500.135	99.62
500.352	111.62
500.569	109.62
500.786	115.62
501.003	117.62
501.22	95.62
501.437	95.62
501.654	105.62
501.871	103.62
502.088	87.62
502.305	84.62
502.522	79.62
502.739	93.62
502.956	86.62
503.172	86.62
503.389	75.62
503.606	93.62
503.823	92.62
504.04	84.62
504.256	85.62
504.473	91.62
504.69	79.62
504.907	80.62
505.123	77.62
505.34	86.62
505.557	80.62
505.773	89.62
505.99	95.62
506.207	87.62
506.423	101.62
506.64	96.62
506.856	76.62
507.073	101.62
507.289	90.62
507.506	84.62
507.722	82.62
507.939	78.62
508.155	104.62
508.372	98.62
508.588	107.62
508.805	103.62
509.021	90.62
509.238	78.62
509.454	94.62
509.67	103.62
509.887	92.62
510.103	96.62
510.319	69.62
510.536	78.62
510.752	76.62
510.968	85.62
511.184	79.62
511.401	89.62
511.617	82.62
511.833	98.62
512.049	94.62
512.265	91.62
512.481	92.62
512.698	83.62
512.914	95.62
513.13	88.62
513.346	74.62
513.562	74.62
513.778	88.62
513.994	94.62
514.21	85.62
514.426	93.62
514.642	80.62
514.858	74.62
515.074	78.62
515.29	87.62
515.506	80.62
515.721	82.62
515.937	90.62
516.153	86.62
516.369	95.62
516.585	86.62
516.801	78.62
517.016	99.62
517.232	99.62
517.448	109.62
517.664	91.62
517.879	86.62
518.095	82.62
518.311	103.62
518.527	91.62
518.742	89.62
518.958	82.62
519.173	100.62
519.389	87.62
