Data from BG_HRD10591_035.txt Node
Date: Fri May 16 15:27:04 EDT 2025
User: Yrep
Spectrometer: HR+D1059
Trigger mode: 1
Integration Time (sec): 1.000000E-1
Scans to average: 1
Electric dark correction enabled: true
Nonlinearity correction enabled: false
Boxcar width: 0
XAxis mode: Wavelengths
Number of Pixels in Spectrum: 2048
>>>>>Begin Spectral Data<<<<<
223.165	-21.25
223.4	-21.25
223.635	-21.25
223.869	-18.25
224.104	-15.25
224.338	-25.25
224.573	-7.25
224.808	-18.25
225.042	-7.25
225.277	-7.25
225.511	0.75
225.746	-1.25
225.98	12.75
226.215	13.75
226.449	16.75
226.683	22.75
226.918	30.75
227.152	23.75
227.387	36.75
227.621	37.75
227.856	40.75
228.09	40.75
228.324	62.75
228.559	68.75
228.793	65.75
229.027	67.75
229.262	64.75
229.496	70.75
229.73	80.75
229.964	78.75
230.199	78.75
230.433	81.75
230.667	60.75
230.901	62.75
231.136	79.75
231.37	90.75
231.604	77.75
231.838	74.75
232.072	80.75
232.306	91.75
232.541	92.75
232.775	77.75
233.009	75.75
233.243	86.75
233.477	73.75
233.711	78.75
233.945	85.75
234.179	70.75
234.413	92.75
234.647	90.75
234.881	85.75
235.115	63.75
235.349	71.75
235.583	79.75
235.817	69.75
236.051	74.75
236.285	74.75
236.519	74.75
236.753	87.75
236.987	74.75
237.221	84.75
237.455	83.75
237.689	68.75
237.922	81.75
238.156	84.75
238.39	65.75
238.624	70.75
238.858	80.75
239.091	94.75
239.325	76.75
239.559	67.75
239.793	85.75
240.027	82.75
240.26	72.75
240.494	69.75
240.728	76.75
240.961	73.75
241.195	67.75
241.429	74.75
241.662	86.75
241.896	75.75
242.13	74.75
242.363	63.75
242.597	70.75
242.83	68.75
243.064	65.75
243.298	66.75
243.531	64.75
243.765	69.75
243.998	72.75
244.232	79.75
244.465	85.75
244.699	76.75
244.932	73.75
245.166	86.75
245.399	83.75
245.633	72.75
245.866	75.75
246.099	87.75
246.333	82.75
246.566	67.75
246.8	70.75
247.033	82.75
247.266	73.75
247.5	85.75
247.733	72.75
247.966	80.75
248.2	69.75
248.433	84.75
248.666	79.75
248.899	72.75
249.133	72.75
249.366	73.75
249.599	73.75
249.832	65.75
250.066	84.75
250.299	79.75
250.532	90.75
250.765	76.75
250.998	76.75
251.231	90.75
251.465	85.75
251.698	88.75
251.931	79.75
252.164	61.75
252.397	80.75
252.63	78.75
252.863	83.75
253.096	85.75
253.329	81.75
253.562	72.75
253.795	91.75
254.028	76.75
254.261	73.75
254.494	87.75
254.727	94.75
254.96	74.75
255.193	79.75
255.426	71.75
255.659	76.75
255.892	79.75
256.124	76.75
256.357	83.75
256.59	87.75
256.823	74.75
257.056	77.75
257.289	76.75
257.521	69.75
257.754	74.75
257.987	78.75
258.22	83.75
258.452	59.75
258.685	74.75
258.918	86.75
259.151	74.75
259.383	84.75
259.616	77.75
259.849	78.75
260.081	80.75
260.314	74.75
260.547	86.75
260.779	84.75
261.012	70.75
261.244	78.75
261.477	86.75
261.71	77.75
261.942	80.75
262.175	85.75
262.407	86.75
262.64	89.75
262.872	78.75
263.105	77.75
263.337	88.75
263.57	82.75
263.802	85.75
264.035	88.75
264.267	74.75
264.499	79.75
264.732	64.75
264.964	69.75
265.197	80.75
265.429	81.75
265.661	81.75
265.894	97.75
266.126	66.75
266.358	90.75
266.591	82.75
266.823	74.75
267.055	77.75
267.287	76.75
267.52	81.75
267.752	84.75
267.984	82.75
268.216	72.75
268.448	100.75
268.681	73.75
268.913	84.75
269.145	85.75
269.377	89.75
269.609	81.75
269.841	90.75
270.073	80.75
270.306	72.75
270.538	69.75
270.77	77.75
271.002	84.75
271.234	80.75
271.466	80.75
271.698	88.75
271.93	86.75
272.162	90.75
272.394	90.75
272.626	80.75
272.858	84.75
273.09	79.75
273.322	87.75
273.553	76.75
273.785	81.75
274.017	80.75
274.249	69.75
274.481	84.75
274.713	80.75
274.945	89.75
275.176	81.75
275.408	88.75
275.64	86.75
275.872	75.75
276.104	81.75
276.335	82.75
276.567	91.75
276.799	79.75
277.031	84.75
277.262	96.75
277.494	88.75
277.726	87.75
277.957	90.75
278.189	98.75
278.421	86.75
278.652	69.75
278.884	77.75
279.115	86.75
279.347	71.75
279.579	87.75
279.81	73.75
280.042	77.75
280.273	80.75
280.505	70.75
280.736	82.75
280.968	92.75
281.199	86.75
281.431	93.75
281.662	92.75
281.894	89.75
282.125	82.75
282.356	92.75
282.588	80.75
282.819	92.75
283.051	80.75
283.282	76.75
283.513	84.75
283.745	89.75
283.976	76.75
284.207	74.75
284.439	76.75
284.67	90.75
284.901	79.75
285.132	77.75
285.364	85.75
285.595	98.75
285.826	94.75
286.057	85.75
286.288	82.75
286.52	85.75
286.751	76.75
286.982	81.75
287.213	83.75
287.444	100.75
287.675	85.75
287.906	87.75
288.138	65.75
288.369	62.75
288.6	86.75
288.831	74.75
289.062	84.75
289.293	80.75
289.524	82.75
289.755	85.75
289.986	64.75
290.217	79.75
290.448	76.75
290.679	78.75
290.91	79.75
291.141	78.75
291.371	77.75
291.602	81.75
291.833	84.75
292.064	101.75
292.295	89.75
292.526	84.75
292.757	96.75
292.987	83.75
293.218	76.75
293.449	78.75
293.68	78.75
293.91	75.75
294.141	76.75
294.372	75.75
294.603	82.75
294.833	61.75
295.064	80.75
295.295	74.75
295.525	86.75
295.756	88.75
295.987	81.75
296.217	87.75
296.448	82.75
296.679	86.75
296.909	89.75
297.14	88.75
297.37	87.75
297.601	84.75
297.831	83.75
298.062	84.75
298.292	78.75
298.523	88.75
298.753	85.75
298.984	79.75
299.214	87.75
299.445	83.75
299.675	92.75
299.905	81.75
300.136	76.75
300.366	80.75
300.597	73.75
300.827	95.75
301.057	92.75
301.288	72.75
301.518	83.75
301.748	71.75
301.979	97.75
302.209	84.75
302.439	72.75
302.669	82.75
302.9	80.75
303.13	91.75
303.36	88.75
303.59	87.75
303.82	87.75
304.051	78.75
304.281	84.75
304.511	88.75
304.741	74.75
304.971	76.75
305.201	85.75
305.431	77.75
305.661	86.75
305.891	78.75
306.121	74.75
306.352	97.75
306.582	80.75
306.812	97.75
307.042	84.75
307.272	81.75
307.502	88.75
307.731	83.75
307.961	85.75
308.191	76.75
308.421	72.75
308.651	97.75
308.881	76.75
309.111	74.75
309.341	78.75
309.571	85.75
309.8	66.75
310.03	74.75
310.26	89.75
310.49	95.75
310.72	78.75
310.949	96.75
311.179	82.75
311.409	74.75
311.639	84.75
311.868	80.75
312.098	87.75
312.328	98.75
312.557	99.75
312.787	70.75
313.017	76.75
313.246	82.75
313.476	81.75
313.706	87.75
313.935	72.75
314.165	80.75
314.394	88.75
314.624	81.75
314.853	88.75
315.083	87.75
315.312	85.75
315.542	89.75
315.771	82.75
316.001	86.75
316.23	77.75
316.46	83.75
316.689	79.75
316.919	78.75
317.148	80.75
317.377	84.75
317.607	93.75
317.836	79.75
318.065	77.75
318.295	79.75
318.524	96.75
318.753	90.75
318.983	86.75
319.212	77.75
319.441	91.75
319.67	80.75
319.9	84.75
320.129	90.75
320.358	77.75
320.587	84.75
320.816	96.75
321.046	90.75
321.275	89.75
321.504	81.75
321.733	60.75
321.962	71.75
322.191	79.75
322.42	83.75
322.649	89.75
322.878	70.75
323.108	85.75
323.337	86.75
323.566	96.75
323.795	65.75
324.024	65.75
324.253	66.75
324.482	80.75
324.71	85.75
324.939	84.75
325.168	87.75
325.397	89.75
325.626	80.75
325.855	81.75
326.084	95.75
326.313	90.75
326.542	81.75
326.77	98.75
326.999	81.75
327.228	78.75
327.457	91.75
327.686	84.75
327.914	82.75
328.143	85.75
328.372	79.75
328.6	84.75
328.829	91.75
329.058	69.75
329.287	95.75
329.515	72.75
329.744	86.75
329.972	76.75
330.201	85.75
330.43	78.75
330.658	85.75
330.887	88.75
331.115	77.75
331.344	66.75
331.572	82.75
331.801	83.75
332.03	94.75
332.258	84.75
332.486	89.75
332.715	81.75
332.943	60.75
333.172	87.75
333.4	85.75
333.629	87.75
333.857	85.75
334.085	69.75
334.314	78.75
334.542	90.75
334.771	70.75
334.999	88.75
335.227	90.75
335.455	83.75
335.684	91.75
335.912	101.75
336.14	86.75
336.369	89.75
336.597	79.75
336.825	90.75
337.053	76.75
337.281	91.75
337.51	81.75
337.738	74.75
337.966	83.75
338.194	74.75
338.422	78.75
338.65	79.75
338.878	77.75
339.106	89.75
339.334	97.75
339.562	91.75
339.79	92.75
340.018	85.75
340.246	85.75
340.474	76.75
340.702	90.75
340.93	83.75
341.158	72.75
341.386	71.75
341.614	86.75
341.842	78.75
342.07	92.75
342.298	70.75
342.526	86.75
342.754	85.75
342.981	86.75
343.209	79.75
343.437	93.75
343.665	80.75
343.893	78.75
344.12	88.75
344.348	88.75
344.576	74.75
344.804	87.75
345.031	71.75
345.259	75.75
345.487	85.75
345.714	78.75
345.942	88.75
346.17	84.75
346.397	76.75
346.625	89.75
346.853	92.75
347.08	84.75
347.308	86.75
347.535	91.75
347.763	79.75
347.99	88.75
348.218	85.75
348.445	87.75
348.673	85.75
348.9	86.75
349.128	80.75
349.355	72.75
349.583	86.75
349.81	91.75
350.037	73.75
350.265	107.75
350.492	77.75
350.72	90.75
350.947	84.75
351.174	89.75
351.402	77.75
351.629	80.75
351.856	100.75
352.083	93.75
352.311	85.75
352.538	82.75
352.765	80.75
352.992	93.75
353.22	81.75
353.447	77.75
353.674	94.75
353.901	86.75
354.128	80.75
354.355	82.75
354.583	90.75
354.81	89.75
355.037	87.75
355.264	80.75
355.491	76.75
355.718	82.75
355.945	92.75
356.172	75.75
356.399	81.75
356.626	91.75
356.853	91.75
357.08	88.75
357.307	79.75
357.534	77.75
357.761	89.75
357.988	78.75
358.215	83.75
358.441	79.75
358.668	98.75
358.895	90.75
359.122	76.75
359.349	81.75
359.576	86.75
359.802	86.75
360.029	84.75
360.256	74.75
360.483	67.75
360.709	79.75
360.936	82.75
361.163	81.75
361.39	78.75
361.616	65.75
361.843	84.75
362.07	74.75
362.296	86.75
362.523	78.75
362.749	78.75
362.976	75.75
363.203	84.75
363.429	82.75
363.656	89.75
363.882	80.75
364.109	75.75
364.335	88.75
364.562	80.75
364.788	64.75
365.015	88.75
365.241	73.75
365.468	79.75
365.694	72.75
365.92	85.75
366.147	82.75
366.373	84.75
366.599	80.75
366.826	80.75
367.052	92.75
367.278	82.75
367.505	88.75
367.731	89.75
367.957	84.75
368.184	71.75
368.41	83.75
368.636	80.75
368.862	72.75
369.089	78.75
369.315	103.75
369.541	73.75
369.767	85.75
369.993	92.75
370.219	88.75
370.445	70.75
370.672	86.75
370.898	75.75
371.124	93.75
371.35	92.75
371.576	76.75
371.802	101.75
372.028	81.75
372.254	89.75
372.48	77.75
372.706	93.75
372.932	81.75
373.158	81.75
373.384	81.75
373.61	65.75
373.835	75.75
374.061	96.75
374.287	74.75
374.513	69.75
374.739	92.75
374.965	85.75
375.191	72.75
375.416	86.75
375.642	80.75
375.868	87.75
376.094	88.75
376.319	97.75
376.545	72.75
376.771	80.75
376.997	84.75
377.222	86.75
377.448	70.75
377.674	95.75
377.899	84.75
378.125	88.75
378.35	71.75
378.576	74.75
378.802	98.75
379.027	94.75
379.253	68.75
379.478	80.75
379.704	68.75
379.929	87.75
380.155	80.75
380.38	75.75
380.606	66.75
380.831	70.75
381.057	89.75
381.282	76.75
381.507	80.75
381.733	71.75
381.958	81.75
382.184	67.75
382.409	78.75
382.634	89.75
382.86	84.75
383.085	91.75
383.31	73.75
383.535	83.75
383.761	86.75
383.986	95.75
384.211	67.75
384.436	77.75
384.662	59.75
384.887	89.75
385.112	77.75
385.337	91.75
385.562	73.75
385.787	80.75
386.013	78.75
386.238	83.75
386.463	91.75
386.688	99.75
386.913	90.75
387.138	81.75
387.363	84.75
387.588	73.75
387.813	79.75
388.038	75.75
388.263	93.75
388.488	83.75
388.713	79.75
388.938	84.75
389.163	88.75
389.387	88.75
389.612	80.75
389.837	82.75
390.062	88.75
390.287	77.75
390.512	69.75
390.736	76.75
390.961	82.75
391.186	94.75
391.411	85.75
391.636	88.75
391.86	74.75
392.085	77.75
392.31	72.75
392.534	78.75
392.759	84.75
392.984	86.75
393.208	64.75
393.433	81.75
393.658	70.75
393.882	80.75
394.107	81.75
394.331	71.75
394.556	82.75
394.78	66.75
395.005	79.75
395.229	84.75
395.454	80.75
395.678	83.75
395.903	92.75
396.127	89.75
396.352	85.75
396.576	71.75
396.801	88.75
397.025	70.75
397.249	88.75
397.474	83.75
397.698	90.75
397.922	83.75
398.147	82.75
398.371	65.75
398.595	73.75
398.82	77.75
399.044	75.75
399.268	70.75
399.492	86.75
399.717	89.75
399.941	89.75
400.165	95.75
400.389	63.75
400.613	81.75
400.837	73.75
401.062	69.75
401.286	70.75
401.51	80.75
401.734	85.75
401.958	86.75
402.182	84.75
402.406	74.75
402.63	83.75
402.854	71.75
403.078	74.75
403.302	74.75
403.526	74.75
403.75	87.75
403.974	86.75
404.198	90.75
404.422	85.75
404.645	73.75
404.869	83.75
405.093	87.75
405.317	80.75
405.541	76.75
405.765	78.75
405.988	92.75
406.212	87.75
406.436	74.75
406.66	78.75
406.883	82.75
407.107	79.75
407.331	74.75
407.555	83.75
407.778	80.75
408.002	80.75
408.226	83.75
408.449	79.75
408.673	86.75
408.896	82.75
409.12	73.75
409.344	84.75
409.567	87.75
409.791	75.75
410.014	79.75
410.238	73.75
410.461	86.75
410.685	80.75
410.908	67.75
411.132	76.75
411.355	83.75
411.578	84.75
411.802	88.75
412.025	82.75
412.249	93.75
412.472	84.75
412.695	78.75
412.919	85.75
413.142	74.75
413.365	84.75
413.589	68.75
413.812	73.75
414.035	78.75
414.258	79.75
414.482	83.75
414.705	86.75
414.928	72.75
415.151	80.75
415.374	70.75
415.597	89.75
415.821	84.75
416.044	81.75
416.267	66.75
416.49	62.75
416.713	89.75
416.936	84.75
417.159	76.75
417.382	69.75
417.605	78.75
417.828	81.75
418.051	78.75
418.274	85.75
418.497	85.75
418.72	79.75
418.943	70.75
419.166	77.75
419.389	78.75
419.611	86.75
419.834	93.75
420.057	80.75
420.28	75.75
420.503	77.75
420.726	84.75
420.948	84.75
421.171	83.75
421.394	84.75
421.617	69.75
421.839	85.75
422.062	83.75
422.285	92.75
422.507	79.75
422.73	93.75
422.953	80.75
423.175	89.75
423.398	83.75
423.621	77.75
423.843	82.75
424.066	72.75
424.288	75.75
424.511	77.75
424.733	78.75
424.956	63.75
425.178	77.75
425.401	101.75
425.623	79.75
425.846	77.75
426.068	66.75
426.291	72.75
426.513	66.75
426.735	76.75
426.958	76.75
427.18	80.75
427.402	92.75
427.625	85.75
427.847	76.75
428.069	89.75
428.292	68.75
428.514	78.75
428.736	69.75
428.958	73.75
429.181	66.75
429.403	80.75
429.625	74.75
429.847	79.75
430.069	69.75
430.292	82.75
430.514	58.75
430.736	87.75
430.958	76.75
431.18	68.75
431.402	75.75
431.624	87.75
431.846	87.75
432.068	82.75
432.29	78.75
432.512	71.75
432.734	72.75
432.956	74.75
433.178	86.75
433.4	93.75
433.622	89.75
433.844	81.75
434.066	79.75
434.287	76.75
434.509	69.75
434.731	80.75
434.953	77.75
435.175	67.75
435.397	85.75
435.618	80.75
435.84	85.75
436.062	81.75
436.284	84.75
436.505	74.75
436.727	91.75
436.949	72.75
437.17	77.75
437.392	78.75
437.614	80.75
437.835	74.75
438.057	77.75
438.278	72.75
438.5	75.75
438.721	76.75
438.943	82.75
439.165	86.75
439.386	92.75
439.608	83.75
439.829	85.75
440.05	85.75
440.272	81.75
440.493	70.75
440.715	65.75
440.936	95.75
441.158	79.75
441.379	73.75
441.6	64.75
441.822	91.75
442.043	70.75
442.264	70.75
442.486	75.75
442.707	73.75
442.928	89.75
443.149	85.75
443.371	69.75
443.592	86.75
443.813	81.75
444.034	83.75
444.255	85.75
444.476	84.75
444.698	81.75
444.919	92.75
445.14	155.75
445.361	123.75
445.582	89.75
445.803	83.75
446.024	71.75
446.245	84.75
446.466	83.75
446.687	67.75
446.908	83.75
447.129	82.75
447.35	84.75
447.571	78.75
447.792	72.75
448.013	65.75
448.234	81.75
448.455	66.75
448.675	67.75
448.896	72.75
449.117	103.75
449.338	88.75
449.559	96.75
449.779	81.75
450	77.75
450.221	82.75
450.442	65.75
450.662	62.75
450.883	77.75
451.104	68.75
451.324	84.75
451.545	78.75
451.766	68.75
451.986	79.75
452.207	82.75
452.428	88.75
452.648	77.75
452.869	88.75
453.089	72.75
453.31	84.75
453.53	90.75
453.751	88.75
453.971	72.75
454.192	71.75
454.412	76.75
454.633	76.75
454.853	79.75
455.073	76.75
455.294	80.75
455.514	96.75
455.734	90.75
455.955	70.75
456.175	78.75
456.395	71.75
456.616	82.75
456.836	74.75
457.056	75.75
457.276	78.75
457.497	69.75
457.717	78.75
457.937	78.75
458.157	89.75
458.377	78.75
458.598	67.75
458.818	75.75
459.038	70.75
459.258	81.75
459.478	87.75
459.698	63.75
459.918	70.75
460.138	65.75
460.358	67.75
460.578	81.75
460.798	100.75
461.018	82.75
461.238	81.75
461.458	90.75
461.678	75.75
461.898	95.75
462.118	76.75
462.338	70.75
462.558	64.75
462.777	96.75
462.997	93.75
463.217	75.75
463.437	88.75
463.657	75.75
463.876	70.75
464.096	91.75
464.316	71.75
464.536	77.75
464.755	73.75
464.975	85.75
465.195	84.75
465.414	88.75
465.634	78.75
465.854	68.75
466.073	78.75
466.293	77.75
466.512	91.75
466.732	76.75
466.951	90.75
467.171	72.75
467.391	73.75
467.61	84.75
467.829	82.75
468.049	76.75
468.268	78.75
468.488	79.75
468.707	76.75
468.927	81.75
469.146	72.75
469.365	74.75
469.585	76.75
469.804	84.75
470.023	73.75
470.243	84.75
470.462	77.75
470.681	72.75
470.901	73.75
471.12	87.75
471.339	87.75
471.558	84.75
471.777	80.75
471.997	77.75
472.216	77.75
472.435	66.75
472.654	80.75
472.873	100.75
473.092	74.75
473.311	90.75
473.53	85.75
473.749	79.75
473.968	89.75
474.187	85.75
474.406	71.75
474.625	80.75
474.844	85.75
475.063	80.75
475.282	86.75
475.501	87.75
475.72	73.75
475.939	76.75
476.158	80.75
476.377	86.75
476.596	86.75
476.814	93.75
477.033	82.75
477.252	76.75
477.471	85.75
477.69	78.75
477.908	82.75
478.127	85.75
478.346	72.75
478.564	88.75
478.783	95.75
479.002	82.75
479.22	86.75
479.439	86.75
479.658	78.75
479.876	81.75
480.095	78.75
480.313	89.75
480.532	74.75
480.751	78.75
480.969	89.75
481.188	84.75
481.406	80.75
481.624	77.75
481.843	87.75
482.061	85.75
482.28	80.75
482.498	66.75
482.717	69.75
482.935	75.75
483.153	82.75
483.372	89.75
483.59	86.75
483.808	81.75
484.027	84.75
484.245	84.75
484.463	80.75
484.681	90.75
484.9	68.75
485.118	87.75
485.336	72.75
485.554	83.75
485.772	77.75
485.99	91.75
486.209	82.75
486.427	67.75
486.645	91.75
486.863	76.75
487.081	91.75
487.299	80.75
487.517	78.75
487.735	81.75
487.953	77.75
488.171	81.75
488.389	87.75
488.607	85.75
488.825	92.75
489.043	76.75
489.261	80.75
489.479	71.75
489.696	80.75
489.914	79.75
490.132	82.75
490.35	79.75
490.568	81.75
490.786	85.75
491.003	70.75
491.221	88.75
491.439	80.75
491.657	64.75
491.874	87.75
492.092	69.75
492.31	81.75
492.527	96.75
492.745	86.75
492.963	88.75
493.18	82.75
493.398	83.75
493.615	95.75
493.833	81.75
494.05	84.75
494.268	85.75
494.485	75.75
494.703	72.75
494.92	82.75
495.138	90.75
495.355	68.75
495.573	81.75
495.79	72.75
496.008	90.75
496.225	65.75
496.442	85.75
496.66	87.75
496.877	76.75
497.094	83.75
497.312	66.75
497.529	79.75
497.746	90.75
497.963	79.75
498.181	70.75
498.398	73.75
498.615	84.75
498.832	85.75
499.049	87.75
499.267	86.75
499.484	73.75
499.701	88.75
499.918	68.75
500.135	75.75
500.352	82.75
500.569	79.75
500.786	78.75
501.003	85.75
501.22	72.75
501.437	84.75
501.654	81.75
501.871	88.75
502.088	77.75
502.305	85.75
502.522	76.75
502.739	84.75
502.956	94.75
503.172	80.75
503.389	75.75
503.606	94.75
503.823	84.75
504.04	71.75
504.256	88.75
504.473	85.75
504.69	79.75
504.907	78.75
505.123	76.75
505.34	88.75
505.557	108.75
505.773	92.75
505.99	85.75
506.207	74.75
506.423	80.75
506.64	82.75
506.856	94.75
507.073	90.75
507.289	77.75
507.506	80.75
507.722	85.75
507.939	88.75
508.155	79.75
508.372	80.75
508.588	73.75
508.805	72.75
509.021	78.75
509.238	84.75
509.454	77.75
509.67	85.75
509.887	78.75
510.103	81.75
510.319	80.75
510.536	89.75
510.752	75.75
510.968	102.75
511.184	81.75
511.401	89.75
511.617	89.75
511.833	81.75
512.049	74.75
512.265	86.75
512.481	97.75
512.698	87.75
512.914	91.75
513.13	96.75
513.346	79.75
513.562	80.75
513.778	77.75
513.994	76.75
514.21	75.75
514.426	94.75
514.642	87.75
514.858	76.75
515.074	86.75
515.29	81.75
515.506	91.75
515.721	95.75
515.937	88.75
516.153	77.75
516.369	84.75
516.585	67.75
516.801	87.75
517.016	94.75
517.232	88.75
517.448	84.75
517.664	81.75
517.879	82.75
518.095	86.75
518.311	76.75
518.527	87.75
518.742	93.75
518.958	79.75
519.173	76.75
519.389	83.75
519.605	70.75
519.82	76.75
520.036	84.75
520.251	67.75
