Data from BG_HRD10591_061.txt Node
Date: Fri May 16 15:27:17 EDT 2025
User: Yrep
Spectrometer: HR+D1059
Trigger mode: 1
Integration Time (sec): 1.000000E-1
Scans to average: 1
Electric dark correction enabled: true
Nonlinearity correction enabled: false
Boxcar width: 0
XAxis mode: Wavelengths
Number of Pixels in Spectrum: 2048
>>>>>Begin Spectral Data<<<<<
223.165	-16.81
223.4	-16.81
223.635	-16.81
223.869	-13.81
224.104	-21.81
224.338	-9.81
224.573	-16.81
224.808	-4.81
225.042	-16.81
225.277	-7.81
225.511	-14.81
225.746	2.19
225.98	8.19
226.215	18.19
226.449	11.19
226.683	16.19
226.918	20.19
227.152	47.19
227.387	40.19
227.621	33.19
227.856	46.19
228.09	43.19
228.324	55.19
228.559	56.19
228.793	62.19
229.027	57.19
229.262	61.19
229.496	72.19
229.73	68.19
229.964	84.19
230.199	85.19
230.433	79.19
230.667	84.19
230.901	92.19
231.136	85.19
231.37	92.19
231.604	75.19
231.838	83.19
232.072	80.19
232.306	72.19
232.541	85.19
232.775	77.19
233.009	72.19
233.243	92.19
233.477	86.19
233.711	79.19
233.945	79.19
234.179	81.19
234.413	74.19
234.647	77.19
234.881	74.19
235.115	82.19
235.349	69.19
235.583	81.19
235.817	75.19
236.051	58.19
236.285	78.19
236.519	65.19
236.753	85.19
236.987	69.19
237.221	66.19
237.455	80.19
237.689	73.19
237.922	95.19
238.156	81.19
238.39	84.19
238.624	68.19
238.858	66.19
239.091	73.19
239.325	64.19
239.559	83.19
239.793	80.19
240.027	76.19
240.26	83.19
240.494	89.19
240.728	65.19
240.961	78.19
241.195	68.19
241.429	72.19
241.662	68.19
241.896	75.19
242.13	72.19
242.363	65.19
242.597	82.19
242.83	77.19
243.064	69.19
243.298	64.19
243.531	70.19
243.765	70.19
243.998	81.19
244.232	76.19
244.465	77.19
244.699	74.19
244.932	68.19
245.166	81.19
245.399	84.19
245.633	67.19
245.866	79.19
246.099	80.19
246.333	77.19
246.566	82.19
246.8	86.19
247.033	79.19
247.266	89.19
247.5	72.19
247.733	85.19
247.966	72.19
248.2	82.19
248.433	81.19
248.666	86.19
248.899	86.19
249.133	72.19
249.366	81.19
249.599	87.19
249.832	74.19
250.066	77.19
250.299	60.19
250.532	79.19
250.765	76.19
250.998	80.19
251.231	79.19
251.465	79.19
251.698	69.19
251.931	80.19
252.164	94.19
252.397	76.19
252.63	77.19
252.863	78.19
253.096	72.19
253.329	85.19
253.562	81.19
253.795	83.19
254.028	82.19
254.261	82.19
254.494	84.19
254.727	84.19
254.96	86.19
255.193	77.19
255.426	72.19
255.659	89.19
255.892	102.19
256.124	90.19
256.357	77.19
256.59	81.19
256.823	79.19
257.056	84.19
257.289	74.19
257.521	81.19
257.754	94.19
257.987	90.19
258.22	76.19
258.452	75.19
258.685	74.19
258.918	88.19
259.151	91.19
259.383	76.19
259.616	81.19
259.849	95.19
260.081	77.19
260.314	60.19
260.547	88.19
260.779	66.19
261.012	67.19
261.244	78.19
261.477	89.19
261.71	86.19
261.942	88.19
262.175	82.19
262.407	64.19
262.64	82.19
262.872	78.19
263.105	80.19
263.337	88.19
263.57	74.19
263.802	73.19
264.035	77.19
264.267	81.19
264.499	90.19
264.732	83.19
264.964	70.19
265.197	76.19
265.429	88.19
265.661	77.19
265.894	80.19
266.126	88.19
266.358	101.19
266.591	74.19
266.823	88.19
267.055	77.19
267.287	79.19
267.52	72.19
267.752	88.19
267.984	91.19
268.216	83.19
268.448	87.19
268.681	65.19
268.913	79.19
269.145	84.19
269.377	85.19
269.609	100.19
269.841	96.19
270.073	84.19
270.306	88.19
270.538	93.19
270.77	80.19
271.002	82.19
271.234	84.19
271.466	80.19
271.698	76.19
271.93	72.19
272.162	71.19
272.394	81.19
272.626	76.19
272.858	76.19
273.09	85.19
273.322	79.19
273.553	75.19
273.785	74.19
274.017	93.19
274.249	77.19
274.481	72.19
274.713	80.19
274.945	80.19
275.176	85.19
275.408	77.19
275.64	78.19
275.872	93.19
276.104	76.19
276.335	89.19
276.567	71.19
276.799	69.19
277.031	80.19
277.262	75.19
277.494	90.19
277.726	88.19
277.957	90.19
278.189	81.19
278.421	83.19
278.652	94.19
278.884	84.19
279.115	82.19
279.347	87.19
279.579	81.19
279.81	84.19
280.042	83.19
280.273	79.19
280.505	79.19
280.736	86.19
280.968	79.19
281.199	91.19
281.431	65.19
281.662	81.19
281.894	82.19
282.125	90.19
282.356	70.19
282.588	89.19
282.819	88.19
283.051	87.19
283.282	84.19
283.513	88.19
283.745	77.19
283.976	68.19
284.207	80.19
284.439	87.19
284.67	90.19
284.901	78.19
285.132	92.19
285.364	88.19
285.595	86.19
285.826	87.19
286.057	76.19
286.288	85.19
286.52	88.19
286.751	79.19
286.982	89.19
287.213	73.19
287.444	85.19
287.675	84.19
287.906	71.19
288.138	80.19
288.369	82.19
288.6	73.19
288.831	87.19
289.062	92.19
289.293	78.19
289.524	76.19
289.755	86.19
289.986	76.19
290.217	88.19
290.448	88.19
290.679	90.19
290.91	83.19
291.141	73.19
291.371	87.19
291.602	92.19
291.833	90.19
292.064	90.19
292.295	76.19
292.526	90.19
292.757	80.19
292.987	84.19
293.218	85.19
293.449	92.19
293.68	89.19
293.91	88.19
294.141	82.19
294.372	85.19
294.603	84.19
294.833	87.19
295.064	82.19
295.295	76.19
295.525	80.19
295.756	76.19
295.987	84.19
296.217	81.19
296.448	94.19
296.679	84.19
296.909	86.19
297.14	83.19
297.37	72.19
297.601	84.19
297.831	84.19
298.062	82.19
298.292	77.19
298.523	88.19
298.753	77.19
298.984	98.19
299.214	89.19
299.445	91.19
299.675	74.19
299.905	78.19
300.136	88.19
300.366	92.19
300.597	86.19
300.827	87.19
301.057	76.19
301.288	87.19
301.518	81.19
301.748	90.19
301.979	90.19
302.209	76.19
302.439	82.19
302.669	78.19
302.9	83.19
303.13	81.19
303.36	80.19
303.59	90.19
303.82	90.19
304.051	78.19
304.281	71.19
304.511	94.19
304.741	83.19
304.971	61.19
305.201	96.19
305.431	90.19
305.661	93.19
305.891	76.19
306.121	97.19
306.352	89.19
306.582	85.19
306.812	101.19
307.042	101.19
307.272	78.19
307.502	91.19
307.731	80.19
307.961	82.19
308.191	73.19
308.421	83.19
308.651	77.19
308.881	96.19
309.111	96.19
309.341	100.19
309.571	89.19
309.8	84.19
310.03	80.19
310.26	77.19
310.49	75.19
310.72	84.19
310.949	82.19
311.179	84.19
311.409	84.19
311.639	69.19
311.868	65.19
312.098	81.19
312.328	96.19
312.557	78.19
312.787	80.19
313.017	81.19
313.246	92.19
313.476	88.19
313.706	86.19
313.935	72.19
314.165	73.19
314.394	77.19
314.624	87.19
314.853	79.19
315.083	98.19
315.312	91.19
315.542	80.19
315.771	81.19
316.001	80.19
316.23	84.19
316.46	81.19
316.689	91.19
316.919	87.19
317.148	84.19
317.377	80.19
317.607	85.19
317.836	90.19
318.065	80.19
318.295	81.19
318.524	91.19
318.753	86.19
318.983	79.19
319.212	84.19
319.441	91.19
319.67	89.19
319.9	89.19
320.129	80.19
320.358	75.19
320.587	90.19
320.816	67.19
321.046	84.19
321.275	93.19
321.504	80.19
321.733	107.19
321.962	85.19
322.191	85.19
322.42	75.19
322.649	84.19
322.878	93.19
323.108	84.19
323.337	89.19
323.566	86.19
323.795	82.19
324.024	88.19
324.253	77.19
324.482	84.19
324.71	78.19
324.939	94.19
325.168	89.19
325.397	90.19
325.626	74.19
325.855	67.19
326.084	84.19
326.313	79.19
326.542	92.19
326.77	80.19
326.999	84.19
327.228	83.19
327.457	82.19
327.686	79.19
327.914	67.19
328.143	82.19
328.372	86.19
328.6	86.19
328.829	80.19
329.058	96.19
329.287	86.19
329.515	72.19
329.744	82.19
329.972	79.19
330.201	84.19
330.43	84.19
330.658	82.19
330.887	81.19
331.115	89.19
331.344	71.19
331.572	95.19
331.801	94.19
332.03	100.19
332.258	87.19
332.486	76.19
332.715	81.19
332.943	66.19
333.172	81.19
333.4	81.19
333.629	79.19
333.857	81.19
334.085	86.19
334.314	74.19
334.542	86.19
334.771	91.19
334.999	85.19
335.227	84.19
335.455	74.19
335.684	86.19
335.912	86.19
336.14	86.19
336.369	85.19
336.597	79.19
336.825	88.19
337.053	77.19
337.281	91.19
337.51	93.19
337.738	88.19
337.966	76.19
338.194	85.19
338.422	89.19
338.65	82.19
338.878	78.19
339.106	81.19
339.334	74.19
339.562	85.19
339.79	94.19
340.018	82.19
340.246	82.19
340.474	82.19
340.702	84.19
340.93	82.19
341.158	81.19
341.386	79.19
341.614	97.19
341.842	95.19
342.07	80.19
342.298	74.19
342.526	81.19
342.754	75.19
342.981	87.19
343.209	70.19
343.437	108.19
343.665	79.19
343.893	81.19
344.12	82.19
344.348	85.19
344.576	91.19
344.804	89.19
345.031	89.19
345.259	94.19
345.487	87.19
345.714	74.19
345.942	87.19
346.17	80.19
346.397	87.19
346.625	66.19
346.853	83.19
347.08	80.19
347.308	84.19
347.535	82.19
347.763	80.19
347.99	74.19
348.218	85.19
348.445	97.19
348.673	81.19
348.9	95.19
349.128	87.19
349.355	91.19
349.583	86.19
349.81	64.19
350.037	94.19
350.265	87.19
350.492	74.19
350.72	67.19
350.947	69.19
351.174	77.19
351.402	75.19
351.629	88.19
351.856	84.19
352.083	81.19
352.311	86.19
352.538	78.19
352.765	87.19
352.992	90.19
353.22	93.19
353.447	85.19
353.674	83.19
353.901	78.19
354.128	76.19
354.355	89.19
354.583	70.19
354.81	71.19
355.037	78.19
355.264	90.19
355.491	73.19
355.718	84.19
355.945	67.19
356.172	80.19
356.399	86.19
356.626	76.19
356.853	84.19
357.08	84.19
357.307	89.19
357.534	87.19
357.761	84.19
357.988	86.19
358.215	91.19
358.441	82.19
358.668	63.19
358.895	91.19
359.122	84.19
359.349	78.19
359.576	80.19
359.802	74.19
360.029	70.19
360.256	73.19
360.483	102.19
360.709	80.19
360.936	90.19
361.163	77.19
361.39	79.19
361.616	85.19
361.843	80.19
362.07	93.19
362.296	76.19
362.523	86.19
362.749	81.19
362.976	61.19
363.203	88.19
363.429	86.19
363.656	94.19
363.882	83.19
364.109	77.19
364.335	88.19
364.562	80.19
364.788	93.19
365.015	80.19
365.241	97.19
365.468	88.19
365.694	90.19
365.92	81.19
366.147	74.19
366.373	85.19
366.599	83.19
366.826	76.19
367.052	102.19
367.278	68.19
367.505	84.19
367.731	88.19
367.957	111.19
368.184	77.19
368.41	86.19
368.636	87.19
368.862	84.19
369.089	89.19
369.315	79.19
369.541	78.19
369.767	90.19
369.993	96.19
370.219	90.19
370.445	73.19
370.672	81.19
370.898	74.19
371.124	87.19
371.35	91.19
371.576	85.19
371.802	81.19
372.028	67.19
372.254	76.19
372.48	72.19
372.706	82.19
372.932	86.19
373.158	82.19
373.384	84.19
373.61	84.19
373.835	85.19
374.061	96.19
374.287	89.19
374.513	78.19
374.739	70.19
374.965	77.19
375.191	90.19
375.416	93.19
375.642	81.19
375.868	77.19
376.094	84.19
376.319	77.19
376.545	77.19
376.771	76.19
376.997	80.19
377.222	86.19
377.448	79.19
377.674	61.19
377.899	74.19
378.125	76.19
378.35	85.19
378.576	80.19
378.802	94.19
379.027	85.19
379.253	99.19
379.478	74.19
379.704	68.19
379.929	68.19
380.155	74.19
380.38	84.19
380.606	75.19
380.831	69.19
381.057	74.19
381.282	90.19
381.507	76.19
381.733	76.19
381.958	80.19
382.184	92.19
382.409	70.19
382.634	80.19
382.86	76.19
383.085	79.19
383.31	84.19
383.535	91.19
383.761	80.19
383.986	80.19
384.211	86.19
384.436	87.19
384.662	72.19
384.887	83.19
385.112	69.19
385.337	83.19
385.562	78.19
385.787	84.19
386.013	93.19
386.238	87.19
386.463	87.19
386.688	90.19
386.913	86.19
387.138	80.19
387.363	90.19
387.588	79.19
387.813	79.19
388.038	98.19
388.263	94.19
388.488	86.19
388.713	79.19
388.938	85.19
389.163	63.19
389.387	82.19
389.612	84.19
389.837	87.19
390.062	81.19
390.287	74.19
390.512	81.19
390.736	84.19
390.961	83.19
391.186	80.19
391.411	74.19
391.636	81.19
391.86	79.19
392.085	81.19
392.31	89.19
392.534	77.19
392.759	84.19
392.984	76.19
393.208	90.19
393.433	79.19
393.658	80.19
393.882	81.19
394.107	80.19
394.331	86.19
394.556	79.19
394.78	84.19
395.005	87.19
395.229	77.19
395.454	76.19
395.678	86.19
395.903	77.19
396.127	74.19
396.352	78.19
396.576	80.19
396.801	86.19
397.025	96.19
397.249	84.19
397.474	92.19
397.698	81.19
397.922	88.19
398.147	69.19
398.371	81.19
398.595	71.19
398.82	82.19
399.044	84.19
399.268	97.19
399.492	88.19
399.717	91.19
399.941	90.19
400.165	83.19
400.389	86.19
400.613	84.19
400.837	83.19
401.062	80.19
401.286	73.19
401.51	80.19
401.734	95.19
401.958	80.19
402.182	73.19
402.406	78.19
402.63	84.19
402.854	77.19
403.078	89.19
403.302	79.19
403.526	85.19
403.75	88.19
403.974	100.19
404.198	80.19
404.422	74.19
404.645	86.19
404.869	76.19
405.093	90.19
405.317	87.19
405.541	86.19
405.765	74.19
405.988	73.19
406.212	86.19
406.436	81.19
406.66	78.19
406.883	80.19
407.107	98.19
407.331	97.19
407.555	90.19
407.778	88.19
408.002	82.19
408.226	73.19
408.449	78.19
408.673	78.19
408.896	83.19
409.12	79.19
409.344	77.19
409.567	91.19
409.791	81.19
410.014	79.19
410.238	97.19
410.461	101.19
410.685	80.19
410.908	79.19
411.132	76.19
411.355	66.19
411.578	88.19
411.802	84.19
412.025	80.19
412.249	90.19
412.472	89.19
412.695	75.19
412.919	78.19
413.142	82.19
413.365	86.19
413.589	84.19
413.812	68.19
414.035	79.19
414.258	91.19
414.482	89.19
414.705	86.19
414.928	82.19
415.151	89.19
415.374	85.19
415.597	80.19
415.821	90.19
416.044	92.19
416.267	71.19
416.49	76.19
416.713	74.19
416.936	93.19
417.159	83.19
417.382	87.19
417.605	95.19
417.828	91.19
418.051	76.19
418.274	90.19
418.497	75.19
418.72	78.19
418.943	92.19
419.166	76.19
419.389	72.19
419.611	80.19
419.834	81.19
420.057	80.19
420.28	80.19
420.503	96.19
420.726	92.19
420.948	70.19
421.171	80.19
421.394	79.19
421.617	65.19
421.839	84.19
422.062	86.19
422.285	85.19
422.507	86.19
422.73	76.19
422.953	79.19
423.175	77.19
423.398	72.19
423.621	82.19
423.843	95.19
424.066	79.19
424.288	84.19
424.511	92.19
424.733	78.19
424.956	91.19
425.178	84.19
425.401	82.19
425.623	81.19
425.846	78.19
426.068	75.19
426.291	84.19
426.513	70.19
426.735	87.19
426.958	79.19
427.18	84.19
427.402	74.19
427.625	70.19
427.847	71.19
428.069	91.19
428.292	85.19
428.514	79.19
428.736	79.19
428.958	76.19
429.181	92.19
429.403	83.19
429.625	80.19
429.847	80.19
430.069	88.19
430.292	84.19
430.514	81.19
430.736	70.19
430.958	75.19
431.18	82.19
431.402	72.19
431.624	92.19
431.846	64.19
432.068	81.19
432.29	78.19
432.512	81.19
432.734	80.19
432.956	80.19
433.178	87.19
433.4	78.19
433.622	90.19
433.844	80.19
434.066	90.19
434.287	88.19
434.509	91.19
434.731	71.19
434.953	73.19
435.175	72.19
435.397	88.19
435.618	76.19
435.84	77.19
436.062	83.19
436.284	65.19
436.505	77.19
436.727	64.19
436.949	76.19
437.17	79.19
437.392	75.19
437.614	85.19
437.835	82.19
438.057	76.19
438.278	78.19
438.5	78.19
438.721	85.19
438.943	84.19
439.165	94.19
439.386	82.19
439.608	98.19
439.829	76.19
440.05	84.19
440.272	79.19
440.493	67.19
440.715	70.19
440.936	84.19
441.158	79.19
441.379	85.19
441.6	88.19
441.822	88.19
442.043	87.19
442.264	75.19
442.486	76.19
442.707	86.19
442.928	73.19
443.149	89.19
443.371	76.19
443.592	83.19
443.813	85.19
444.034	76.19
444.255	79.19
444.476	85.19
444.698	76.19
444.919	81.19
445.14	152.19
445.361	101.19
445.582	78.19
445.803	84.19
446.024	67.19
446.245	79.19
446.466	78.19
446.687	88.19
446.908	76.19
447.129	92.19
447.35	78.19
447.571	82.19
447.792	65.19
448.013	80.19
448.234	82.19
448.455	80.19
448.675	83.19
448.896	80.19
449.117	86.19
449.338	66.19
449.559	77.19
449.779	80.19
450	75.19
450.221	87.19
450.442	67.19
450.662	83.19
450.883	75.19
451.104	78.19
451.324	81.19
451.545	79.19
451.766	65.19
451.986	81.19
452.207	85.19
452.428	85.19
452.648	88.19
452.869	90.19
453.089	87.19
453.31	85.19
453.53	84.19
453.751	82.19
453.971	77.19
454.192	88.19
454.412	71.19
454.633	73.19
454.853	84.19
455.073	89.19
455.294	84.19
455.514	95.19
455.734	87.19
455.955	88.19
456.175	77.19
456.395	72.19
456.616	80.19
456.836	93.19
457.056	70.19
457.276	65.19
457.497	80.19
457.717	84.19
457.937	87.19
458.157	94.19
458.377	74.19
458.598	75.19
458.818	79.19
459.038	85.19
459.258	75.19
459.478	86.19
459.698	83.19
459.918	82.19
460.138	78.19
460.358	81.19
460.578	83.19
460.798	87.19
461.018	81.19
461.238	72.19
461.458	79.19
461.678	80.19
461.898	82.19
462.118	82.19
462.338	92.19
462.558	78.19
462.777	97.19
462.997	84.19
463.217	79.19
463.437	84.19
463.657	79.19
463.876	88.19
464.096	92.19
464.316	87.19
464.536	89.19
464.755	79.19
464.975	74.19
465.195	74.19
465.414	78.19
465.634	84.19
465.854	79.19
466.073	82.19
466.293	78.19
466.512	68.19
466.732	92.19
466.951	75.19
467.171	79.19
467.391	77.19
467.61	75.19
467.829	73.19
468.049	90.19
468.268	74.19
468.488	87.19
468.707	84.19
468.927	73.19
469.146	63.19
469.365	72.19
469.585	88.19
469.804	81.19
470.023	87.19
470.243	73.19
470.462	81.19
470.681	78.19
470.901	72.19
471.12	81.19
471.339	92.19
471.558	86.19
471.777	85.19
471.997	94.19
472.216	78.19
472.435	86.19
472.654	104.19
472.873	106.19
473.092	76.19
473.311	77.19
473.53	84.19
473.749	91.19
473.968	88.19
474.187	72.19
474.406	77.19
474.625	88.19
474.844	82.19
475.063	86.19
475.282	63.19
475.501	76.19
475.72	86.19
475.939	82.19
476.158	88.19
476.377	75.19
476.596	83.19
476.814	92.19
477.033	69.19
477.252	77.19
477.471	77.19
477.69	79.19
477.908	91.19
478.127	75.19
478.346	69.19
478.564	76.19
478.783	64.19
479.002	78.19
479.22	82.19
479.439	71.19
479.658	81.19
479.876	58.19
480.095	54.19
480.313	77.19
480.532	86.19
480.751	97.19
480.969	83.19
481.188	85.19
481.406	77.19
481.624	88.19
481.843	76.19
482.061	77.19
482.28	78.19
482.498	91.19
482.717	72.19
482.935	88.19
483.153	86.19
483.372	85.19
483.59	73.19
483.808	81.19
484.027	98.19
484.245	90.19
484.463	93.19
484.681	81.19
484.9	80.19
485.118	90.19
485.336	76.19
485.554	82.19
485.772	86.19
485.99	80.19
486.209	79.19
486.427	79.19
486.645	75.19
486.863	94.19
487.081	84.19
487.299	81.19
487.517	74.19
487.735	87.19
487.953	80.19
488.171	70.19
488.389	78.19
488.607	75.19
488.825	58.19
489.043	91.19
489.261	93.19
489.479	71.19
489.696	88.19
489.914	82.19
490.132	80.19
490.35	83.19
490.568	84.19
490.786	64.19
491.003	78.19
491.221	79.19
491.439	84.19
491.657	60.19
491.874	78.19
492.092	84.19
492.31	81.19
492.527	91.19
492.745	89.19
492.963	74.19
493.18	78.19
493.398	92.19
493.615	92.19
493.833	72.19
494.05	76.19
494.268	76.19
494.485	63.19
494.703	72.19
494.92	87.19
495.138	92.19
495.355	91.19
495.573	76.19
495.79	86.19
496.008	84.19
496.225	84.19
496.442	66.19
496.66	91.19
496.877	75.19
497.094	80.19
497.312	82.19
497.529	90.19
497.746	85.19
497.963	77.19
498.181	91.19
498.398	76.19
498.615	66.19
498.832	70.19
499.049	76.19
499.267	59.19
499.484	80.19
499.701	86.19
499.918	86.19
500.135	92.19
500.352	101.19
500.569	82.19
500.786	80.19
501.003	76.19
501.22	74.19
501.437	83.19
501.654	89.19
501.871	84.19
502.088	76.19
502.305	90.19
502.522	78.19
502.739	87.19
502.956	84.19
503.172	74.19
503.389	75.19
503.606	80.19
503.823	89.19
504.04	81.19
504.256	91.19
504.473	71.19
504.69	84.19
504.907	88.19
505.123	73.19
505.34	64.19
505.557	68.19
505.773	88.19
505.99	78.19
506.207	80.19
506.423	89.19
506.64	93.19
506.856	75.19
507.073	73.19
507.289	85.19
507.506	73.19
507.722	76.19
507.939	84.19
508.155	70.19
508.372	72.19
508.588	74.19
508.805	90.19
509.021	91.19
509.238	100.19
509.454	88.19
509.67	80.19
509.887	78.19
510.103	94.19
510.319	90.19
510.536	86.19
510.752	92.19
510.968	69.19
511.184	73.19
511.401	77.19
511.617	80.19
511.833	83.19
512.049	69.19
512.265	80.19
512.481	78.19
512.698	83.19
512.914	93.19
513.13	78.19
513.346	76.19
513.562	78.19
513.778	87.19
513.994	78.19
514.21	84.19
514.426	82.19
514.642	95.19
514.858	83.19
515.074	91.19
515.29	96.19
515.506	88.19
515.721	93.19
515.937	81.19
516.153	80.19
516.369	78.19
516.585	81.19
516.801	84.19
517.016	72.19
517.232	78.19
517.448	79.19
517.664	75.19
517.879	88.19
518.095	80.19
518.311	77.19
518.527	97.19
518.742	77.19
518.958	76.19
519.173	82.19
519.389	73.19
519.605	101.19
519.82	88.19
520.036	80.19
