Data from BG_HRD10591_009.txt Node
Date: Fri May 16 15:26:51 EDT 2025
User: Yrep
Spectrometer: HR+D1059
Trigger mode: 1
Integration Time (sec): 1.000000E-1
Scans to average: 1
Electric dark correction enabled: true
Nonlinearity correction enabled: false
Boxcar width: 0
XAxis mode: Wavelengths
Number of Pixels in Spectrum: 2048
>>>>>Begin Spectral Data<<<<<
223.165	-23.62
223.4	-23.62
223.635	-23.62
223.869	-12.62
224.104	-21.62
224.338	-9.62
224.573	-12.62
224.808	-10.62
225.042	-12.62
225.277	-10.62
225.511	-1.62
225.746	-0.62
225.98	6.38
226.215	16.38
226.449	27.38
226.683	13.38
226.918	27.38
227.152	25.38
227.387	24.38
227.621	41.38
227.856	33.38
228.09	45.38
228.324	51.38
228.559	48.38
228.793	62.38
229.027	73.38
229.262	61.38
229.496	61.38
229.73	54.38
229.964	82.38
230.199	81.38
230.433	63.38
230.667	81.38
230.901	83.38
231.136	77.38
231.37	81.38
231.604	61.38
231.838	62.38
232.072	71.38
232.306	81.38
232.541	72.38
232.775	97.38
233.009	68.38
233.243	74.38
233.477	90.38
233.711	93.38
233.945	81.38
234.179	77.38
234.413	81.38
234.647	63.38
234.881	85.38
235.115	93.38
235.349	94.38
235.583	82.38
235.817	91.38
236.051	85.38
236.285	90.38
236.519	78.38
236.753	57.38
236.987	67.38
237.221	84.38
237.455	72.38
237.689	93.38
237.922	93.38
238.156	86.38
238.39	81.38
238.624	77.38
238.858	78.38
239.091	91.38
239.325	69.38
239.559	77.38
239.793	81.38
240.027	86.38
240.26	79.38
240.494	88.38
240.728	76.38
240.961	57.38
241.195	71.38
241.429	79.38
241.662	92.38
241.896	84.38
242.13	91.38
242.363	77.38
242.597	73.38
242.83	81.38
243.064	65.38
243.298	74.38
243.531	81.38
243.765	75.38
243.998	83.38
244.232	73.38
244.465	79.38
244.699	80.38
244.932	74.38
245.166	66.38
245.399	82.38
245.633	77.38
245.866	67.38
246.099	80.38
246.333	90.38
246.566	63.38
246.8	81.38
247.033	71.38
247.266	80.38
247.5	94.38
247.733	78.38
247.966	82.38
248.2	82.38
248.433	78.38
248.666	77.38
248.899	88.38
249.133	86.38
249.366	83.38
249.599	81.38
249.832	81.38
250.066	80.38
250.299	67.38
250.532	79.38
250.765	73.38
250.998	84.38
251.231	92.38
251.465	85.38
251.698	77.38
251.931	79.38
252.164	81.38
252.397	75.38
252.63	86.38
252.863	69.38
253.096	79.38
253.329	73.38
253.562	86.38
253.795	75.38
254.028	92.38
254.261	82.38
254.494	82.38
254.727	67.38
254.96	88.38
255.193	77.38
255.426	81.38
255.659	56.38
255.892	84.38
256.124	79.38
256.357	79.38
256.59	89.38
256.823	97.38
257.056	71.38
257.289	86.38
257.521	95.38
257.754	79.38
257.987	90.38
258.22	74.38
258.452	78.38
258.685	90.38
258.918	82.38
259.151	88.38
259.383	80.38
259.616	93.38
259.849	76.38
260.081	98.38
260.314	80.38
260.547	72.38
260.779	85.38
261.012	75.38
261.244	75.38
261.477	78.38
261.71	80.38
261.942	89.38
262.175	78.38
262.407	81.38
262.64	94.38
262.872	87.38
263.105	82.38
263.337	86.38
263.57	88.38
263.802	83.38
264.035	89.38
264.267	91.38
264.499	81.38
264.732	81.38
264.964	97.38
265.197	86.38
265.429	78.38
265.661	78.38
265.894	74.38
266.126	81.38
266.358	90.38
266.591	83.38
266.823	75.38
267.055	79.38
267.287	82.38
267.52	87.38
267.752	94.38
267.984	86.38
268.216	66.38
268.448	77.38
268.681	85.38
268.913	88.38
269.145	81.38
269.377	86.38
269.609	82.38
269.841	81.38
270.073	73.38
270.306	81.38
270.538	78.38
270.77	81.38
271.002	79.38
271.234	83.38
271.466	91.38
271.698	94.38
271.93	71.38
272.162	90.38
272.394	76.38
272.626	83.38
272.858	80.38
273.09	92.38
273.322	93.38
273.553	79.38
273.785	86.38
274.017	78.38
274.249	77.38
274.481	80.38
274.713	85.38
274.945	93.38
275.176	97.38
275.408	82.38
275.64	104.38
275.872	85.38
276.104	81.38
276.335	85.38
276.567	86.38
276.799	74.38
277.031	81.38
277.262	85.38
277.494	87.38
277.726	89.38
277.957	78.38
278.189	81.38
278.421	80.38
278.652	81.38
278.884	90.38
279.115	80.38
279.347	103.38
279.579	96.38
279.81	89.38
280.042	96.38
280.273	83.38
280.505	82.38
280.736	74.38
280.968	74.38
281.199	97.38
281.431	82.38
281.662	76.38
281.894	81.38
282.125	77.38
282.356	68.38
282.588	81.38
282.819	78.38
283.051	90.38
283.282	100.38
283.513	87.38
283.745	85.38
283.976	80.38
284.207	88.38
284.439	83.38
284.67	85.38
284.901	78.38
285.132	78.38
285.364	81.38
285.595	90.38
285.826	82.38
286.057	86.38
286.288	93.38
286.52	95.38
286.751	87.38
286.982	102.38
287.213	92.38
287.444	91.38
287.675	94.38
287.906	85.38
288.138	76.38
288.369	89.38
288.6	73.38
288.831	83.38
289.062	77.38
289.293	82.38
289.524	83.38
289.755	75.38
289.986	86.38
290.217	75.38
290.448	83.38
290.679	84.38
290.91	97.38
291.141	90.38
291.371	85.38
291.602	79.38
291.833	81.38
292.064	90.38
292.295	82.38
292.526	95.38
292.757	82.38
292.987	78.38
293.218	85.38
293.449	90.38
293.68	85.38
293.91	87.38
294.141	87.38
294.372	80.38
294.603	90.38
294.833	89.38
295.064	93.38
295.295	82.38
295.525	90.38
295.756	74.38
295.987	101.38
296.217	79.38
296.448	86.38
296.679	75.38
296.909	73.38
297.14	85.38
297.37	94.38
297.601	89.38
297.831	87.38
298.062	90.38
298.292	103.38
298.523	93.38
298.753	80.38
298.984	96.38
299.214	85.38
299.445	86.38
299.675	84.38
299.905	75.38
300.136	83.38
300.366	78.38
300.597	102.38
300.827	77.38
301.057	87.38
301.288	78.38
301.518	88.38
301.748	72.38
301.979	99.38
302.209	89.38
302.439	95.38
302.669	90.38
302.9	82.38
303.13	79.38
303.36	96.38
303.59	83.38
303.82	91.38
304.051	94.38
304.281	89.38
304.511	97.38
304.741	88.38
304.971	82.38
305.201	68.38
305.431	82.38
305.661	91.38
305.891	93.38
306.121	85.38
306.352	98.38
306.582	77.38
306.812	87.38
307.042	74.38
307.272	69.38
307.502	87.38
307.731	94.38
307.961	91.38
308.191	87.38
308.421	97.38
308.651	78.38
308.881	97.38
309.111	85.38
309.341	93.38
309.571	86.38
309.8	80.38
310.03	87.38
310.26	82.38
310.49	86.38
310.72	80.38
310.949	87.38
311.179	98.38
311.409	84.38
311.639	87.38
311.868	97.38
312.098	80.38
312.328	102.38
312.557	88.38
312.787	74.38
313.017	83.38
313.246	104.38
313.476	93.38
313.706	86.38
313.935	101.38
314.165	89.38
314.394	84.38
314.624	87.38
314.853	90.38
315.083	88.38
315.312	85.38
315.542	86.38
315.771	93.38
316.001	82.38
316.23	79.38
316.46	82.38
316.689	94.38
316.919	91.38
317.148	71.38
317.377	90.38
317.607	101.38
317.836	78.38
318.065	82.38
318.295	97.38
318.524	87.38
318.753	85.38
318.983	95.38
319.212	88.38
319.441	83.38
319.67	84.38
319.9	85.38
320.129	83.38
320.358	101.38
320.587	88.38
320.816	93.38
321.046	71.38
321.275	71.38
321.504	68.38
321.733	71.38
321.962	90.38
322.191	90.38
322.42	85.38
322.649	82.38
322.878	91.38
323.108	96.38
323.337	88.38
323.566	87.38
323.795	87.38
324.024	85.38
324.253	80.38
324.482	75.38
324.71	85.38
324.939	87.38
325.168	80.38
325.397	90.38
325.626	91.38
325.855	90.38
326.084	81.38
326.313	94.38
326.542	85.38
326.77	101.38
326.999	83.38
327.228	96.38
327.457	90.38
327.686	91.38
327.914	91.38
328.143	95.38
328.372	88.38
328.6	91.38
328.829	92.38
329.058	81.38
329.287	83.38
329.515	81.38
329.744	99.38
329.972	67.38
330.201	89.38
330.43	62.38
330.658	90.38
330.887	82.38
331.115	81.38
331.344	83.38
331.572	82.38
331.801	79.38
332.03	90.38
332.258	91.38
332.486	77.38
332.715	92.38
332.943	85.38
333.172	93.38
333.4	86.38
333.629	86.38
333.857	99.38
334.085	86.38
334.314	90.38
334.542	79.38
334.771	88.38
334.999	94.38
335.227	102.38
335.455	94.38
335.684	98.38
335.912	83.38
336.14	88.38
336.369	88.38
336.597	90.38
336.825	91.38
337.053	88.38
337.281	96.38
337.51	98.38
337.738	94.38
337.966	83.38
338.194	93.38
338.422	76.38
338.65	86.38
338.878	110.38
339.106	91.38
339.334	71.38
339.562	79.38
339.79	87.38
340.018	81.38
340.246	81.38
340.474	88.38
340.702	97.38
340.93	93.38
341.158	93.38
341.386	82.38
341.614	71.38
341.842	90.38
342.07	80.38
342.298	79.38
342.526	93.38
342.754	88.38
342.981	73.38
343.209	75.38
343.437	102.38
343.665	86.38
343.893	82.38
344.12	87.38
344.348	95.38
344.576	89.38
344.804	93.38
345.031	85.38
345.259	93.38
345.487	94.38
345.714	102.38
345.942	80.38
346.17	81.38
346.397	95.38
346.625	80.38
346.853	85.38
347.08	97.38
347.308	84.38
347.535	96.38
347.763	86.38
347.99	87.38
348.218	82.38
348.445	90.38
348.673	98.38
348.9	99.38
349.128	102.38
349.355	98.38
349.583	103.38
349.81	99.38
350.037	60.38
350.265	85.38
350.492	77.38
350.72	94.38
350.947	77.38
351.174	89.38
351.402	95.38
351.629	88.38
351.856	93.38
352.083	80.38
352.311	87.38
352.538	84.38
352.765	85.38
352.992	90.38
353.22	102.38
353.447	102.38
353.674	84.38
353.901	94.38
354.128	92.38
354.355	92.38
354.583	87.38
354.81	85.38
355.037	86.38
355.264	93.38
355.491	84.38
355.718	90.38
355.945	83.38
356.172	91.38
356.399	89.38
356.626	95.38
356.853	86.38
357.08	85.38
357.307	91.38
357.534	91.38
357.761	74.38
357.988	86.38
358.215	80.38
358.441	85.38
358.668	77.38
358.895	81.38
359.122	74.38
359.349	91.38
359.576	80.38
359.802	103.38
360.029	85.38
360.256	74.38
360.483	81.38
360.709	91.38
360.936	94.38
361.163	74.38
361.39	89.38
361.616	78.38
361.843	91.38
362.07	94.38
362.296	91.38
362.523	74.38
362.749	94.38
362.976	107.38
363.203	89.38
363.429	93.38
363.656	76.38
363.882	82.38
364.109	83.38
364.335	99.38
364.562	84.38
364.788	81.38
365.015	87.38
365.241	93.38
365.468	82.38
365.694	88.38
365.92	72.38
366.147	78.38
366.373	79.38
366.599	82.38
366.826	83.38
367.052	92.38
367.278	92.38
367.505	88.38
367.731	96.38
367.957	85.38
368.184	80.38
368.41	85.38
368.636	78.38
368.862	93.38
369.089	81.38
369.315	81.38
369.541	92.38
369.767	83.38
369.993	95.38
370.219	89.38
370.445	85.38
370.672	76.38
370.898	95.38
371.124	75.38
371.35	75.38
371.576	82.38
371.802	79.38
372.028	79.38
372.254	84.38
372.48	97.38
372.706	85.38
372.932	86.38
373.158	79.38
373.384	90.38
373.61	76.38
373.835	79.38
374.061	86.38
374.287	86.38
374.513	94.38
374.739	85.38
374.965	90.38
375.191	88.38
375.416	86.38
375.642	81.38
375.868	92.38
376.094	88.38
376.319	79.38
376.545	94.38
376.771	89.38
376.997	87.38
377.222	89.38
377.448	83.38
377.674	70.38
377.899	93.38
378.125	85.38
378.35	93.38
378.576	71.38
378.802	74.38
379.027	99.38
379.253	92.38
379.478	92.38
379.704	82.38
379.929	83.38
380.155	98.38
380.38	104.38
380.606	101.38
380.831	99.38
381.057	107.38
381.282	90.38
381.507	94.38
381.733	99.38
381.958	96.38
382.184	81.38
382.409	86.38
382.634	93.38
382.86	80.38
383.085	89.38
383.31	91.38
383.535	85.38
383.761	73.38
383.986	96.38
384.211	91.38
384.436	86.38
384.662	88.38
384.887	105.38
385.112	88.38
385.337	98.38
385.562	90.38
385.787	80.38
386.013	66.38
386.238	84.38
386.463	85.38
386.688	102.38
386.913	86.38
387.138	93.38
387.363	96.38
387.588	97.38
387.813	83.38
388.038	81.38
388.263	89.38
388.488	83.38
388.713	95.38
388.938	89.38
389.163	91.38
389.387	89.38
389.612	92.38
389.837	99.38
390.062	87.38
390.287	98.38
390.512	93.38
390.736	83.38
390.961	88.38
391.186	99.38
391.411	86.38
391.636	89.38
391.86	81.38
392.085	97.38
392.31	91.38
392.534	102.38
392.759	84.38
392.984	98.38
393.208	106.38
393.433	90.38
393.658	97.38
393.882	85.38
394.107	89.38
394.331	95.38
394.556	87.38
394.78	93.38
395.005	86.38
395.229	88.38
395.454	93.38
395.678	86.38
395.903	89.38
396.127	89.38
396.352	69.38
396.576	74.38
396.801	90.38
397.025	79.38
397.249	93.38
397.474	89.38
397.698	84.38
397.922	93.38
398.147	104.38
398.371	87.38
398.595	96.38
398.82	101.38
399.044	85.38
399.268	91.38
399.492	97.38
399.717	95.38
399.941	84.38
400.165	104.38
400.389	92.38
400.613	87.38
400.837	92.38
401.062	65.38
401.286	99.38
401.51	89.38
401.734	89.38
401.958	79.38
402.182	76.38
402.406	91.38
402.63	94.38
402.854	95.38
403.078	99.38
403.302	78.38
403.526	88.38
403.75	93.38
403.974	99.38
404.198	91.38
404.422	101.38
404.645	91.38
404.869	89.38
405.093	89.38
405.317	97.38
405.541	105.38
405.765	97.38
405.988	87.38
406.212	83.38
406.436	88.38
406.66	93.38
406.883	90.38
407.107	90.38
407.331	104.38
407.555	98.38
407.778	93.38
408.002	97.38
408.226	114.38
408.449	77.38
408.673	81.38
408.896	106.38
409.12	92.38
409.344	77.38
409.567	88.38
409.791	86.38
410.014	82.38
410.238	86.38
410.461	77.38
410.685	93.38
410.908	83.38
411.132	90.38
411.355	86.38
411.578	89.38
411.802	95.38
412.025	94.38
412.249	83.38
412.472	82.38
412.695	90.38
412.919	80.38
413.142	98.38
413.365	90.38
413.589	95.38
413.812	86.38
414.035	84.38
414.258	95.38
414.482	87.38
414.705	87.38
414.928	97.38
415.151	86.38
415.374	81.38
415.597	97.38
415.821	92.38
416.044	83.38
416.267	76.38
416.49	89.38
416.713	84.38
416.936	69.38
417.159	93.38
417.382	96.38
417.605	92.38
417.828	94.38
418.051	96.38
418.274	86.38
418.497	94.38
418.72	76.38
418.943	78.38
419.166	91.38
419.389	84.38
419.611	85.38
419.834	83.38
420.057	81.38
420.28	93.38
420.503	96.38
420.726	80.38
420.948	83.38
421.171	83.38
421.394	94.38
421.617	85.38
421.839	90.38
422.062	101.38
422.285	93.38
422.507	95.38
422.73	105.38
422.953	96.38
423.175	90.38
423.398	88.38
423.621	85.38
423.843	86.38
424.066	98.38
424.288	87.38
424.511	91.38
424.733	94.38
424.956	97.38
425.178	93.38
425.401	88.38
425.623	70.38
425.846	81.38
426.068	83.38
426.291	91.38
426.513	75.38
426.735	75.38
426.958	82.38
427.18	90.38
427.402	91.38
427.625	88.38
427.847	103.38
428.069	82.38
428.292	87.38
428.514	109.38
428.736	78.38
428.958	89.38
429.181	102.38
429.403	87.38
429.625	83.38
429.847	95.38
430.069	86.38
430.292	94.38
430.514	76.38
430.736	90.38
430.958	102.38
431.18	94.38
431.402	79.38
431.624	80.38
431.846	78.38
432.068	84.38
432.29	90.38
432.512	78.38
432.734	88.38
432.956	91.38
433.178	96.38
433.4	89.38
433.622	104.38
433.844	94.38
434.066	92.38
434.287	101.38
434.509	97.38
434.731	82.38
434.953	90.38
435.175	87.38
435.397	93.38
435.618	92.38
435.84	76.38
436.062	86.38
436.284	89.38
436.505	101.38
436.727	83.38
436.949	89.38
437.17	81.38
437.392	108.38
437.614	102.38
437.835	84.38
438.057	66.38
438.278	91.38
438.5	88.38
438.721	89.38
438.943	80.38
439.165	83.38
439.386	89.38
439.608	97.38
439.829	77.38
440.05	87.38
440.272	80.38
440.493	91.38
440.715	97.38
440.936	84.38
441.158	97.38
441.379	88.38
441.6	83.38
441.822	89.38
442.043	90.38
442.264	88.38
442.486	90.38
442.707	96.38
442.928	102.38
443.149	93.38
443.371	98.38
443.592	87.38
443.813	97.38
444.034	87.38
444.255	86.38
444.476	78.38
444.698	89.38
444.919	90.38
445.14	158.38
445.361	130.38
445.582	94.38
445.803	96.38
446.024	81.38
446.245	84.38
446.466	89.38
446.687	85.38
446.908	84.38
447.129	90.38
447.35	99.38
447.571	70.38
447.792	82.38
448.013	90.38
448.234	73.38
448.455	85.38
448.675	91.38
448.896	85.38
449.117	88.38
449.338	76.38
449.559	97.38
449.779	94.38
450	88.38
450.221	83.38
450.442	74.38
450.662	97.38
450.883	87.38
451.104	84.38
451.324	81.38
451.545	77.38
451.766	93.38
451.986	100.38
452.207	83.38
452.428	81.38
452.648	84.38
452.869	76.38
453.089	88.38
453.31	98.38
453.53	89.38
453.751	86.38
453.971	82.38
454.192	87.38
454.412	80.38
454.633	88.38
454.853	94.38
455.073	87.38
455.294	79.38
455.514	79.38
455.734	83.38
455.955	85.38
456.175	74.38
456.395	85.38
456.616	88.38
456.836	82.38
457.056	86.38
457.276	73.38
457.497	93.38
457.717	88.38
457.937	89.38
458.157	95.38
458.377	79.38
458.598	89.38
458.818	92.38
459.038	89.38
459.258	85.38
459.478	74.38
459.698	85.38
459.918	88.38
460.138	86.38
460.358	87.38
460.578	85.38
460.798	85.38
461.018	91.38
461.238	103.38
461.458	96.38
461.678	90.38
461.898	88.38
462.118	74.38
462.338	87.38
462.558	86.38
462.777	95.38
462.997	101.38
463.217	87.38
463.437	97.38
463.657	88.38
463.876	87.38
464.096	87.38
464.316	79.38
464.536	80.38
464.755	93.38
464.975	93.38
465.195	93.38
465.414	84.38
465.634	83.38
465.854	87.38
466.073	77.38
466.293	101.38
466.512	105.38
466.732	88.38
466.951	93.38
467.171	86.38
467.391	92.38
467.61	105.38
467.829	94.38
468.049	90.38
468.268	97.38
468.488	84.38
468.707	85.38
468.927	96.38
469.146	93.38
469.365	100.38
469.585	97.38
469.804	83.38
470.023	79.38
470.243	103.38
470.462	88.38
470.681	91.38
470.901	87.38
471.12	84.38
471.339	93.38
471.558	86.38
471.777	88.38
471.997	93.38
472.216	85.38
472.435	82.38
472.654	91.38
472.873	80.38
473.092	97.38
473.311	85.38
473.53	79.38
473.749	90.38
473.968	101.38
474.187	102.38
474.406	84.38
474.625	85.38
474.844	85.38
475.063	97.38
475.282	85.38
475.501	79.38
475.72	82.38
475.939	70.38
476.158	98.38
476.377	83.38
476.596	74.38
476.814	88.38
477.033	84.38
477.252	87.38
477.471	81.38
477.69	90.38
477.908	80.38
478.127	95.38
478.346	106.38
478.564	99.38
478.783	94.38
479.002	81.38
479.22	85.38
479.439	96.38
479.658	92.38
479.876	91.38
480.095	87.38
480.313	85.38
480.532	90.38
480.751	90.38
480.969	113.38
481.188	91.38
481.406	102.38
481.624	97.38
481.843	84.38
482.061	101.38
482.28	91.38
482.498	95.38
482.717	88.38
482.935	98.38
483.153	82.38
483.372	77.38
483.59	76.38
483.808	86.38
484.027	99.38
484.245	91.38
484.463	82.38
484.681	104.38
484.9	101.38
485.118	93.38
485.336	96.38
485.554	91.38
485.772	85.38
485.99	96.38
486.209	94.38
486.427	91.38
486.645	75.38
486.863	97.38
487.081	82.38
487.299	102.38
487.517	97.38
487.735	75.38
487.953	80.38
488.171	90.38
488.389	77.38
488.607	108.38
488.825	86.38
489.043	72.38
489.261	93.38
489.479	79.38
489.696	82.38
489.914	90.38
490.132	85.38
490.35	87.38
490.568	97.38
490.786	93.38
491.003	77.38
491.221	78.38
491.439	87.38
491.657	88.38
491.874	96.38
492.092	101.38
492.31	87.38
492.527	78.38
492.745	94.38
492.963	96.38
493.18	81.38
493.398	93.38
493.615	103.38
493.833	97.38
494.05	83.38
494.268	95.38
494.485	85.38
494.703	97.38
494.92	97.38
495.138	90.38
495.355	93.38
495.573	98.38
495.79	79.38
496.008	80.38
496.225	86.38
496.442	103.38
496.66	78.38
496.877	78.38
497.094	87.38
497.312	88.38
497.529	91.38
497.746	100.38
497.963	89.38
498.181	103.38
498.398	88.38
498.615	77.38
498.832	93.38
499.049	95.38
499.267	88.38
499.484	87.38
499.701	95.38
499.918	109.38
500.135	104.38
500.352	109.38
500.569	105.38
500.786	95.38
501.003	107.38
501.22	104.38
501.437	107.38
501.654	109.38
501.871	105.38
502.088	95.38
502.305	111.38
502.522	86.38
502.739	96.38
502.956	86.38
503.172	90.38
503.389	108.38
503.606	95.38
503.823	94.38
504.04	97.38
504.256	95.38
504.473	101.38
504.69	99.38
504.907	103.38
505.123	106.38
505.34	81.38
505.557	90.38
505.773	88.38
505.99	90.38
506.207	98.38
506.423	94.38
506.64	87.38
506.856	87.38
507.073	84.38
507.289	96.38
507.506	102.38
507.722	84.38
507.939	88.38
508.155	89.38
508.372	85.38
508.588	94.38
508.805	87.38
509.021	93.38
509.238	89.38
509.454	79.38
509.67	93.38
509.887	94.38
510.103	103.38
510.319	88.38
510.536	79.38
510.752	82.38
510.968	104.38
511.184	90.38
511.401	87.38
511.617	102.38
511.833	95.38
512.049	86.38
512.265	80.38
512.481	95.38
512.698	92.38
512.914	89.38
513.13	102.38
513.346	88.38
513.562	91.38
513.778	91.38
513.994	93.38
514.21	79.38
514.426	82.38
514.642	97.38
514.858	82.38
515.074	106.38
515.29	109.38
515.506	91.38
515.721	87.38
515.937	81.38
516.153	97.38
516.369	88.38
516.585	98.38
516.801	86.38
517.016	71.38
517.232	80.38
517.448	114.38
517.664	91.38
517.879	118.38
518.095	92.38
518.311	104.38
518.527	105.38
518.742	87.38
518.958	86.38
