Data from BG_HRD10591_053.txt Node
Date: Fri May 16 15:27:13 EDT 2025
User: Yrep
Spectrometer: HR+D1059
Trigger mode: 1
Integration Time (sec): 1.000000E-1
Scans to average: 1
Electric dark correction enabled: true
Nonlinearity correction enabled: false
Boxcar width: 0
XAxis mode: Wavelengths
Number of Pixels in Spectrum: 2048
>>>>>Begin Spectral Data<<<<<
223.165	-9.44
223.4	-9.44
223.635	-9.44
223.869	-8.44
224.104	-32.44
224.338	-35.44
224.573	-19.44
224.808	-6.44
225.042	-1.44
225.277	1.56
225.511	-5.44
225.746	1.56
225.98	5.56
226.215	10.56
226.449	15.56
226.683	20.56
226.918	14.56
227.152	48.56
227.387	40.56
227.621	31.56
227.856	46.56
228.09	54.56
228.324	54.56
228.559	63.56
228.793	58.56
229.027	58.56
229.262	72.56
229.496	63.56
229.73	62.56
229.964	76.56
230.199	77.56
230.433	74.56
230.667	74.56
230.901	72.56
231.136	68.56
231.37	66.56
231.604	83.56
231.838	73.56
232.072	81.56
232.306	75.56
232.541	78.56
232.775	90.56
233.009	78.56
233.243	85.56
233.477	88.56
233.711	63.56
233.945	88.56
234.179	73.56
234.413	72.56
234.647	81.56
234.881	69.56
235.115	83.56
235.349	74.56
235.583	74.56
235.817	71.56
236.051	90.56
236.285	74.56
236.519	81.56
236.753	77.56
236.987	70.56
237.221	68.56
237.455	82.56
237.689	77.56
237.922	82.56
238.156	81.56
238.39	70.56
238.624	91.56
238.858	90.56
239.091	76.56
239.325	79.56
239.559	74.56
239.793	62.56
240.027	86.56
240.26	63.56
240.494	74.56
240.728	67.56
240.961	80.56
241.195	84.56
241.429	70.56
241.662	76.56
241.896	69.56
242.13	85.56
242.363	80.56
242.597	75.56
242.83	76.56
243.064	85.56
243.298	72.56
243.531	73.56
243.765	73.56
243.998	71.56
244.232	67.56
244.465	80.56
244.699	72.56
244.932	74.56
245.166	76.56
245.399	77.56
245.633	73.56
245.866	84.56
246.099	74.56
246.333	62.56
246.566	80.56
246.8	100.56
247.033	81.56
247.266	94.56
247.5	74.56
247.733	71.56
247.966	82.56
248.2	87.56
248.433	74.56
248.666	77.56
248.899	89.56
249.133	70.56
249.366	73.56
249.599	72.56
249.832	86.56
250.066	78.56
250.299	81.56
250.532	92.56
250.765	76.56
250.998	81.56
251.231	66.56
251.465	77.56
251.698	74.56
251.931	84.56
252.164	79.56
252.397	75.56
252.63	71.56
252.863	80.56
253.096	90.56
253.329	66.56
253.562	72.56
253.795	65.56
254.028	87.56
254.261	80.56
254.494	79.56
254.727	69.56
254.96	67.56
255.193	81.56
255.426	88.56
255.659	78.56
255.892	74.56
256.124	66.56
256.357	79.56
256.59	70.56
256.823	82.56
257.056	80.56
257.289	90.56
257.521	81.56
257.754	78.56
257.987	76.56
258.22	83.56
258.452	72.56
258.685	88.56
258.918	65.56
259.151	68.56
259.383	77.56
259.616	82.56
259.849	98.56
260.081	79.56
260.314	88.56
260.547	71.56
260.779	70.56
261.012	84.56
261.244	82.56
261.477	83.56
261.71	93.56
261.942	81.56
262.175	87.56
262.407	91.56
262.64	73.56
262.872	87.56
263.105	78.56
263.337	78.56
263.57	79.56
263.802	77.56
264.035	63.56
264.267	65.56
264.499	66.56
264.732	89.56
264.964	83.56
265.197	82.56
265.429	70.56
265.661	72.56
265.894	80.56
266.126	81.56
266.358	90.56
266.591	76.56
266.823	84.56
267.055	77.56
267.287	66.56
267.52	95.56
267.752	91.56
267.984	78.56
268.216	80.56
268.448	80.56
268.681	69.56
268.913	78.56
269.145	75.56
269.377	87.56
269.609	82.56
269.841	87.56
270.073	76.56
270.306	87.56
270.538	74.56
270.77	88.56
271.002	71.56
271.234	85.56
271.466	70.56
271.698	90.56
271.93	88.56
272.162	79.56
272.394	76.56
272.626	93.56
272.858	75.56
273.09	76.56
273.322	72.56
273.553	68.56
273.785	71.56
274.017	81.56
274.249	89.56
274.481	86.56
274.713	96.56
274.945	67.56
275.176	74.56
275.408	81.56
275.64	89.56
275.872	82.56
276.104	74.56
276.335	82.56
276.567	78.56
276.799	87.56
277.031	85.56
277.262	79.56
277.494	70.56
277.726	82.56
277.957	90.56
278.189	98.56
278.421	96.56
278.652	81.56
278.884	82.56
279.115	76.56
279.347	89.56
279.579	78.56
279.81	72.56
280.042	84.56
280.273	96.56
280.505	79.56
280.736	82.56
280.968	87.56
281.199	68.56
281.431	84.56
281.662	74.56
281.894	81.56
282.125	72.56
282.356	92.56
282.588	80.56
282.819	75.56
283.051	80.56
283.282	75.56
283.513	80.56
283.745	74.56
283.976	80.56
284.207	90.56
284.439	69.56
284.67	85.56
284.901	91.56
285.132	96.56
285.364	79.56
285.595	73.56
285.826	94.56
286.057	82.56
286.288	100.56
286.52	75.56
286.751	88.56
286.982	80.56
287.213	74.56
287.444	82.56
287.675	91.56
287.906	79.56
288.138	74.56
288.369	83.56
288.6	96.56
288.831	91.56
289.062	97.56
289.293	78.56
289.524	72.56
289.755	81.56
289.986	91.56
290.217	87.56
290.448	87.56
290.679	78.56
290.91	87.56
291.141	83.56
291.371	74.56
291.602	74.56
291.833	88.56
292.064	71.56
292.295	81.56
292.526	85.56
292.757	81.56
292.987	74.56
293.218	82.56
293.449	89.56
293.68	77.56
293.91	83.56
294.141	87.56
294.372	87.56
294.603	80.56
294.833	82.56
295.064	79.56
295.295	86.56
295.525	90.56
295.756	80.56
295.987	82.56
296.217	92.56
296.448	92.56
296.679	70.56
296.909	74.56
297.14	90.56
297.37	90.56
297.601	81.56
297.831	82.56
298.062	91.56
298.292	74.56
298.523	84.56
298.753	84.56
298.984	90.56
299.214	92.56
299.445	74.56
299.675	90.56
299.905	81.56
300.136	86.56
300.366	79.56
300.597	78.56
300.827	86.56
301.057	82.56
301.288	85.56
301.518	68.56
301.748	85.56
301.979	92.56
302.209	94.56
302.439	94.56
302.669	86.56
302.9	75.56
303.13	82.56
303.36	102.56
303.59	82.56
303.82	72.56
304.051	79.56
304.281	87.56
304.511	84.56
304.741	80.56
304.971	83.56
305.201	88.56
305.431	71.56
305.661	90.56
305.891	77.56
306.121	104.56
306.352	90.56
306.582	86.56
306.812	78.56
307.042	88.56
307.272	80.56
307.502	64.56
307.731	87.56
307.961	93.56
308.191	85.56
308.421	72.56
308.651	76.56
308.881	86.56
309.111	78.56
309.341	93.56
309.571	81.56
309.8	73.56
310.03	87.56
310.26	81.56
310.49	81.56
310.72	93.56
310.949	76.56
311.179	91.56
311.409	81.56
311.639	96.56
311.868	87.56
312.098	82.56
312.328	90.56
312.557	84.56
312.787	85.56
313.017	105.56
313.246	86.56
313.476	78.56
313.706	70.56
313.935	87.56
314.165	85.56
314.394	66.56
314.624	94.56
314.853	95.56
315.083	84.56
315.312	92.56
315.542	83.56
315.771	89.56
316.001	81.56
316.23	80.56
316.46	83.56
316.689	86.56
316.919	93.56
317.148	82.56
317.377	92.56
317.607	80.56
317.836	70.56
318.065	82.56
318.295	87.56
318.524	80.56
318.753	77.56
318.983	87.56
319.212	94.56
319.441	93.56
319.67	82.56
319.9	78.56
320.129	92.56
320.358	88.56
320.587	65.56
320.816	82.56
321.046	95.56
321.275	102.56
321.504	88.56
321.733	82.56
321.962	91.56
322.191	93.56
322.42	78.56
322.649	87.56
322.878	92.56
323.108	96.56
323.337	95.56
323.566	83.56
323.795	85.56
324.024	85.56
324.253	76.56
324.482	80.56
324.71	78.56
324.939	90.56
325.168	78.56
325.397	77.56
325.626	76.56
325.855	74.56
326.084	72.56
326.313	88.56
326.542	81.56
326.77	85.56
326.999	90.56
327.228	82.56
327.457	75.56
327.686	70.56
327.914	73.56
328.143	92.56
328.372	66.56
328.6	77.56
328.829	80.56
329.058	85.56
329.287	88.56
329.515	80.56
329.744	77.56
329.972	80.56
330.201	87.56
330.43	85.56
330.658	80.56
330.887	95.56
331.115	95.56
331.344	84.56
331.572	97.56
331.801	81.56
332.03	89.56
332.258	80.56
332.486	79.56
332.715	79.56
332.943	78.56
333.172	82.56
333.4	72.56
333.629	91.56
333.857	82.56
334.085	70.56
334.314	85.56
334.542	80.56
334.771	79.56
334.999	80.56
335.227	69.56
335.455	80.56
335.684	78.56
335.912	76.56
336.14	69.56
336.369	86.56
336.597	71.56
336.825	86.56
337.053	88.56
337.281	83.56
337.51	88.56
337.738	92.56
337.966	85.56
338.194	94.56
338.422	85.56
338.65	86.56
338.878	80.56
339.106	78.56
339.334	106.56
339.562	80.56
339.79	84.56
340.018	65.56
340.246	87.56
340.474	88.56
340.702	76.56
340.93	96.56
341.158	86.56
341.386	85.56
341.614	79.56
341.842	72.56
342.07	78.56
342.298	79.56
342.526	83.56
342.754	76.56
342.981	84.56
343.209	87.56
343.437	86.56
343.665	78.56
343.893	89.56
344.12	84.56
344.348	78.56
344.576	79.56
344.804	84.56
345.031	93.56
345.259	94.56
345.487	72.56
345.714	87.56
345.942	77.56
346.17	93.56
346.397	75.56
346.625	80.56
346.853	73.56
347.08	82.56
347.308	96.56
347.535	86.56
347.763	87.56
347.99	87.56
348.218	81.56
348.445	84.56
348.673	78.56
348.9	89.56
349.128	79.56
349.355	89.56
349.583	72.56
349.81	81.56
350.037	97.56
350.265	81.56
350.492	82.56
350.72	77.56
350.947	90.56
351.174	81.56
351.402	90.56
351.629	89.56
351.856	86.56
352.083	94.56
352.311	84.56
352.538	77.56
352.765	77.56
352.992	92.56
353.22	86.56
353.447	94.56
353.674	95.56
353.901	72.56
354.128	84.56
354.355	75.56
354.583	78.56
354.81	88.56
355.037	79.56
355.264	89.56
355.491	86.56
355.718	80.56
355.945	72.56
356.172	89.56
356.399	88.56
356.626	76.56
356.853	84.56
357.08	80.56
357.307	96.56
357.534	74.56
357.761	88.56
357.988	90.56
358.215	96.56
358.441	89.56
358.668	102.56
358.895	76.56
359.122	84.56
359.349	78.56
359.576	88.56
359.802	87.56
360.029	67.56
360.256	84.56
360.483	76.56
360.709	78.56
360.936	87.56
361.163	85.56
361.39	85.56
361.616	84.56
361.843	67.56
362.07	88.56
362.296	81.56
362.523	72.56
362.749	75.56
362.976	88.56
363.203	85.56
363.429	81.56
363.656	92.56
363.882	90.56
364.109	72.56
364.335	81.56
364.562	87.56
364.788	85.56
365.015	88.56
365.241	76.56
365.468	95.56
365.694	100.56
365.92	86.56
366.147	90.56
366.373	82.56
366.599	93.56
366.826	65.56
367.052	91.56
367.278	78.56
367.505	80.56
367.731	74.56
367.957	78.56
368.184	84.56
368.41	83.56
368.636	77.56
368.862	73.56
369.089	94.56
369.315	86.56
369.541	81.56
369.767	78.56
369.993	81.56
370.219	84.56
370.445	76.56
370.672	64.56
370.898	72.56
371.124	72.56
371.35	90.56
371.576	78.56
371.802	78.56
372.028	80.56
372.254	67.56
372.48	75.56
372.706	85.56
372.932	84.56
373.158	72.56
373.384	85.56
373.61	88.56
373.835	80.56
374.061	86.56
374.287	91.56
374.513	85.56
374.739	81.56
374.965	86.56
375.191	85.56
375.416	80.56
375.642	88.56
375.868	82.56
376.094	76.56
376.319	64.56
376.545	89.56
376.771	92.56
376.997	76.56
377.222	74.56
377.448	72.56
377.674	91.56
377.899	72.56
378.125	70.56
378.35	83.56
378.576	89.56
378.802	86.56
379.027	65.56
379.253	96.56
379.478	88.56
379.704	85.56
379.929	85.56
380.155	78.56
380.38	97.56
380.606	90.56
380.831	101.56
381.057	104.56
381.282	87.56
381.507	85.56
381.733	88.56
381.958	85.56
382.184	87.56
382.409	91.56
382.634	76.56
382.86	87.56
383.085	84.56
383.31	89.56
383.535	85.56
383.761	84.56
383.986	87.56
384.211	81.56
384.436	84.56
384.662	78.56
384.887	86.56
385.112	89.56
385.337	85.56
385.562	85.56
385.787	72.56
386.013	84.56
386.238	86.56
386.463	82.56
386.688	81.56
386.913	85.56
387.138	70.56
387.363	78.56
387.588	90.56
387.813	82.56
388.038	94.56
388.263	88.56
388.488	89.56
388.713	80.56
388.938	89.56
389.163	87.56
389.387	85.56
389.612	76.56
389.837	94.56
390.062	82.56
390.287	77.56
390.512	90.56
390.736	79.56
390.961	76.56
391.186	86.56
391.411	86.56
391.636	86.56
391.86	84.56
392.085	97.56
392.31	86.56
392.534	93.56
392.759	91.56
392.984	88.56
393.208	80.56
393.433	74.56
393.658	76.56
393.882	80.56
394.107	88.56
394.331	86.56
394.556	81.56
394.78	72.56
395.005	73.56
395.229	89.56
395.454	101.56
395.678	69.56
395.903	69.56
396.127	84.56
396.352	80.56
396.576	73.56
396.801	68.56
397.025	84.56
397.249	85.56
397.474	86.56
397.698	78.56
397.922	72.56
398.147	93.56
398.371	82.56
398.595	89.56
398.82	71.56
399.044	72.56
399.268	84.56
399.492	81.56
399.717	85.56
399.941	90.56
400.165	75.56
400.389	80.56
400.613	70.56
400.837	91.56
401.062	72.56
401.286	77.56
401.51	78.56
401.734	84.56
401.958	89.56
402.182	69.56
402.406	85.56
402.63	71.56
402.854	90.56
403.078	82.56
403.302	57.56
403.526	72.56
403.75	64.56
403.974	80.56
404.198	89.56
404.422	82.56
404.645	92.56
404.869	90.56
405.093	97.56
405.317	88.56
405.541	89.56
405.765	88.56
405.988	97.56
406.212	81.56
406.436	88.56
406.66	87.56
406.883	74.56
407.107	86.56
407.331	79.56
407.555	81.56
407.778	80.56
408.002	88.56
408.226	85.56
408.449	79.56
408.673	79.56
408.896	71.56
409.12	82.56
409.344	75.56
409.567	79.56
409.791	71.56
410.014	88.56
410.238	84.56
410.461	86.56
410.685	78.56
410.908	83.56
411.132	91.56
411.355	82.56
411.578	78.56
411.802	82.56
412.025	86.56
412.249	77.56
412.472	94.56
412.695	72.56
412.919	86.56
413.142	81.56
413.365	78.56
413.589	80.56
413.812	78.56
414.035	77.56
414.258	87.56
414.482	84.56
414.705	76.56
414.928	88.56
415.151	84.56
415.374	70.56
415.597	77.56
415.821	82.56
416.044	80.56
416.267	88.56
416.49	79.56
416.713	79.56
416.936	75.56
417.159	89.56
417.382	88.56
417.605	71.56
417.828	89.56
418.051	75.56
418.274	70.56
418.497	80.56
418.72	81.56
418.943	82.56
419.166	82.56
419.389	85.56
419.611	78.56
419.834	84.56
420.057	81.56
420.28	89.56
420.503	83.56
420.726	90.56
420.948	76.56
421.171	79.56
421.394	93.56
421.617	96.56
421.839	84.56
422.062	83.56
422.285	77.56
422.507	68.56
422.73	69.56
422.953	70.56
423.175	83.56
423.398	90.56
423.621	80.56
423.843	79.56
424.066	97.56
424.288	81.56
424.511	84.56
424.733	78.56
424.956	67.56
425.178	86.56
425.401	81.56
425.623	91.56
425.846	88.56
426.068	83.56
426.291	73.56
426.513	84.56
426.735	73.56
426.958	86.56
427.18	81.56
427.402	95.56
427.625	81.56
427.847	73.56
428.069	84.56
428.292	84.56
428.514	86.56
428.736	83.56
428.958	84.56
429.181	75.56
429.403	81.56
429.625	81.56
429.847	80.56
430.069	78.56
430.292	92.56
430.514	86.56
430.736	71.56
430.958	75.56
431.18	90.56
431.402	80.56
431.624	74.56
431.846	77.56
432.068	88.56
432.29	78.56
432.512	83.56
432.734	80.56
432.956	64.56
433.178	94.56
433.4	89.56
433.622	78.56
433.844	86.56
434.066	83.56
434.287	80.56
434.509	71.56
434.731	81.56
434.953	79.56
435.175	87.56
435.397	88.56
435.618	81.56
435.84	84.56
436.062	85.56
436.284	88.56
436.505	76.56
436.727	73.56
436.949	87.56
437.17	71.56
437.392	78.56
437.614	88.56
437.835	69.56
438.057	69.56
438.278	79.56
438.5	83.56
438.721	82.56
438.943	66.56
439.165	89.56
439.386	79.56
439.608	81.56
439.829	78.56
440.05	86.56
440.272	77.56
440.493	62.56
440.715	92.56
440.936	81.56
441.158	92.56
441.379	72.56
441.6	81.56
441.822	89.56
442.043	77.56
442.264	76.56
442.486	89.56
442.707	72.56
442.928	69.56
443.149	67.56
443.371	93.56
443.592	89.56
443.813	85.56
444.034	87.56
444.255	92.56
444.476	80.56
444.698	88.56
444.919	90.56
445.14	147.56
445.361	130.56
445.582	74.56
445.803	74.56
446.024	79.56
446.245	93.56
446.466	75.56
446.687	87.56
446.908	59.56
447.129	83.56
447.35	84.56
447.571	101.56
447.792	92.56
448.013	81.56
448.234	82.56
448.455	76.56
448.675	88.56
448.896	78.56
449.117	84.56
449.338	84.56
449.559	92.56
449.779	96.56
450	79.56
450.221	88.56
450.442	93.56
450.662	93.56
450.883	84.56
451.104	79.56
451.324	77.56
451.545	74.56
451.766	93.56
451.986	86.56
452.207	76.56
452.428	79.56
452.648	79.56
452.869	77.56
453.089	78.56
453.31	79.56
453.53	90.56
453.751	91.56
453.971	78.56
454.192	73.56
454.412	77.56
454.633	74.56
454.853	87.56
455.073	91.56
455.294	89.56
455.514	76.56
455.734	92.56
455.955	79.56
456.175	90.56
456.395	79.56
456.616	80.56
456.836	77.56
457.056	85.56
457.276	84.56
457.497	101.56
457.717	86.56
457.937	79.56
458.157	80.56
458.377	77.56
458.598	74.56
458.818	84.56
459.038	65.56
459.258	68.56
459.478	84.56
459.698	88.56
459.918	93.56
460.138	92.56
460.358	75.56
460.578	76.56
460.798	74.56
461.018	81.56
461.238	81.56
461.458	80.56
461.678	86.56
461.898	88.56
462.118	62.56
462.338	76.56
462.558	76.56
462.777	83.56
462.997	83.56
463.217	77.56
463.437	92.56
463.657	79.56
463.876	91.56
464.096	85.56
464.316	77.56
464.536	88.56
464.755	92.56
464.975	76.56
465.195	85.56
465.414	89.56
465.634	80.56
465.854	76.56
466.073	86.56
466.293	64.56
466.512	73.56
466.732	76.56
466.951	89.56
467.171	81.56
467.391	89.56
467.61	72.56
467.829	72.56
468.049	74.56
468.268	84.56
468.488	87.56
468.707	86.56
468.927	76.56
469.146	81.56
469.365	83.56
469.585	84.56
469.804	80.56
470.023	74.56
470.243	76.56
470.462	76.56
470.681	82.56
470.901	66.56
471.12	82.56
471.339	92.56
471.558	98.56
471.777	81.56
471.997	96.56
472.216	76.56
472.435	81.56
472.654	92.56
472.873	93.56
473.092	89.56
473.311	81.56
473.53	93.56
473.749	99.56
473.968	84.56
474.187	104.56
474.406	82.56
474.625	72.56
474.844	86.56
475.063	91.56
475.282	78.56
475.501	95.56
475.72	91.56
475.939	81.56
476.158	89.56
476.377	81.56
476.596	86.56
476.814	88.56
477.033	79.56
477.252	82.56
477.471	93.56
477.69	82.56
477.908	84.56
478.127	82.56
478.346	81.56
478.564	59.56
478.783	87.56
479.002	84.56
479.22	78.56
479.439	85.56
479.658	102.56
479.876	79.56
480.095	74.56
480.313	86.56
480.532	103.56
480.751	85.56
480.969	84.56
481.188	77.56
481.406	86.56
481.624	88.56
481.843	85.56
482.061	70.56
482.28	72.56
482.498	78.56
482.717	76.56
482.935	91.56
483.153	84.56
483.372	70.56
483.59	81.56
483.808	88.56
484.027	78.56
484.245	78.56
484.463	97.56
484.681	92.56
484.9	82.56
485.118	91.56
485.336	81.56
485.554	83.56
485.772	90.56
485.99	72.56
486.209	77.56
486.427	84.56
486.645	95.56
486.863	84.56
487.081	69.56
487.299	70.56
487.517	87.56
487.735	73.56
487.953	80.56
488.171	85.56
488.389	88.56
488.607	83.56
488.825	84.56
489.043	84.56
489.261	84.56
489.479	92.56
489.696	79.56
489.914	78.56
490.132	95.56
490.35	74.56
490.568	81.56
490.786	86.56
491.003	84.56
491.221	79.56
491.439	76.56
491.657	72.56
491.874	85.56
492.092	74.56
492.31	78.56
492.527	86.56
492.745	89.56
492.963	76.56
493.18	80.56
493.398	85.56
493.615	77.56
493.833	82.56
494.05	79.56
494.268	97.56
494.485	88.56
494.703	88.56
494.92	78.56
495.138	72.56
495.355	79.56
495.573	80.56
495.79	68.56
496.008	81.56
496.225	80.56
496.442	86.56
496.66	96.56
496.877	78.56
497.094	92.56
497.312	67.56
497.529	80.56
497.746	86.56
497.963	82.56
498.181	90.56
498.398	79.56
498.615	66.56
498.832	85.56
499.049	92.56
499.267	75.56
499.484	94.56
499.701	85.56
499.918	77.56
500.135	94.56
500.352	79.56
500.569	81.56
500.786	92.56
501.003	97.56
501.22	74.56
501.437	75.56
501.654	84.56
501.871	75.56
502.088	86.56
502.305	83.56
502.522	86.56
502.739	96.56
502.956	94.56
503.172	72.56
503.389	79.56
503.606	64.56
503.823	96.56
504.04	88.56
504.256	92.56
504.473	89.56
504.69	89.56
504.907	81.56
505.123	71.56
505.34	86.56
505.557	79.56
505.773	93.56
505.99	79.56
506.207	83.56
506.423	76.56
506.64	80.56
506.856	95.56
507.073	70.56
507.289	89.56
507.506	82.56
507.722	84.56
507.939	90.56
508.155	84.56
508.372	88.56
508.588	71.56
508.805	76.56
509.021	81.56
509.238	78.56
509.454	86.56
509.67	74.56
509.887	81.56
510.103	87.56
510.319	79.56
510.536	85.56
510.752	80.56
510.968	70.56
511.184	81.56
511.401	89.56
511.617	82.56
511.833	79.56
512.049	86.56
512.265	72.56
512.481	76.56
512.698	76.56
512.914	81.56
513.13	82.56
513.346	67.56
513.562	89.56
513.778	78.56
513.994	70.56
514.21	83.56
514.426	96.56
514.642	83.56
514.858	81.56
515.074	78.56
515.29	91.56
515.506	86.56
515.721	100.56
515.937	80.56
516.153	90.56
516.369	92.56
516.585	90.56
516.801	81.56
517.016	92.56
517.232	95.56
517.448	91.56
517.664	74.56
517.879	97.56
518.095	80.56
518.311	85.56
518.527	66.56
518.742	82.56
518.958	72.56
519.173	77.56
519.389	88.56
519.605	86.56
519.82	88.56
520.036	77.56
520.251	75.56
