Data from BG_HRD10591_006.txt Node
Date: Fri May 16 15:26:50 EDT 2025
User: Yrep
Spectrometer: HR+D1059
Trigger mode: 1
Integration Time (sec): 1.000000E-1
Scans to average: 1
Electric dark correction enabled: true
Nonlinearity correction enabled: false
Boxcar width: 0
XAxis mode: Wavelengths
Number of Pixels in Spectrum: 2048
>>>>>Begin Spectral Data<<<<<
223.165	-29
223.4	-29
223.635	-29
223.869	-20
224.104	-17
224.338	-9
224.573	-14
224.808	-10
225.042	-12
225.277	-9
225.511	11
225.746	-1
225.98	-3
226.215	14
226.449	14
226.683	31
226.918	27
227.152	27
227.387	22
227.621	22
227.856	53
228.09	50
228.324	61
228.559	62
228.793	65
229.027	69
229.262	72
229.496	67
229.73	59
229.964	82
230.199	67
230.433	71
230.667	95
230.901	80
231.136	74
231.37	84
231.604	69
231.838	84
232.072	78
232.306	69
232.541	79
232.775	94
233.009	95
233.243	70
233.477	70
233.711	80
233.945	78
234.179	68
234.413	71
234.647	88
234.881	63
235.115	74
235.349	79
235.583	68
235.817	69
236.051	78
236.285	77
236.519	74
236.753	77
236.987	74
237.221	72
237.455	70
237.689	85
237.922	81
238.156	64
238.39	81
238.624	67
238.858	85
239.091	64
239.325	62
239.559	72
239.793	63
240.027	90
240.26	74
240.494	77
240.728	67
240.961	63
241.195	66
241.429	76
241.662	56
241.896	86
242.13	68
242.363	70
242.597	66
242.83	64
243.064	72
243.298	80
243.531	81
243.765	73
243.998	87
244.232	74
244.465	71
244.699	75
244.932	66
245.166	72
245.399	87
245.633	67
245.866	63
246.099	75
246.333	54
246.566	77
246.8	84
247.033	83
247.266	66
247.5	88
247.733	67
247.966	88
248.2	73
248.433	94
248.666	79
248.899	81
249.133	76
249.366	74
249.599	71
249.832	70
250.066	76
250.299	78
250.532	65
250.765	88
250.998	79
251.231	86
251.465	84
251.698	64
251.931	76
252.164	76
252.397	74
252.63	59
252.863	77
253.096	94
253.329	83
253.562	74
253.795	91
254.028	88
254.261	82
254.494	83
254.727	56
254.96	87
255.193	68
255.426	61
255.659	70
255.892	93
256.124	69
256.357	76
256.59	75
256.823	85
257.056	82
257.289	70
257.521	71
257.754	79
257.987	82
258.22	84
258.452	67
258.685	72
258.918	72
259.151	87
259.383	73
259.616	55
259.849	82
260.081	82
260.314	63
260.547	75
260.779	66
261.012	76
261.244	74
261.477	74
261.71	69
261.942	74
262.175	72
262.407	84
262.64	71
262.872	82
263.105	89
263.337	86
263.57	73
263.802	65
264.035	87
264.267	91
264.499	80
264.732	74
264.964	76
265.197	86
265.429	78
265.661	72
265.894	84
266.126	82
266.358	84
266.591	74
266.823	77
267.055	73
267.287	74
267.52	80
267.752	67
267.984	68
268.216	77
268.448	86
268.681	76
268.913	71
269.145	70
269.377	72
269.609	74
269.841	71
270.073	82
270.306	77
270.538	86
270.77	91
271.002	89
271.234	85
271.466	83
271.698	91
271.93	85
272.162	79
272.394	94
272.626	79
272.858	70
273.09	70
273.322	77
273.553	88
273.785	93
274.017	78
274.249	82
274.481	74
274.713	85
274.945	75
275.176	86
275.408	80
275.64	92
275.872	82
276.104	71
276.335	79
276.567	88
276.799	82
277.031	87
277.262	74
277.494	93
277.726	80
277.957	82
278.189	80
278.421	89
278.652	79
278.884	69
279.115	82
279.347	82
279.579	70
279.81	76
280.042	87
280.273	79
280.505	87
280.736	79
280.968	82
281.199	91
281.431	85
281.662	93
281.894	93
282.125	79
282.356	70
282.588	82
282.819	68
283.051	86
283.282	84
283.513	90
283.745	95
283.976	84
284.207	85
284.439	84
284.67	95
284.901	89
285.132	101
285.364	86
285.595	80
285.826	79
286.057	91
286.288	89
286.52	79
286.751	71
286.982	98
287.213	79
287.444	89
287.675	81
287.906	84
288.138	77
288.369	90
288.6	90
288.831	79
289.062	77
289.293	87
289.524	72
289.755	76
289.986	95
290.217	80
290.448	80
290.679	89
290.91	72
291.141	91
291.371	95
291.602	95
291.833	81
292.064	92
292.295	65
292.526	87
292.757	80
292.987	77
293.218	86
293.449	98
293.68	85
293.91	88
294.141	76
294.372	89
294.603	89
294.833	98
295.064	86
295.295	79
295.525	82
295.756	73
295.987	90
296.217	85
296.448	77
296.679	87
296.909	88
297.14	92
297.37	93
297.601	86
297.831	93
298.062	80
298.292	103
298.523	91
298.753	77
298.984	80
299.214	80
299.445	76
299.675	88
299.905	80
300.136	89
300.366	79
300.597	82
300.827	78
301.057	85
301.288	86
301.518	78
301.748	73
301.979	82
302.209	74
302.439	90
302.669	82
302.9	92
303.13	82
303.36	70
303.59	77
303.82	89
304.051	83
304.281	95
304.511	81
304.741	86
304.971	89
305.201	86
305.431	93
305.661	103
305.891	80
306.121	79
306.352	72
306.582	77
306.812	80
307.042	77
307.272	77
307.502	88
307.731	89
307.961	77
308.191	82
308.421	82
308.651	74
308.881	78
309.111	80
309.341	87
309.571	87
309.8	86
310.03	80
310.26	87
310.49	88
310.72	93
310.949	92
311.179	83
311.409	84
311.639	93
311.868	98
312.098	72
312.328	73
312.557	78
312.787	88
313.017	88
313.246	101
313.476	85
313.706	92
313.935	80
314.165	91
314.394	87
314.624	85
314.853	92
315.083	81
315.312	80
315.542	85
315.771	90
316.001	85
316.23	78
316.46	98
316.689	74
316.919	78
317.148	87
317.377	86
317.607	80
317.836	85
318.065	86
318.295	88
318.524	91
318.753	90
318.983	91
319.212	94
319.441	84
319.67	93
319.9	94
320.129	87
320.358	76
320.587	69
320.816	92
321.046	68
321.275	80
321.504	81
321.733	90
321.962	91
322.191	85
322.42	103
322.649	101
322.878	93
323.108	94
323.337	87
323.566	114
323.795	98
324.024	87
324.253	73
324.482	90
324.71	77
324.939	90
325.168	84
325.397	93
325.626	80
325.855	95
326.084	103
326.313	77
326.542	84
326.77	93
326.999	76
327.228	101
327.457	89
327.686	83
327.914	80
328.143	88
328.372	78
328.6	75
328.829	76
329.058	78
329.287	78
329.515	102
329.744	91
329.972	85
330.201	74
330.43	76
330.658	86
330.887	83
331.115	75
331.344	85
331.572	96
331.801	83
332.03	80
332.258	75
332.486	82
332.715	79
332.943	86
333.172	85
333.4	99
333.629	88
333.857	91
334.085	102
334.314	78
334.542	91
334.771	91
334.999	85
335.227	94
335.455	94
335.684	87
335.912	94
336.14	93
336.369	101
336.597	95
336.825	100
337.053	85
337.281	98
337.51	94
337.738	80
337.966	76
338.194	72
338.422	81
338.65	75
338.878	80
339.106	83
339.334	96
339.562	88
339.79	89
340.018	91
340.246	84
340.474	90
340.702	84
340.93	73
341.158	64
341.386	86
341.614	78
341.842	76
342.07	74
342.298	90
342.526	83
342.754	92
342.981	86
343.209	74
343.437	100
343.665	78
343.893	80
344.12	91
344.348	95
344.576	84
344.804	85
345.031	66
345.259	94
345.487	98
345.714	88
345.942	89
346.17	87
346.397	89
346.625	86
346.853	82
347.08	75
347.308	88
347.535	86
347.763	93
347.99	76
348.218	83
348.445	94
348.673	92
348.9	87
349.128	84
349.355	85
349.583	98
349.81	82
350.037	99
350.265	97
350.492	83
350.72	89
350.947	88
351.174	75
351.402	74
351.629	83
351.856	84
352.083	99
352.311	93
352.538	78
352.765	82
352.992	82
353.22	80
353.447	94
353.674	88
353.901	94
354.128	98
354.355	88
354.583	79
354.81	81
355.037	87
355.264	76
355.491	84
355.718	92
355.945	90
356.172	87
356.399	81
356.626	61
356.853	77
357.08	86
357.307	81
357.534	86
357.761	92
357.988	87
358.215	95
358.441	92
358.668	89
358.895	93
359.122	83
359.349	87
359.576	87
359.802	92
360.029	93
360.256	88
360.483	87
360.709	70
360.936	87
361.163	82
361.39	80
361.616	91
361.843	83
362.07	93
362.296	82
362.523	86
362.749	94
362.976	88
363.203	80
363.429	92
363.656	84
363.882	72
364.109	74
364.335	77
364.562	89
364.788	98
365.015	85
365.241	72
365.468	82
365.694	83
365.92	76
366.147	77
366.373	86
366.599	84
366.826	94
367.052	88
367.278	87
367.505	67
367.731	85
367.957	80
368.184	86
368.41	76
368.636	75
368.862	79
369.089	76
369.315	74
369.541	91
369.767	80
369.993	91
370.219	84
370.445	70
370.672	84
370.898	90
371.124	92
371.35	81
371.576	89
371.802	88
372.028	98
372.254	98
372.48	79
372.706	94
372.932	88
373.158	89
373.384	99
373.61	80
373.835	89
374.061	80
374.287	69
374.513	66
374.739	84
374.965	75
375.191	82
375.416	82
375.642	81
375.868	79
376.094	67
376.319	81
376.545	78
376.771	80
376.997	82
377.222	90
377.448	85
377.674	78
377.899	74
378.125	72
378.35	87
378.576	91
378.802	103
379.027	76
379.253	88
379.478	84
379.704	98
379.929	86
380.155	83
380.38	81
380.606	83
380.831	92
381.057	85
381.282	80
381.507	83
381.733	86
381.958	86
382.184	80
382.409	82
382.634	89
382.86	93
383.085	78
383.31	98
383.535	95
383.761	89
383.986	72
384.211	90
384.436	83
384.662	82
384.887	86
385.112	84
385.337	78
385.562	87
385.787	89
386.013	81
386.238	100
386.463	92
386.688	92
386.913	90
387.138	83
387.363	77
387.588	82
387.813	91
388.038	85
388.263	93
388.488	80
388.713	84
388.938	78
389.163	100
389.387	98
389.612	74
389.837	87
390.062	85
390.287	88
390.512	104
390.736	86
390.961	75
391.186	76
391.411	70
391.636	92
391.86	92
392.085	90
392.31	104
392.534	82
392.759	77
392.984	96
393.208	79
393.433	79
393.658	83
393.882	78
394.107	89
394.331	88
394.556	74
394.78	70
395.005	84
395.229	84
395.454	86
395.678	83
395.903	91
396.127	82
396.352	77
396.576	103
396.801	93
397.025	82
397.249	79
397.474	77
397.698	91
397.922	77
398.147	83
398.371	79
398.595	100
398.82	79
399.044	69
399.268	86
399.492	91
399.717	81
399.941	84
400.165	98
400.389	80
400.613	91
400.837	77
401.062	80
401.286	81
401.51	83
401.734	91
401.958	84
402.182	79
402.406	82
402.63	91
402.854	88
403.078	88
403.302	87
403.526	87
403.75	67
403.974	82
404.198	87
404.422	84
404.645	83
404.869	93
405.093	81
405.317	85
405.541	90
405.765	87
405.988	95
406.212	96
406.436	76
406.66	85
406.883	98
407.107	71
407.331	78
407.555	98
407.778	92
408.002	92
408.226	95
408.449	71
408.673	93
408.896	90
409.12	86
409.344	87
409.567	65
409.791	91
410.014	93
410.238	96
410.461	101
410.685	76
410.908	82
411.132	84
411.355	92
411.578	87
411.802	80
412.025	84
412.249	89
412.472	91
412.695	81
412.919	89
413.142	99
413.365	81
413.589	90
413.812	84
414.035	80
414.258	86
414.482	83
414.705	83
414.928	91
415.151	87
415.374	72
415.597	76
415.821	85
416.044	79
416.267	92
416.49	90
416.713	90
416.936	79
417.159	82
417.382	81
417.605	91
417.828	94
418.051	92
418.274	80
418.497	78
418.72	102
418.943	86
419.166	76
419.389	90
419.611	83
419.834	86
420.057	80
420.28	86
420.503	81
420.726	72
420.948	76
421.171	78
421.394	75
421.617	89
421.839	76
422.062	80
422.285	78
422.507	89
422.73	87
422.953	75
423.175	99
423.398	95
423.621	84
423.843	85
424.066	79
424.288	87
424.511	92
424.733	93
424.956	76
425.178	72
425.401	85
425.623	80
425.846	86
426.068	98
426.291	96
426.513	92
426.735	82
426.958	99
427.18	87
427.402	88
427.625	98
427.847	85
428.069	96
428.292	79
428.514	79
428.736	79
428.958	85
429.181	83
429.403	86
429.625	80
429.847	85
430.069	82
430.292	78
430.514	91
430.736	77
430.958	90
431.18	85
431.402	73
431.624	80
431.846	82
432.068	100
432.29	86
432.512	98
432.734	99
432.956	82
433.178	72
433.4	78
433.622	98
433.844	78
434.066	91
434.287	98
434.509	90
434.731	80
434.953	80
435.175	90
435.397	83
435.618	84
435.84	84
436.062	83
436.284	89
436.505	88
436.727	76
436.949	76
437.17	74
437.392	95
437.614	71
437.835	78
438.057	84
438.278	84
438.5	79
438.721	84
438.943	80
439.165	77
439.386	90
439.608	99
439.829	90
440.05	89
440.272	88
440.493	86
440.715	91
440.936	94
441.158	83
441.379	82
441.6	92
441.822	78
442.043	84
442.264	87
442.486	82
442.707	72
442.928	83
443.149	90
443.371	96
443.592	87
443.813	96
444.034	85
444.255	99
444.476	87
444.698	93
444.919	94
445.14	155
445.361	125
445.582	92
445.803	92
446.024	76
446.245	85
446.466	89
446.687	85
446.908	99
447.129	84
447.35	79
447.571	76
447.792	84
448.013	85
448.234	83
448.455	80
448.675	93
448.896	92
449.117	83
449.338	86
449.559	84
449.779	83
450	79
450.221	84
450.442	87
450.662	74
450.883	75
451.104	82
451.324	87
451.545	85
451.766	79
451.986	69
452.207	94
452.428	90
452.648	91
452.869	82
453.089	90
453.31	88
453.53	98
453.751	82
453.971	79
454.192	66
454.412	68
454.633	68
454.853	102
455.073	84
455.294	82
455.514	79
455.734	77
455.955	96
456.175	102
456.395	85
456.616	92
456.836	83
457.056	78
457.276	71
457.497	93
457.717	85
457.937	85
458.157	91
458.377	85
458.598	71
458.818	93
459.038	91
459.258	91
459.478	80
459.698	91
459.918	79
460.138	84
460.358	84
460.578	75
460.798	90
461.018	90
461.238	89
461.458	94
461.678	69
461.898	82
462.118	96
462.338	90
462.558	91
462.777	80
462.997	78
463.217	88
463.437	88
463.657	92
463.876	78
464.096	89
464.316	98
464.536	100
464.755	100
464.975	84
465.195	78
465.414	78
465.634	81
465.854	67
466.073	91
466.293	80
466.512	100
466.732	99
466.951	91
467.171	82
467.391	78
467.61	96
467.829	77
468.049	88
468.268	84
468.488	90
468.707	89
468.927	80
469.146	82
469.365	104
469.585	102
469.804	87
470.023	91
470.243	87
470.462	94
470.681	85
470.901	80
471.12	93
471.339	105
471.558	76
471.777	86
471.997	87
472.216	77
472.435	80
472.654	84
472.873	85
473.092	85
473.311	88
473.53	84
473.749	85
473.968	94
474.187	83
474.406	88
474.625	85
474.844	83
475.063	80
475.282	92
475.501	74
475.72	97
475.939	77
476.158	85
476.377	98
476.596	77
476.814	77
477.033	84
477.252	90
477.471	91
477.69	81
477.908	92
478.127	86
478.346	71
478.564	80
478.783	83
479.002	91
479.22	85
479.439	82
479.658	83
479.876	104
480.095	98
480.313	83
480.532	74
480.751	89
480.969	99
481.188	78
481.406	88
481.624	75
481.843	88
482.061	76
482.28	79
482.498	78
482.717	83
482.935	95
483.153	87
483.372	75
483.59	79
483.808	95
484.027	83
484.245	83
484.463	76
484.681	95
484.9	92
485.118	91
485.336	77
485.554	84
485.772	78
485.99	92
486.209	87
486.427	89
486.645	76
486.863	88
487.081	78
487.299	92
487.517	96
487.735	89
487.953	77
488.171	93
488.389	90
488.607	83
488.825	92
489.043	88
489.261	87
489.479	81
489.696	84
489.914	88
490.132	74
490.35	90
490.568	80
490.786	91
491.003	90
491.221	90
491.439	103
491.657	91
491.874	93
492.092	91
492.31	104
492.527	93
492.745	84
492.963	85
493.18	82
493.398	86
493.615	102
493.833	82
494.05	75
494.268	79
494.485	85
494.703	104
494.92	98
495.138	98
495.355	90
495.573	88
495.79	91
496.008	86
496.225	60
496.442	83
496.66	106
496.877	98
497.094	96
497.312	84
497.529	100
497.746	79
497.963	84
498.181	79
498.398	86
498.615	86
498.832	102
499.049	94
499.267	89
499.484	96
499.701	96
499.918	109
500.135	109
500.352	111
500.569	86
500.786	100
501.003	110
501.22	102
501.437	98
501.654	92
501.871	90
502.088	90
502.305	85
502.522	100
502.739	96
502.956	104
503.172	90
503.389	80
503.606	77
503.823	76
504.04	86
504.256	100
504.473	76
504.69	90
504.907	93
505.123	91
505.34	80
505.557	98
505.773	81
505.99	83
506.207	98
506.423	107
506.64	90
506.856	84
507.073	88
507.289	87
507.506	91
507.722	83
507.939	92
508.155	80
508.372	87
508.588	79
508.805	92
509.021	93
509.238	92
509.454	87
509.67	94
509.887	94
510.103	88
510.319	87
510.536	86
510.752	88
510.968	84
511.184	94
511.401	73
511.617	90
511.833	89
512.049	88
512.265	90
512.481	96
512.698	92
512.914	91
513.13	76
513.346	93
513.562	94
513.778	93
513.994	88
514.21	102
514.426	81
514.642	98
514.858	98
515.074	77
515.29	108
515.506	85
515.721	78
515.937	88
516.153	99
516.369	91
516.585	86
516.801	94
517.016	96
517.232	88
517.448	90
517.664	93
517.879	94
518.095	90
518.311	89
518.527	86
518.742	84
518.958	81
519.173	85
519.389	90
519.605	85
519.82	94
520.036	88
520.251	80
520.467	83
520.682	86
520.898	77
521.113	89
521.329	91
521.544	78
521.76	105
521.975	88
522.19	86
522.406	86
522.621	82
522.836	83
523.052	94
523.267	78
523.482	75
523.698	87
523.913	87
524.128	94
524.343	92
524.559	94
524.774	71
524.989	83
525.204	90
525.419	78
525.634	110
525.849	77
526.064	93
526.28	90
526.495	98
526.71	100
526.925	82
527.14	78
527.355	81
527.57	99
527.785	84
527.999	77
528.214	88
528.429	87
528.644	100
528.859	91
529.074	76
529.289	93
529.503	84
529.718	96
529.933	79
530.148	91
530.363	90
530.577	91
530.792	82
531.007	96
531.221	82
531.436	84
531.651	85
531.865	83
532.08	100
532.295	96
532.509	86
532.724	81
532.938	87
533.153	93
533.367	86
533.582	86
533.796	78
534.011	80
534.225	85
534.44	75
534.654	76
534.868	99
535.083	104
535.297	75
535.511	104
535.726	89
535.94	87
536.154	86
536.369	90
536.583	78
536.797	91
537.011	95
537.225	103
537.44	90
537.654	86
537.868	86
538.082	95
538.296	70
538.51	86
538.724	79
538.938	90
539.153	86
539.367	98
539.581	95
539.795	86
540.009	110
540.222	81
540.436	95
540.65	89
540.864	89
541.078	90
541.292	79
541.506	101
541.72	90
541.934	85
542.147	80
542.361	79
542.575	88
542.789	86
543.002	90
543.216	88
543.43	83
543.644	92
543.857	87
544.071	81
544.285	80
544.498	84
544.712	88
544.925	87
545.139	99
545.352	85
545.566	86
545.779	104
545.993	95
546.206	76
546.42	94
546.633	89
546.847	96
547.06	91
547.274	81
547.487	94
547.7	77
547.914	82
548.127	80
548.34	80
548.554	91
548.767	76
548.98	102
549.193	105
549.407	85
549.62	90
549.833	78
550.046	84
550.259	91
550.473	80
550.686	93
550.899	71
551.112	85
551.325	77
551.538	94
551.751	90
551.964	95
552.177	91
552.39	84
552.603	85
552.816	84
553.029	93
553.242	79
553.455	85
553.667	93
553.88	84
554.093	90
554.306	92
554.519	102
554.732	84
554.944	89
555.157	96
555.37	84
555.583	80
555.795	90
556.008	94
556.221	100
556.433	85
556.646	83
556.859	98
557.071	89
557.284	82
557.496	100
557.709	76
557.921	91
558.134	86
558.346	86
558.559	86
558.771	75
558.984	89
559.196	85
559.409	91
559.621	75
559.833	88
560.046	98
560.258	96
560.47	98
560.683	76
560.895	90
561.107	85
561.32	83
561.532	94
561.744	85
561.956	92
562.168	82
562.381	93
562.593	92
562.805	82
563.017	86
563.229	71
563.441	83
563.653	94
563.865	78
564.077	92
564.289	94
564.501	87
564.713	87
564.925	92
565.137	82
565.349	87
565.561	87
565.773	91
565.985	93
566.197	102
566.408	90
566.62	83
566.832	94
567.044	93
567.255	82
567.467	85
567.679	87
567.891	98
568.102	102
568.314	87
568.526	109
568.737	83
568.949	80
569.161	82
569.372	92
569.584	82
569.795	98
570.007	75
570.218	76
570.43	84
570.641	75
570.853	83
571.064	88
571.276	77
571.487	84
571.698	86
571.91	94
572.121	87
572.333	87
572.544	88
572.755	93
572.966	79
573.178	87
573.389	91
573.6	92
573.811	98
574.023	90
574.234	87
574.445	80
574.656	68
574.867	86
575.078	92
575.289	83
575.501	83
575.712	85
575.923	100
576.134	87
576.345	89
576.556	105
576.767	93
576.978	82
577.188	74
577.399	88
577.61	78
577.821	86
578.032	60
578.243	103
578.454	88
578.665	81
578.875	82
579.086	88
579.297	91
579.508	89
579.718	85
579.929	102
580.14	85
580.35	94
580.561	87
580.772	93
580.982	99
581.193	78
581.403	78
581.614	78
581.825	78
582.035	80
582.246	85
582.456	79
582.667	82
582.877	77
583.087	90
583.298	87
583.508	75
583.719	84
583.929	90
584.139	91
584.35	88
584.56	84
584.77	76
584.981	82
585.191	81
585.401	86
585.611	85
585.821	83
586.032	85
586.242	88
586.452	70
586.662	98
586.872	70
587.082	88
587.292	86
587.502	82
587.713	85
587.923	70
588.133	82
588.343	78
588.553	76
588.762	71
588.972	90
589.182	81
589.392	77
589.602	88
589.812	95
