Data from BG_HRD10591_060.txt Node
Date: Fri May 16 15:27:17 EDT 2025
User: Yrep
Spectrometer: HR+D1059
Trigger mode: 1
Integration Time (sec): 1.000000E-1
Scans to average: 1
Electric dark correction enabled: true
Nonlinearity correction enabled: false
Boxcar width: 0
XAxis mode: Wavelengths
Number of Pixels in Spectrum: 2048
>>>>>Begin Spectral Data<<<<<
223.165	-20.12
223.4	-20.12
223.635	-20.12
223.869	-10.12
224.104	-21.12
224.338	-15.12
224.573	-5.12
224.808	-10.12
225.042	-2.12
225.277	5.88
225.511	-12.12
225.746	-1.12
225.98	14.88
226.215	-4.12
226.449	18.88
226.683	8.88
226.918	24.88
227.152	27.88
227.387	30.88
227.621	40.88
227.856	44.88
228.09	43.88
228.324	48.88
228.559	59.88
228.793	52.88
229.027	51.88
229.262	74.88
229.496	56.88
229.73	58.88
229.964	64.88
230.199	76.88
230.433	82.88
230.667	75.88
230.901	71.88
231.136	76.88
231.37	76.88
231.604	84.88
231.838	85.88
232.072	82.88
232.306	70.88
232.541	73.88
232.775	78.88
233.009	83.88
233.243	67.88
233.477	89.88
233.711	91.88
233.945	70.88
234.179	92.88
234.413	77.88
234.647	81.88
234.881	60.88
235.115	98.88
235.349	67.88
235.583	71.88
235.817	73.88
236.051	63.88
236.285	65.88
236.519	73.88
236.753	69.88
236.987	70.88
237.221	62.88
237.455	73.88
237.689	67.88
237.922	89.88
238.156	67.88
238.39	75.88
238.624	67.88
238.858	82.88
239.091	94.88
239.325	74.88
239.559	70.88
239.793	76.88
240.027	68.88
240.26	74.88
240.494	67.88
240.728	78.88
240.961	83.88
241.195	67.88
241.429	70.88
241.662	84.88
241.896	62.88
242.13	80.88
242.363	64.88
242.597	69.88
242.83	83.88
243.064	68.88
243.298	78.88
243.531	74.88
243.765	67.88
243.998	73.88
244.232	79.88
244.465	80.88
244.699	62.88
244.932	76.88
245.166	77.88
245.399	76.88
245.633	75.88
245.866	79.88
246.099	58.88
246.333	87.88
246.566	58.88
246.8	75.88
247.033	63.88
247.266	58.88
247.5	74.88
247.733	76.88
247.966	83.88
248.2	57.88
248.433	85.88
248.666	67.88
248.899	65.88
249.133	69.88
249.366	82.88
249.599	69.88
249.832	60.88
250.066	79.88
250.299	76.88
250.532	77.88
250.765	70.88
250.998	74.88
251.231	79.88
251.465	75.88
251.698	70.88
251.931	78.88
252.164	72.88
252.397	68.88
252.63	66.88
252.863	71.88
253.096	74.88
253.329	93.88
253.562	66.88
253.795	69.88
254.028	79.88
254.261	69.88
254.494	74.88
254.727	76.88
254.96	92.88
255.193	77.88
255.426	71.88
255.659	82.88
255.892	79.88
256.124	73.88
256.357	59.88
256.59	57.88
256.823	78.88
257.056	67.88
257.289	65.88
257.521	73.88
257.754	88.88
257.987	74.88
258.22	90.88
258.452	66.88
258.685	69.88
258.918	74.88
259.151	83.88
259.383	82.88
259.616	81.88
259.849	73.88
260.081	95.88
260.314	67.88
260.547	70.88
260.779	67.88
261.012	75.88
261.244	84.88
261.477	83.88
261.71	90.88
261.942	87.88
262.175	80.88
262.407	78.88
262.64	83.88
262.872	77.88
263.105	82.88
263.337	69.88
263.57	78.88
263.802	80.88
264.035	68.88
264.267	81.88
264.499	86.88
264.732	78.88
264.964	80.88
265.197	86.88
265.429	87.88
265.661	64.88
265.894	82.88
266.126	87.88
266.358	79.88
266.591	60.88
266.823	83.88
267.055	81.88
267.287	71.88
267.52	78.88
267.752	84.88
267.984	93.88
268.216	73.88
268.448	78.88
268.681	78.88
268.913	83.88
269.145	70.88
269.377	70.88
269.609	89.88
269.841	75.88
270.073	82.88
270.306	85.88
270.538	62.88
270.77	77.88
271.002	93.88
271.234	90.88
271.466	71.88
271.698	75.88
271.93	83.88
272.162	81.88
272.394	77.88
272.626	79.88
272.858	78.88
273.09	74.88
273.322	94.88
273.553	76.88
273.785	89.88
274.017	83.88
274.249	84.88
274.481	97.88
274.713	82.88
274.945	75.88
275.176	78.88
275.408	69.88
275.64	90.88
275.872	72.88
276.104	77.88
276.335	66.88
276.567	78.88
276.799	75.88
277.031	76.88
277.262	84.88
277.494	78.88
277.726	73.88
277.957	74.88
278.189	77.88
278.421	70.88
278.652	74.88
278.884	76.88
279.115	87.88
279.347	80.88
279.579	80.88
279.81	79.88
280.042	79.88
280.273	73.88
280.505	69.88
280.736	73.88
280.968	81.88
281.199	70.88
281.431	72.88
281.662	85.88
281.894	70.88
282.125	79.88
282.356	78.88
282.588	62.88
282.819	87.88
283.051	79.88
283.282	63.88
283.513	61.88
283.745	87.88
283.976	90.88
284.207	99.88
284.439	74.88
284.67	74.88
284.901	81.88
285.132	84.88
285.364	73.88
285.595	68.88
285.826	78.88
286.057	96.88
286.288	65.88
286.52	74.88
286.751	76.88
286.982	90.88
287.213	85.88
287.444	90.88
287.675	94.88
287.906	89.88
288.138	56.88
288.369	88.88
288.6	72.88
288.831	78.88
289.062	73.88
289.293	83.88
289.524	68.88
289.755	76.88
289.986	70.88
290.217	84.88
290.448	86.88
290.679	76.88
290.91	81.88
291.141	87.88
291.371	83.88
291.602	82.88
291.833	75.88
292.064	73.88
292.295	76.88
292.526	80.88
292.757	72.88
292.987	83.88
293.218	78.88
293.449	76.88
293.68	81.88
293.91	87.88
294.141	74.88
294.372	81.88
294.603	71.88
294.833	73.88
295.064	73.88
295.295	64.88
295.525	72.88
295.756	78.88
295.987	90.88
296.217	87.88
296.448	80.88
296.679	65.88
296.909	69.88
297.14	63.88
297.37	86.88
297.601	80.88
297.831	86.88
298.062	97.88
298.292	69.88
298.523	84.88
298.753	76.88
298.984	69.88
299.214	83.88
299.445	71.88
299.675	84.88
299.905	84.88
300.136	82.88
300.366	68.88
300.597	83.88
300.827	62.88
301.057	90.88
301.288	85.88
301.518	82.88
301.748	75.88
301.979	89.88
302.209	91.88
302.439	74.88
302.669	63.88
302.9	85.88
303.13	86.88
303.36	79.88
303.59	60.88
303.82	81.88
304.051	86.88
304.281	69.88
304.511	78.88
304.741	82.88
304.971	86.88
305.201	73.88
305.431	76.88
305.661	79.88
305.891	77.88
306.121	73.88
306.352	74.88
306.582	86.88
306.812	94.88
307.042	79.88
307.272	74.88
307.502	75.88
307.731	73.88
307.961	86.88
308.191	76.88
308.421	65.88
308.651	75.88
308.881	79.88
309.111	77.88
309.341	86.88
309.571	69.88
309.8	78.88
310.03	77.88
310.26	74.88
310.49	85.88
310.72	92.88
310.949	64.88
311.179	79.88
311.409	82.88
311.639	97.88
311.868	87.88
312.098	88.88
312.328	69.88
312.557	73.88
312.787	61.88
313.017	68.88
313.246	71.88
313.476	73.88
313.706	71.88
313.935	73.88
314.165	82.88
314.394	85.88
314.624	85.88
314.853	78.88
315.083	77.88
315.312	83.88
315.542	90.88
315.771	69.88
316.001	63.88
316.23	70.88
316.46	70.88
316.689	86.88
316.919	81.88
317.148	88.88
317.377	73.88
317.607	88.88
317.836	68.88
318.065	71.88
318.295	82.88
318.524	84.88
318.753	79.88
318.983	77.88
319.212	80.88
319.441	81.88
319.67	92.88
319.9	91.88
320.129	73.88
320.358	78.88
320.587	72.88
320.816	79.88
321.046	81.88
321.275	88.88
321.504	74.88
321.733	69.88
321.962	81.88
322.191	69.88
322.42	91.88
322.649	87.88
322.878	83.88
323.108	84.88
323.337	77.88
323.566	75.88
323.795	76.88
324.024	83.88
324.253	86.88
324.482	81.88
324.71	81.88
324.939	90.88
325.168	67.88
325.397	76.88
325.626	74.88
325.855	89.88
326.084	76.88
326.313	91.88
326.542	77.88
326.77	73.88
326.999	86.88
327.228	90.88
327.457	82.88
327.686	76.88
327.914	81.88
328.143	89.88
328.372	78.88
328.6	76.88
328.829	79.88
329.058	77.88
329.287	72.88
329.515	71.88
329.744	66.88
329.972	79.88
330.201	76.88
330.43	71.88
330.658	85.88
330.887	72.88
331.115	67.88
331.344	77.88
331.572	86.88
331.801	63.88
332.03	86.88
332.258	73.88
332.486	76.88
332.715	72.88
332.943	76.88
333.172	93.88
333.4	75.88
333.629	82.88
333.857	86.88
334.085	81.88
334.314	70.88
334.542	78.88
334.771	79.88
334.999	86.88
335.227	80.88
335.455	83.88
335.684	74.88
335.912	77.88
336.14	83.88
336.369	75.88
336.597	70.88
336.825	88.88
337.053	75.88
337.281	84.88
337.51	85.88
337.738	82.88
337.966	74.88
338.194	81.88
338.422	78.88
338.65	87.88
338.878	79.88
339.106	89.88
339.334	85.88
339.562	81.88
339.79	66.88
340.018	87.88
340.246	77.88
340.474	77.88
340.702	68.88
340.93	70.88
341.158	78.88
341.386	73.88
341.614	80.88
341.842	72.88
342.07	65.88
342.298	85.88
342.526	71.88
342.754	73.88
342.981	77.88
343.209	81.88
343.437	103.88
343.665	82.88
343.893	77.88
344.12	72.88
344.348	75.88
344.576	89.88
344.804	70.88
345.031	92.88
345.259	79.88
345.487	68.88
345.714	75.88
345.942	72.88
346.17	69.88
346.397	75.88
346.625	91.88
346.853	86.88
347.08	77.88
347.308	78.88
347.535	88.88
347.763	91.88
347.99	90.88
348.218	95.88
348.445	79.88
348.673	78.88
348.9	69.88
349.128	86.88
349.355	89.88
349.583	83.88
349.81	83.88
350.037	75.88
350.265	78.88
350.492	77.88
350.72	87.88
350.947	87.88
351.174	78.88
351.402	76.88
351.629	72.88
351.856	86.88
352.083	85.88
352.311	78.88
352.538	75.88
352.765	65.88
352.992	89.88
353.22	93.88
353.447	72.88
353.674	78.88
353.901	84.88
354.128	87.88
354.355	97.88
354.583	81.88
354.81	76.88
355.037	91.88
355.264	86.88
355.491	82.88
355.718	83.88
355.945	72.88
356.172	86.88
356.399	84.88
356.626	90.88
356.853	87.88
357.08	85.88
357.307	79.88
357.534	78.88
357.761	76.88
357.988	79.88
358.215	91.88
358.441	78.88
358.668	83.88
358.895	89.88
359.122	81.88
359.349	73.88
359.576	82.88
359.802	77.88
360.029	76.88
360.256	74.88
360.483	90.88
360.709	91.88
360.936	89.88
361.163	77.88
361.39	70.88
361.616	88.88
361.843	88.88
362.07	70.88
362.296	61.88
362.523	61.88
362.749	63.88
362.976	87.88
363.203	92.88
363.429	83.88
363.656	87.88
363.882	66.88
364.109	67.88
364.335	97.88
364.562	93.88
364.788	84.88
365.015	67.88
365.241	90.88
365.468	84.88
365.694	86.88
365.92	67.88
366.147	88.88
366.373	82.88
366.599	75.88
366.826	73.88
367.052	76.88
367.278	73.88
367.505	74.88
367.731	84.88
367.957	72.88
368.184	81.88
368.41	81.88
368.636	84.88
368.862	84.88
369.089	79.88
369.315	57.88
369.541	77.88
369.767	89.88
369.993	83.88
370.219	83.88
370.445	76.88
370.672	81.88
370.898	77.88
371.124	89.88
371.35	60.88
371.576	74.88
371.802	71.88
372.028	76.88
372.254	87.88
372.48	83.88
372.706	78.88
372.932	87.88
373.158	87.88
373.384	80.88
373.61	93.88
373.835	83.88
374.061	83.88
374.287	87.88
374.513	84.88
374.739	82.88
374.965	68.88
375.191	74.88
375.416	89.88
375.642	93.88
375.868	95.88
376.094	69.88
376.319	76.88
376.545	80.88
376.771	74.88
376.997	88.88
377.222	57.88
377.448	81.88
377.674	89.88
377.899	79.88
378.125	74.88
378.35	82.88
378.576	89.88
378.802	78.88
379.027	85.88
379.253	69.88
379.478	65.88
379.704	79.88
379.929	71.88
380.155	78.88
380.38	77.88
380.606	75.88
380.831	88.88
381.057	68.88
381.282	76.88
381.507	75.88
381.733	88.88
381.958	83.88
382.184	71.88
382.409	72.88
382.634	94.88
382.86	81.88
383.085	67.88
383.31	83.88
383.535	64.88
383.761	73.88
383.986	78.88
384.211	65.88
384.436	81.88
384.662	77.88
384.887	78.88
385.112	87.88
385.337	74.88
385.562	83.88
385.787	90.88
386.013	77.88
386.238	66.88
386.463	85.88
386.688	82.88
386.913	77.88
387.138	77.88
387.363	72.88
387.588	75.88
387.813	79.88
388.038	74.88
388.263	77.88
388.488	84.88
388.713	89.88
388.938	84.88
389.163	74.88
389.387	77.88
389.612	75.88
389.837	71.88
390.062	83.88
390.287	71.88
390.512	72.88
390.736	75.88
390.961	68.88
391.186	71.88
391.411	83.88
391.636	83.88
391.86	63.88
392.085	84.88
392.31	76.88
392.534	68.88
392.759	63.88
392.984	82.88
393.208	68.88
393.433	77.88
393.658	76.88
393.882	85.88
394.107	73.88
394.331	87.88
394.556	85.88
394.78	70.88
395.005	87.88
395.229	77.88
395.454	81.88
395.678	73.88
395.903	82.88
396.127	97.88
396.352	85.88
396.576	75.88
396.801	75.88
397.025	71.88
397.249	82.88
397.474	71.88
397.698	70.88
397.922	75.88
398.147	76.88
398.371	87.88
398.595	91.88
398.82	82.88
399.044	78.88
399.268	73.88
399.492	73.88
399.717	91.88
399.941	74.88
400.165	75.88
400.389	84.88
400.613	77.88
400.837	69.88
401.062	91.88
401.286	77.88
401.51	56.88
401.734	67.88
401.958	70.88
402.182	78.88
402.406	73.88
402.63	84.88
402.854	91.88
403.078	94.88
403.302	62.88
403.526	73.88
403.75	73.88
403.974	69.88
404.198	81.88
404.422	67.88
404.645	79.88
404.869	87.88
405.093	77.88
405.317	91.88
405.541	71.88
405.765	85.88
405.988	76.88
406.212	73.88
406.436	73.88
406.66	76.88
406.883	79.88
407.107	72.88
407.331	65.88
407.555	88.88
407.778	81.88
408.002	69.88
408.226	71.88
408.449	66.88
408.673	64.88
408.896	75.88
409.12	77.88
409.344	74.88
409.567	87.88
409.791	79.88
410.014	69.88
410.238	61.88
410.461	82.88
410.685	70.88
410.908	69.88
411.132	69.88
411.355	67.88
411.578	99.88
411.802	82.88
412.025	68.88
412.249	59.88
412.472	76.88
412.695	60.88
412.919	87.88
413.142	75.88
413.365	76.88
413.589	75.88
413.812	84.88
414.035	68.88
414.258	85.88
414.482	87.88
414.705	91.88
414.928	87.88
415.151	74.88
415.374	84.88
415.597	70.88
415.821	85.88
416.044	77.88
416.267	84.88
416.49	81.88
416.713	88.88
416.936	67.88
417.159	63.88
417.382	72.88
417.605	71.88
417.828	84.88
418.051	63.88
418.274	77.88
418.497	70.88
418.72	85.88
418.943	73.88
419.166	76.88
419.389	78.88
419.611	62.88
419.834	73.88
420.057	79.88
420.28	74.88
420.503	78.88
420.726	73.88
420.948	71.88
421.171	88.88
421.394	81.88
421.617	82.88
421.839	89.88
422.062	82.88
422.285	73.88
422.507	74.88
422.73	74.88
422.953	67.88
423.175	74.88
423.398	76.88
423.621	78.88
423.843	74.88
424.066	77.88
424.288	76.88
424.511	74.88
424.733	75.88
424.956	67.88
425.178	84.88
425.401	69.88
425.623	63.88
425.846	87.88
426.068	60.88
426.291	69.88
426.513	70.88
426.735	79.88
426.958	78.88
427.18	81.88
427.402	76.88
427.625	81.88
427.847	81.88
428.069	72.88
428.292	70.88
428.514	74.88
428.736	86.88
428.958	77.88
429.181	65.88
429.403	69.88
429.625	72.88
429.847	76.88
430.069	85.88
430.292	58.88
430.514	81.88
430.736	74.88
430.958	84.88
431.18	69.88
431.402	73.88
431.624	77.88
431.846	70.88
432.068	75.88
432.29	58.88
432.512	81.88
432.734	83.88
432.956	71.88
433.178	90.88
433.4	70.88
433.622	62.88
433.844	74.88
434.066	101.88
434.287	58.88
434.509	73.88
434.731	78.88
434.953	91.88
435.175	74.88
435.397	72.88
435.618	70.88
435.84	70.88
436.062	85.88
436.284	87.88
436.505	86.88
436.727	85.88
436.949	63.88
437.17	58.88
437.392	67.88
437.614	70.88
437.835	75.88
438.057	80.88
438.278	60.88
438.5	71.88
438.721	74.88
438.943	71.88
439.165	71.88
439.386	63.88
439.608	78.88
439.829	76.88
440.05	75.88
440.272	91.88
440.493	89.88
440.715	82.88
440.936	75.88
441.158	69.88
441.379	81.88
441.6	73.88
441.822	73.88
442.043	75.88
442.264	69.88
442.486	90.88
442.707	74.88
442.928	73.88
443.149	78.88
443.371	79.88
443.592	81.88
443.813	73.88
444.034	76.88
444.255	73.88
444.476	73.88
444.698	72.88
444.919	72.88
445.14	146.88
445.361	105.88
445.582	80.88
445.803	70.88
446.024	66.88
446.245	76.88
446.466	71.88
446.687	82.88
446.908	79.88
447.129	73.88
447.35	82.88
447.571	88.88
447.792	71.88
448.013	73.88
448.234	81.88
448.455	76.88
448.675	64.88
448.896	85.88
449.117	77.88
449.338	81.88
449.559	65.88
449.779	65.88
450	86.88
450.221	75.88
450.442	73.88
450.662	71.88
450.883	77.88
451.104	75.88
451.324	86.88
451.545	85.88
451.766	81.88
451.986	81.88
452.207	77.88
452.428	73.88
452.648	73.88
452.869	67.88
453.089	87.88
453.31	88.88
453.53	79.88
453.751	74.88
453.971	97.88
454.192	71.88
454.412	83.88
454.633	74.88
454.853	74.88
455.073	76.88
455.294	85.88
455.514	83.88
455.734	94.88
455.955	86.88
456.175	82.88
456.395	67.88
456.616	90.88
456.836	81.88
457.056	71.88
457.276	95.88
457.497	76.88
457.717	81.88
457.937	84.88
458.157	98.88
458.377	81.88
458.598	59.88
458.818	79.88
459.038	81.88
459.258	67.88
459.478	74.88
459.698	76.88
459.918	89.88
460.138	91.88
460.358	67.88
460.578	66.88
460.798	78.88
461.018	93.88
461.238	90.88
461.458	91.88
461.678	78.88
461.898	72.88
462.118	75.88
462.338	85.88
462.558	87.88
462.777	79.88
462.997	78.88
463.217	67.88
463.437	71.88
463.657	71.88
463.876	84.88
464.096	98.88
464.316	68.88
464.536	71.88
464.755	95.88
464.975	75.88
465.195	81.88
465.414	74.88
465.634	68.88
465.854	63.88
466.073	85.88
466.293	55.88
466.512	88.88
466.732	86.88
466.951	82.88
467.171	83.88
467.391	71.88
467.61	73.88
467.829	78.88
468.049	85.88
468.268	79.88
468.488	51.88
468.707	66.88
468.927	84.88
469.146	77.88
469.365	78.88
469.585	80.88
469.804	66.88
470.023	85.88
470.243	70.88
470.462	72.88
470.681	77.88
470.901	76.88
471.12	84.88
471.339	78.88
471.558	64.88
471.777	69.88
471.997	87.88
472.216	83.88
472.435	93.88
472.654	91.88
472.873	71.88
473.092	73.88
473.311	75.88
473.53	76.88
473.749	87.88
473.968	95.88
474.187	72.88
474.406	81.88
474.625	81.88
474.844	86.88
475.063	64.88
475.282	62.88
475.501	80.88
475.72	89.88
475.939	86.88
476.158	86.88
476.377	86.88
476.596	73.88
476.814	78.88
477.033	77.88
477.252	83.88
477.471	89.88
477.69	83.88
477.908	84.88
478.127	68.88
478.346	69.88
478.564	73.88
478.783	81.88
479.002	82.88
479.22	77.88
479.439	67.88
479.658	71.88
479.876	81.88
480.095	67.88
480.313	71.88
480.532	74.88
480.751	72.88
480.969	67.88
481.188	77.88
481.406	77.88
481.624	79.88
481.843	81.88
482.061	83.88
482.28	67.88
482.498	86.88
482.717	85.88
482.935	83.88
483.153	81.88
483.372	68.88
483.59	73.88
483.808	59.88
484.027	82.88
484.245	80.88
484.463	78.88
484.681	90.88
484.9	73.88
485.118	84.88
485.336	62.88
485.554	81.88
485.772	67.88
485.99	82.88
486.209	77.88
486.427	91.88
486.645	77.88
486.863	77.88
487.081	91.88
487.299	73.88
487.517	85.88
487.735	72.88
487.953	73.88
488.171	81.88
488.389	74.88
488.607	87.88
488.825	84.88
489.043	73.88
489.261	81.88
489.479	61.88
489.696	81.88
489.914	75.88
490.132	77.88
490.35	76.88
490.568	93.88
490.786	80.88
491.003	79.88
491.221	71.88
491.439	53.88
491.657	91.88
491.874	82.88
492.092	92.88
492.31	77.88
492.527	83.88
492.745	77.88
492.963	80.88
493.18	83.88
493.398	77.88
493.615	88.88
493.833	75.88
494.05	80.88
494.268	85.88
494.485	87.88
494.703	86.88
494.92	79.88
495.138	73.88
495.355	69.88
495.573	90.88
495.79	78.88
496.008	81.88
496.225	88.88
496.442	77.88
496.66	93.88
496.877	85.88
497.094	73.88
497.312	63.88
497.529	83.88
497.746	73.88
497.963	76.88
498.181	83.88
498.398	86.88
498.615	73.88
498.832	88.88
499.049	86.88
499.267	89.88
499.484	81.88
499.701	69.88
499.918	93.88
500.135	97.88
500.352	67.88
500.569	75.88
500.786	87.88
501.003	77.88
501.22	78.88
501.437	74.88
501.654	77.88
501.871	76.88
502.088	69.88
502.305	92.88
502.522	60.88
502.739	77.88
502.956	83.88
503.172	70.88
503.389	94.88
503.606	89.88
503.823	76.88
504.04	82.88
504.256	75.88
504.473	74.88
504.69	87.88
504.907	86.88
505.123	85.88
505.34	86.88
505.557	89.88
505.773	83.88
505.99	75.88
506.207	74.88
506.423	71.88
506.64	82.88
506.856	67.88
507.073	64.88
507.289	72.88
507.506	77.88
507.722	66.88
507.939	78.88
508.155	84.88
508.372	81.88
508.588	82.88
508.805	83.88
509.021	89.88
509.238	65.88
509.454	76.88
509.67	75.88
509.887	77.88
510.103	84.88
510.319	83.88
510.536	78.88
510.752	73.88
510.968	72.88
511.184	85.88
511.401	83.88
511.617	75.88
511.833	98.88
512.049	74.88
512.265	68.88
512.481	71.88
512.698	87.88
512.914	71.88
513.13	70.88
513.346	82.88
513.562	59.88
513.778	86.88
513.994	71.88
514.21	72.88
514.426	85.88
514.642	89.88
514.858	81.88
515.074	83.88
515.29	72.88
515.506	78.88
515.721	77.88
515.937	80.88
516.153	65.88
516.369	79.88
516.585	74.88
516.801	70.88
517.016	85.88
517.232	89.88
517.448	75.88
517.664	89.88
517.879	59.88
518.095	74.88
518.311	73.88
518.527	90.88
518.742	77.88
518.958	84.88
519.173	87.88
519.389	81.88
519.605	81.88
519.82	79.88
520.036	65.88
520.251	82.88
