Data from BG_HRD10591_025.txt Node
Date: Fri May 16 15:26:59 EDT 2025
User: Yrep
Spectrometer: HR+D1059
Trigger mode: 1
Integration Time (sec): 1.000000E-1
Scans to average: 1
Electric dark correction enabled: true
Nonlinearity correction enabled: false
Boxcar width: 0
XAxis mode: Wavelengths
Number of Pixels in Spectrum: 2048
>>>>>Begin Spectral Data<<<<<
223.165	-7.94
223.4	-7.94
223.635	-7.94
223.869	-18.94
224.104	-17.94
224.338	-12.94
224.573	-8.94
224.808	-17.94
225.042	-11.94
225.277	-8.94
225.511	5.06
225.746	1.06
225.98	14.06
226.215	7.06
226.449	8.06
226.683	14.06
226.918	26.06
227.152	30.06
227.387	34.06
227.621	39.06
227.856	45.06
228.09	46.06
228.324	65.06
228.559	53.06
228.793	47.06
229.027	59.06
229.262	65.06
229.496	54.06
229.73	79.06
229.964	69.06
230.199	59.06
230.433	56.06
230.667	83.06
230.901	75.06
231.136	83.06
231.37	85.06
231.604	83.06
231.838	78.06
232.072	90.06
232.306	74.06
232.541	74.06
232.775	73.06
233.009	79.06
233.243	75.06
233.477	76.06
233.711	79.06
233.945	93.06
234.179	82.06
234.413	73.06
234.647	77.06
234.881	65.06
235.115	67.06
235.349	65.06
235.583	71.06
235.817	64.06
236.051	79.06
236.285	61.06
236.519	79.06
236.753	77.06
236.987	63.06
237.221	62.06
237.455	72.06
237.689	77.06
237.922	80.06
238.156	76.06
238.39	73.06
238.624	79.06
238.858	69.06
239.091	80.06
239.325	65.06
239.559	74.06
239.793	74.06
240.027	62.06
240.26	62.06
240.494	77.06
240.728	74.06
240.961	59.06
241.195	82.06
241.429	63.06
241.662	75.06
241.896	72.06
242.13	73.06
242.363	88.06
242.597	80.06
242.83	70.06
243.064	80.06
243.298	76.06
243.531	86.06
243.765	75.06
243.998	76.06
244.232	62.06
244.465	72.06
244.699	75.06
244.932	80.06
245.166	78.06
245.399	79.06
245.633	88.06
245.866	79.06
246.099	84.06
246.333	80.06
246.566	85.06
246.8	78.06
247.033	80.06
247.266	75.06
247.5	77.06
247.733	86.06
247.966	72.06
248.2	83.06
248.433	72.06
248.666	77.06
248.899	85.06
249.133	76.06
249.366	78.06
249.599	78.06
249.832	76.06
250.066	77.06
250.299	80.06
250.532	81.06
250.765	68.06
250.998	67.06
251.231	76.06
251.465	74.06
251.698	85.06
251.931	94.06
252.164	83.06
252.397	84.06
252.63	85.06
252.863	76.06
253.096	73.06
253.329	79.06
253.562	64.06
253.795	57.06
254.028	83.06
254.261	77.06
254.494	78.06
254.727	65.06
254.96	83.06
255.193	79.06
255.426	90.06
255.659	77.06
255.892	76.06
256.124	81.06
256.357	80.06
256.59	93.06
256.823	95.06
257.056	73.06
257.289	85.06
257.521	87.06
257.754	93.06
257.987	75.06
258.22	76.06
258.452	85.06
258.685	85.06
258.918	61.06
259.151	75.06
259.383	87.06
259.616	77.06
259.849	81.06
260.081	87.06
260.314	88.06
260.547	83.06
260.779	88.06
261.012	88.06
261.244	80.06
261.477	86.06
261.71	80.06
261.942	63.06
262.175	71.06
262.407	63.06
262.64	75.06
262.872	87.06
263.105	71.06
263.337	94.06
263.57	87.06
263.802	82.06
264.035	78.06
264.267	79.06
264.499	74.06
264.732	77.06
264.964	99.06
265.197	79.06
265.429	85.06
265.661	70.06
265.894	72.06
266.126	72.06
266.358	84.06
266.591	80.06
266.823	87.06
267.055	61.06
267.287	69.06
267.52	77.06
267.752	72.06
267.984	71.06
268.216	89.06
268.448	78.06
268.681	89.06
268.913	67.06
269.145	78.06
269.377	96.06
269.609	77.06
269.841	74.06
270.073	83.06
270.306	79.06
270.538	89.06
270.77	89.06
271.002	87.06
271.234	80.06
271.466	86.06
271.698	88.06
271.93	92.06
272.162	80.06
272.394	82.06
272.626	82.06
272.858	82.06
273.09	83.06
273.322	89.06
273.553	86.06
273.785	76.06
274.017	87.06
274.249	85.06
274.481	84.06
274.713	87.06
274.945	90.06
275.176	93.06
275.408	73.06
275.64	87.06
275.872	86.06
276.104	82.06
276.335	88.06
276.567	84.06
276.799	75.06
277.031	87.06
277.262	87.06
277.494	84.06
277.726	77.06
277.957	86.06
278.189	93.06
278.421	85.06
278.652	75.06
278.884	75.06
279.115	75.06
279.347	87.06
279.579	70.06
279.81	74.06
280.042	91.06
280.273	77.06
280.505	86.06
280.736	76.06
280.968	76.06
281.199	77.06
281.431	74.06
281.662	63.06
281.894	84.06
282.125	79.06
282.356	76.06
282.588	80.06
282.819	78.06
283.051	88.06
283.282	83.06
283.513	83.06
283.745	79.06
283.976	95.06
284.207	80.06
284.439	83.06
284.67	75.06
284.901	85.06
285.132	86.06
285.364	91.06
285.595	79.06
285.826	69.06
286.057	88.06
286.288	79.06
286.52	83.06
286.751	77.06
286.982	89.06
287.213	87.06
287.444	79.06
287.675	86.06
287.906	91.06
288.138	94.06
288.369	84.06
288.6	78.06
288.831	92.06
289.062	74.06
289.293	71.06
289.524	82.06
289.755	89.06
289.986	100.06
290.217	93.06
290.448	87.06
290.679	83.06
290.91	98.06
291.141	92.06
291.371	92.06
291.602	91.06
291.833	72.06
292.064	71.06
292.295	91.06
292.526	76.06
292.757	78.06
292.987	85.06
293.218	77.06
293.449	82.06
293.68	88.06
293.91	99.06
294.141	101.06
294.372	77.06
294.603	93.06
294.833	79.06
295.064	78.06
295.295	93.06
295.525	81.06
295.756	86.06
295.987	81.06
296.217	79.06
296.448	86.06
296.679	99.06
296.909	87.06
297.14	101.06
297.37	92.06
297.601	98.06
297.831	89.06
298.062	88.06
298.292	94.06
298.523	90.06
298.753	76.06
298.984	92.06
299.214	102.06
299.445	88.06
299.675	81.06
299.905	108.06
300.136	94.06
300.366	99.06
300.597	92.06
300.827	95.06
301.057	67.06
301.288	86.06
301.518	83.06
301.748	84.06
301.979	87.06
302.209	77.06
302.439	86.06
302.669	66.06
302.9	92.06
303.13	68.06
303.36	90.06
303.59	77.06
303.82	85.06
304.051	101.06
304.281	100.06
304.511	96.06
304.741	71.06
304.971	73.06
305.201	92.06
305.431	95.06
305.661	97.06
305.891	69.06
306.121	80.06
306.352	90.06
306.582	75.06
306.812	79.06
307.042	86.06
307.272	94.06
307.502	86.06
307.731	83.06
307.961	84.06
308.191	90.06
308.421	86.06
308.651	71.06
308.881	93.06
309.111	84.06
309.341	75.06
309.571	70.06
309.8	85.06
310.03	85.06
310.26	92.06
310.49	87.06
310.72	82.06
310.949	65.06
311.179	91.06
311.409	76.06
311.639	81.06
311.868	77.06
312.098	90.06
312.328	85.06
312.557	87.06
312.787	93.06
313.017	91.06
313.246	97.06
313.476	70.06
313.706	80.06
313.935	79.06
314.165	89.06
314.394	84.06
314.624	78.06
314.853	95.06
315.083	84.06
315.312	93.06
315.542	95.06
315.771	70.06
316.001	93.06
316.23	89.06
316.46	86.06
316.689	96.06
316.919	79.06
317.148	93.06
317.377	87.06
317.607	85.06
317.836	100.06
318.065	83.06
318.295	72.06
318.524	94.06
318.753	82.06
318.983	81.06
319.212	84.06
319.441	90.06
319.67	88.06
319.9	79.06
320.129	87.06
320.358	91.06
320.587	87.06
320.816	94.06
321.046	91.06
321.275	85.06
321.504	93.06
321.733	68.06
321.962	67.06
322.191	102.06
322.42	96.06
322.649	77.06
322.878	91.06
323.108	76.06
323.337	78.06
323.566	89.06
323.795	77.06
324.024	88.06
324.253	88.06
324.482	85.06
324.71	85.06
324.939	92.06
325.168	92.06
325.397	82.06
325.626	100.06
325.855	78.06
326.084	66.06
326.313	84.06
326.542	81.06
326.77	86.06
326.999	89.06
327.228	85.06
327.457	87.06
327.686	72.06
327.914	91.06
328.143	94.06
328.372	87.06
328.6	90.06
328.829	89.06
329.058	85.06
329.287	96.06
329.515	75.06
329.744	93.06
329.972	93.06
330.201	86.06
330.43	96.06
330.658	84.06
330.887	93.06
331.115	77.06
331.344	83.06
331.572	84.06
331.801	79.06
332.03	87.06
332.258	84.06
332.486	79.06
332.715	72.06
332.943	76.06
333.172	85.06
333.4	86.06
333.629	87.06
333.857	84.06
334.085	88.06
334.314	92.06
334.542	73.06
334.771	86.06
334.999	83.06
335.227	90.06
335.455	92.06
335.684	76.06
335.912	92.06
336.14	81.06
336.369	80.06
336.597	80.06
336.825	89.06
337.053	78.06
337.281	109.06
337.51	77.06
337.738	102.06
337.966	88.06
338.194	92.06
338.422	96.06
338.65	81.06
338.878	84.06
339.106	104.06
339.334	102.06
339.562	82.06
339.79	89.06
340.018	69.06
340.246	100.06
340.474	106.06
340.702	87.06
340.93	92.06
341.158	99.06
341.386	98.06
341.614	88.06
341.842	73.06
342.07	74.06
342.298	89.06
342.526	91.06
342.754	89.06
342.981	90.06
343.209	92.06
343.437	104.06
343.665	77.06
343.893	75.06
344.12	88.06
344.348	102.06
344.576	84.06
344.804	87.06
345.031	86.06
345.259	87.06
345.487	87.06
345.714	84.06
345.942	87.06
346.17	86.06
346.397	87.06
346.625	87.06
346.853	103.06
347.08	103.06
347.308	81.06
347.535	105.06
347.763	75.06
347.99	97.06
348.218	99.06
348.445	86.06
348.673	99.06
348.9	102.06
349.128	83.06
349.355	83.06
349.583	83.06
349.81	92.06
350.037	78.06
350.265	84.06
350.492	86.06
350.72	91.06
350.947	93.06
351.174	87.06
351.402	83.06
351.629	81.06
351.856	90.06
352.083	81.06
352.311	87.06
352.538	78.06
352.765	92.06
352.992	89.06
353.22	80.06
353.447	83.06
353.674	81.06
353.901	96.06
354.128	89.06
354.355	101.06
354.583	95.06
354.81	84.06
355.037	89.06
355.264	77.06
355.491	80.06
355.718	73.06
355.945	89.06
356.172	73.06
356.399	74.06
356.626	78.06
356.853	91.06
357.08	83.06
357.307	94.06
357.534	69.06
357.761	86.06
357.988	95.06
358.215	87.06
358.441	77.06
358.668	77.06
358.895	93.06
359.122	72.06
359.349	86.06
359.576	75.06
359.802	73.06
360.029	88.06
360.256	48.06
360.483	73.06
360.709	86.06
360.936	89.06
361.163	93.06
361.39	91.06
361.616	77.06
361.843	91.06
362.07	91.06
362.296	86.06
362.523	84.06
362.749	88.06
362.976	81.06
363.203	102.06
363.429	101.06
363.656	83.06
363.882	86.06
364.109	83.06
364.335	94.06
364.562	72.06
364.788	84.06
365.015	88.06
365.241	101.06
365.468	84.06
365.694	89.06
365.92	70.06
366.147	82.06
366.373	80.06
366.599	92.06
366.826	83.06
367.052	73.06
367.278	68.06
367.505	90.06
367.731	99.06
367.957	69.06
368.184	94.06
368.41	88.06
368.636	83.06
368.862	89.06
369.089	87.06
369.315	76.06
369.541	85.06
369.767	103.06
369.993	77.06
370.219	91.06
370.445	76.06
370.672	87.06
370.898	84.06
371.124	95.06
371.35	82.06
371.576	89.06
371.802	92.06
372.028	82.06
372.254	96.06
372.48	105.06
372.706	74.06
372.932	73.06
373.158	78.06
373.384	84.06
373.61	86.06
373.835	94.06
374.061	80.06
374.287	91.06
374.513	86.06
374.739	88.06
374.965	80.06
375.191	90.06
375.416	88.06
375.642	92.06
375.868	88.06
376.094	92.06
376.319	80.06
376.545	100.06
376.771	72.06
376.997	84.06
377.222	88.06
377.448	87.06
377.674	90.06
377.899	82.06
378.125	72.06
378.35	83.06
378.576	76.06
378.802	92.06
379.027	85.06
379.253	77.06
379.478	79.06
379.704	79.06
379.929	96.06
380.155	80.06
380.38	86.06
380.606	81.06
380.831	88.06
381.057	90.06
381.282	71.06
381.507	91.06
381.733	78.06
381.958	89.06
382.184	73.06
382.409	89.06
382.634	83.06
382.86	78.06
383.085	89.06
383.31	95.06
383.535	91.06
383.761	79.06
383.986	88.06
384.211	89.06
384.436	85.06
384.662	81.06
384.887	76.06
385.112	94.06
385.337	80.06
385.562	77.06
385.787	87.06
386.013	78.06
386.238	93.06
386.463	91.06
386.688	88.06
386.913	76.06
387.138	91.06
387.363	81.06
387.588	100.06
387.813	90.06
388.038	108.06
388.263	92.06
388.488	99.06
388.713	101.06
388.938	103.06
389.163	86.06
389.387	80.06
389.612	86.06
389.837	107.06
390.062	95.06
390.287	96.06
390.512	84.06
390.736	84.06
390.961	94.06
391.186	91.06
391.411	77.06
391.636	86.06
391.86	82.06
392.085	92.06
392.31	79.06
392.534	103.06
392.759	98.06
392.984	89.06
393.208	77.06
393.433	94.06
393.658	92.06
393.882	77.06
394.107	79.06
394.331	83.06
394.556	90.06
394.78	91.06
395.005	76.06
395.229	75.06
395.454	88.06
395.678	92.06
395.903	87.06
396.127	87.06
396.352	89.06
396.576	92.06
396.801	78.06
397.025	79.06
397.249	70.06
397.474	86.06
397.698	79.06
397.922	86.06
398.147	80.06
398.371	81.06
398.595	89.06
398.82	88.06
399.044	86.06
399.268	89.06
399.492	84.06
399.717	87.06
399.941	77.06
400.165	86.06
400.389	108.06
400.613	96.06
400.837	84.06
401.062	89.06
401.286	91.06
401.51	103.06
401.734	77.06
401.958	86.06
402.182	90.06
402.406	86.06
402.63	87.06
402.854	68.06
403.078	92.06
403.302	84.06
403.526	94.06
403.75	93.06
403.974	74.06
404.198	93.06
404.422	83.06
404.645	78.06
404.869	91.06
405.093	92.06
405.317	84.06
405.541	103.06
405.765	106.06
405.988	85.06
406.212	91.06
406.436	76.06
406.66	79.06
406.883	76.06
407.107	86.06
407.331	86.06
407.555	83.06
407.778	79.06
408.002	89.06
408.226	91.06
408.449	86.06
408.673	82.06
408.896	87.06
409.12	88.06
409.344	84.06
409.567	102.06
409.791	93.06
410.014	91.06
410.238	104.06
410.461	92.06
410.685	78.06
410.908	91.06
411.132	87.06
411.355	100.06
411.578	101.06
411.802	78.06
412.025	99.06
412.249	86.06
412.472	72.06
412.695	81.06
412.919	89.06
413.142	86.06
413.365	90.06
413.589	92.06
413.812	77.06
414.035	83.06
414.258	81.06
414.482	87.06
414.705	83.06
414.928	89.06
415.151	80.06
415.374	91.06
415.597	75.06
415.821	79.06
416.044	93.06
416.267	83.06
416.49	78.06
416.713	83.06
416.936	97.06
417.159	91.06
417.382	86.06
417.605	104.06
417.828	96.06
418.051	84.06
418.274	73.06
418.497	80.06
418.72	82.06
418.943	89.06
419.166	92.06
419.389	85.06
419.611	83.06
419.834	74.06
420.057	102.06
420.28	77.06
420.503	99.06
420.726	91.06
420.948	72.06
421.171	76.06
421.394	87.06
421.617	76.06
421.839	92.06
422.062	89.06
422.285	91.06
422.507	77.06
422.73	68.06
422.953	82.06
423.175	83.06
423.398	80.06
423.621	85.06
423.843	91.06
424.066	89.06
424.288	76.06
424.511	99.06
424.733	87.06
424.956	84.06
425.178	91.06
425.401	88.06
425.623	94.06
425.846	83.06
426.068	96.06
426.291	93.06
426.513	96.06
426.735	84.06
426.958	89.06
427.18	84.06
427.402	100.06
427.625	79.06
427.847	80.06
428.069	81.06
428.292	87.06
428.514	99.06
428.736	83.06
428.958	87.06
429.181	94.06
429.403	91.06
429.625	94.06
429.847	91.06
430.069	84.06
430.292	90.06
430.514	71.06
430.736	86.06
430.958	89.06
431.18	94.06
431.402	84.06
431.624	85.06
431.846	94.06
432.068	85.06
432.29	77.06
432.512	110.06
432.734	80.06
432.956	99.06
433.178	103.06
433.4	87.06
433.622	85.06
433.844	93.06
434.066	71.06
434.287	94.06
434.509	98.06
434.731	78.06
434.953	85.06
435.175	86.06
435.397	88.06
435.618	78.06
435.84	80.06
436.062	71.06
436.284	83.06
436.505	94.06
436.727	96.06
436.949	78.06
437.17	87.06
437.392	80.06
437.614	79.06
437.835	67.06
438.057	79.06
438.278	84.06
438.5	85.06
438.721	78.06
438.943	80.06
439.165	85.06
439.386	88.06
439.608	80.06
439.829	75.06
440.05	95.06
440.272	79.06
440.493	72.06
440.715	80.06
440.936	104.06
441.158	92.06
441.379	86.06
441.6	96.06
441.822	75.06
442.043	97.06
442.264	91.06
442.486	74.06
442.707	97.06
442.928	87.06
443.149	99.06
443.371	96.06
443.592	81.06
443.813	90.06
444.034	66.06
444.255	92.06
444.476	84.06
444.698	93.06
444.919	87.06
445.14	168.06
445.361	129.06
445.582	80.06
445.803	77.06
446.024	90.06
446.245	90.06
446.466	95.06
446.687	100.06
446.908	77.06
447.129	92.06
447.35	62.06
447.571	93.06
447.792	84.06
448.013	61.06
448.234	81.06
448.455	91.06
448.675	92.06
448.896	87.06
449.117	90.06
449.338	101.06
449.559	81.06
449.779	91.06
450	81.06
450.221	85.06
450.442	81.06
450.662	75.06
450.883	70.06
451.104	94.06
451.324	92.06
451.545	91.06
451.766	94.06
451.986	88.06
452.207	90.06
452.428	77.06
452.648	87.06
452.869	87.06
453.089	89.06
453.31	81.06
453.53	90.06
453.751	73.06
453.971	94.06
454.192	83.06
454.412	89.06
454.633	76.06
454.853	88.06
455.073	91.06
455.294	86.06
455.514	79.06
455.734	78.06
455.955	89.06
456.175	90.06
456.395	88.06
456.616	101.06
456.836	90.06
457.056	86.06
457.276	78.06
457.497	93.06
457.717	83.06
457.937	85.06
458.157	87.06
458.377	83.06
458.598	83.06
458.818	77.06
459.038	84.06
459.258	91.06
459.478	77.06
459.698	91.06
459.918	86.06
460.138	88.06
460.358	77.06
460.578	69.06
460.798	79.06
461.018	73.06
461.238	95.06
461.458	80.06
461.678	92.06
461.898	94.06
462.118	86.06
462.338	73.06
462.558	93.06
462.777	93.06
462.997	91.06
463.217	82.06
463.437	65.06
463.657	83.06
463.876	79.06
464.096	85.06
464.316	89.06
464.536	77.06
464.755	84.06
464.975	73.06
465.195	88.06
465.414	88.06
465.634	94.06
465.854	76.06
466.073	85.06
466.293	86.06
466.512	84.06
466.732	70.06
466.951	77.06
467.171	77.06
467.391	72.06
467.61	96.06
467.829	90.06
468.049	86.06
468.268	71.06
468.488	79.06
468.707	75.06
468.927	73.06
469.146	95.06
469.365	88.06
469.585	95.06
469.804	79.06
470.023	83.06
470.243	87.06
470.462	79.06
470.681	88.06
470.901	78.06
471.12	85.06
471.339	81.06
471.558	80.06
471.777	90.06
471.997	88.06
472.216	87.06
472.435	77.06
472.654	87.06
472.873	88.06
473.092	93.06
473.311	85.06
473.53	90.06
473.749	92.06
473.968	81.06
474.187	79.06
474.406	87.06
474.625	90.06
474.844	92.06
475.063	93.06
475.282	76.06
475.501	79.06
475.72	88.06
475.939	86.06
476.158	93.06
476.377	89.06
476.596	79.06
476.814	84.06
477.033	76.06
477.252	80.06
477.471	88.06
477.69	89.06
477.908	63.06
478.127	97.06
478.346	86.06
478.564	87.06
478.783	87.06
479.002	83.06
479.22	91.06
479.439	80.06
479.658	84.06
479.876	94.06
480.095	90.06
480.313	84.06
480.532	88.06
480.751	91.06
480.969	80.06
481.188	64.06
481.406	93.06
481.624	83.06
481.843	91.06
482.061	95.06
482.28	87.06
482.498	95.06
482.717	93.06
482.935	85.06
483.153	80.06
483.372	72.06
483.59	78.06
483.808	70.06
484.027	81.06
484.245	90.06
484.463	81.06
484.681	97.06
484.9	83.06
485.118	64.06
485.336	71.06
485.554	108.06
485.772	78.06
485.99	92.06
486.209	83.06
486.427	84.06
486.645	97.06
486.863	95.06
487.081	81.06
487.299	83.06
487.517	98.06
487.735	103.06
487.953	77.06
488.171	104.06
488.389	87.06
488.607	89.06
488.825	65.06
489.043	70.06
489.261	94.06
489.479	85.06
489.696	94.06
489.914	75.06
490.132	83.06
490.35	107.06
490.568	100.06
490.786	91.06
491.003	87.06
491.221	83.06
491.439	100.06
491.657	99.06
491.874	75.06
492.092	88.06
492.31	104.06
492.527	100.06
492.745	79.06
492.963	84.06
493.18	93.06
493.398	87.06
493.615	77.06
493.833	87.06
494.05	87.06
494.268	71.06
494.485	100.06
494.703	83.06
494.92	89.06
495.138	88.06
495.355	99.06
495.573	97.06
495.79	104.06
496.008	75.06
496.225	92.06
496.442	86.06
496.66	96.06
496.877	103.06
497.094	88.06
497.312	80.06
497.529	77.06
497.746	86.06
497.963	85.06
498.181	97.06
498.398	83.06
498.615	97.06
498.832	80.06
499.049	95.06
499.267	114.06
499.484	93.06
499.701	84.06
499.918	104.06
500.135	103.06
500.352	112.06
500.569	114.06
500.786	117.06
501.003	110.06
501.22	100.06
501.437	91.06
501.654	93.06
501.871	89.06
502.088	88.06
502.305	88.06
502.522	95.06
502.739	96.06
502.956	100.06
503.172	104.06
503.389	93.06
503.606	88.06
503.823	101.06
504.04	86.06
504.256	95.06
504.473	89.06
504.69	89.06
504.907	89.06
505.123	83.06
505.34	82.06
505.557	89.06
505.773	90.06
505.99	95.06
506.207	79.06
506.423	94.06
506.64	92.06
506.856	92.06
507.073	93.06
507.289	94.06
507.506	75.06
507.722	87.06
507.939	92.06
508.155	88.06
508.372	101.06
508.588	93.06
508.805	89.06
509.021	87.06
509.238	100.06
509.454	98.06
509.67	81.06
509.887	91.06
510.103	83.06
510.319	94.06
510.536	92.06
510.752	76.06
510.968	88.06
511.184	86.06
511.401	99.06
511.617	96.06
511.833	91.06
512.049	99.06
512.265	84.06
512.481	86.06
512.698	77.06
512.914	77.06
513.13	87.06
513.346	70.06
513.562	84.06
513.778	85.06
513.994	81.06
514.21	85.06
514.426	84.06
514.642	84.06
514.858	80.06
515.074	75.06
515.29	102.06
515.506	96.06
515.721	81.06
515.937	86.06
516.153	89.06
516.369	94.06
516.585	72.06
516.801	82.06
517.016	91.06
517.232	80.06
517.448	86.06
517.664	90.06
517.879	87.06
518.095	84.06
518.311	102.06
518.527	94.06
518.742	80.06
518.958	85.06
519.173	93.06
519.389	83.06
