Data from BG_HRD10591_090.txt Node
Date: Fri May 16 15:27:32 EDT 2025
User: Yrep
Spectrometer: HR+D1059
Trigger mode: 1
Integration Time (sec): 1.000000E-1
Scans to average: 1
Electric dark correction enabled: true
Nonlinearity correction enabled: false
Boxcar width: 0
XAxis mode: Wavelengths
Number of Pixels in Spectrum: 2048
>>>>>Begin Spectral Data<<<<<
223.165	-20.81
223.4	-20.81
223.635	-20.81
223.869	-12.81
224.104	-14.81
224.338	-20.81
224.573	-15.81
224.808	-0.81
225.042	-9.81
225.277	-15.81
225.511	6.19
225.746	2.19
225.98	8.19
226.215	-6.81
226.449	16.19
226.683	26.19
226.918	36.19
227.152	23.19
227.387	43.19
227.621	38.19
227.856	43.19
228.09	40.19
228.324	48.19
228.559	63.19
228.793	57.19
229.027	65.19
229.262	62.19
229.496	62.19
229.73	69.19
229.964	69.19
230.199	79.19
230.433	80.19
230.667	74.19
230.901	79.19
231.136	70.19
231.37	82.19
231.604	88.19
231.838	76.19
232.072	90.19
232.306	75.19
232.541	82.19
232.775	87.19
233.009	94.19
233.243	62.19
233.477	77.19
233.711	69.19
233.945	79.19
234.179	87.19
234.413	83.19
234.647	81.19
234.881	75.19
235.115	64.19
235.349	87.19
235.583	88.19
235.817	73.19
236.051	73.19
236.285	64.19
236.519	74.19
236.753	75.19
236.987	65.19
237.221	67.19
237.455	70.19
237.689	69.19
237.922	59.19
238.156	66.19
238.39	68.19
238.624	60.19
238.858	79.19
239.091	64.19
239.325	78.19
239.559	72.19
239.793	70.19
240.027	80.19
240.26	77.19
240.494	68.19
240.728	82.19
240.961	90.19
241.195	77.19
241.429	80.19
241.662	87.19
241.896	68.19
242.13	73.19
242.363	82.19
242.597	72.19
242.83	70.19
243.064	76.19
243.298	74.19
243.531	87.19
243.765	77.19
243.998	74.19
244.232	82.19
244.465	74.19
244.699	67.19
244.932	74.19
245.166	66.19
245.399	76.19
245.633	76.19
245.866	75.19
246.099	70.19
246.333	61.19
246.566	69.19
246.8	79.19
247.033	83.19
247.266	76.19
247.5	70.19
247.733	72.19
247.966	65.19
248.2	66.19
248.433	71.19
248.666	66.19
248.899	89.19
249.133	83.19
249.366	81.19
249.599	81.19
249.832	60.19
250.066	84.19
250.299	76.19
250.532	86.19
250.765	78.19
250.998	72.19
251.231	75.19
251.465	87.19
251.698	68.19
251.931	63.19
252.164	85.19
252.397	63.19
252.63	91.19
252.863	83.19
253.096	77.19
253.329	76.19
253.562	68.19
253.795	79.19
254.028	82.19
254.261	78.19
254.494	79.19
254.727	84.19
254.96	78.19
255.193	75.19
255.426	75.19
255.659	90.19
255.892	77.19
256.124	75.19
256.357	72.19
256.59	104.19
256.823	89.19
257.056	87.19
257.289	74.19
257.521	78.19
257.754	93.19
257.987	75.19
258.22	79.19
258.452	87.19
258.685	81.19
258.918	82.19
259.151	67.19
259.383	69.19
259.616	64.19
259.849	75.19
260.081	70.19
260.314	87.19
260.547	84.19
260.779	89.19
261.012	80.19
261.244	82.19
261.477	74.19
261.71	68.19
261.942	79.19
262.175	70.19
262.407	56.19
262.64	79.19
262.872	74.19
263.105	73.19
263.337	74.19
263.57	74.19
263.802	71.19
264.035	85.19
264.267	67.19
264.499	75.19
264.732	74.19
264.964	85.19
265.197	86.19
265.429	65.19
265.661	86.19
265.894	80.19
266.126	89.19
266.358	74.19
266.591	88.19
266.823	88.19
267.055	89.19
267.287	82.19
267.52	76.19
267.752	65.19
267.984	69.19
268.216	83.19
268.448	80.19
268.681	72.19
268.913	67.19
269.145	76.19
269.377	73.19
269.609	76.19
269.841	78.19
270.073	87.19
270.306	87.19
270.538	80.19
270.77	82.19
271.002	83.19
271.234	85.19
271.466	82.19
271.698	86.19
271.93	82.19
272.162	82.19
272.394	70.19
272.626	83.19
272.858	85.19
273.09	80.19
273.322	93.19
273.553	79.19
273.785	79.19
274.017	91.19
274.249	91.19
274.481	96.19
274.713	75.19
274.945	94.19
275.176	87.19
275.408	68.19
275.64	79.19
275.872	82.19
276.104	87.19
276.335	80.19
276.567	81.19
276.799	70.19
277.031	84.19
277.262	62.19
277.494	87.19
277.726	87.19
277.957	84.19
278.189	83.19
278.421	79.19
278.652	82.19
278.884	88.19
279.115	91.19
279.347	89.19
279.579	76.19
279.81	68.19
280.042	87.19
280.273	78.19
280.505	80.19
280.736	87.19
280.968	76.19
281.199	80.19
281.431	67.19
281.662	76.19
281.894	90.19
282.125	68.19
282.356	71.19
282.588	85.19
282.819	87.19
283.051	91.19
283.282	83.19
283.513	87.19
283.745	86.19
283.976	88.19
284.207	77.19
284.439	76.19
284.67	79.19
284.901	90.19
285.132	65.19
285.364	82.19
285.595	85.19
285.826	86.19
286.057	88.19
286.288	90.19
286.52	83.19
286.751	81.19
286.982	78.19
287.213	79.19
287.444	95.19
287.675	77.19
287.906	74.19
288.138	65.19
288.369	91.19
288.6	87.19
288.831	88.19
289.062	87.19
289.293	91.19
289.524	83.19
289.755	75.19
289.986	83.19
290.217	78.19
290.448	94.19
290.679	82.19
290.91	67.19
291.141	79.19
291.371	87.19
291.602	76.19
291.833	79.19
292.064	84.19
292.295	100.19
292.526	84.19
292.757	81.19
292.987	86.19
293.218	90.19
293.449	84.19
293.68	93.19
293.91	88.19
294.141	87.19
294.372	85.19
294.603	77.19
294.833	79.19
295.064	78.19
295.295	73.19
295.525	86.19
295.756	87.19
295.987	86.19
296.217	82.19
296.448	85.19
296.679	74.19
296.909	69.19
297.14	79.19
297.37	76.19
297.601	92.19
297.831	76.19
298.062	86.19
298.292	87.19
298.523	87.19
298.753	81.19
298.984	85.19
299.214	84.19
299.445	76.19
299.675	86.19
299.905	82.19
300.136	63.19
300.366	91.19
300.597	91.19
300.827	86.19
301.057	86.19
301.288	83.19
301.518	89.19
301.748	79.19
301.979	96.19
302.209	86.19
302.439	79.19
302.669	84.19
302.9	84.19
303.13	96.19
303.36	87.19
303.59	87.19
303.82	80.19
304.051	88.19
304.281	82.19
304.511	82.19
304.741	88.19
304.971	92.19
305.201	80.19
305.431	87.19
305.661	86.19
305.891	76.19
306.121	75.19
306.352	71.19
306.582	92.19
306.812	71.19
307.042	87.19
307.272	82.19
307.502	86.19
307.731	82.19
307.961	66.19
308.191	88.19
308.421	86.19
308.651	80.19
308.881	91.19
309.111	80.19
309.341	70.19
309.571	75.19
309.8	82.19
310.03	73.19
310.26	86.19
310.49	83.19
310.72	77.19
310.949	94.19
311.179	91.19
311.409	76.19
311.639	94.19
311.868	95.19
312.098	74.19
312.328	88.19
312.557	81.19
312.787	95.19
313.017	93.19
313.246	77.19
313.476	83.19
313.706	77.19
313.935	90.19
314.165	74.19
314.394	77.19
314.624	80.19
314.853	84.19
315.083	86.19
315.312	76.19
315.542	72.19
315.771	92.19
316.001	71.19
316.23	80.19
316.46	72.19
316.689	84.19
316.919	86.19
317.148	93.19
317.377	74.19
317.607	85.19
317.836	85.19
318.065	69.19
318.295	72.19
318.524	79.19
318.753	92.19
318.983	81.19
319.212	78.19
319.441	79.19
319.67	98.19
319.9	72.19
320.129	72.19
320.358	85.19
320.587	83.19
320.816	71.19
321.046	100.19
321.275	101.19
321.504	79.19
321.733	84.19
321.962	86.19
322.191	81.19
322.42	64.19
322.649	84.19
322.878	76.19
323.108	71.19
323.337	85.19
323.566	84.19
323.795	68.19
324.024	83.19
324.253	84.19
324.482	86.19
324.71	84.19
324.939	71.19
325.168	79.19
325.397	70.19
325.626	84.19
325.855	99.19
326.084	75.19
326.313	66.19
326.542	79.19
326.77	97.19
326.999	74.19
327.228	74.19
327.457	75.19
327.686	92.19
327.914	84.19
328.143	81.19
328.372	87.19
328.6	88.19
328.829	85.19
329.058	69.19
329.287	82.19
329.515	78.19
329.744	80.19
329.972	67.19
330.201	71.19
330.43	84.19
330.658	76.19
330.887	80.19
331.115	80.19
331.344	79.19
331.572	78.19
331.801	86.19
332.03	83.19
332.258	78.19
332.486	79.19
332.715	89.19
332.943	84.19
333.172	71.19
333.4	75.19
333.629	86.19
333.857	62.19
334.085	85.19
334.314	83.19
334.542	74.19
334.771	78.19
334.999	74.19
335.227	75.19
335.455	70.19
335.684	76.19
335.912	88.19
336.14	89.19
336.369	81.19
336.597	78.19
336.825	84.19
337.053	74.19
337.281	81.19
337.51	84.19
337.738	89.19
337.966	91.19
338.194	78.19
338.422	93.19
338.65	82.19
338.878	77.19
339.106	74.19
339.334	88.19
339.562	70.19
339.79	79.19
340.018	79.19
340.246	84.19
340.474	83.19
340.702	64.19
340.93	82.19
341.158	85.19
341.386	79.19
341.614	75.19
341.842	90.19
342.07	65.19
342.298	75.19
342.526	80.19
342.754	82.19
342.981	70.19
343.209	72.19
343.437	98.19
343.665	78.19
343.893	72.19
344.12	90.19
344.348	68.19
344.576	90.19
344.804	84.19
345.031	85.19
345.259	79.19
345.487	76.19
345.714	76.19
345.942	86.19
346.17	86.19
346.397	80.19
346.625	91.19
346.853	87.19
347.08	70.19
347.308	86.19
347.535	79.19
347.763	71.19
347.99	80.19
348.218	93.19
348.445	85.19
348.673	77.19
348.9	83.19
349.128	76.19
349.355	74.19
349.583	63.19
349.81	92.19
350.037	74.19
350.265	87.19
350.492	78.19
350.72	73.19
350.947	75.19
351.174	87.19
351.402	63.19
351.629	72.19
351.856	86.19
352.083	84.19
352.311	72.19
352.538	92.19
352.765	81.19
352.992	80.19
353.22	83.19
353.447	70.19
353.674	84.19
353.901	70.19
354.128	94.19
354.355	72.19
354.583	75.19
354.81	74.19
355.037	76.19
355.264	79.19
355.491	73.19
355.718	73.19
355.945	85.19
356.172	87.19
356.399	86.19
356.626	90.19
356.853	88.19
357.08	85.19
357.307	74.19
357.534	78.19
357.761	82.19
357.988	93.19
358.215	78.19
358.441	82.19
358.668	92.19
358.895	75.19
359.122	80.19
359.349	80.19
359.576	93.19
359.802	76.19
360.029	84.19
360.256	77.19
360.483	71.19
360.709	98.19
360.936	84.19
361.163	74.19
361.39	85.19
361.616	78.19
361.843	77.19
362.07	84.19
362.296	96.19
362.523	73.19
362.749	72.19
362.976	94.19
363.203	78.19
363.429	83.19
363.656	100.19
363.882	104.19
364.109	76.19
364.335	93.19
364.562	84.19
364.788	80.19
365.015	78.19
365.241	78.19
365.468	77.19
365.694	83.19
365.92	86.19
366.147	66.19
366.373	79.19
366.599	80.19
366.826	74.19
367.052	75.19
367.278	75.19
367.505	87.19
367.731	66.19
367.957	78.19
368.184	81.19
368.41	70.19
368.636	78.19
368.862	83.19
369.089	74.19
369.315	69.19
369.541	68.19
369.767	70.19
369.993	76.19
370.219	76.19
370.445	78.19
370.672	77.19
370.898	88.19
371.124	87.19
371.35	72.19
371.576	84.19
371.802	90.19
372.028	92.19
372.254	81.19
372.48	83.19
372.706	88.19
372.932	78.19
373.158	79.19
373.384	96.19
373.61	72.19
373.835	82.19
374.061	68.19
374.287	78.19
374.513	54.19
374.739	78.19
374.965	70.19
375.191	77.19
375.416	72.19
375.642	94.19
375.868	88.19
376.094	76.19
376.319	75.19
376.545	83.19
376.771	84.19
376.997	77.19
377.222	77.19
377.448	70.19
377.674	68.19
377.899	70.19
378.125	70.19
378.35	88.19
378.576	74.19
378.802	83.19
379.027	86.19
379.253	84.19
379.478	69.19
379.704	72.19
379.929	77.19
380.155	82.19
380.38	77.19
380.606	86.19
380.831	88.19
381.057	92.19
381.282	79.19
381.507	81.19
381.733	85.19
381.958	75.19
382.184	72.19
382.409	71.19
382.634	90.19
382.86	77.19
383.085	69.19
383.31	83.19
383.535	79.19
383.761	71.19
383.986	90.19
384.211	76.19
384.436	71.19
384.662	75.19
384.887	81.19
385.112	79.19
385.337	90.19
385.562	82.19
385.787	83.19
386.013	71.19
386.238	80.19
386.463	90.19
386.688	80.19
386.913	83.19
387.138	86.19
387.363	76.19
387.588	88.19
387.813	72.19
388.038	83.19
388.263	94.19
388.488	86.19
388.713	90.19
388.938	81.19
389.163	76.19
389.387	71.19
389.612	78.19
389.837	86.19
390.062	78.19
390.287	79.19
390.512	63.19
390.736	78.19
390.961	69.19
391.186	86.19
391.411	74.19
391.636	73.19
391.86	80.19
392.085	94.19
392.31	94.19
392.534	84.19
392.759	76.19
392.984	88.19
393.208	81.19
393.433	64.19
393.658	86.19
393.882	68.19
394.107	82.19
394.331	92.19
394.556	78.19
394.78	85.19
395.005	83.19
395.229	77.19
395.454	79.19
395.678	77.19
395.903	75.19
396.127	76.19
396.352	66.19
396.576	87.19
396.801	79.19
397.025	69.19
397.249	90.19
397.474	75.19
397.698	73.19
397.922	78.19
398.147	84.19
398.371	71.19
398.595	84.19
398.82	74.19
399.044	77.19
399.268	72.19
399.492	70.19
399.717	74.19
399.941	72.19
400.165	90.19
400.389	84.19
400.613	82.19
400.837	88.19
401.062	70.19
401.286	65.19
401.51	62.19
401.734	82.19
401.958	72.19
402.182	63.19
402.406	77.19
402.63	77.19
402.854	83.19
403.078	80.19
403.302	70.19
403.526	77.19
403.75	91.19
403.974	77.19
404.198	74.19
404.422	88.19
404.645	78.19
404.869	77.19
405.093	73.19
405.317	82.19
405.541	82.19
405.765	80.19
405.988	78.19
406.212	72.19
406.436	72.19
406.66	73.19
406.883	95.19
407.107	83.19
407.331	78.19
407.555	77.19
407.778	69.19
408.002	80.19
408.226	84.19
408.449	72.19
408.673	90.19
408.896	74.19
409.12	79.19
409.344	74.19
409.567	78.19
409.791	87.19
410.014	83.19
410.238	70.19
410.461	82.19
410.685	73.19
410.908	70.19
411.132	76.19
411.355	87.19
411.578	78.19
411.802	69.19
412.025	77.19
412.249	76.19
412.472	82.19
412.695	84.19
412.919	70.19
413.142	81.19
413.365	85.19
413.589	93.19
413.812	74.19
414.035	82.19
414.258	83.19
414.482	79.19
414.705	83.19
414.928	91.19
415.151	84.19
415.374	83.19
415.597	54.19
415.821	94.19
416.044	77.19
416.267	87.19
416.49	100.19
416.713	74.19
416.936	82.19
417.159	79.19
417.382	83.19
417.605	71.19
417.828	87.19
418.051	83.19
418.274	76.19
418.497	74.19
418.72	72.19
418.943	92.19
419.166	82.19
419.389	73.19
419.611	71.19
419.834	66.19
420.057	75.19
420.28	77.19
420.503	79.19
420.726	94.19
420.948	84.19
421.171	76.19
421.394	78.19
421.617	73.19
421.839	80.19
422.062	75.19
422.285	76.19
422.507	72.19
422.73	76.19
422.953	80.19
423.175	77.19
423.398	88.19
423.621	72.19
423.843	74.19
424.066	92.19
424.288	78.19
424.511	86.19
424.733	69.19
424.956	84.19
425.178	72.19
425.401	82.19
425.623	93.19
425.846	65.19
426.068	80.19
426.291	86.19
426.513	82.19
426.735	85.19
426.958	85.19
427.18	82.19
427.402	78.19
427.625	77.19
427.847	73.19
428.069	82.19
428.292	64.19
428.514	76.19
428.736	86.19
428.958	70.19
429.181	75.19
429.403	66.19
429.625	74.19
429.847	77.19
430.069	87.19
430.292	76.19
430.514	91.19
430.736	73.19
430.958	88.19
431.18	80.19
431.402	88.19
431.624	92.19
431.846	90.19
432.068	70.19
432.29	76.19
432.512	94.19
432.734	87.19
432.956	79.19
433.178	92.19
433.4	74.19
433.622	86.19
433.844	70.19
434.066	71.19
434.287	72.19
434.509	78.19
434.731	80.19
434.953	79.19
435.175	77.19
435.397	82.19
435.618	75.19
435.84	83.19
436.062	77.19
436.284	82.19
436.505	84.19
436.727	80.19
436.949	65.19
437.17	76.19
437.392	90.19
437.614	86.19
437.835	71.19
438.057	66.19
438.278	87.19
438.5	70.19
438.721	80.19
438.943	89.19
439.165	76.19
439.386	78.19
439.608	72.19
439.829	83.19
440.05	78.19
440.272	86.19
440.493	85.19
440.715	74.19
440.936	87.19
441.158	82.19
441.379	81.19
441.6	89.19
441.822	88.19
442.043	83.19
442.264	82.19
442.486	91.19
442.707	79.19
442.928	92.19
443.149	68.19
443.371	75.19
443.592	76.19
443.813	80.19
444.034	76.19
444.255	93.19
444.476	71.19
444.698	82.19
444.919	72.19
445.14	140.19
445.361	102.19
445.582	78.19
445.803	85.19
446.024	59.19
446.245	69.19
446.466	80.19
446.687	82.19
446.908	70.19
447.129	80.19
447.35	72.19
447.571	76.19
447.792	83.19
448.013	84.19
448.234	88.19
448.455	76.19
448.675	75.19
448.896	81.19
449.117	84.19
449.338	77.19
449.559	76.19
449.779	84.19
450	80.19
450.221	92.19
450.442	86.19
450.662	86.19
450.883	64.19
451.104	102.19
451.324	81.19
451.545	82.19
451.766	59.19
451.986	84.19
452.207	74.19
452.428	76.19
452.648	81.19
452.869	85.19
453.089	76.19
453.31	88.19
453.53	76.19
453.751	80.19
453.971	92.19
454.192	77.19
454.412	84.19
454.633	83.19
454.853	88.19
455.073	84.19
455.294	83.19
455.514	83.19
455.734	75.19
455.955	97.19
456.175	79.19
456.395	86.19
456.616	82.19
456.836	80.19
457.056	75.19
457.276	75.19
457.497	68.19
457.717	77.19
457.937	73.19
458.157	75.19
458.377	69.19
458.598	87.19
458.818	81.19
459.038	78.19
459.258	56.19
459.478	64.19
459.698	79.19
459.918	83.19
460.138	87.19
460.358	65.19
460.578	82.19
460.798	78.19
461.018	87.19
461.238	70.19
461.458	74.19
461.678	96.19
461.898	75.19
462.118	74.19
462.338	85.19
462.558	68.19
462.777	86.19
462.997	82.19
463.217	93.19
463.437	76.19
463.657	70.19
463.876	76.19
464.096	69.19
464.316	91.19
464.536	79.19
464.755	87.19
464.975	70.19
465.195	81.19
465.414	71.19
465.634	73.19
465.854	75.19
466.073	72.19
466.293	73.19
466.512	74.19
466.732	82.19
466.951	78.19
467.171	92.19
467.391	86.19
467.61	62.19
467.829	68.19
468.049	67.19
468.268	72.19
468.488	68.19
468.707	72.19
468.927	65.19
469.146	59.19
469.365	87.19
469.585	78.19
469.804	80.19
470.023	73.19
470.243	88.19
470.462	83.19
470.681	86.19
470.901	87.19
471.12	89.19
471.339	91.19
471.558	84.19
471.777	79.19
471.997	88.19
472.216	75.19
472.435	79.19
472.654	82.19
472.873	82.19
473.092	73.19
473.311	88.19
473.53	77.19
473.749	79.19
473.968	87.19
474.187	82.19
474.406	90.19
474.625	78.19
474.844	81.19
475.063	72.19
475.282	75.19
475.501	79.19
475.72	83.19
475.939	77.19
476.158	90.19
476.377	96.19
476.596	86.19
476.814	84.19
477.033	82.19
477.252	79.19
477.471	91.19
477.69	88.19
477.908	83.19
478.127	80.19
478.346	76.19
478.564	87.19
478.783	85.19
479.002	80.19
479.22	80.19
479.439	100.19
479.658	78.19
479.876	82.19
480.095	89.19
480.313	77.19
480.532	75.19
480.751	90.19
480.969	72.19
481.188	86.19
481.406	84.19
481.624	75.19
481.843	85.19
482.061	80.19
482.28	79.19
482.498	81.19
482.717	74.19
482.935	96.19
483.153	94.19
483.372	82.19
483.59	102.19
483.808	95.19
484.027	79.19
484.245	80.19
484.463	79.19
484.681	99.19
484.9	100.19
485.118	77.19
485.336	81.19
485.554	79.19
485.772	83.19
485.99	89.19
486.209	75.19
486.427	82.19
486.645	78.19
486.863	76.19
487.081	67.19
487.299	78.19
487.517	72.19
487.735	77.19
487.953	101.19
488.171	77.19
488.389	78.19
488.607	78.19
488.825	68.19
489.043	75.19
489.261	82.19
489.479	85.19
489.696	96.19
489.914	85.19
490.132	81.19
490.35	80.19
490.568	80.19
490.786	75.19
491.003	77.19
491.221	79.19
491.439	85.19
491.657	75.19
491.874	71.19
492.092	93.19
492.31	79.19
492.527	71.19
492.745	84.19
492.963	80.19
493.18	72.19
493.398	82.19
493.615	82.19
493.833	90.19
494.05	87.19
494.268	75.19
494.485	80.19
494.703	73.19
494.92	65.19
495.138	59.19
495.355	81.19
495.573	81.19
495.79	74.19
496.008	84.19
496.225	96.19
496.442	90.19
496.66	86.19
496.877	88.19
497.094	88.19
497.312	91.19
497.529	80.19
497.746	82.19
497.963	64.19
498.181	82.19
498.398	70.19
498.615	85.19
498.832	86.19
499.049	74.19
499.267	86.19
499.484	78.19
499.701	82.19
499.918	83.19
500.135	72.19
500.352	90.19
500.569	84.19
500.786	87.19
501.003	98.19
501.22	86.19
501.437	82.19
501.654	76.19
501.871	89.19
502.088	72.19
502.305	72.19
502.522	79.19
502.739	71.19
502.956	86.19
503.172	77.19
503.389	77.19
503.606	78.19
503.823	78.19
504.04	79.19
504.256	87.19
504.473	82.19
504.69	82.19
504.907	76.19
505.123	72.19
505.34	77.19
505.557	74.19
505.773	76.19
505.99	78.19
506.207	74.19
506.423	82.19
506.64	90.19
506.856	90.19
507.073	81.19
507.289	68.19
507.506	67.19
507.722	86.19
507.939	88.19
508.155	81.19
508.372	86.19
508.588	77.19
508.805	87.19
509.021	92.19
509.238	78.19
509.454	78.19
509.67	64.19
509.887	71.19
510.103	77.19
510.319	77.19
510.536	82.19
510.752	79.19
510.968	80.19
511.184	79.19
511.401	80.19
511.617	82.19
511.833	88.19
512.049	85.19
512.265	88.19
512.481	79.19
512.698	87.19
512.914	71.19
513.13	90.19
513.346	79.19
513.562	83.19
513.778	78.19
513.994	78.19
514.21	88.19
514.426	86.19
514.642	82.19
514.858	84.19
515.074	78.19
515.29	77.19
515.506	67.19
515.721	81.19
515.937	92.19
516.153	79.19
516.369	75.19
516.585	77.19
516.801	81.19
517.016	76.19
517.232	86.19
517.448	88.19
517.664	72.19
517.879	84.19
518.095	75.19
518.311	74.19
518.527	79.19
518.742	87.19
518.958	84.19
519.173	86.19
519.389	81.19
519.605	81.19
519.82	88.19
520.036	76.19
520.251	67.19
