Data from BG_HRD10591_001.txt Node
Date: Fri May 16 15:26:47 EDT 2025
User: Yrep
Spectrometer: HR+D1059
Trigger mode: 1
Integration Time (sec): 1.000000E-1
Scans to average: 1
Electric dark correction enabled: true
Nonlinearity correction enabled: false
Boxcar width: 0
XAxis mode: Wavelengths
Number of Pixels in Spectrum: 2048
>>>>>Begin Spectral Data<<<<<
223.165	-12.06
223.4	-12.06
223.635	-12.06
223.869	-11.06
224.104	-18.06
224.338	-18.06
224.573	-14.06
224.808	-5.06
225.042	-19.06
225.277	-22.06
225.511	-12.06
225.746	-3.06
225.98	17.94
226.215	8.94
226.449	13.94
226.683	24.94
226.918	33.94
227.152	34.94
227.387	37.94
227.621	47.94
227.856	52.94
228.09	50.94
228.324	60.94
228.559	58.94
228.793	62.94
229.027	72.94
229.262	74.94
229.496	68.94
229.73	80.94
229.964	74.94
230.199	67.94
230.433	78.94
230.667	80.94
230.901	86.94
231.136	73.94
231.37	71.94
231.604	92.94
231.838	84.94
232.072	83.94
232.306	83.94
232.541	78.94
232.775	81.94
233.009	96.94
233.243	93.94
233.477	91.94
233.711	89.94
233.945	82.94
234.179	82.94
234.413	78.94
234.647	83.94
234.881	75.94
235.115	78.94
235.349	85.94
235.583	82.94
235.817	100.94
236.051	92.94
236.285	79.94
236.519	69.94
236.753	86.94
236.987	81.94
237.221	74.94
237.455	89.94
237.689	70.94
237.922	78.94
238.156	77.94
238.39	80.94
238.624	79.94
238.858	74.94
239.091	83.94
239.325	93.94
239.559	81.94
239.793	69.94
240.027	88.94
240.26	90.94
240.494	82.94
240.728	76.94
240.961	71.94
241.195	82.94
241.429	73.94
241.662	82.94
241.896	78.94
242.13	77.94
242.363	95.94
242.597	81.94
242.83	78.94
243.064	80.94
243.298	77.94
243.531	77.94
243.765	91.94
243.998	76.94
244.232	93.94
244.465	83.94
244.699	87.94
244.932	76.94
245.166	76.94
245.399	92.94
245.633	94.94
245.866	93.94
246.099	79.94
246.333	89.94
246.566	90.94
246.8	78.94
247.033	74.94
247.266	75.94
247.5	73.94
247.733	86.94
247.966	87.94
248.2	96.94
248.433	69.94
248.666	87.94
248.899	91.94
249.133	84.94
249.366	67.94
249.599	75.94
249.832	81.94
250.066	74.94
250.299	97.94
250.532	87.94
250.765	73.94
250.998	68.94
251.231	88.94
251.465	68.94
251.698	81.94
251.931	75.94
252.164	93.94
252.397	88.94
252.63	76.94
252.863	64.94
253.096	86.94
253.329	94.94
253.562	83.94
253.795	86.94
254.028	80.94
254.261	84.94
254.494	87.94
254.727	78.94
254.96	94.94
255.193	75.94
255.426	83.94
255.659	81.94
255.892	84.94
256.124	76.94
256.357	77.94
256.59	86.94
256.823	62.94
257.056	78.94
257.289	71.94
257.521	89.94
257.754	73.94
257.987	85.94
258.22	80.94
258.452	80.94
258.685	73.94
258.918	92.94
259.151	82.94
259.383	93.94
259.616	81.94
259.849	88.94
260.081	90.94
260.314	78.94
260.547	86.94
260.779	95.94
261.012	95.94
261.244	86.94
261.477	83.94
261.71	82.94
261.942	96.94
262.175	81.94
262.407	78.94
262.64	78.94
262.872	99.94
263.105	97.94
263.337	81.94
263.57	83.94
263.802	93.94
264.035	98.94
264.267	97.94
264.499	91.94
264.732	94.94
264.964	77.94
265.197	77.94
265.429	68.94
265.661	75.94
265.894	59.94
266.126	77.94
266.358	83.94
266.591	76.94
266.823	83.94
267.055	101.94
267.287	81.94
267.52	81.94
267.752	78.94
267.984	82.94
268.216	85.94
268.448	82.94
268.681	81.94
268.913	84.94
269.145	86.94
269.377	91.94
269.609	104.94
269.841	92.94
270.073	92.94
270.306	94.94
270.538	82.94
270.77	89.94
271.002	89.94
271.234	73.94
271.466	86.94
271.698	80.94
271.93	91.94
272.162	88.94
272.394	90.94
272.626	77.94
272.858	79.94
273.09	94.94
273.322	89.94
273.553	84.94
273.785	83.94
274.017	75.94
274.249	81.94
274.481	91.94
274.713	98.94
274.945	84.94
275.176	100.94
275.408	94.94
275.64	113.94
275.872	90.94
276.104	89.94
276.335	78.94
276.567	87.94
276.799	93.94
277.031	86.94
277.262	92.94
277.494	77.94
277.726	68.94
277.957	77.94
278.189	95.94
278.421	91.94
278.652	81.94
278.884	96.94
279.115	89.94
279.347	91.94
279.579	86.94
279.81	77.94
280.042	80.94
280.273	83.94
280.505	77.94
280.736	85.94
280.968	98.94
281.199	102.94
281.431	87.94
281.662	104.94
281.894	93.94
282.125	80.94
282.356	80.94
282.588	80.94
282.819	74.94
283.051	83.94
283.282	72.94
283.513	86.94
283.745	100.94
283.976	80.94
284.207	91.94
284.439	98.94
284.67	84.94
284.901	95.94
285.132	83.94
285.364	86.94
285.595	76.94
285.826	101.94
286.057	83.94
286.288	92.94
286.52	96.94
286.751	101.94
286.982	83.94
287.213	91.94
287.444	93.94
287.675	106.94
287.906	85.94
288.138	97.94
288.369	93.94
288.6	103.94
288.831	76.94
289.062	106.94
289.293	94.94
289.524	76.94
289.755	80.94
289.986	91.94
290.217	80.94
290.448	78.94
290.679	91.94
290.91	95.94
291.141	92.94
291.371	75.94
291.602	81.94
291.833	94.94
292.064	96.94
292.295	102.94
292.526	100.94
292.757	89.94
292.987	88.94
293.218	71.94
293.449	92.94
293.68	92.94
293.91	83.94
294.141	94.94
294.372	88.94
294.603	90.94
294.833	97.94
295.064	86.94
295.295	91.94
295.525	91.94
295.756	91.94
295.987	104.94
296.217	104.94
296.448	93.94
296.679	74.94
296.909	78.94
297.14	95.94
297.37	87.94
297.601	84.94
297.831	96.94
298.062	101.94
298.292	97.94
298.523	91.94
298.753	94.94
298.984	91.94
299.214	92.94
299.445	94.94
299.675	106.94
299.905	94.94
300.136	77.94
300.366	81.94
300.597	93.94
300.827	92.94
301.057	85.94
301.288	78.94
301.518	86.94
301.748	96.94
301.979	104.94
302.209	90.94
302.439	89.94
302.669	84.94
302.9	85.94
303.13	84.94
303.36	105.94
303.59	98.94
303.82	98.94
304.051	99.94
304.281	77.94
304.511	90.94
304.741	80.94
304.971	84.94
305.201	79.94
305.431	90.94
305.661	85.94
305.891	86.94
306.121	73.94
306.352	84.94
306.582	91.94
306.812	94.94
307.042	86.94
307.272	99.94
307.502	95.94
307.731	90.94
307.961	104.94
308.191	90.94
308.421	88.94
308.651	85.94
308.881	101.94
309.111	91.94
309.341	98.94
309.571	78.94
309.8	98.94
310.03	87.94
310.26	89.94
310.49	73.94
310.72	82.94
310.949	97.94
311.179	84.94
311.409	99.94
311.639	93.94
311.868	89.94
312.098	90.94
312.328	90.94
312.557	98.94
312.787	86.94
313.017	83.94
313.246	89.94
313.476	80.94
313.706	90.94
313.935	85.94
314.165	90.94
314.394	90.94
314.624	79.94
314.853	101.94
315.083	88.94
315.312	87.94
315.542	90.94
315.771	77.94
316.001	98.94
316.23	94.94
316.46	81.94
316.689	94.94
316.919	89.94
317.148	94.94
317.377	106.94
317.607	93.94
317.836	94.94
318.065	93.94
318.295	85.94
318.524	93.94
318.753	88.94
318.983	96.94
319.212	78.94
319.441	77.94
319.67	80.94
319.9	88.94
320.129	104.94
320.358	94.94
320.587	92.94
320.816	79.94
321.046	93.94
321.275	76.94
321.504	86.94
321.733	105.94
321.962	90.94
322.191	88.94
322.42	104.94
322.649	101.94
322.878	79.94
323.108	96.94
323.337	96.94
323.566	78.94
323.795	106.94
324.024	90.94
324.253	91.94
324.482	79.94
324.71	81.94
324.939	72.94
325.168	88.94
325.397	95.94
325.626	101.94
325.855	80.94
326.084	93.94
326.313	95.94
326.542	89.94
326.77	85.94
326.999	88.94
327.228	94.94
327.457	96.94
327.686	86.94
327.914	90.94
328.143	89.94
328.372	87.94
328.6	82.94
328.829	91.94
329.058	90.94
329.287	107.94
329.515	90.94
329.744	94.94
329.972	106.94
330.201	88.94
330.43	81.94
330.658	82.94
330.887	99.94
331.115	88.94
331.344	80.94
331.572	100.94
331.801	83.94
332.03	84.94
332.258	93.94
332.486	94.94
332.715	83.94
332.943	86.94
333.172	92.94
333.4	86.94
333.629	85.94
333.857	83.94
334.085	103.94
334.314	104.94
334.542	89.94
334.771	85.94
334.999	72.94
335.227	90.94
335.455	83.94
335.684	88.94
335.912	79.94
336.14	84.94
336.369	94.94
336.597	88.94
336.825	84.94
337.053	78.94
337.281	92.94
337.51	104.94
337.738	90.94
337.966	96.94
338.194	89.94
338.422	98.94
338.65	99.94
338.878	93.94
339.106	83.94
339.334	104.94
339.562	82.94
339.79	89.94
340.018	83.94
340.246	86.94
340.474	91.94
340.702	95.94
340.93	81.94
341.158	98.94
341.386	84.94
341.614	89.94
341.842	78.94
342.07	87.94
342.298	93.94
342.526	93.94
342.754	87.94
342.981	93.94
343.209	93.94
343.437	100.94
343.665	77.94
343.893	101.94
344.12	95.94
344.348	91.94
344.576	97.94
344.804	94.94
345.031	86.94
345.259	98.94
345.487	93.94
345.714	84.94
345.942	82.94
346.17	86.94
346.397	92.94
346.625	94.94
346.853	81.94
347.08	90.94
347.308	86.94
347.535	104.94
347.763	101.94
347.99	90.94
348.218	91.94
348.445	97.94
348.673	96.94
348.9	80.94
349.128	77.94
349.355	96.94
349.583	96.94
349.81	91.94
350.037	86.94
350.265	90.94
350.492	86.94
350.72	76.94
350.947	90.94
351.174	82.94
351.402	101.94
351.629	81.94
351.856	85.94
352.083	86.94
352.311	85.94
352.538	98.94
352.765	92.94
352.992	96.94
353.22	81.94
353.447	84.94
353.674	87.94
353.901	99.94
354.128	79.94
354.355	96.94
354.583	83.94
354.81	98.94
355.037	94.94
355.264	93.94
355.491	99.94
355.718	101.94
355.945	89.94
356.172	87.94
356.399	77.94
356.626	92.94
356.853	85.94
357.08	93.94
357.307	97.94
357.534	90.94
357.761	68.94
357.988	86.94
358.215	116.94
358.441	82.94
358.668	94.94
358.895	86.94
359.122	93.94
359.349	86.94
359.576	93.94
359.802	70.94
360.029	79.94
360.256	86.94
360.483	92.94
360.709	88.94
360.936	94.94
361.163	109.94
361.39	85.94
361.616	93.94
361.843	104.94
362.07	97.94
362.296	102.94
362.523	86.94
362.749	92.94
362.976	91.94
363.203	93.94
363.429	86.94
363.656	88.94
363.882	92.94
364.109	78.94
364.335	102.94
364.562	95.94
364.788	83.94
365.015	96.94
365.241	97.94
365.468	90.94
365.694	93.94
365.92	96.94
366.147	85.94
366.373	87.94
366.599	86.94
366.826	103.94
367.052	96.94
367.278	88.94
367.505	88.94
367.731	87.94
367.957	98.94
368.184	88.94
368.41	96.94
368.636	90.94
368.862	87.94
369.089	75.94
369.315	91.94
369.541	71.94
369.767	98.94
369.993	96.94
370.219	83.94
370.445	89.94
370.672	79.94
370.898	99.94
371.124	95.94
371.35	92.94
371.576	74.94
371.802	97.94
372.028	103.94
372.254	93.94
372.48	83.94
372.706	83.94
372.932	85.94
373.158	84.94
373.384	84.94
373.61	69.94
373.835	93.94
374.061	101.94
374.287	97.94
374.513	78.94
374.739	93.94
374.965	92.94
375.191	96.94
375.416	81.94
375.642	92.94
375.868	96.94
376.094	81.94
376.319	99.94
376.545	77.94
376.771	92.94
376.997	81.94
377.222	89.94
377.448	91.94
377.674	97.94
377.899	79.94
378.125	83.94
378.35	96.94
378.576	93.94
378.802	93.94
379.027	93.94
379.253	80.94
379.478	79.94
379.704	74.94
379.929	93.94
380.155	79.94
380.38	87.94
380.606	86.94
380.831	74.94
381.057	96.94
381.282	92.94
381.507	91.94
381.733	86.94
381.958	97.94
382.184	93.94
382.409	100.94
382.634	85.94
382.86	97.94
383.085	84.94
383.31	88.94
383.535	79.94
383.761	101.94
383.986	93.94
384.211	88.94
384.436	107.94
384.662	100.94
384.887	88.94
385.112	97.94
385.337	87.94
385.562	80.94
385.787	93.94
386.013	86.94
386.238	84.94
386.463	88.94
386.688	105.94
386.913	88.94
387.138	94.94
387.363	87.94
387.588	93.94
387.813	93.94
388.038	83.94
388.263	108.94
388.488	85.94
388.713	83.94
388.938	89.94
389.163	85.94
389.387	85.94
389.612	85.94
389.837	93.94
390.062	83.94
390.287	77.94
390.512	91.94
390.736	94.94
390.961	94.94
391.186	84.94
391.411	92.94
391.636	84.94
391.86	91.94
392.085	84.94
392.31	86.94
392.534	90.94
392.759	89.94
392.984	90.94
393.208	85.94
393.433	87.94
393.658	94.94
393.882	91.94
394.107	90.94
394.331	85.94
394.556	97.94
394.78	91.94
395.005	99.94
395.229	97.94
395.454	81.94
395.678	97.94
395.903	88.94
396.127	86.94
396.352	85.94
396.576	85.94
396.801	92.94
397.025	93.94
397.249	88.94
397.474	89.94
397.698	101.94
397.922	83.94
398.147	78.94
398.371	87.94
398.595	109.94
398.82	86.94
399.044	83.94
399.268	92.94
399.492	96.94
399.717	105.94
399.941	96.94
400.165	98.94
400.389	91.94
400.613	96.94
400.837	102.94
401.062	93.94
401.286	81.94
401.51	83.94
401.734	88.94
401.958	98.94
402.182	91.94
402.406	87.94
402.63	84.94
402.854	100.94
403.078	79.94
403.302	84.94
403.526	93.94
403.75	99.94
403.974	86.94
404.198	87.94
404.422	104.94
404.645	92.94
404.869	106.94
405.093	104.94
405.317	92.94
405.541	93.94
405.765	84.94
405.988	68.94
406.212	101.94
406.436	101.94
406.66	108.94
406.883	89.94
407.107	81.94
407.331	81.94
407.555	85.94
407.778	84.94
408.002	92.94
408.226	83.94
408.449	92.94
408.673	97.94
408.896	94.94
409.12	94.94
409.344	98.94
409.567	106.94
409.791	89.94
410.014	106.94
410.238	94.94
410.461	94.94
410.685	93.94
410.908	76.94
411.132	100.94
411.355	88.94
411.578	96.94
411.802	101.94
412.025	90.94
412.249	82.94
412.472	84.94
412.695	93.94
412.919	98.94
413.142	101.94
413.365	93.94
413.589	76.94
413.812	74.94
414.035	93.94
414.258	94.94
414.482	98.94
414.705	95.94
414.928	88.94
415.151	95.94
415.374	97.94
415.597	93.94
415.821	82.94
416.044	82.94
416.267	104.94
416.49	91.94
416.713	75.94
416.936	87.94
417.159	88.94
417.382	102.94
417.605	74.94
417.828	82.94
418.051	70.94
418.274	68.94
418.497	83.94
418.72	82.94
418.943	74.94
419.166	82.94
419.389	87.94
419.611	94.94
419.834	80.94
420.057	113.94
420.28	92.94
420.503	89.94
420.726	97.94
420.948	99.94
421.171	90.94
421.394	95.94
421.617	78.94
421.839	92.94
422.062	96.94
422.285	78.94
422.507	74.94
422.73	84.94
422.953	78.94
423.175	88.94
423.398	94.94
423.621	93.94
423.843	96.94
424.066	89.94
424.288	87.94
424.511	89.94
424.733	91.94
424.956	105.94
425.178	81.94
425.401	88.94
425.623	76.94
425.846	97.94
426.068	87.94
426.291	82.94
426.513	107.94
426.735	89.94
426.958	90.94
427.18	88.94
427.402	86.94
427.625	94.94
427.847	96.94
428.069	86.94
428.292	76.94
428.514	92.94
428.736	75.94
428.958	93.94
429.181	97.94
429.403	110.94
429.625	99.94
429.847	88.94
430.069	82.94
430.292	90.94
430.514	96.94
430.736	89.94
430.958	78.94
431.18	95.94
431.402	86.94
431.624	96.94
431.846	97.94
432.068	100.94
432.29	88.94
432.512	85.94
432.734	76.94
432.956	92.94
433.178	105.94
433.4	92.94
433.622	76.94
433.844	91.94
434.066	91.94
434.287	93.94
434.509	100.94
434.731	101.94
434.953	80.94
435.175	98.94
435.397	96.94
435.618	84.94
435.84	92.94
436.062	76.94
436.284	88.94
436.505	95.94
436.727	88.94
436.949	102.94
437.17	91.94
437.392	94.94
437.614	102.94
437.835	98.94
438.057	93.94
438.278	77.94
438.5	91.94
438.721	92.94
438.943	77.94
439.165	86.94
439.386	108.94
439.608	84.94
439.829	76.94
440.05	108.94
440.272	87.94
440.493	88.94
440.715	92.94
440.936	93.94
441.158	94.94
441.379	88.94
441.6	99.94
441.822	99.94
442.043	110.94
442.264	96.94
442.486	104.94
442.707	100.94
442.928	87.94
443.149	96.94
443.371	80.94
443.592	89.94
443.813	97.94
444.034	110.94
444.255	96.94
444.476	84.94
444.698	90.94
444.919	84.94
445.14	159.94
445.361	120.94
445.582	82.94
445.803	92.94
446.024	116.94
446.245	95.94
446.466	100.94
446.687	102.94
446.908	79.94
447.129	93.94
447.35	80.94
447.571	69.94
447.792	84.94
448.013	106.94
448.234	100.94
448.455	99.94
448.675	103.94
448.896	94.94
449.117	88.94
449.338	83.94
449.559	92.94
449.779	86.94
450	91.94
450.221	93.94
450.442	89.94
450.662	90.94
450.883	99.94
451.104	96.94
451.324	91.94
451.545	90.94
451.766	77.94
451.986	96.94
452.207	90.94
452.428	94.94
452.648	91.94
452.869	85.94
453.089	81.94
453.31	101.94
453.53	101.94
453.751	95.94
453.971	83.94
454.192	95.94
454.412	92.94
454.633	100.94
454.853	93.94
455.073	72.94
455.294	107.94
455.514	104.94
455.734	91.94
455.955	104.94
456.175	84.94
456.395	81.94
456.616	81.94
456.836	89.94
457.056	98.94
457.276	88.94
457.497	80.94
457.717	93.94
457.937	88.94
458.157	101.94
458.377	91.94
458.598	85.94
458.818	84.94
459.038	75.94
459.258	81.94
459.478	92.94
459.698	73.94
459.918	88.94
460.138	91.94
460.358	86.94
460.578	73.94
460.798	86.94
461.018	90.94
461.238	96.94
461.458	90.94
461.678	89.94
461.898	95.94
462.118	92.94
462.338	103.94
462.558	82.94
462.777	88.94
462.997	99.94
463.217	93.94
463.437	96.94
463.657	99.94
463.876	97.94
464.096	98.94
464.316	86.94
464.536	98.94
464.755	90.94
464.975	89.94
465.195	91.94
465.414	99.94
465.634	90.94
465.854	82.94
466.073	80.94
466.293	98.94
466.512	93.94
466.732	69.94
466.951	81.94
467.171	97.94
467.391	97.94
467.61	85.94
467.829	89.94
468.049	82.94
468.268	84.94
468.488	85.94
468.707	105.94
468.927	90.94
469.146	90.94
469.365	96.94
469.585	101.94
469.804	83.94
470.023	98.94
470.243	92.94
470.462	91.94
470.681	98.94
470.901	85.94
471.12	85.94
471.339	94.94
471.558	78.94
471.777	93.94
471.997	99.94
472.216	99.94
472.435	79.94
472.654	93.94
472.873	84.94
473.092	100.94
473.311	93.94
473.53	82.94
473.749	97.94
473.968	91.94
474.187	81.94
474.406	93.94
474.625	99.94
474.844	89.94
475.063	69.94
475.282	97.94
475.501	93.94
475.72	97.94
475.939	95.94
476.158	90.94
476.377	98.94
476.596	94.94
476.814	77.94
477.033	92.94
477.252	85.94
477.471	85.94
477.69	88.94
477.908	93.94
478.127	92.94
478.346	86.94
478.564	97.94
478.783	108.94
479.002	96.94
479.22	96.94
479.439	89.94
479.658	90.94
479.876	97.94
480.095	97.94
480.313	93.94
480.532	89.94
480.751	87.94
480.969	94.94
481.188	96.94
481.406	108.94
481.624	92.94
481.843	102.94
482.061	85.94
482.28	84.94
482.498	88.94
482.717	99.94
482.935	85.94
483.153	88.94
483.372	95.94
483.59	70.94
483.808	84.94
484.027	88.94
484.245	89.94
484.463	82.94
484.681	95.94
484.9	100.94
485.118	84.94
485.336	95.94
485.554	89.94
485.772	102.94
485.99	112.94
486.209	86.94
486.427	97.94
486.645	98.94
486.863	97.94
487.081	89.94
487.299	90.94
487.517	102.94
487.735	94.94
487.953	110.94
488.171	97.94
488.389	78.94
488.607	83.94
488.825	90.94
489.043	80.94
489.261	80.94
489.479	97.94
489.696	95.94
489.914	96.94
490.132	105.94
490.35	94.94
490.568	82.94
490.786	82.94
491.003	91.94
491.221	97.94
491.439	90.94
491.657	92.94
491.874	86.94
492.092	85.94
492.31	89.94
492.527	101.94
492.745	90.94
492.963	85.94
493.18	86.94
493.398	101.94
493.615	98.94
493.833	90.94
494.05	96.94
494.268	92.94
494.485	102.94
494.703	77.94
494.92	94.94
495.138	91.94
495.355	94.94
495.573	85.94
495.79	98.94
496.008	85.94
496.225	90.94
496.442	107.94
496.66	90.94
496.877	99.94
497.094	112.94
497.312	80.94
497.529	88.94
497.746	90.94
497.963	99.94
498.181	102.94
498.398	101.94
498.615	99.94
498.832	95.94
499.049	94.94
499.267	92.94
499.484	121.94
499.701	104.94
499.918	108.94
500.135	92.94
500.352	112.94
500.569	109.94
500.786	123.94
501.003	118.94
501.22	108.94
501.437	111.94
501.654	99.94
501.871	101.94
502.088	78.94
502.305	100.94
502.522	106.94
502.739	89.94
502.956	101.94
503.172	85.94
503.389	91.94
503.606	89.94
503.823	96.94
504.04	89.94
504.256	99.94
504.473	96.94
504.69	104.94
504.907	108.94
505.123	82.94
505.34	102.94
505.557	82.94
505.773	88.94
505.99	103.94
506.207	86.94
506.423	92.94
506.64	109.94
506.856	92.94
507.073	96.94
507.289	75.94
507.506	84.94
507.722	82.94
507.939	93.94
508.155	74.94
508.372	104.94
508.588	87.94
508.805	93.94
509.021	95.94
509.238	94.94
509.454	105.94
509.67	91.94
509.887	93.94
510.103	105.94
510.319	98.94
510.536	98.94
510.752	90.94
510.968	78.94
511.184	95.94
511.401	106.94
511.617	94.94
511.833	97.94
512.049	98.94
512.265	98.94
512.481	91.94
512.698	107.94
512.914	91.94
513.13	106.94
513.346	96.94
513.562	101.94
513.778	96.94
513.994	78.94
514.21	105.94
514.426	97.94
514.642	100.94
514.858	97.94
515.074	95.94
515.29	109.94
515.506	86.94
515.721	92.94
515.937	105.94
516.153	94.94
516.369	92.94
516.585	99.94
516.801	106.94
517.016	94.94
517.232	109.94
517.448	110.94
517.664	98.94
517.879	108.94
518.095	94.94
