Data from BG_HRD10591_018.txt Node
Date: Fri May 16 15:26:56 EDT 2025
User: Yrep
Spectrometer: HR+D1059
Trigger mode: 1
Integration Time (sec): 1.000000E-1
Scans to average: 1
Electric dark correction enabled: true
Nonlinearity correction enabled: false
Boxcar width: 0
XAxis mode: Wavelengths
Number of Pixels in Spectrum: 2048
>>>>>Begin Spectral Data<<<<<
223.165	-25.56
223.4	-25.56
223.635	-25.56
223.869	-20.56
224.104	-24.56
224.338	-11.56
224.573	-7.56
224.808	-19.56
225.042	-27.56
225.277	-5.56
225.511	-11.56
225.746	18.44
225.98	22.44
226.215	7.44
226.449	10.44
226.683	26.44
226.918	30.44
227.152	38.44
227.387	23.44
227.621	45.44
227.856	42.44
228.09	51.44
228.324	50.44
228.559	60.44
228.793	52.44
229.027	61.44
229.262	60.44
229.496	71.44
229.73	64.44
229.964	74.44
230.199	67.44
230.433	69.44
230.667	84.44
230.901	80.44
231.136	78.44
231.37	97.44
231.604	76.44
231.838	82.44
232.072	91.44
232.306	78.44
232.541	86.44
232.775	83.44
233.009	78.44
233.243	76.44
233.477	72.44
233.711	75.44
233.945	82.44
234.179	76.44
234.413	81.44
234.647	77.44
234.881	78.44
235.115	99.44
235.349	76.44
235.583	72.44
235.817	86.44
236.051	78.44
236.285	74.44
236.519	86.44
236.753	92.44
236.987	87.44
237.221	80.44
237.455	61.44
237.689	85.44
237.922	69.44
238.156	71.44
238.39	79.44
238.624	73.44
238.858	64.44
239.091	62.44
239.325	68.44
239.559	74.44
239.793	89.44
240.027	68.44
240.26	70.44
240.494	76.44
240.728	76.44
240.961	72.44
241.195	69.44
241.429	100.44
241.662	63.44
241.896	59.44
242.13	74.44
242.363	73.44
242.597	98.44
242.83	79.44
243.064	75.44
243.298	73.44
243.531	70.44
243.765	75.44
243.998	82.44
244.232	84.44
244.465	62.44
244.699	84.44
244.932	94.44
245.166	81.44
245.399	76.44
245.633	84.44
245.866	86.44
246.099	68.44
246.333	76.44
246.566	77.44
246.8	60.44
247.033	74.44
247.266	88.44
247.5	78.44
247.733	71.44
247.966	79.44
248.2	62.44
248.433	54.44
248.666	79.44
248.899	80.44
249.133	78.44
249.366	73.44
249.599	84.44
249.832	76.44
250.066	85.44
250.299	72.44
250.532	73.44
250.765	68.44
250.998	79.44
251.231	85.44
251.465	75.44
251.698	68.44
251.931	86.44
252.164	64.44
252.397	75.44
252.63	76.44
252.863	70.44
253.096	79.44
253.329	84.44
253.562	72.44
253.795	85.44
254.028	72.44
254.261	79.44
254.494	61.44
254.727	98.44
254.96	84.44
255.193	83.44
255.426	86.44
255.659	89.44
255.892	85.44
256.124	83.44
256.357	79.44
256.59	80.44
256.823	89.44
257.056	69.44
257.289	69.44
257.521	69.44
257.754	84.44
257.987	91.44
258.22	73.44
258.452	89.44
258.685	81.44
258.918	84.44
259.151	84.44
259.383	76.44
259.616	87.44
259.849	80.44
260.081	95.44
260.314	76.44
260.547	73.44
260.779	82.44
261.012	78.44
261.244	86.44
261.477	84.44
261.71	90.44
261.942	70.44
262.175	88.44
262.407	73.44
262.64	86.44
262.872	70.44
263.105	86.44
263.337	83.44
263.57	66.44
263.802	88.44
264.035	87.44
264.267	74.44
264.499	82.44
264.732	74.44
264.964	78.44
265.197	78.44
265.429	88.44
265.661	95.44
265.894	74.44
266.126	91.44
266.358	93.44
266.591	92.44
266.823	84.44
267.055	63.44
267.287	86.44
267.52	80.44
267.752	89.44
267.984	98.44
268.216	87.44
268.448	82.44
268.681	76.44
268.913	78.44
269.145	90.44
269.377	79.44
269.609	91.44
269.841	78.44
270.073	75.44
270.306	75.44
270.538	78.44
270.77	94.44
271.002	77.44
271.234	81.44
271.466	84.44
271.698	78.44
271.93	87.44
272.162	76.44
272.394	96.44
272.626	85.44
272.858	89.44
273.09	83.44
273.322	92.44
273.553	82.44
273.785	74.44
274.017	87.44
274.249	80.44
274.481	86.44
274.713	78.44
274.945	80.44
275.176	85.44
275.408	79.44
275.64	72.44
275.872	82.44
276.104	82.44
276.335	82.44
276.567	89.44
276.799	70.44
277.031	75.44
277.262	72.44
277.494	80.44
277.726	73.44
277.957	98.44
278.189	83.44
278.421	71.44
278.652	92.44
278.884	75.44
279.115	83.44
279.347	77.44
279.579	78.44
279.81	95.44
280.042	93.44
280.273	83.44
280.505	90.44
280.736	103.44
280.968	76.44
281.199	86.44
281.431	75.44
281.662	79.44
281.894	89.44
282.125	94.44
282.356	81.44
282.588	78.44
282.819	78.44
283.051	82.44
283.282	82.44
283.513	94.44
283.745	88.44
283.976	84.44
284.207	95.44
284.439	100.44
284.67	90.44
284.901	75.44
285.132	77.44
285.364	72.44
285.595	86.44
285.826	69.44
286.057	75.44
286.288	94.44
286.52	89.44
286.751	89.44
286.982	86.44
287.213	79.44
287.444	75.44
287.675	71.44
287.906	91.44
288.138	86.44
288.369	88.44
288.6	93.44
288.831	89.44
289.062	101.44
289.293	87.44
289.524	82.44
289.755	87.44
289.986	86.44
290.217	80.44
290.448	93.44
290.679	89.44
290.91	76.44
291.141	93.44
291.371	86.44
291.602	92.44
291.833	69.44
292.064	89.44
292.295	82.44
292.526	90.44
292.757	92.44
292.987	83.44
293.218	92.44
293.449	90.44
293.68	91.44
293.91	81.44
294.141	93.44
294.372	97.44
294.603	95.44
294.833	92.44
295.064	92.44
295.295	88.44
295.525	109.44
295.756	72.44
295.987	93.44
296.217	86.44
296.448	70.44
296.679	90.44
296.909	94.44
297.14	78.44
297.37	95.44
297.601	84.44
297.831	84.44
298.062	77.44
298.292	69.44
298.523	84.44
298.753	81.44
298.984	94.44
299.214	72.44
299.445	81.44
299.675	91.44
299.905	74.44
300.136	76.44
300.366	89.44
300.597	76.44
300.827	77.44
301.057	71.44
301.288	82.44
301.518	69.44
301.748	76.44
301.979	73.44
302.209	84.44
302.439	71.44
302.669	84.44
302.9	80.44
303.13	84.44
303.36	80.44
303.59	91.44
303.82	78.44
304.051	78.44
304.281	81.44
304.511	82.44
304.741	77.44
304.971	88.44
305.201	92.44
305.431	89.44
305.661	86.44
305.891	87.44
306.121	82.44
306.352	81.44
306.582	89.44
306.812	90.44
307.042	110.44
307.272	96.44
307.502	82.44
307.731	86.44
307.961	87.44
308.191	76.44
308.421	92.44
308.651	86.44
308.881	88.44
309.111	92.44
309.341	92.44
309.571	83.44
309.8	86.44
310.03	81.44
310.26	86.44
310.49	94.44
310.72	89.44
310.949	84.44
311.179	94.44
311.409	86.44
311.639	83.44
311.868	76.44
312.098	99.44
312.328	93.44
312.557	74.44
312.787	85.44
313.017	96.44
313.246	85.44
313.476	88.44
313.706	74.44
313.935	82.44
314.165	80.44
314.394	88.44
314.624	78.44
314.853	88.44
315.083	81.44
315.312	83.44
315.542	91.44
315.771	88.44
316.001	75.44
316.23	79.44
316.46	80.44
316.689	83.44
316.919	88.44
317.148	95.44
317.377	78.44
317.607	83.44
317.836	98.44
318.065	79.44
318.295	97.44
318.524	95.44
318.753	88.44
318.983	86.44
319.212	87.44
319.441	103.44
319.67	102.44
319.9	91.44
320.129	86.44
320.358	101.44
320.587	74.44
320.816	88.44
321.046	95.44
321.275	92.44
321.504	83.44
321.733	91.44
321.962	90.44
322.191	78.44
322.42	80.44
322.649	86.44
322.878	83.44
323.108	90.44
323.337	86.44
323.566	68.44
323.795	87.44
324.024	91.44
324.253	69.44
324.482	82.44
324.71	93.44
324.939	87.44
325.168	93.44
325.397	79.44
325.626	86.44
325.855	92.44
326.084	98.44
326.313	79.44
326.542	102.44
326.77	71.44
326.999	74.44
327.228	82.44
327.457	93.44
327.686	86.44
327.914	91.44
328.143	74.44
328.372	88.44
328.6	84.44
328.829	78.44
329.058	91.44
329.287	87.44
329.515	83.44
329.744	83.44
329.972	84.44
330.201	89.44
330.43	91.44
330.658	90.44
330.887	98.44
331.115	93.44
331.344	86.44
331.572	98.44
331.801	92.44
332.03	87.44
332.258	78.44
332.486	89.44
332.715	81.44
332.943	76.44
333.172	101.44
333.4	98.44
333.629	92.44
333.857	88.44
334.085	94.44
334.314	76.44
334.542	84.44
334.771	92.44
334.999	91.44
335.227	87.44
335.455	85.44
335.684	93.44
335.912	90.44
336.14	72.44
336.369	96.44
336.597	85.44
336.825	94.44
337.053	85.44
337.281	83.44
337.51	85.44
337.738	91.44
337.966	76.44
338.194	93.44
338.422	77.44
338.65	87.44
338.878	94.44
339.106	83.44
339.334	79.44
339.562	93.44
339.79	83.44
340.018	95.44
340.246	91.44
340.474	92.44
340.702	74.44
340.93	90.44
341.158	91.44
341.386	80.44
341.614	85.44
341.842	89.44
342.07	84.44
342.298	83.44
342.526	84.44
342.754	89.44
342.981	90.44
343.209	88.44
343.437	100.44
343.665	82.44
343.893	91.44
344.12	90.44
344.348	87.44
344.576	82.44
344.804	75.44
345.031	92.44
345.259	95.44
345.487	85.44
345.714	89.44
345.942	101.44
346.17	94.44
346.397	94.44
346.625	83.44
346.853	83.44
347.08	89.44
347.308	105.44
347.535	83.44
347.763	80.44
347.99	81.44
348.218	93.44
348.445	93.44
348.673	87.44
348.9	82.44
349.128	72.44
349.355	87.44
349.583	75.44
349.81	86.44
350.037	89.44
350.265	92.44
350.492	86.44
350.72	91.44
350.947	77.44
351.174	86.44
351.402	90.44
351.629	77.44
351.856	77.44
352.083	90.44
352.311	96.44
352.538	95.44
352.765	83.44
352.992	86.44
353.22	89.44
353.447	70.44
353.674	83.44
353.901	74.44
354.128	93.44
354.355	80.44
354.583	72.44
354.81	94.44
355.037	100.44
355.264	98.44
355.491	86.44
355.718	88.44
355.945	78.44
356.172	90.44
356.399	86.44
356.626	83.44
356.853	84.44
357.08	85.44
357.307	80.44
357.534	88.44
357.761	87.44
357.988	94.44
358.215	87.44
358.441	85.44
358.668	68.44
358.895	88.44
359.122	79.44
359.349	74.44
359.576	85.44
359.802	99.44
360.029	86.44
360.256	90.44
360.483	90.44
360.709	84.44
360.936	90.44
361.163	100.44
361.39	96.44
361.616	72.44
361.843	102.44
362.07	81.44
362.296	76.44
362.523	86.44
362.749	84.44
362.976	83.44
363.203	96.44
363.429	75.44
363.656	80.44
363.882	81.44
364.109	91.44
364.335	100.44
364.562	78.44
364.788	83.44
365.015	89.44
365.241	91.44
365.468	77.44
365.694	92.44
365.92	104.44
366.147	83.44
366.373	96.44
366.599	78.44
366.826	77.44
367.052	82.44
367.278	98.44
367.505	92.44
367.731	102.44
367.957	84.44
368.184	84.44
368.41	90.44
368.636	99.44
368.862	84.44
369.089	95.44
369.315	87.44
369.541	86.44
369.767	95.44
369.993	88.44
370.219	88.44
370.445	87.44
370.672	90.44
370.898	92.44
371.124	70.44
371.35	85.44
371.576	86.44
371.802	102.44
372.028	84.44
372.254	87.44
372.48	92.44
372.706	103.44
372.932	93.44
373.158	85.44
373.384	91.44
373.61	92.44
373.835	104.44
374.061	86.44
374.287	88.44
374.513	84.44
374.739	80.44
374.965	90.44
375.191	83.44
375.416	76.44
375.642	87.44
375.868	95.44
376.094	95.44
376.319	82.44
376.545	83.44
376.771	77.44
376.997	98.44
377.222	84.44
377.448	89.44
377.674	87.44
377.899	95.44
378.125	72.44
378.35	90.44
378.576	101.44
378.802	90.44
379.027	82.44
379.253	83.44
379.478	87.44
379.704	92.44
379.929	92.44
380.155	74.44
380.38	82.44
380.606	76.44
380.831	82.44
381.057	86.44
381.282	90.44
381.507	87.44
381.733	80.44
381.958	84.44
382.184	82.44
382.409	80.44
382.634	81.44
382.86	91.44
383.085	70.44
383.31	75.44
383.535	85.44
383.761	87.44
383.986	104.44
384.211	84.44
384.436	83.44
384.662	96.44
384.887	84.44
385.112	91.44
385.337	78.44
385.562	78.44
385.787	87.44
386.013	74.44
386.238	84.44
386.463	87.44
386.688	85.44
386.913	81.44
387.138	90.44
387.363	83.44
387.588	86.44
387.813	83.44
388.038	87.44
388.263	91.44
388.488	86.44
388.713	89.44
388.938	76.44
389.163	79.44
389.387	89.44
389.612	85.44
389.837	85.44
390.062	101.44
390.287	104.44
390.512	93.44
390.736	79.44
390.961	84.44
391.186	84.44
391.411	87.44
391.636	88.44
391.86	80.44
392.085	78.44
392.31	79.44
392.534	81.44
392.759	88.44
392.984	85.44
393.208	73.44
393.433	86.44
393.658	90.44
393.882	94.44
394.107	94.44
394.331	77.44
394.556	87.44
394.78	89.44
395.005	94.44
395.229	74.44
395.454	86.44
395.678	93.44
395.903	81.44
396.127	83.44
396.352	93.44
396.576	86.44
396.801	77.44
397.025	81.44
397.249	106.44
397.474	93.44
397.698	87.44
397.922	87.44
398.147	84.44
398.371	85.44
398.595	82.44
398.82	75.44
399.044	92.44
399.268	86.44
399.492	79.44
399.717	100.44
399.941	100.44
400.165	104.44
400.389	95.44
400.613	81.44
400.837	88.44
401.062	88.44
401.286	81.44
401.51	94.44
401.734	99.44
401.958	84.44
402.182	85.44
402.406	84.44
402.63	82.44
402.854	90.44
403.078	78.44
403.302	95.44
403.526	87.44
403.75	99.44
403.974	86.44
404.198	96.44
404.422	77.44
404.645	72.44
404.869	91.44
405.093	88.44
405.317	86.44
405.541	81.44
405.765	100.44
405.988	90.44
406.212	77.44
406.436	97.44
406.66	85.44
406.883	91.44
407.107	91.44
407.331	90.44
407.555	107.44
407.778	89.44
408.002	84.44
408.226	89.44
408.449	78.44
408.673	66.44
408.896	94.44
409.12	84.44
409.344	84.44
409.567	112.44
409.791	96.44
410.014	87.44
410.238	95.44
410.461	85.44
410.685	80.44
410.908	88.44
411.132	90.44
411.355	88.44
411.578	100.44
411.802	90.44
412.025	79.44
412.249	83.44
412.472	88.44
412.695	85.44
412.919	79.44
413.142	86.44
413.365	86.44
413.589	90.44
413.812	86.44
414.035	80.44
414.258	78.44
414.482	77.44
414.705	78.44
414.928	82.44
415.151	83.44
415.374	86.44
415.597	86.44
415.821	103.44
416.044	101.44
416.267	88.44
416.49	86.44
416.713	103.44
416.936	80.44
417.159	85.44
417.382	92.44
417.605	79.44
417.828	86.44
418.051	84.44
418.274	86.44
418.497	86.44
418.72	85.44
418.943	107.44
419.166	86.44
419.389	81.44
419.611	78.44
419.834	91.44
420.057	95.44
420.28	96.44
420.503	88.44
420.726	83.44
420.948	80.44
421.171	91.44
421.394	70.44
421.617	79.44
421.839	88.44
422.062	76.44
422.285	79.44
422.507	86.44
422.73	80.44
422.953	89.44
423.175	88.44
423.398	86.44
423.621	91.44
423.843	78.44
424.066	96.44
424.288	99.44
424.511	85.44
424.733	85.44
424.956	87.44
425.178	82.44
425.401	78.44
425.623	100.44
425.846	91.44
426.068	82.44
426.291	87.44
426.513	83.44
426.735	84.44
426.958	89.44
427.18	90.44
427.402	78.44
427.625	77.44
427.847	83.44
428.069	102.44
428.292	72.44
428.514	72.44
428.736	74.44
428.958	58.44
429.181	84.44
429.403	80.44
429.625	93.44
429.847	92.44
430.069	81.44
430.292	78.44
430.514	95.44
430.736	84.44
430.958	78.44
431.18	78.44
431.402	82.44
431.624	85.44
431.846	95.44
432.068	89.44
432.29	91.44
432.512	90.44
432.734	77.44
432.956	74.44
433.178	80.44
433.4	80.44
433.622	78.44
433.844	95.44
434.066	80.44
434.287	79.44
434.509	72.44
434.731	83.44
434.953	84.44
435.175	74.44
435.397	80.44
435.618	83.44
435.84	90.44
436.062	94.44
436.284	82.44
436.505	74.44
436.727	81.44
436.949	76.44
437.17	83.44
437.392	84.44
437.614	86.44
437.835	88.44
438.057	88.44
438.278	83.44
438.5	79.44
438.721	88.44
438.943	88.44
439.165	84.44
439.386	79.44
439.608	86.44
439.829	96.44
440.05	92.44
440.272	86.44
440.493	78.44
440.715	79.44
440.936	78.44
441.158	87.44
441.379	82.44
441.6	84.44
441.822	99.44
442.043	95.44
442.264	79.44
442.486	91.44
442.707	77.44
442.928	93.44
443.149	77.44
443.371	78.44
443.592	81.44
443.813	78.44
444.034	83.44
444.255	79.44
444.476	82.44
444.698	85.44
444.919	75.44
445.14	162.44
445.361	124.44
445.582	90.44
445.803	87.44
446.024	94.44
446.245	92.44
446.466	90.44
446.687	71.44
446.908	90.44
447.129	78.44
447.35	85.44
447.571	79.44
447.792	91.44
448.013	100.44
448.234	92.44
448.455	98.44
448.675	78.44
448.896	78.44
449.117	67.44
449.338	75.44
449.559	80.44
449.779	96.44
450	91.44
450.221	81.44
450.442	72.44
450.662	78.44
450.883	79.44
451.104	80.44
451.324	88.44
451.545	78.44
451.766	83.44
451.986	84.44
452.207	82.44
452.428	87.44
452.648	78.44
452.869	85.44
453.089	86.44
453.31	81.44
453.53	88.44
453.751	82.44
453.971	87.44
454.192	80.44
454.412	81.44
454.633	91.44
454.853	87.44
455.073	82.44
455.294	82.44
455.514	85.44
455.734	88.44
455.955	98.44
456.175	88.44
456.395	86.44
456.616	80.44
456.836	87.44
457.056	89.44
457.276	76.44
457.497	89.44
457.717	75.44
457.937	78.44
458.157	68.44
458.377	79.44
458.598	88.44
458.818	80.44
459.038	86.44
459.258	85.44
459.478	85.44
459.698	83.44
459.918	90.44
460.138	78.44
460.358	89.44
460.578	80.44
460.798	92.44
461.018	88.44
461.238	88.44
461.458	82.44
461.678	88.44
461.898	76.44
462.118	91.44
462.338	89.44
462.558	91.44
462.777	89.44
462.997	98.44
463.217	98.44
463.437	79.44
463.657	87.44
463.876	85.44
464.096	77.44
464.316	92.44
464.536	90.44
464.755	82.44
464.975	86.44
465.195	103.44
465.414	98.44
465.634	73.44
465.854	80.44
466.073	83.44
466.293	72.44
466.512	78.44
466.732	79.44
466.951	87.44
467.171	81.44
467.391	86.44
467.61	83.44
467.829	97.44
468.049	91.44
468.268	84.44
468.488	79.44
468.707	96.44
468.927	80.44
469.146	101.44
469.365	80.44
469.585	84.44
469.804	79.44
470.023	90.44
470.243	74.44
470.462	84.44
470.681	78.44
470.901	96.44
471.12	90.44
471.339	82.44
471.558	85.44
471.777	79.44
471.997	92.44
472.216	91.44
472.435	83.44
472.654	86.44
472.873	74.44
473.092	82.44
473.311	102.44
473.53	74.44
473.749	98.44
473.968	84.44
474.187	83.44
474.406	80.44
474.625	87.44
474.844	78.44
475.063	92.44
475.282	87.44
475.501	88.44
475.72	87.44
475.939	92.44
476.158	73.44
476.377	76.44
476.596	82.44
476.814	88.44
477.033	91.44
477.252	87.44
477.471	86.44
477.69	83.44
477.908	82.44
478.127	85.44
478.346	71.44
478.564	84.44
478.783	87.44
479.002	90.44
479.22	85.44
479.439	85.44
479.658	92.44
479.876	84.44
480.095	87.44
480.313	85.44
480.532	88.44
480.751	85.44
480.969	80.44
481.188	90.44
481.406	87.44
481.624	94.44
481.843	92.44
482.061	78.44
482.28	80.44
482.498	84.44
482.717	88.44
482.935	83.44
483.153	99.44
483.372	83.44
483.59	79.44
483.808	83.44
484.027	78.44
484.245	94.44
484.463	85.44
484.681	86.44
484.9	83.44
485.118	90.44
485.336	90.44
485.554	79.44
485.772	83.44
485.99	84.44
486.209	70.44
486.427	75.44
486.645	91.44
486.863	91.44
487.081	86.44
487.299	77.44
487.517	88.44
487.735	110.44
487.953	75.44
488.171	80.44
488.389	93.44
488.607	96.44
488.825	91.44
489.043	88.44
489.261	90.44
489.479	75.44
489.696	91.44
489.914	75.44
490.132	82.44
490.35	89.44
490.568	87.44
490.786	87.44
491.003	97.44
491.221	88.44
491.439	86.44
491.657	91.44
491.874	98.44
492.092	96.44
492.31	94.44
492.527	90.44
492.745	80.44
492.963	84.44
493.18	87.44
493.398	86.44
493.615	92.44
493.833	87.44
494.05	78.44
494.268	95.44
494.485	110.44
494.703	98.44
494.92	89.44
495.138	88.44
495.355	92.44
495.573	84.44
495.79	93.44
496.008	88.44
496.225	100.44
496.442	82.44
496.66	83.44
496.877	89.44
497.094	84.44
497.312	86.44
497.529	88.44
497.746	95.44
497.963	94.44
498.181	76.44
498.398	94.44
498.615	110.44
498.832	102.44
499.049	90.44
499.267	88.44
499.484	91.44
499.701	100.44
499.918	96.44
500.135	109.44
500.352	112.44
500.569	115.44
500.786	111.44
501.003	118.44
501.22	93.44
501.437	100.44
501.654	110.44
501.871	103.44
502.088	95.44
502.305	89.44
502.522	78.44
502.739	96.44
502.956	80.44
503.172	75.44
503.389	85.44
503.606	84.44
503.823	102.44
504.04	86.44
504.256	104.44
504.473	84.44
504.69	72.44
504.907	87.44
505.123	84.44
505.34	93.44
505.557	83.44
505.773	87.44
505.99	80.44
506.207	87.44
506.423	88.44
506.64	93.44
506.856	87.44
507.073	88.44
507.289	90.44
507.506	72.44
507.722	76.44
507.939	87.44
508.155	86.44
508.372	87.44
508.588	75.44
508.805	84.44
509.021	80.44
509.238	78.44
509.454	89.44
509.67	80.44
509.887	80.44
510.103	80.44
510.319	83.44
510.536	104.44
510.752	87.44
510.968	82.44
511.184	69.44
511.401	80.44
511.617	75.44
511.833	72.44
512.049	95.44
512.265	80.44
512.481	81.44
512.698	86.44
512.914	91.44
513.13	84.44
513.346	91.44
513.562	86.44
513.778	94.44
513.994	91.44
514.21	89.44
514.426	89.44
514.642	98.44
514.858	70.44
515.074	90.44
515.29	90.44
515.506	91.44
515.721	86.44
515.937	94.44
516.153	86.44
516.369	89.44
516.585	77.44
516.801	85.44
517.016	101.44
517.232	90.44
517.448	87.44
517.664	102.44
517.879	87.44
518.095	105.44
518.311	90.44
518.527	106.44
518.742	82.44
518.958	83.44
519.173	92.44
519.389	96.44
