Data from BG_HRD10591_040.txt Node
Date: Fri May 16 15:27:07 EDT 2025
User: Yrep
Spectrometer: HR+D1059
Trigger mode: 1
Integration Time (sec): 1.000000E-1
Scans to average: 1
Electric dark correction enabled: true
Nonlinearity correction enabled: false
Boxcar width: 0
XAxis mode: Wavelengths
Number of Pixels in Spectrum: 2048
>>>>>Begin Spectral Data<<<<<
223.165	-11.75
223.4	-11.75
223.635	-11.75
223.869	-31.75
224.104	-17.75
224.338	-14.75
224.573	-22.75
224.808	-6.75
225.042	-0.75
225.277	-10.75
225.511	3.25
225.746	4.25
225.98	-9.75
226.215	10.25
226.449	22.25
226.683	19.25
226.918	24.25
227.152	43.25
227.387	35.25
227.621	40.25
227.856	44.25
228.09	41.25
228.324	50.25
228.559	54.25
228.793	52.25
229.027	72.25
229.262	74.25
229.496	73.25
229.73	74.25
229.964	67.25
230.199	83.25
230.433	75.25
230.667	73.25
230.901	74.25
231.136	81.25
231.37	95.25
231.604	87.25
231.838	83.25
232.072	89.25
232.306	82.25
232.541	66.25
232.775	86.25
233.009	82.25
233.243	74.25
233.477	85.25
233.711	83.25
233.945	75.25
234.179	80.25
234.413	89.25
234.647	81.25
234.881	58.25
235.115	92.25
235.349	86.25
235.583	90.25
235.817	82.25
236.051	79.25
236.285	79.25
236.519	87.25
236.753	81.25
236.987	69.25
237.221	69.25
237.455	84.25
237.689	91.25
237.922	80.25
238.156	77.25
238.39	75.25
238.624	69.25
238.858	90.25
239.091	66.25
239.325	68.25
239.559	77.25
239.793	84.25
240.027	91.25
240.26	57.25
240.494	61.25
240.728	81.25
240.961	66.25
241.195	77.25
241.429	82.25
241.662	71.25
241.896	74.25
242.13	78.25
242.363	74.25
242.597	96.25
242.83	83.25
243.064	92.25
243.298	79.25
243.531	72.25
243.765	76.25
243.998	72.25
244.232	72.25
244.465	69.25
244.699	85.25
244.932	89.25
245.166	90.25
245.399	97.25
245.633	77.25
245.866	92.25
246.099	87.25
246.333	78.25
246.566	80.25
246.8	81.25
247.033	69.25
247.266	84.25
247.5	86.25
247.733	83.25
247.966	70.25
248.2	75.25
248.433	88.25
248.666	66.25
248.899	78.25
249.133	80.25
249.366	88.25
249.599	86.25
249.832	80.25
250.066	75.25
250.299	78.25
250.532	73.25
250.765	94.25
250.998	86.25
251.231	87.25
251.465	90.25
251.698	97.25
251.931	73.25
252.164	84.25
252.397	87.25
252.63	89.25
252.863	96.25
253.096	82.25
253.329	70.25
253.562	69.25
253.795	76.25
254.028	67.25
254.261	91.25
254.494	95.25
254.727	81.25
254.96	85.25
255.193	83.25
255.426	74.25
255.659	93.25
255.892	70.25
256.124	74.25
256.357	78.25
256.59	70.25
256.823	82.25
257.056	88.25
257.289	99.25
257.521	87.25
257.754	78.25
257.987	81.25
258.22	90.25
258.452	62.25
258.685	97.25
258.918	87.25
259.151	96.25
259.383	88.25
259.616	71.25
259.849	83.25
260.081	88.25
260.314	88.25
260.547	91.25
260.779	84.25
261.012	93.25
261.244	65.25
261.477	88.25
261.71	74.25
261.942	74.25
262.175	92.25
262.407	86.25
262.64	80.25
262.872	83.25
263.105	87.25
263.337	76.25
263.57	89.25
263.802	83.25
264.035	90.25
264.267	85.25
264.499	76.25
264.732	94.25
264.964	72.25
265.197	84.25
265.429	81.25
265.661	87.25
265.894	77.25
266.126	72.25
266.358	79.25
266.591	90.25
266.823	82.25
267.055	81.25
267.287	80.25
267.52	87.25
267.752	81.25
267.984	84.25
268.216	76.25
268.448	91.25
268.681	83.25
268.913	77.25
269.145	89.25
269.377	91.25
269.609	99.25
269.841	90.25
270.073	82.25
270.306	86.25
270.538	76.25
270.77	85.25
271.002	84.25
271.234	85.25
271.466	98.25
271.698	93.25
271.93	99.25
272.162	80.25
272.394	86.25
272.626	94.25
272.858	88.25
273.09	89.25
273.322	84.25
273.553	87.25
273.785	86.25
274.017	78.25
274.249	86.25
274.481	89.25
274.713	87.25
274.945	79.25
275.176	96.25
275.408	82.25
275.64	93.25
275.872	93.25
276.104	96.25
276.335	93.25
276.567	87.25
276.799	85.25
277.031	99.25
277.262	91.25
277.494	98.25
277.726	87.25
277.957	94.25
278.189	84.25
278.421	89.25
278.652	96.25
278.884	84.25
279.115	87.25
279.347	92.25
279.579	68.25
279.81	86.25
280.042	97.25
280.273	79.25
280.505	82.25
280.736	78.25
280.968	83.25
281.199	93.25
281.431	92.25
281.662	106.25
281.894	88.25
282.125	89.25
282.356	73.25
282.588	79.25
282.819	84.25
283.051	90.25
283.282	84.25
283.513	94.25
283.745	97.25
283.976	87.25
284.207	80.25
284.439	95.25
284.67	80.25
284.901	83.25
285.132	87.25
285.364	91.25
285.595	83.25
285.826	86.25
286.057	85.25
286.288	86.25
286.52	76.25
286.751	80.25
286.982	82.25
287.213	73.25
287.444	88.25
287.675	93.25
287.906	97.25
288.138	95.25
288.369	97.25
288.6	96.25
288.831	89.25
289.062	81.25
289.293	90.25
289.524	77.25
289.755	90.25
289.986	81.25
290.217	97.25
290.448	83.25
290.679	86.25
290.91	89.25
291.141	82.25
291.371	79.25
291.602	86.25
291.833	86.25
292.064	82.25
292.295	89.25
292.526	90.25
292.757	82.25
292.987	86.25
293.218	88.25
293.449	85.25
293.68	99.25
293.91	79.25
294.141	79.25
294.372	87.25
294.603	73.25
294.833	85.25
295.064	81.25
295.295	78.25
295.525	79.25
295.756	90.25
295.987	94.25
296.217	91.25
296.448	96.25
296.679	94.25
296.909	83.25
297.14	90.25
297.37	97.25
297.601	88.25
297.831	95.25
298.062	104.25
298.292	94.25
298.523	102.25
298.753	97.25
298.984	83.25
299.214	101.25
299.445	91.25
299.675	93.25
299.905	99.25
300.136	83.25
300.366	86.25
300.597	79.25
300.827	86.25
301.057	90.25
301.288	96.25
301.518	97.25
301.748	89.25
301.979	111.25
302.209	90.25
302.439	91.25
302.669	97.25
302.9	88.25
303.13	82.25
303.36	93.25
303.59	81.25
303.82	82.25
304.051	93.25
304.281	83.25
304.511	100.25
304.741	90.25
304.971	86.25
305.201	92.25
305.431	100.25
305.661	94.25
305.891	86.25
306.121	96.25
306.352	85.25
306.582	91.25
306.812	90.25
307.042	95.25
307.272	77.25
307.502	84.25
307.731	95.25
307.961	88.25
308.191	90.25
308.421	89.25
308.651	84.25
308.881	92.25
309.111	91.25
309.341	80.25
309.571	93.25
309.8	80.25
310.03	73.25
310.26	94.25
310.49	86.25
310.72	96.25
310.949	85.25
311.179	94.25
311.409	88.25
311.639	81.25
311.868	92.25
312.098	85.25
312.328	72.25
312.557	86.25
312.787	94.25
313.017	78.25
313.246	87.25
313.476	74.25
313.706	89.25
313.935	91.25
314.165	77.25
314.394	100.25
314.624	77.25
314.853	89.25
315.083	91.25
315.312	87.25
315.542	76.25
315.771	92.25
316.001	64.25
316.23	102.25
316.46	94.25
316.689	75.25
316.919	83.25
317.148	93.25
317.377	92.25
317.607	84.25
317.836	83.25
318.065	80.25
318.295	100.25
318.524	83.25
318.753	92.25
318.983	92.25
319.212	83.25
319.441	88.25
319.67	75.25
319.9	82.25
320.129	90.25
320.358	83.25
320.587	78.25
320.816	85.25
321.046	89.25
321.275	79.25
321.504	78.25
321.733	91.25
321.962	88.25
322.191	94.25
322.42	91.25
322.649	93.25
322.878	88.25
323.108	99.25
323.337	86.25
323.566	81.25
323.795	91.25
324.024	90.25
324.253	90.25
324.482	79.25
324.71	95.25
324.939	73.25
325.168	79.25
325.397	87.25
325.626	92.25
325.855	74.25
326.084	103.25
326.313	96.25
326.542	81.25
326.77	83.25
326.999	85.25
327.228	91.25
327.457	90.25
327.686	102.25
327.914	89.25
328.143	112.25
328.372	92.25
328.6	89.25
328.829	78.25
329.058	91.25
329.287	84.25
329.515	77.25
329.744	83.25
329.972	98.25
330.201	89.25
330.43	86.25
330.658	97.25
330.887	94.25
331.115	89.25
331.344	98.25
331.572	83.25
331.801	88.25
332.03	90.25
332.258	82.25
332.486	84.25
332.715	91.25
332.943	82.25
333.172	95.25
333.4	67.25
333.629	93.25
333.857	84.25
334.085	88.25
334.314	86.25
334.542	95.25
334.771	88.25
334.999	91.25
335.227	88.25
335.455	79.25
335.684	104.25
335.912	109.25
336.14	87.25
336.369	93.25
336.597	80.25
336.825	93.25
337.053	88.25
337.281	105.25
337.51	89.25
337.738	94.25
337.966	88.25
338.194	86.25
338.422	103.25
338.65	98.25
338.878	96.25
339.106	96.25
339.334	78.25
339.562	86.25
339.79	85.25
340.018	92.25
340.246	89.25
340.474	90.25
340.702	87.25
340.93	83.25
341.158	101.25
341.386	89.25
341.614	79.25
341.842	84.25
342.07	74.25
342.298	91.25
342.526	95.25
342.754	99.25
342.981	78.25
343.209	87.25
343.437	90.25
343.665	97.25
343.893	98.25
344.12	81.25
344.348	96.25
344.576	86.25
344.804	91.25
345.031	91.25
345.259	88.25
345.487	91.25
345.714	94.25
345.942	76.25
346.17	89.25
346.397	85.25
346.625	82.25
346.853	98.25
347.08	91.25
347.308	88.25
347.535	82.25
347.763	88.25
347.99	89.25
348.218	99.25
348.445	96.25
348.673	88.25
348.9	95.25
349.128	98.25
349.355	87.25
349.583	103.25
349.81	83.25
350.037	84.25
350.265	95.25
350.492	68.25
350.72	82.25
350.947	89.25
351.174	86.25
351.402	71.25
351.629	86.25
351.856	97.25
352.083	87.25
352.311	103.25
352.538	87.25
352.765	86.25
352.992	103.25
353.22	84.25
353.447	90.25
353.674	91.25
353.901	97.25
354.128	88.25
354.355	90.25
354.583	84.25
354.81	75.25
355.037	94.25
355.264	94.25
355.491	102.25
355.718	87.25
355.945	91.25
356.172	76.25
356.399	83.25
356.626	77.25
356.853	73.25
357.08	109.25
357.307	92.25
357.534	75.25
357.761	87.25
357.988	84.25
358.215	90.25
358.441	85.25
358.668	79.25
358.895	91.25
359.122	79.25
359.349	82.25
359.576	79.25
359.802	94.25
360.029	88.25
360.256	83.25
360.483	81.25
360.709	90.25
360.936	95.25
361.163	81.25
361.39	86.25
361.616	102.25
361.843	91.25
362.07	78.25
362.296	81.25
362.523	80.25
362.749	90.25
362.976	89.25
363.203	94.25
363.429	85.25
363.656	83.25
363.882	88.25
364.109	89.25
364.335	83.25
364.562	77.25
364.788	103.25
365.015	82.25
365.241	88.25
365.468	86.25
365.694	97.25
365.92	84.25
366.147	81.25
366.373	80.25
366.599	82.25
366.826	86.25
367.052	94.25
367.278	82.25
367.505	79.25
367.731	78.25
367.957	78.25
368.184	99.25
368.41	97.25
368.636	90.25
368.862	82.25
369.089	79.25
369.315	99.25
369.541	105.25
369.767	95.25
369.993	80.25
370.219	90.25
370.445	98.25
370.672	86.25
370.898	84.25
371.124	88.25
371.35	83.25
371.576	86.25
371.802	87.25
372.028	89.25
372.254	93.25
372.48	72.25
372.706	91.25
372.932	91.25
373.158	95.25
373.384	94.25
373.61	95.25
373.835	78.25
374.061	81.25
374.287	89.25
374.513	72.25
374.739	82.25
374.965	86.25
375.191	86.25
375.416	88.25
375.642	98.25
375.868	86.25
376.094	74.25
376.319	75.25
376.545	86.25
376.771	88.25
376.997	82.25
377.222	72.25
377.448	95.25
377.674	93.25
377.899	87.25
378.125	82.25
378.35	80.25
378.576	80.25
378.802	77.25
379.027	95.25
379.253	90.25
379.478	94.25
379.704	79.25
379.929	84.25
380.155	89.25
380.38	80.25
380.606	94.25
380.831	80.25
381.057	90.25
381.282	86.25
381.507	88.25
381.733	79.25
381.958	78.25
382.184	88.25
382.409	96.25
382.634	87.25
382.86	88.25
383.085	85.25
383.31	84.25
383.535	86.25
383.761	107.25
383.986	92.25
384.211	83.25
384.436	84.25
384.662	84.25
384.887	98.25
385.112	97.25
385.337	85.25
385.562	84.25
385.787	99.25
386.013	87.25
386.238	87.25
386.463	83.25
386.688	114.25
386.913	95.25
387.138	86.25
387.363	92.25
387.588	89.25
387.813	79.25
388.038	75.25
388.263	92.25
388.488	73.25
388.713	99.25
388.938	106.25
389.163	102.25
389.387	77.25
389.612	85.25
389.837	87.25
390.062	91.25
390.287	89.25
390.512	88.25
390.736	84.25
390.961	82.25
391.186	75.25
391.411	90.25
391.636	79.25
391.86	90.25
392.085	95.25
392.31	88.25
392.534	97.25
392.759	89.25
392.984	79.25
393.208	112.25
393.433	84.25
393.658	83.25
393.882	99.25
394.107	81.25
394.331	96.25
394.556	95.25
394.78	80.25
395.005	87.25
395.229	104.25
395.454	104.25
395.678	88.25
395.903	87.25
396.127	101.25
396.352	80.25
396.576	83.25
396.801	89.25
397.025	97.25
397.249	91.25
397.474	89.25
397.698	94.25
397.922	92.25
398.147	93.25
398.371	92.25
398.595	102.25
398.82	90.25
399.044	90.25
399.268	99.25
399.492	98.25
399.717	94.25
399.941	85.25
400.165	99.25
400.389	81.25
400.613	80.25
400.837	89.25
401.062	108.25
401.286	94.25
401.51	87.25
401.734	91.25
401.958	99.25
402.182	88.25
402.406	106.25
402.63	86.25
402.854	82.25
403.078	86.25
403.302	93.25
403.526	86.25
403.75	103.25
403.974	91.25
404.198	86.25
404.422	84.25
404.645	88.25
404.869	74.25
405.093	86.25
405.317	99.25
405.541	87.25
405.765	85.25
405.988	80.25
406.212	82.25
406.436	81.25
406.66	95.25
406.883	92.25
407.107	81.25
407.331	104.25
407.555	104.25
407.778	100.25
408.002	90.25
408.226	79.25
408.449	81.25
408.673	84.25
408.896	91.25
409.12	87.25
409.344	81.25
409.567	94.25
409.791	96.25
410.014	97.25
410.238	88.25
410.461	81.25
410.685	92.25
410.908	94.25
411.132	88.25
411.355	94.25
411.578	86.25
411.802	103.25
412.025	74.25
412.249	95.25
412.472	83.25
412.695	76.25
412.919	78.25
413.142	82.25
413.365	81.25
413.589	102.25
413.812	76.25
414.035	96.25
414.258	88.25
414.482	94.25
414.705	98.25
414.928	80.25
415.151	80.25
415.374	82.25
415.597	86.25
415.821	106.25
416.044	90.25
416.267	86.25
416.49	88.25
416.713	80.25
416.936	91.25
417.159	83.25
417.382	83.25
417.605	78.25
417.828	94.25
418.051	96.25
418.274	97.25
418.497	91.25
418.72	86.25
418.943	87.25
419.166	99.25
419.389	96.25
419.611	95.25
419.834	83.25
420.057	92.25
420.28	68.25
420.503	86.25
420.726	84.25
420.948	80.25
421.171	95.25
421.394	102.25
421.617	86.25
421.839	91.25
422.062	104.25
422.285	82.25
422.507	103.25
422.73	104.25
422.953	86.25
423.175	82.25
423.398	90.25
423.621	88.25
423.843	90.25
424.066	94.25
424.288	91.25
424.511	82.25
424.733	88.25
424.956	85.25
425.178	93.25
425.401	96.25
425.623	83.25
425.846	95.25
426.068	90.25
426.291	82.25
426.513	84.25
426.735	95.25
426.958	102.25
427.18	87.25
427.402	86.25
427.625	97.25
427.847	91.25
428.069	87.25
428.292	86.25
428.514	82.25
428.736	91.25
428.958	80.25
429.181	89.25
429.403	93.25
429.625	96.25
429.847	94.25
430.069	85.25
430.292	88.25
430.514	71.25
430.736	87.25
430.958	89.25
431.18	105.25
431.402	85.25
431.624	86.25
431.846	90.25
432.068	82.25
432.29	96.25
432.512	82.25
432.734	84.25
432.956	95.25
433.178	81.25
433.4	86.25
433.622	91.25
433.844	97.25
434.066	96.25
434.287	88.25
434.509	94.25
434.731	84.25
434.953	70.25
435.175	97.25
435.397	84.25
435.618	90.25
435.84	85.25
436.062	88.25
436.284	84.25
436.505	85.25
436.727	82.25
436.949	77.25
437.17	98.25
437.392	91.25
437.614	91.25
437.835	94.25
438.057	85.25
438.278	78.25
438.5	82.25
438.721	90.25
438.943	94.25
439.165	87.25
439.386	95.25
439.608	99.25
439.829	81.25
440.05	80.25
440.272	91.25
440.493	89.25
440.715	81.25
440.936	92.25
441.158	88.25
441.379	88.25
441.6	92.25
441.822	74.25
442.043	76.25
442.264	87.25
442.486	80.25
442.707	88.25
442.928	96.25
443.149	102.25
443.371	82.25
443.592	97.25
443.813	91.25
444.034	79.25
444.255	96.25
444.476	90.25
444.698	87.25
444.919	86.25
445.14	161.25
445.361	133.25
445.582	88.25
445.803	93.25
446.024	80.25
446.245	90.25
446.466	93.25
446.687	79.25
446.908	78.25
447.129	80.25
447.35	93.25
447.571	84.25
447.792	91.25
448.013	97.25
448.234	90.25
448.455	87.25
448.675	88.25
448.896	88.25
449.117	86.25
449.338	102.25
449.559	104.25
449.779	90.25
450	78.25
450.221	91.25
450.442	90.25
450.662	90.25
450.883	93.25
451.104	90.25
451.324	83.25
451.545	79.25
451.766	79.25
451.986	89.25
452.207	83.25
452.428	86.25
452.648	87.25
452.869	97.25
453.089	82.25
453.31	84.25
453.53	88.25
453.751	81.25
453.971	86.25
454.192	92.25
454.412	89.25
454.633	86.25
454.853	82.25
455.073	89.25
455.294	82.25
455.514	104.25
455.734	92.25
455.955	83.25
456.175	80.25
456.395	80.25
456.616	84.25
456.836	92.25
457.056	88.25
457.276	80.25
457.497	88.25
457.717	93.25
457.937	71.25
458.157	91.25
458.377	90.25
458.598	90.25
458.818	97.25
459.038	94.25
459.258	90.25
459.478	81.25
459.698	91.25
459.918	71.25
460.138	83.25
460.358	92.25
460.578	102.25
460.798	77.25
461.018	93.25
461.238	87.25
461.458	89.25
461.678	80.25
461.898	88.25
462.118	82.25
462.338	83.25
462.558	90.25
462.777	93.25
462.997	94.25
463.217	79.25
463.437	82.25
463.657	88.25
463.876	86.25
464.096	87.25
464.316	95.25
464.536	106.25
464.755	87.25
464.975	95.25
465.195	106.25
465.414	102.25
465.634	98.25
465.854	91.25
466.073	111.25
466.293	89.25
466.512	92.25
466.732	74.25
466.951	95.25
467.171	83.25
467.391	85.25
467.61	96.25
467.829	75.25
468.049	95.25
468.268	83.25
468.488	82.25
468.707	99.25
468.927	103.25
469.146	88.25
469.365	79.25
469.585	84.25
469.804	73.25
470.023	88.25
470.243	89.25
470.462	90.25
470.681	99.25
470.901	95.25
471.12	80.25
471.339	87.25
471.558	91.25
471.777	72.25
471.997	102.25
472.216	96.25
472.435	86.25
472.654	83.25
472.873	96.25
473.092	88.25
473.311	92.25
473.53	90.25
473.749	74.25
473.968	99.25
474.187	86.25
474.406	88.25
474.625	95.25
474.844	102.25
475.063	80.25
475.282	94.25
475.501	106.25
475.72	93.25
475.939	90.25
476.158	82.25
476.377	89.25
476.596	89.25
476.814	92.25
477.033	90.25
477.252	100.25
477.471	80.25
477.69	80.25
477.908	110.25
478.127	94.25
478.346	113.25
478.564	91.25
478.783	86.25
479.002	94.25
479.22	92.25
479.439	91.25
479.658	81.25
479.876	90.25
480.095	101.25
480.313	91.25
480.532	89.25
480.751	91.25
480.969	96.25
481.188	92.25
481.406	89.25
481.624	82.25
481.843	90.25
482.061	82.25
482.28	91.25
482.498	74.25
482.717	97.25
482.935	91.25
483.153	91.25
483.372	92.25
483.59	84.25
483.808	90.25
484.027	82.25
484.245	85.25
484.463	79.25
484.681	95.25
484.9	87.25
485.118	97.25
485.336	81.25
485.554	87.25
485.772	74.25
485.99	88.25
486.209	79.25
486.427	90.25
486.645	81.25
486.863	87.25
487.081	94.25
487.299	89.25
487.517	105.25
487.735	90.25
487.953	90.25
488.171	89.25
488.389	106.25
488.607	97.25
488.825	74.25
489.043	91.25
489.261	77.25
489.479	75.25
489.696	90.25
489.914	82.25
490.132	96.25
490.35	87.25
490.568	93.25
490.786	95.25
491.003	86.25
491.221	74.25
491.439	101.25
491.657	90.25
491.874	93.25
492.092	97.25
492.31	81.25
492.527	91.25
492.745	88.25
492.963	94.25
493.18	92.25
493.398	102.25
493.615	68.25
493.833	86.25
494.05	90.25
494.268	91.25
494.485	94.25
494.703	88.25
494.92	89.25
495.138	92.25
495.355	78.25
495.573	98.25
495.79	84.25
496.008	96.25
496.225	68.25
496.442	81.25
496.66	87.25
496.877	94.25
497.094	88.25
497.312	96.25
497.529	106.25
497.746	90.25
497.963	83.25
498.181	103.25
498.398	101.25
498.615	84.25
498.832	86.25
499.049	94.25
499.267	92.25
499.484	91.25
499.701	106.25
499.918	109.25
500.135	99.25
500.352	108.25
500.569	114.25
500.786	107.25
501.003	115.25
501.22	110.25
501.437	93.25
501.654	93.25
501.871	98.25
502.088	96.25
502.305	102.25
502.522	94.25
502.739	87.25
502.956	99.25
503.172	88.25
503.389	95.25
503.606	83.25
503.823	80.25
504.04	89.25
504.256	102.25
504.473	84.25
504.69	104.25
504.907	91.25
505.123	87.25
505.34	94.25
505.557	90.25
505.773	81.25
505.99	85.25
506.207	88.25
506.423	96.25
506.64	89.25
506.856	94.25
507.073	86.25
507.289	98.25
507.506	89.25
507.722	87.25
507.939	88.25
508.155	102.25
508.372	94.25
508.588	80.25
508.805	96.25
509.021	85.25
509.238	94.25
509.454	93.25
509.67	81.25
509.887	80.25
510.103	97.25
510.319	90.25
510.536	75.25
510.752	107.25
510.968	78.25
511.184	80.25
511.401	87.25
511.617	90.25
511.833	87.25
512.049	80.25
512.265	78.25
512.481	102.25
512.698	98.25
512.914	94.25
513.13	81.25
513.346	87.25
513.562	98.25
513.778	88.25
513.994	94.25
514.21	96.25
514.426	88.25
514.642	85.25
514.858	107.25
515.074	86.25
515.29	91.25
515.506	82.25
515.721	82.25
515.937	94.25
516.153	76.25
516.369	92.25
516.585	97.25
516.801	102.25
517.016	85.25
517.232	104.25
517.448	104.25
517.664	87.25
517.879	100.25
518.095	90.25
518.311	64.25
518.527	101.25
518.742	87.25
518.958	81.25
