Data from BG_HRD10591_012.txt Node
Date: Fri May 16 15:26:53 EDT 2025
User: Yrep
Spectrometer: HR+D1059
Trigger mode: 1
Integration Time (sec): 1.000000E-1
Scans to average: 1
Electric dark correction enabled: true
Nonlinearity correction enabled: false
Boxcar width: 0
XAxis mode: Wavelengths
Number of Pixels in Spectrum: 2048
>>>>>Begin Spectral Data<<<<<
223.165	-18.75
223.4	-18.75
223.635	-18.75
223.869	-15.75
224.104	-14.75
224.338	-23.75
224.573	-20.75
224.808	-11.75
225.042	-0.75
225.277	-7.75
225.511	-4.75
225.746	4.25
225.98	9.25
226.215	9.25
226.449	16.25
226.683	21.25
226.918	17.25
227.152	41.25
227.387	39.25
227.621	48.25
227.856	48.25
228.09	58.25
228.324	72.25
228.559	41.25
228.793	60.25
229.027	68.25
229.262	65.25
229.496	71.25
229.73	73.25
229.964	86.25
230.199	75.25
230.433	81.25
230.667	93.25
230.901	79.25
231.136	78.25
231.37	88.25
231.604	73.25
231.838	81.25
232.072	82.25
232.306	71.25
232.541	73.25
232.775	82.25
233.009	91.25
233.243	68.25
233.477	75.25
233.711	67.25
233.945	85.25
234.179	76.25
234.413	79.25
234.647	84.25
234.881	87.25
235.115	97.25
235.349	76.25
235.583	67.25
235.817	87.25
236.051	82.25
236.285	73.25
236.519	77.25
236.753	89.25
236.987	62.25
237.221	82.25
237.455	65.25
237.689	81.25
237.922	88.25
238.156	84.25
238.39	84.25
238.624	91.25
238.858	82.25
239.091	75.25
239.325	80.25
239.559	89.25
239.793	89.25
240.027	80.25
240.26	73.25
240.494	74.25
240.728	75.25
240.961	67.25
241.195	67.25
241.429	83.25
241.662	61.25
241.896	77.25
242.13	75.25
242.363	90.25
242.597	77.25
242.83	76.25
243.064	78.25
243.298	58.25
243.531	84.25
243.765	93.25
243.998	85.25
244.232	79.25
244.465	67.25
244.699	69.25
244.932	67.25
245.166	85.25
245.399	72.25
245.633	75.25
245.866	84.25
246.099	76.25
246.333	69.25
246.566	82.25
246.8	85.25
247.033	83.25
247.266	79.25
247.5	96.25
247.733	80.25
247.966	91.25
248.2	83.25
248.433	77.25
248.666	75.25
248.899	76.25
249.133	93.25
249.366	80.25
249.599	82.25
249.832	84.25
250.066	88.25
250.299	75.25
250.532	77.25
250.765	93.25
250.998	79.25
251.231	88.25
251.465	85.25
251.698	80.25
251.931	69.25
252.164	90.25
252.397	63.25
252.63	79.25
252.863	81.25
253.096	82.25
253.329	83.25
253.562	73.25
253.795	82.25
254.028	85.25
254.261	87.25
254.494	69.25
254.727	94.25
254.96	84.25
255.193	93.25
255.426	78.25
255.659	75.25
255.892	78.25
256.124	75.25
256.357	72.25
256.59	71.25
256.823	85.25
257.056	75.25
257.289	82.25
257.521	83.25
257.754	79.25
257.987	93.25
258.22	85.25
258.452	93.25
258.685	80.25
258.918	73.25
259.151	77.25
259.383	81.25
259.616	81.25
259.849	84.25
260.081	73.25
260.314	79.25
260.547	81.25
260.779	91.25
261.012	101.25
261.244	81.25
261.477	95.25
261.71	81.25
261.942	72.25
262.175	93.25
262.407	95.25
262.64	76.25
262.872	86.25
263.105	84.25
263.337	85.25
263.57	80.25
263.802	81.25
264.035	83.25
264.267	81.25
264.499	78.25
264.732	94.25
264.964	89.25
265.197	89.25
265.429	77.25
265.661	73.25
265.894	96.25
266.126	81.25
266.358	71.25
266.591	76.25
266.823	96.25
267.055	69.25
267.287	90.25
267.52	82.25
267.752	79.25
267.984	81.25
268.216	87.25
268.448	79.25
268.681	82.25
268.913	73.25
269.145	76.25
269.377	75.25
269.609	92.25
269.841	82.25
270.073	95.25
270.306	83.25
270.538	87.25
270.77	89.25
271.002	90.25
271.234	77.25
271.466	76.25
271.698	90.25
271.93	90.25
272.162	81.25
272.394	78.25
272.626	89.25
272.858	83.25
273.09	80.25
273.322	94.25
273.553	81.25
273.785	77.25
274.017	69.25
274.249	85.25
274.481	90.25
274.713	91.25
274.945	92.25
275.176	73.25
275.408	97.25
275.64	86.25
275.872	105.25
276.104	103.25
276.335	99.25
276.567	100.25
276.799	78.25
277.031	99.25
277.262	88.25
277.494	71.25
277.726	93.25
277.957	88.25
278.189	72.25
278.421	85.25
278.652	83.25
278.884	93.25
279.115	65.25
279.347	82.25
279.579	91.25
279.81	78.25
280.042	88.25
280.273	74.25
280.505	95.25
280.736	96.25
280.968	82.25
281.199	90.25
281.431	87.25
281.662	86.25
281.894	87.25
282.125	90.25
282.356	75.25
282.588	95.25
282.819	106.25
283.051	85.25
283.282	85.25
283.513	81.25
283.745	89.25
283.976	88.25
284.207	94.25
284.439	96.25
284.67	84.25
284.901	80.25
285.132	83.25
285.364	78.25
285.595	69.25
285.826	96.25
286.057	83.25
286.288	88.25
286.52	86.25
286.751	90.25
286.982	74.25
287.213	88.25
287.444	83.25
287.675	79.25
287.906	87.25
288.138	98.25
288.369	86.25
288.6	80.25
288.831	97.25
289.062	77.25
289.293	79.25
289.524	79.25
289.755	79.25
289.986	84.25
290.217	93.25
290.448	83.25
290.679	92.25
290.91	84.25
291.141	75.25
291.371	69.25
291.602	97.25
291.833	89.25
292.064	90.25
292.295	80.25
292.526	92.25
292.757	92.25
292.987	85.25
293.218	89.25
293.449	74.25
293.68	88.25
293.91	77.25
294.141	89.25
294.372	93.25
294.603	83.25
294.833	84.25
295.064	77.25
295.295	80.25
295.525	90.25
295.756	79.25
295.987	75.25
296.217	72.25
296.448	80.25
296.679	87.25
296.909	85.25
297.14	93.25
297.37	81.25
297.601	95.25
297.831	100.25
298.062	95.25
298.292	91.25
298.523	81.25
298.753	99.25
298.984	92.25
299.214	93.25
299.445	86.25
299.675	90.25
299.905	84.25
300.136	92.25
300.366	73.25
300.597	95.25
300.827	96.25
301.057	99.25
301.288	95.25
301.518	78.25
301.748	76.25
301.979	100.25
302.209	89.25
302.439	81.25
302.669	94.25
302.9	90.25
303.13	76.25
303.36	84.25
303.59	84.25
303.82	90.25
304.051	89.25
304.281	105.25
304.511	95.25
304.741	82.25
304.971	97.25
305.201	92.25
305.431	91.25
305.661	83.25
305.891	89.25
306.121	92.25
306.352	89.25
306.582	93.25
306.812	79.25
307.042	83.25
307.272	81.25
307.502	81.25
307.731	92.25
307.961	96.25
308.191	89.25
308.421	83.25
308.651	97.25
308.881	81.25
309.111	71.25
309.341	85.25
309.571	93.25
309.8	81.25
310.03	99.25
310.26	78.25
310.49	66.25
310.72	96.25
310.949	102.25
311.179	97.25
311.409	83.25
311.639	83.25
311.868	84.25
312.098	91.25
312.328	84.25
312.557	97.25
312.787	92.25
313.017	93.25
313.246	86.25
313.476	89.25
313.706	79.25
313.935	89.25
314.165	93.25
314.394	85.25
314.624	78.25
314.853	89.25
315.083	84.25
315.312	106.25
315.542	92.25
315.771	81.25
316.001	83.25
316.23	80.25
316.46	92.25
316.689	82.25
316.919	83.25
317.148	83.25
317.377	95.25
317.607	89.25
317.836	91.25
318.065	79.25
318.295	95.25
318.524	87.25
318.753	98.25
318.983	92.25
319.212	87.25
319.441	84.25
319.67	88.25
319.9	78.25
320.129	91.25
320.358	100.25
320.587	87.25
320.816	83.25
321.046	76.25
321.275	96.25
321.504	83.25
321.733	98.25
321.962	78.25
322.191	89.25
322.42	77.25
322.649	92.25
322.878	86.25
323.108	91.25
323.337	93.25
323.566	101.25
323.795	92.25
324.024	87.25
324.253	93.25
324.482	92.25
324.71	91.25
324.939	90.25
325.168	88.25
325.397	81.25
325.626	93.25
325.855	87.25
326.084	89.25
326.313	75.25
326.542	93.25
326.77	87.25
326.999	91.25
327.228	83.25
327.457	98.25
327.686	95.25
327.914	88.25
328.143	87.25
328.372	92.25
328.6	89.25
328.829	68.25
329.058	82.25
329.287	87.25
329.515	81.25
329.744	87.25
329.972	82.25
330.201	95.25
330.43	75.25
330.658	77.25
330.887	92.25
331.115	72.25
331.344	95.25
331.572	101.25
331.801	93.25
332.03	90.25
332.258	64.25
332.486	88.25
332.715	82.25
332.943	89.25
333.172	84.25
333.4	85.25
333.629	72.25
333.857	74.25
334.085	72.25
334.314	89.25
334.542	79.25
334.771	77.25
334.999	89.25
335.227	91.25
335.455	85.25
335.684	88.25
335.912	80.25
336.14	84.25
336.369	79.25
336.597	99.25
336.825	94.25
337.053	94.25
337.281	90.25
337.51	88.25
337.738	81.25
337.966	100.25
338.194	101.25
338.422	92.25
338.65	79.25
338.878	79.25
339.106	96.25
339.334	92.25
339.562	82.25
339.79	93.25
340.018	76.25
340.246	95.25
340.474	65.25
340.702	89.25
340.93	84.25
341.158	95.25
341.386	92.25
341.614	102.25
341.842	87.25
342.07	85.25
342.298	77.25
342.526	84.25
342.754	75.25
342.981	107.25
343.209	78.25
343.437	110.25
343.665	93.25
343.893	90.25
344.12	87.25
344.348	83.25
344.576	88.25
344.804	71.25
345.031	95.25
345.259	93.25
345.487	96.25
345.714	85.25
345.942	88.25
346.17	93.25
346.397	84.25
346.625	83.25
346.853	89.25
347.08	84.25
347.308	80.25
347.535	92.25
347.763	83.25
347.99	79.25
348.218	90.25
348.445	68.25
348.673	76.25
348.9	92.25
349.128	96.25
349.355	83.25
349.583	75.25
349.81	84.25
350.037	90.25
350.265	93.25
350.492	88.25
350.72	84.25
350.947	84.25
351.174	89.25
351.402	75.25
351.629	88.25
351.856	85.25
352.083	73.25
352.311	85.25
352.538	85.25
352.765	89.25
352.992	84.25
353.22	86.25
353.447	87.25
353.674	81.25
353.901	96.25
354.128	85.25
354.355	86.25
354.583	97.25
354.81	106.25
355.037	95.25
355.264	87.25
355.491	86.25
355.718	97.25
355.945	91.25
356.172	95.25
356.399	94.25
356.626	79.25
356.853	86.25
357.08	99.25
357.307	79.25
357.534	76.25
357.761	96.25
357.988	91.25
358.215	99.25
358.441	91.25
358.668	78.25
358.895	80.25
359.122	81.25
359.349	96.25
359.576	80.25
359.802	84.25
360.029	96.25
360.256	79.25
360.483	84.25
360.709	93.25
360.936	77.25
361.163	84.25
361.39	83.25
361.616	87.25
361.843	81.25
362.07	98.25
362.296	81.25
362.523	91.25
362.749	93.25
362.976	91.25
363.203	79.25
363.429	83.25
363.656	94.25
363.882	85.25
364.109	83.25
364.335	94.25
364.562	73.25
364.788	91.25
365.015	90.25
365.241	83.25
365.468	92.25
365.694	81.25
365.92	93.25
366.147	97.25
366.373	77.25
366.599	83.25
366.826	79.25
367.052	92.25
367.278	82.25
367.505	93.25
367.731	94.25
367.957	98.25
368.184	89.25
368.41	90.25
368.636	78.25
368.862	97.25
369.089	78.25
369.315	80.25
369.541	90.25
369.767	84.25
369.993	90.25
370.219	72.25
370.445	78.25
370.672	67.25
370.898	85.25
371.124	89.25
371.35	77.25
371.576	85.25
371.802	101.25
372.028	82.25
372.254	82.25
372.48	72.25
372.706	86.25
372.932	85.25
373.158	100.25
373.384	81.25
373.61	93.25
373.835	86.25
374.061	86.25
374.287	85.25
374.513	96.25
374.739	71.25
374.965	89.25
375.191	87.25
375.416	99.25
375.642	96.25
375.868	78.25
376.094	88.25
376.319	86.25
376.545	98.25
376.771	89.25
376.997	88.25
377.222	96.25
377.448	77.25
377.674	70.25
377.899	91.25
378.125	79.25
378.35	87.25
378.576	90.25
378.802	80.25
379.027	68.25
379.253	87.25
379.478	107.25
379.704	88.25
379.929	91.25
380.155	91.25
380.38	87.25
380.606	87.25
380.831	88.25
381.057	83.25
381.282	87.25
381.507	80.25
381.733	89.25
381.958	94.25
382.184	77.25
382.409	95.25
382.634	89.25
382.86	77.25
383.085	90.25
383.31	99.25
383.535	90.25
383.761	93.25
383.986	79.25
384.211	88.25
384.436	97.25
384.662	86.25
384.887	84.25
385.112	86.25
385.337	83.25
385.562	78.25
385.787	73.25
386.013	84.25
386.238	78.25
386.463	89.25
386.688	99.25
386.913	91.25
387.138	93.25
387.363	89.25
387.588	101.25
387.813	85.25
388.038	87.25
388.263	85.25
388.488	72.25
388.713	82.25
388.938	78.25
389.163	88.25
389.387	80.25
389.612	92.25
389.837	77.25
390.062	83.25
390.287	80.25
390.512	79.25
390.736	67.25
390.961	82.25
391.186	86.25
391.411	96.25
391.636	94.25
391.86	98.25
392.085	95.25
392.31	82.25
392.534	74.25
392.759	59.25
392.984	77.25
393.208	87.25
393.433	77.25
393.658	64.25
393.882	79.25
394.107	85.25
394.331	79.25
394.556	82.25
394.78	92.25
395.005	86.25
395.229	75.25
395.454	99.25
395.678	85.25
395.903	79.25
396.127	89.25
396.352	88.25
396.576	97.25
396.801	107.25
397.025	68.25
397.249	82.25
397.474	77.25
397.698	91.25
397.922	88.25
398.147	84.25
398.371	83.25
398.595	85.25
398.82	94.25
399.044	79.25
399.268	84.25
399.492	93.25
399.717	73.25
399.941	77.25
400.165	82.25
400.389	82.25
400.613	76.25
400.837	79.25
401.062	84.25
401.286	88.25
401.51	91.25
401.734	87.25
401.958	82.25
402.182	73.25
402.406	79.25
402.63	72.25
402.854	96.25
403.078	74.25
403.302	88.25
403.526	80.25
403.75	79.25
403.974	75.25
404.198	88.25
404.422	93.25
404.645	74.25
404.869	83.25
405.093	68.25
405.317	87.25
405.541	76.25
405.765	80.25
405.988	83.25
406.212	95.25
406.436	89.25
406.66	83.25
406.883	87.25
407.107	76.25
407.331	77.25
407.555	91.25
407.778	89.25
408.002	88.25
408.226	83.25
408.449	86.25
408.673	85.25
408.896	78.25
409.12	80.25
409.344	85.25
409.567	92.25
409.791	98.25
410.014	90.25
410.238	82.25
410.461	79.25
410.685	83.25
410.908	82.25
411.132	92.25
411.355	67.25
411.578	95.25
411.802	73.25
412.025	79.25
412.249	90.25
412.472	84.25
412.695	101.25
412.919	84.25
413.142	76.25
413.365	68.25
413.589	74.25
413.812	89.25
414.035	82.25
414.258	85.25
414.482	83.25
414.705	91.25
414.928	83.25
415.151	86.25
415.374	79.25
415.597	84.25
415.821	81.25
416.044	82.25
416.267	94.25
416.49	81.25
416.713	77.25
416.936	83.25
417.159	85.25
417.382	96.25
417.605	80.25
417.828	88.25
418.051	80.25
418.274	75.25
418.497	75.25
418.72	79.25
418.943	107.25
419.166	93.25
419.389	87.25
419.611	73.25
419.834	88.25
420.057	89.25
420.28	79.25
420.503	78.25
420.726	81.25
420.948	70.25
421.171	82.25
421.394	70.25
421.617	69.25
421.839	72.25
422.062	79.25
422.285	91.25
422.507	70.25
422.73	81.25
422.953	83.25
423.175	89.25
423.398	76.25
423.621	89.25
423.843	81.25
424.066	105.25
424.288	73.25
424.511	81.25
424.733	71.25
424.956	85.25
425.178	75.25
425.401	78.25
425.623	77.25
425.846	83.25
426.068	92.25
426.291	84.25
426.513	90.25
426.735	75.25
426.958	87.25
427.18	69.25
427.402	69.25
427.625	80.25
427.847	75.25
428.069	92.25
428.292	81.25
428.514	76.25
428.736	87.25
428.958	75.25
429.181	83.25
429.403	78.25
429.625	76.25
429.847	86.25
430.069	92.25
430.292	94.25
430.514	83.25
430.736	79.25
430.958	94.25
431.18	91.25
431.402	89.25
431.624	84.25
431.846	88.25
432.068	74.25
432.29	83.25
432.512	92.25
432.734	82.25
432.956	93.25
433.178	80.25
433.4	77.25
433.622	87.25
433.844	95.25
434.066	88.25
434.287	93.25
434.509	96.25
434.731	75.25
434.953	81.25
435.175	88.25
435.397	89.25
435.618	89.25
435.84	82.25
436.062	100.25
436.284	80.25
436.505	90.25
436.727	86.25
436.949	77.25
437.17	91.25
437.392	91.25
437.614	92.25
437.835	76.25
438.057	82.25
438.278	75.25
438.5	86.25
438.721	77.25
438.943	76.25
439.165	82.25
439.386	83.25
439.608	87.25
439.829	86.25
440.05	83.25
440.272	89.25
440.493	75.25
440.715	91.25
440.936	87.25
441.158	76.25
441.379	92.25
441.6	99.25
441.822	69.25
442.043	78.25
442.264	77.25
442.486	82.25
442.707	76.25
442.928	79.25
443.149	62.25
443.371	84.25
443.592	79.25
443.813	83.25
444.034	84.25
444.255	83.25
444.476	90.25
444.698	81.25
444.919	75.25
445.14	146.25
445.361	123.25
445.582	89.25
445.803	76.25
446.024	97.25
446.245	76.25
446.466	76.25
446.687	88.25
446.908	72.25
447.129	75.25
447.35	98.25
447.571	79.25
447.792	87.25
448.013	78.25
448.234	96.25
448.455	79.25
448.675	88.25
448.896	78.25
449.117	91.25
449.338	79.25
449.559	87.25
449.779	87.25
450	73.25
450.221	82.25
450.442	87.25
450.662	75.25
450.883	78.25
451.104	73.25
451.324	86.25
451.545	77.25
451.766	82.25
451.986	74.25
452.207	95.25
452.428	80.25
452.648	90.25
452.869	93.25
453.089	83.25
453.31	73.25
453.53	92.25
453.751	83.25
453.971	71.25
454.192	96.25
454.412	79.25
454.633	71.25
454.853	80.25
455.073	93.25
455.294	90.25
455.514	78.25
455.734	91.25
455.955	81.25
456.175	84.25
456.395	107.25
456.616	82.25
456.836	80.25
457.056	85.25
457.276	82.25
457.497	76.25
457.717	88.25
457.937	86.25
458.157	98.25
458.377	75.25
458.598	73.25
458.818	94.25
459.038	79.25
459.258	86.25
459.478	92.25
459.698	81.25
459.918	84.25
460.138	91.25
460.358	84.25
460.578	90.25
460.798	90.25
461.018	96.25
461.238	95.25
461.458	88.25
461.678	78.25
461.898	88.25
462.118	100.25
462.338	98.25
462.558	79.25
462.777	79.25
462.997	86.25
463.217	70.25
463.437	88.25
463.657	81.25
463.876	90.25
464.096	79.25
464.316	84.25
464.536	105.25
464.755	87.25
464.975	85.25
465.195	90.25
465.414	79.25
465.634	82.25
465.854	73.25
466.073	73.25
466.293	79.25
466.512	92.25
466.732	79.25
466.951	70.25
467.171	69.25
467.391	84.25
467.61	83.25
467.829	86.25
468.049	85.25
468.268	84.25
468.488	73.25
468.707	87.25
468.927	78.25
469.146	73.25
469.365	78.25
469.585	74.25
469.804	98.25
470.023	81.25
470.243	85.25
470.462	82.25
470.681	88.25
470.901	86.25
471.12	88.25
471.339	88.25
471.558	93.25
471.777	77.25
471.997	77.25
472.216	87.25
472.435	84.25
472.654	80.25
472.873	70.25
473.092	86.25
473.311	81.25
473.53	86.25
473.749	86.25
473.968	74.25
474.187	85.25
474.406	86.25
474.625	82.25
474.844	76.25
475.063	84.25
475.282	96.25
475.501	83.25
475.72	84.25
475.939	68.25
476.158	85.25
476.377	83.25
476.596	78.25
476.814	82.25
477.033	77.25
477.252	80.25
477.471	83.25
477.69	71.25
477.908	74.25
478.127	76.25
478.346	79.25
478.564	82.25
478.783	84.25
479.002	78.25
479.22	89.25
479.439	81.25
479.658	84.25
479.876	70.25
480.095	98.25
480.313	96.25
480.532	70.25
480.751	79.25
480.969	77.25
481.188	82.25
481.406	87.25
481.624	105.25
481.843	88.25
482.061	77.25
482.28	85.25
482.498	81.25
482.717	87.25
482.935	77.25
483.153	104.25
483.372	83.25
483.59	84.25
483.808	87.25
484.027	96.25
484.245	94.25
484.463	94.25
484.681	85.25
484.9	82.25
485.118	88.25
485.336	89.25
485.554	70.25
485.772	83.25
485.99	84.25
486.209	93.25
486.427	86.25
486.645	75.25
486.863	90.25
487.081	90.25
487.299	85.25
487.517	79.25
487.735	86.25
487.953	78.25
488.171	99.25
488.389	83.25
488.607	85.25
488.825	99.25
489.043	89.25
489.261	96.25
489.479	83.25
489.696	88.25
489.914	93.25
490.132	97.25
490.35	89.25
490.568	87.25
490.786	103.25
491.003	93.25
491.221	94.25
491.439	92.25
491.657	84.25
491.874	69.25
492.092	81.25
492.31	70.25
492.527	87.25
492.745	80.25
492.963	85.25
493.18	67.25
493.398	93.25
493.615	81.25
493.833	67.25
494.05	81.25
494.268	77.25
494.485	89.25
494.703	79.25
494.92	83.25
495.138	87.25
495.355	95.25
495.573	87.25
495.79	74.25
496.008	92.25
496.225	68.25
496.442	82.25
496.66	92.25
496.877	89.25
497.094	92.25
497.312	90.25
497.529	84.25
497.746	89.25
497.963	106.25
498.181	81.25
498.398	99.25
498.615	95.25
498.832	75.25
499.049	81.25
499.267	89.25
499.484	84.25
499.701	93.25
499.918	72.25
500.135	78.25
500.352	88.25
500.569	84.25
500.786	105.25
501.003	79.25
501.22	93.25
501.437	79.25
501.654	71.25
501.871	108.25
502.088	75.25
502.305	74.25
502.522	80.25
502.739	70.25
502.956	71.25
503.172	89.25
503.389	97.25
503.606	91.25
503.823	89.25
504.04	77.25
504.256	91.25
504.473	98.25
504.69	89.25
504.907	85.25
505.123	87.25
505.34	99.25
505.557	82.25
505.773	87.25
505.99	93.25
506.207	78.25
506.423	92.25
506.64	99.25
506.856	85.25
507.073	75.25
507.289	89.25
507.506	99.25
507.722	81.25
507.939	83.25
508.155	91.25
508.372	95.25
508.588	79.25
508.805	77.25
509.021	87.25
509.238	92.25
509.454	73.25
509.67	91.25
509.887	87.25
510.103	84.25
510.319	88.25
510.536	89.25
510.752	78.25
510.968	81.25
511.184	80.25
511.401	94.25
511.617	92.25
511.833	74.25
512.049	96.25
512.265	94.25
512.481	93.25
512.698	83.25
512.914	77.25
513.13	84.25
513.346	91.25
513.562	82.25
513.778	92.25
513.994	91.25
514.21	89.25
514.426	77.25
514.642	82.25
514.858	81.25
515.074	93.25
515.29	81.25
515.506	96.25
515.721	74.25
515.937	98.25
516.153	95.25
516.369	82.25
516.585	83.25
516.801	81.25
517.016	88.25
517.232	89.25
517.448	86.25
517.664	99.25
517.879	85.25
518.095	79.25
518.311	91.25
518.527	83.25
518.742	83.25
518.958	84.25
519.173	84.25
519.389	91.25
519.605	81.25
519.82	80.25
