Data from BG_HRD10591_080.txt Node
Date: Fri May 16 15:27:27 EDT 2025
User: Yrep
Spectrometer: HR+D1059
Trigger mode: 1
Integration Time (sec): 1.000000E-1
Scans to average: 1
Electric dark correction enabled: true
Nonlinearity correction enabled: false
Boxcar width: 0
XAxis mode: Wavelengths
Number of Pixels in Spectrum: 2048
>>>>>Begin Spectral Data<<<<<
223.165	-34.69
223.4	-34.69
223.635	-34.69
223.869	-8.69
224.104	-11.69
224.338	-22.69
224.573	-19.69
224.808	-22.69
225.042	0.31
225.277	-5.69
225.511	-5.69
225.746	0.31
225.98	0.31
226.215	22.31
226.449	24.31
226.683	13.31
226.918	21.31
227.152	49.31
227.387	40.31
227.621	43.31
227.856	47.31
228.09	54.31
228.324	57.31
228.559	57.31
228.793	70.31
229.027	67.31
229.262	68.31
229.496	65.31
229.73	73.31
229.964	82.31
230.199	76.31
230.433	73.31
230.667	69.31
230.901	77.31
231.136	86.31
231.37	89.31
231.604	89.31
231.838	79.31
232.072	84.31
232.306	95.31
232.541	77.31
232.775	70.31
233.009	97.31
233.243	88.31
233.477	73.31
233.711	69.31
233.945	79.31
234.179	99.31
234.413	73.31
234.647	89.31
234.881	77.31
235.115	88.31
235.349	76.31
235.583	74.31
235.817	86.31
236.051	77.31
236.285	79.31
236.519	71.31
236.753	88.31
236.987	77.31
237.221	86.31
237.455	70.31
237.689	84.31
237.922	88.31
238.156	78.31
238.39	89.31
238.624	71.31
238.858	86.31
239.091	77.31
239.325	71.31
239.559	78.31
239.793	82.31
240.027	81.31
240.26	66.31
240.494	85.31
240.728	73.31
240.961	74.31
241.195	90.31
241.429	70.31
241.662	75.31
241.896	82.31
242.13	57.31
242.363	84.31
242.597	78.31
242.83	71.31
243.064	74.31
243.298	74.31
243.531	90.31
243.765	82.31
243.998	83.31
244.232	81.31
244.465	63.31
244.699	74.31
244.932	70.31
245.166	86.31
245.399	88.31
245.633	100.31
245.866	77.31
246.099	72.31
246.333	78.31
246.566	88.31
246.8	78.31
247.033	84.31
247.266	89.31
247.5	82.31
247.733	83.31
247.966	79.31
248.2	91.31
248.433	74.31
248.666	88.31
248.899	88.31
249.133	84.31
249.366	88.31
249.599	86.31
249.832	88.31
250.066	99.31
250.299	85.31
250.532	85.31
250.765	91.31
250.998	73.31
251.231	84.31
251.465	76.31
251.698	83.31
251.931	76.31
252.164	89.31
252.397	93.31
252.63	75.31
252.863	57.31
253.096	70.31
253.329	80.31
253.562	80.31
253.795	82.31
254.028	69.31
254.261	80.31
254.494	76.31
254.727	81.31
254.96	85.31
255.193	74.31
255.426	83.31
255.659	69.31
255.892	96.31
256.124	78.31
256.357	86.31
256.59	85.31
256.823	63.31
257.056	83.31
257.289	94.31
257.521	98.31
257.754	81.31
257.987	82.31
258.22	84.31
258.452	69.31
258.685	94.31
258.918	81.31
259.151	80.31
259.383	94.31
259.616	86.31
259.849	90.31
260.081	82.31
260.314	85.31
260.547	83.31
260.779	79.31
261.012	88.31
261.244	70.31
261.477	85.31
261.71	80.31
261.942	89.31
262.175	88.31
262.407	89.31
262.64	82.31
262.872	87.31
263.105	84.31
263.337	84.31
263.57	79.31
263.802	79.31
264.035	69.31
264.267	76.31
264.499	75.31
264.732	98.31
264.964	75.31
265.197	82.31
265.429	81.31
265.661	70.31
265.894	87.31
266.126	88.31
266.358	81.31
266.591	88.31
266.823	79.31
267.055	90.31
267.287	68.31
267.52	79.31
267.752	73.31
267.984	87.31
268.216	90.31
268.448	76.31
268.681	84.31
268.913	92.31
269.145	66.31
269.377	90.31
269.609	62.31
269.841	86.31
270.073	85.31
270.306	85.31
270.538	94.31
270.77	93.31
271.002	78.31
271.234	84.31
271.466	87.31
271.698	71.31
271.93	97.31
272.162	91.31
272.394	95.31
272.626	83.31
272.858	82.31
273.09	86.31
273.322	77.31
273.553	91.31
273.785	71.31
274.017	83.31
274.249	86.31
274.481	85.31
274.713	82.31
274.945	97.31
275.176	80.31
275.408	84.31
275.64	99.31
275.872	90.31
276.104	80.31
276.335	78.31
276.567	74.31
276.799	77.31
277.031	79.31
277.262	76.31
277.494	85.31
277.726	80.31
277.957	78.31
278.189	91.31
278.421	85.31
278.652	86.31
278.884	84.31
279.115	74.31
279.347	82.31
279.579	69.31
279.81	86.31
280.042	70.31
280.273	78.31
280.505	85.31
280.736	73.31
280.968	75.31
281.199	85.31
281.431	80.31
281.662	81.31
281.894	79.31
282.125	78.31
282.356	86.31
282.588	76.31
282.819	85.31
283.051	88.31
283.282	83.31
283.513	70.31
283.745	83.31
283.976	82.31
284.207	90.31
284.439	99.31
284.67	86.31
284.901	92.31
285.132	91.31
285.364	78.31
285.595	93.31
285.826	83.31
286.057	82.31
286.288	83.31
286.52	91.31
286.751	77.31
286.982	80.31
287.213	81.31
287.444	86.31
287.675	88.31
287.906	80.31
288.138	92.31
288.369	73.31
288.6	81.31
288.831	78.31
289.062	90.31
289.293	77.31
289.524	86.31
289.755	83.31
289.986	84.31
290.217	83.31
290.448	83.31
290.679	83.31
290.91	94.31
291.141	94.31
291.371	91.31
291.602	101.31
291.833	91.31
292.064	102.31
292.295	93.31
292.526	86.31
292.757	75.31
292.987	84.31
293.218	86.31
293.449	89.31
293.68	94.31
293.91	88.31
294.141	89.31
294.372	84.31
294.603	94.31
294.833	77.31
295.064	74.31
295.295	84.31
295.525	93.31
295.756	85.31
295.987	80.31
296.217	82.31
296.448	77.31
296.679	84.31
296.909	98.31
297.14	91.31
297.37	94.31
297.601	84.31
297.831	88.31
298.062	76.31
298.292	91.31
298.523	82.31
298.753	85.31
298.984	93.31
299.214	93.31
299.445	76.31
299.675	92.31
299.905	89.31
300.136	75.31
300.366	86.31
300.597	76.31
300.827	92.31
301.057	94.31
301.288	83.31
301.518	82.31
301.748	81.31
301.979	101.31
302.209	73.31
302.439	81.31
302.669	88.31
302.9	78.31
303.13	81.31
303.36	88.31
303.59	82.31
303.82	91.31
304.051	87.31
304.281	110.31
304.511	85.31
304.741	92.31
304.971	72.31
305.201	93.31
305.431	82.31
305.661	92.31
305.891	91.31
306.121	84.31
306.352	87.31
306.582	85.31
306.812	83.31
307.042	76.31
307.272	64.31
307.502	89.31
307.731	83.31
307.961	83.31
308.191	86.31
308.421	79.31
308.651	74.31
308.881	86.31
309.111	75.31
309.341	82.31
309.571	84.31
309.8	86.31
310.03	100.31
310.26	88.31
310.49	94.31
310.72	94.31
310.949	78.31
311.179	91.31
311.409	90.31
311.639	90.31
311.868	98.31
312.098	87.31
312.328	77.31
312.557	74.31
312.787	73.31
313.017	76.31
313.246	86.31
313.476	98.31
313.706	92.31
313.935	88.31
314.165	99.31
314.394	88.31
314.624	89.31
314.853	77.31
315.083	110.31
315.312	86.31
315.542	86.31
315.771	73.31
316.001	92.31
316.23	87.31
316.46	90.31
316.689	77.31
316.919	82.31
317.148	92.31
317.377	91.31
317.607	92.31
317.836	89.31
318.065	81.31
318.295	88.31
318.524	76.31
318.753	84.31
318.983	73.31
319.212	80.31
319.441	93.31
319.67	74.31
319.9	85.31
320.129	94.31
320.358	88.31
320.587	94.31
320.816	75.31
321.046	85.31
321.275	95.31
321.504	93.31
321.733	80.31
321.962	95.31
322.191	97.31
322.42	78.31
322.649	82.31
322.878	93.31
323.108	84.31
323.337	76.31
323.566	86.31
323.795	92.31
324.024	96.31
324.253	86.31
324.482	88.31
324.71	83.31
324.939	88.31
325.168	90.31
325.397	84.31
325.626	101.31
325.855	80.31
326.084	72.31
326.313	98.31
326.542	81.31
326.77	93.31
326.999	84.31
327.228	87.31
327.457	106.31
327.686	92.31
327.914	89.31
328.143	99.31
328.372	89.31
328.6	81.31
328.829	83.31
329.058	97.31
329.287	85.31
329.515	88.31
329.744	86.31
329.972	86.31
330.201	82.31
330.43	101.31
330.658	101.31
330.887	75.31
331.115	84.31
331.344	89.31
331.572	94.31
331.801	89.31
332.03	88.31
332.258	81.31
332.486	92.31
332.715	88.31
332.943	96.31
333.172	93.31
333.4	88.31
333.629	89.31
333.857	96.31
334.085	84.31
334.314	77.31
334.542	96.31
334.771	88.31
334.999	84.31
335.227	88.31
335.455	79.31
335.684	85.31
335.912	81.31
336.14	90.31
336.369	92.31
336.597	69.31
336.825	102.31
337.053	99.31
337.281	97.31
337.51	77.31
337.738	74.31
337.966	88.31
338.194	91.31
338.422	85.31
338.65	92.31
338.878	87.31
339.106	85.31
339.334	93.31
339.562	80.31
339.79	86.31
340.018	88.31
340.246	92.31
340.474	94.31
340.702	90.31
340.93	94.31
341.158	89.31
341.386	89.31
341.614	95.31
341.842	84.31
342.07	81.31
342.298	81.31
342.526	91.31
342.754	88.31
342.981	83.31
343.209	89.31
343.437	96.31
343.665	77.31
343.893	88.31
344.12	93.31
344.348	96.31
344.576	99.31
344.804	87.31
345.031	86.31
345.259	83.31
345.487	76.31
345.714	78.31
345.942	86.31
346.17	84.31
346.397	75.31
346.625	82.31
346.853	96.31
347.08	86.31
347.308	77.31
347.535	101.31
347.763	88.31
347.99	77.31
348.218	81.31
348.445	81.31
348.673	83.31
348.9	81.31
349.128	87.31
349.355	82.31
349.583	78.31
349.81	73.31
350.037	94.31
350.265	77.31
350.492	87.31
350.72	85.31
350.947	78.31
351.174	92.31
351.402	77.31
351.629	78.31
351.856	84.31
352.083	77.31
352.311	82.31
352.538	85.31
352.765	80.31
352.992	94.31
353.22	88.31
353.447	97.31
353.674	96.31
353.901	90.31
354.128	83.31
354.355	92.31
354.583	99.31
354.81	81.31
355.037	87.31
355.264	94.31
355.491	80.31
355.718	90.31
355.945	84.31
356.172	80.31
356.399	81.31
356.626	90.31
356.853	82.31
357.08	100.31
357.307	108.31
357.534	82.31
357.761	92.31
357.988	78.31
358.215	85.31
358.441	100.31
358.668	90.31
358.895	97.31
359.122	81.31
359.349	75.31
359.576	91.31
359.802	86.31
360.029	95.31
360.256	91.31
360.483	87.31
360.709	98.31
360.936	86.31
361.163	83.31
361.39	86.31
361.616	85.31
361.843	89.31
362.07	74.31
362.296	88.31
362.523	96.31
362.749	80.31
362.976	85.31
363.203	94.31
363.429	74.31
363.656	75.31
363.882	80.31
364.109	78.31
364.335	80.31
364.562	92.31
364.788	91.31
365.015	78.31
365.241	89.31
365.468	94.31
365.694	81.31
365.92	76.31
366.147	80.31
366.373	77.31
366.599	81.31
366.826	89.31
367.052	81.31
367.278	94.31
367.505	77.31
367.731	101.31
367.957	80.31
368.184	82.31
368.41	90.31
368.636	96.31
368.862	100.31
369.089	85.31
369.315	87.31
369.541	90.31
369.767	97.31
369.993	82.31
370.219	83.31
370.445	78.31
370.672	75.31
370.898	78.31
371.124	77.31
371.35	88.31
371.576	90.31
371.802	81.31
372.028	94.31
372.254	86.31
372.48	99.31
372.706	70.31
372.932	87.31
373.158	88.31
373.384	87.31
373.61	94.31
373.835	85.31
374.061	89.31
374.287	89.31
374.513	71.31
374.739	81.31
374.965	65.31
375.191	87.31
375.416	72.31
375.642	98.31
375.868	83.31
376.094	89.31
376.319	80.31
376.545	76.31
376.771	81.31
376.997	93.31
377.222	81.31
377.448	80.31
377.674	77.31
377.899	79.31
378.125	90.31
378.35	89.31
378.576	90.31
378.802	80.31
379.027	81.31
379.253	101.31
379.478	75.31
379.704	74.31
379.929	86.31
380.155	73.31
380.38	82.31
380.606	62.31
380.831	85.31
381.057	93.31
381.282	89.31
381.507	84.31
381.733	89.31
381.958	78.31
382.184	81.31
382.409	90.31
382.634	85.31
382.86	93.31
383.085	93.31
383.31	84.31
383.535	90.31
383.761	79.31
383.986	74.31
384.211	80.31
384.436	97.31
384.662	83.31
384.887	86.31
385.112	90.31
385.337	90.31
385.562	84.31
385.787	76.31
386.013	70.31
386.238	98.31
386.463	76.31
386.688	113.31
386.913	91.31
387.138	83.31
387.363	90.31
387.588	77.31
387.813	76.31
388.038	86.31
388.263	83.31
388.488	90.31
388.713	96.31
388.938	77.31
389.163	81.31
389.387	89.31
389.612	79.31
389.837	82.31
390.062	85.31
390.287	84.31
390.512	94.31
390.736	72.31
390.961	84.31
391.186	86.31
391.411	88.31
391.636	80.31
391.86	82.31
392.085	80.31
392.31	75.31
392.534	76.31
392.759	85.31
392.984	73.31
393.208	79.31
393.433	75.31
393.658	84.31
393.882	98.31
394.107	88.31
394.331	84.31
394.556	84.31
394.78	82.31
395.005	80.31
395.229	76.31
395.454	72.31
395.678	74.31
395.903	83.31
396.127	83.31
396.352	88.31
396.576	81.31
396.801	95.31
397.025	86.31
397.249	93.31
397.474	76.31
397.698	68.31
397.922	90.31
398.147	72.31
398.371	87.31
398.595	95.31
398.82	82.31
399.044	85.31
399.268	76.31
399.492	85.31
399.717	79.31
399.941	89.31
400.165	89.31
400.389	69.31
400.613	71.31
400.837	90.31
401.062	97.31
401.286	93.31
401.51	98.31
401.734	77.31
401.958	85.31
402.182	76.31
402.406	75.31
402.63	92.31
402.854	82.31
403.078	90.31
403.302	92.31
403.526	93.31
403.75	85.31
403.974	97.31
404.198	89.31
404.422	81.31
404.645	74.31
404.869	72.31
405.093	84.31
405.317	76.31
405.541	80.31
405.765	77.31
405.988	83.31
406.212	81.31
406.436	81.31
406.66	92.31
406.883	83.31
407.107	69.31
407.331	85.31
407.555	78.31
407.778	83.31
408.002	96.31
408.226	84.31
408.449	74.31
408.673	61.31
408.896	89.31
409.12	89.31
409.344	94.31
409.567	88.31
409.791	95.31
410.014	100.31
410.238	90.31
410.461	80.31
410.685	65.31
410.908	81.31
411.132	81.31
411.355	73.31
411.578	78.31
411.802	85.31
412.025	85.31
412.249	88.31
412.472	84.31
412.695	74.31
412.919	81.31
413.142	85.31
413.365	85.31
413.589	81.31
413.812	88.31
414.035	69.31
414.258	95.31
414.482	91.31
414.705	91.31
414.928	100.31
415.151	80.31
415.374	79.31
415.597	81.31
415.821	75.31
416.044	81.31
416.267	100.31
416.49	91.31
416.713	78.31
416.936	80.31
417.159	80.31
417.382	63.31
417.605	70.31
417.828	81.31
418.051	78.31
418.274	83.31
418.497	84.31
418.72	67.31
418.943	77.31
419.166	69.31
419.389	84.31
419.611	86.31
419.834	90.31
420.057	85.31
420.28	82.31
420.503	80.31
420.726	73.31
420.948	91.31
421.171	78.31
421.394	81.31
421.617	89.31
421.839	76.31
422.062	76.31
422.285	80.31
422.507	83.31
422.73	75.31
422.953	86.31
423.175	93.31
423.398	72.31
423.621	84.31
423.843	68.31
424.066	100.31
424.288	83.31
424.511	92.31
424.733	85.31
424.956	96.31
425.178	83.31
425.401	80.31
425.623	84.31
425.846	88.31
426.068	88.31
426.291	81.31
426.513	78.31
426.735	83.31
426.958	90.31
427.18	104.31
427.402	83.31
427.625	67.31
427.847	81.31
428.069	84.31
428.292	80.31
428.514	84.31
428.736	94.31
428.958	76.31
429.181	94.31
429.403	85.31
429.625	95.31
429.847	96.31
430.069	90.31
430.292	87.31
430.514	70.31
430.736	81.31
430.958	97.31
431.18	76.31
431.402	74.31
431.624	81.31
431.846	82.31
432.068	83.31
432.29	92.31
432.512	85.31
432.734	93.31
432.956	79.31
433.178	93.31
433.4	85.31
433.622	76.31
433.844	86.31
434.066	92.31
434.287	83.31
434.509	85.31
434.731	67.31
434.953	87.31
435.175	81.31
435.397	80.31
435.618	82.31
435.84	71.31
436.062	77.31
436.284	78.31
436.505	88.31
436.727	73.31
436.949	88.31
437.17	86.31
437.392	81.31
437.614	86.31
437.835	94.31
438.057	76.31
438.278	84.31
438.5	78.31
438.721	86.31
438.943	95.31
439.165	92.31
439.386	77.31
439.608	102.31
439.829	82.31
440.05	84.31
440.272	75.31
440.493	89.31
440.715	81.31
440.936	66.31
441.158	86.31
441.379	75.31
441.6	81.31
441.822	96.31
442.043	92.31
442.264	96.31
442.486	70.31
442.707	97.31
442.928	76.31
443.149	80.31
443.371	75.31
443.592	84.31
443.813	91.31
444.034	72.31
444.255	95.31
444.476	90.31
444.698	83.31
444.919	80.31
445.14	160.31
445.361	119.31
445.582	80.31
445.803	73.31
446.024	92.31
446.245	85.31
446.466	86.31
446.687	71.31
446.908	82.31
447.129	98.31
447.35	75.31
447.571	84.31
447.792	75.31
448.013	78.31
448.234	95.31
448.455	82.31
448.675	76.31
448.896	79.31
449.117	79.31
449.338	65.31
449.559	77.31
449.779	88.31
450	77.31
450.221	73.31
450.442	96.31
450.662	81.31
450.883	100.31
451.104	70.31
451.324	77.31
451.545	80.31
451.766	83.31
451.986	78.31
452.207	81.31
452.428	83.31
452.648	81.31
452.869	74.31
453.089	88.31
453.31	91.31
453.53	90.31
453.751	84.31
453.971	93.31
454.192	79.31
454.412	93.31
454.633	76.31
454.853	79.31
455.073	91.31
455.294	78.31
455.514	90.31
455.734	78.31
455.955	78.31
456.175	97.31
456.395	77.31
456.616	88.31
456.836	81.31
457.056	71.31
457.276	85.31
457.497	82.31
457.717	80.31
457.937	73.31
458.157	82.31
458.377	80.31
458.598	77.31
458.818	73.31
459.038	74.31
459.258	78.31
459.478	85.31
459.698	82.31
459.918	86.31
460.138	93.31
460.358	78.31
460.578	88.31
460.798	84.31
461.018	83.31
461.238	82.31
461.458	73.31
461.678	74.31
461.898	84.31
462.118	71.31
462.338	94.31
462.558	80.31
462.777	73.31
462.997	68.31
463.217	76.31
463.437	78.31
463.657	86.31
463.876	77.31
464.096	84.31
464.316	95.31
464.536	83.31
464.755	70.31
464.975	84.31
465.195	83.31
465.414	69.31
465.634	68.31
465.854	80.31
466.073	81.31
466.293	83.31
466.512	86.31
466.732	89.31
466.951	86.31
467.171	90.31
467.391	63.31
467.61	72.31
467.829	76.31
468.049	83.31
468.268	86.31
468.488	89.31
468.707	93.31
468.927	74.31
469.146	77.31
469.365	83.31
469.585	78.31
469.804	80.31
470.023	80.31
470.243	78.31
470.462	83.31
470.681	80.31
470.901	94.31
471.12	84.31
471.339	69.31
471.558	88.31
471.777	79.31
471.997	88.31
472.216	93.31
472.435	81.31
472.654	84.31
472.873	86.31
473.092	82.31
473.311	83.31
473.53	97.31
473.749	80.31
473.968	82.31
474.187	90.31
474.406	88.31
474.625	84.31
474.844	96.31
475.063	93.31
475.282	89.31
475.501	90.31
475.72	96.31
475.939	84.31
476.158	96.31
476.377	81.31
476.596	75.31
476.814	84.31
477.033	97.31
477.252	84.31
477.471	94.31
477.69	94.31
477.908	85.31
478.127	104.31
478.346	100.31
478.564	79.31
478.783	75.31
479.002	88.31
479.22	80.31
479.439	106.31
479.658	80.31
479.876	84.31
480.095	71.31
480.313	96.31
480.532	72.31
480.751	70.31
480.969	70.31
481.188	80.31
481.406	95.31
481.624	79.31
481.843	81.31
482.061	80.31
482.28	84.31
482.498	83.31
482.717	77.31
482.935	86.31
483.153	68.31
483.372	82.31
483.59	95.31
483.808	96.31
484.027	81.31
484.245	85.31
484.463	62.31
484.681	84.31
484.9	80.31
485.118	90.31
485.336	83.31
485.554	94.31
485.772	76.31
485.99	89.31
486.209	83.31
486.427	74.31
486.645	76.31
486.863	81.31
487.081	87.31
487.299	90.31
487.517	88.31
487.735	85.31
487.953	80.31
488.171	80.31
488.389	86.31
488.607	74.31
488.825	90.31
489.043	91.31
489.261	102.31
489.479	81.31
489.696	80.31
489.914	100.31
490.132	87.31
490.35	95.31
490.568	85.31
490.786	102.31
491.003	92.31
491.221	80.31
491.439	95.31
491.657	73.31
491.874	93.31
492.092	75.31
492.31	94.31
492.527	85.31
492.745	73.31
492.963	82.31
493.18	96.31
493.398	85.31
493.615	86.31
493.833	93.31
494.05	69.31
494.268	83.31
494.485	102.31
494.703	78.31
494.92	76.31
495.138	80.31
495.355	93.31
495.573	80.31
495.79	72.31
496.008	89.31
496.225	69.31
496.442	90.31
496.66	101.31
496.877	84.31
497.094	92.31
497.312	92.31
497.529	73.31
497.746	75.31
497.963	90.31
498.181	73.31
498.398	93.31
498.615	82.31
498.832	91.31
499.049	81.31
499.267	78.31
499.484	88.31
499.701	89.31
499.918	86.31
500.135	74.31
500.352	71.31
500.569	90.31
500.786	76.31
501.003	108.31
501.22	84.31
501.437	87.31
501.654	87.31
501.871	88.31
502.088	65.31
502.305	85.31
502.522	99.31
502.739	79.31
502.956	76.31
503.172	85.31
503.389	92.31
503.606	97.31
503.823	88.31
504.04	96.31
504.256	87.31
504.473	76.31
504.69	81.31
504.907	85.31
505.123	84.31
505.34	84.31
505.557	84.31
505.773	83.31
505.99	85.31
506.207	80.31
506.423	84.31
506.64	77.31
506.856	83.31
507.073	90.31
507.289	93.31
507.506	83.31
507.722	73.31
507.939	79.31
508.155	89.31
508.372	93.31
508.588	94.31
508.805	88.31
509.021	85.31
509.238	84.31
509.454	90.31
509.67	77.31
509.887	76.31
510.103	95.31
510.319	78.31
510.536	89.31
510.752	90.31
510.968	83.31
511.184	88.31
511.401	84.31
511.617	83.31
511.833	85.31
512.049	79.31
512.265	85.31
512.481	78.31
512.698	68.31
512.914	96.31
513.13	86.31
513.346	78.31
513.562	82.31
513.778	78.31
513.994	83.31
514.21	102.31
514.426	83.31
514.642	83.31
514.858	93.31
515.074	80.31
515.29	85.31
515.506	80.31
515.721	93.31
515.937	90.31
516.153	97.31
516.369	86.31
516.585	98.31
516.801	89.31
517.016	90.31
517.232	82.31
517.448	89.31
517.664	70.31
517.879	88.31
518.095	92.31
518.311	96.31
518.527	84.31
518.742	87.31
518.958	83.31
519.173	84.31
519.389	91.31
519.605	76.31
519.82	90.31
