Data from BG_HRD10591_084.txt Node
Date: Fri May 16 15:27:29 EDT 2025
User: Yrep
Spectrometer: HR+D1059
Trigger mode: 1
Integration Time (sec): 1.000000E-1
Scans to average: 1
Electric dark correction enabled: true
Nonlinearity correction enabled: false
Boxcar width: 0
XAxis mode: Wavelengths
Number of Pixels in Spectrum: 2048
>>>>>Begin Spectral Data<<<<<
223.165	-2.06
223.4	-2.06
223.635	-2.06
223.869	-11.06
224.104	-38.06
224.338	-15.06
224.573	-9.06
224.808	-11.06
225.042	0.94
225.277	4.94
225.511	-5.06
225.746	-3.06
225.98	9.94
226.215	2.94
226.449	3.94
226.683	27.94
226.918	23.94
227.152	19.94
227.387	43.94
227.621	47.94
227.856	43.94
228.09	52.94
228.324	45.94
228.559	49.94
228.793	71.94
229.027	67.94
229.262	67.94
229.496	74.94
229.73	66.94
229.964	73.94
230.199	94.94
230.433	67.94
230.667	86.94
230.901	95.94
231.136	72.94
231.37	84.94
231.604	82.94
231.838	70.94
232.072	80.94
232.306	72.94
232.541	76.94
232.775	81.94
233.009	86.94
233.243	77.94
233.477	80.94
233.711	74.94
233.945	96.94
234.179	86.94
234.413	90.94
234.647	89.94
234.881	81.94
235.115	96.94
235.349	86.94
235.583	74.94
235.817	73.94
236.051	86.94
236.285	94.94
236.519	76.94
236.753	73.94
236.987	79.94
237.221	62.94
237.455	73.94
237.689	81.94
237.922	81.94
238.156	74.94
238.39	79.94
238.624	81.94
238.858	74.94
239.091	68.94
239.325	68.94
239.559	72.94
239.793	80.94
240.027	79.94
240.26	76.94
240.494	91.94
240.728	76.94
240.961	74.94
241.195	86.94
241.429	87.94
241.662	76.94
241.896	88.94
242.13	89.94
242.363	76.94
242.597	78.94
242.83	70.94
243.064	74.94
243.298	80.94
243.531	90.94
243.765	80.94
243.998	79.94
244.232	66.94
244.465	67.94
244.699	73.94
244.932	74.94
245.166	73.94
245.399	82.94
245.633	85.94
245.866	87.94
246.099	76.94
246.333	81.94
246.566	88.94
246.8	100.94
247.033	84.94
247.266	72.94
247.5	80.94
247.733	68.94
247.966	59.94
248.2	87.94
248.433	83.94
248.666	72.94
248.899	74.94
249.133	96.94
249.366	82.94
249.599	75.94
249.832	79.94
250.066	72.94
250.299	66.94
250.532	74.94
250.765	82.94
250.998	80.94
251.231	79.94
251.465	76.94
251.698	79.94
251.931	86.94
252.164	74.94
252.397	74.94
252.63	70.94
252.863	79.94
253.096	78.94
253.329	91.94
253.562	78.94
253.795	78.94
254.028	84.94
254.261	86.94
254.494	69.94
254.727	82.94
254.96	92.94
255.193	84.94
255.426	70.94
255.659	78.94
255.892	73.94
256.124	72.94
256.357	96.94
256.59	72.94
256.823	88.94
257.056	81.94
257.289	90.94
257.521	72.94
257.754	74.94
257.987	87.94
258.22	85.94
258.452	67.94
258.685	82.94
258.918	83.94
259.151	87.94
259.383	73.94
259.616	74.94
259.849	83.94
260.081	75.94
260.314	84.94
260.547	80.94
260.779	76.94
261.012	89.94
261.244	77.94
261.477	78.94
261.71	75.94
261.942	75.94
262.175	78.94
262.407	80.94
262.64	89.94
262.872	86.94
263.105	82.94
263.337	93.94
263.57	72.94
263.802	76.94
264.035	89.94
264.267	81.94
264.499	83.94
264.732	88.94
264.964	78.94
265.197	73.94
265.429	75.94
265.661	89.94
265.894	92.94
266.126	86.94
266.358	74.94
266.591	82.94
266.823	83.94
267.055	77.94
267.287	81.94
267.52	74.94
267.752	86.94
267.984	82.94
268.216	79.94
268.448	75.94
268.681	83.94
268.913	82.94
269.145	79.94
269.377	93.94
269.609	91.94
269.841	90.94
270.073	69.94
270.306	85.94
270.538	91.94
270.77	86.94
271.002	75.94
271.234	74.94
271.466	80.94
271.698	80.94
271.93	90.94
272.162	75.94
272.394	80.94
272.626	67.94
272.858	93.94
273.09	90.94
273.322	82.94
273.553	92.94
273.785	89.94
274.017	83.94
274.249	91.94
274.481	78.94
274.713	80.94
274.945	90.94
275.176	87.94
275.408	84.94
275.64	78.94
275.872	88.94
276.104	89.94
276.335	88.94
276.567	91.94
276.799	86.94
277.031	92.94
277.262	91.94
277.494	79.94
277.726	78.94
277.957	75.94
278.189	90.94
278.421	84.94
278.652	91.94
278.884	82.94
279.115	95.94
279.347	84.94
279.579	79.94
279.81	84.94
280.042	82.94
280.273	77.94
280.505	95.94
280.736	82.94
280.968	96.94
281.199	83.94
281.431	81.94
281.662	80.94
281.894	78.94
282.125	82.94
282.356	87.94
282.588	83.94
282.819	77.94
283.051	72.94
283.282	87.94
283.513	91.94
283.745	83.94
283.976	92.94
284.207	86.94
284.439	75.94
284.67	94.94
284.901	72.94
285.132	93.94
285.364	75.94
285.595	80.94
285.826	84.94
286.057	95.94
286.288	91.94
286.52	68.94
286.751	84.94
286.982	89.94
287.213	89.94
287.444	86.94
287.675	83.94
287.906	84.94
288.138	81.94
288.369	86.94
288.6	75.94
288.831	82.94
289.062	90.94
289.293	72.94
289.524	74.94
289.755	81.94
289.986	74.94
290.217	83.94
290.448	79.94
290.679	87.94
290.91	76.94
291.141	88.94
291.371	89.94
291.602	70.94
291.833	80.94
292.064	96.94
292.295	82.94
292.526	93.94
292.757	90.94
292.987	78.94
293.218	97.94
293.449	94.94
293.68	94.94
293.91	87.94
294.141	94.94
294.372	93.94
294.603	83.94
294.833	73.94
295.064	87.94
295.295	73.94
295.525	82.94
295.756	80.94
295.987	92.94
296.217	78.94
296.448	89.94
296.679	86.94
296.909	95.94
297.14	80.94
297.37	92.94
297.601	98.94
297.831	98.94
298.062	87.94
298.292	92.94
298.523	102.94
298.753	95.94
298.984	96.94
299.214	90.94
299.445	78.94
299.675	90.94
299.905	76.94
300.136	92.94
300.366	96.94
300.597	79.94
300.827	73.94
301.057	81.94
301.288	75.94
301.518	92.94
301.748	80.94
301.979	105.94
302.209	90.94
302.439	97.94
302.669	90.94
302.9	85.94
303.13	86.94
303.36	80.94
303.59	96.94
303.82	92.94
304.051	82.94
304.281	75.94
304.511	90.94
304.741	87.94
304.971	84.94
305.201	76.94
305.431	76.94
305.661	83.94
305.891	82.94
306.121	91.94
306.352	98.94
306.582	86.94
306.812	67.94
307.042	90.94
307.272	84.94
307.502	71.94
307.731	100.94
307.961	96.94
308.191	90.94
308.421	90.94
308.651	80.94
308.881	92.94
309.111	85.94
309.341	70.94
309.571	77.94
309.8	83.94
310.03	87.94
310.26	94.94
310.49	81.94
310.72	88.94
310.949	78.94
311.179	101.94
311.409	94.94
311.639	81.94
311.868	86.94
312.098	87.94
312.328	75.94
312.557	93.94
312.787	88.94
313.017	88.94
313.246	78.94
313.476	90.94
313.706	93.94
313.935	76.94
314.165	82.94
314.394	104.94
314.624	93.94
314.853	81.94
315.083	95.94
315.312	93.94
315.542	93.94
315.771	95.94
316.001	96.94
316.23	93.94
316.46	74.94
316.689	82.94
316.919	84.94
317.148	91.94
317.377	80.94
317.607	95.94
317.836	93.94
318.065	80.94
318.295	92.94
318.524	83.94
318.753	80.94
318.983	84.94
319.212	90.94
319.441	86.94
319.67	86.94
319.9	83.94
320.129	94.94
320.358	86.94
320.587	89.94
320.816	88.94
321.046	76.94
321.275	78.94
321.504	68.94
321.733	88.94
321.962	81.94
322.191	88.94
322.42	76.94
322.649	107.94
322.878	87.94
323.108	86.94
323.337	92.94
323.566	90.94
323.795	90.94
324.024	98.94
324.253	78.94
324.482	88.94
324.71	89.94
324.939	85.94
325.168	85.94
325.397	82.94
325.626	86.94
325.855	82.94
326.084	85.94
326.313	73.94
326.542	90.94
326.77	94.94
326.999	89.94
327.228	90.94
327.457	79.94
327.686	90.94
327.914	82.94
328.143	79.94
328.372	93.94
328.6	82.94
328.829	92.94
329.058	71.94
329.287	98.94
329.515	78.94
329.744	79.94
329.972	86.94
330.201	84.94
330.43	86.94
330.658	75.94
330.887	98.94
331.115	83.94
331.344	91.94
331.572	84.94
331.801	98.94
332.03	84.94
332.258	64.94
332.486	103.94
332.715	95.94
332.943	78.94
333.172	83.94
333.4	77.94
333.629	87.94
333.857	91.94
334.085	92.94
334.314	81.94
334.542	89.94
334.771	87.94
334.999	89.94
335.227	90.94
335.455	96.94
335.684	82.94
335.912	80.94
336.14	94.94
336.369	86.94
336.597	99.94
336.825	73.94
337.053	88.94
337.281	79.94
337.51	78.94
337.738	78.94
337.966	83.94
338.194	79.94
338.422	69.94
338.65	79.94
338.878	83.94
339.106	98.94
339.334	86.94
339.562	93.94
339.79	80.94
340.018	79.94
340.246	105.94
340.474	84.94
340.702	84.94
340.93	88.94
341.158	93.94
341.386	83.94
341.614	86.94
341.842	90.94
342.07	82.94
342.298	97.94
342.526	89.94
342.754	97.94
342.981	77.94
343.209	81.94
343.437	90.94
343.665	94.94
343.893	82.94
344.12	94.94
344.348	93.94
344.576	102.94
344.804	84.94
345.031	86.94
345.259	90.94
345.487	73.94
345.714	68.94
345.942	84.94
346.17	83.94
346.397	78.94
346.625	85.94
346.853	92.94
347.08	74.94
347.308	88.94
347.535	79.94
347.763	86.94
347.99	83.94
348.218	76.94
348.445	82.94
348.673	75.94
348.9	90.94
349.128	82.94
349.355	78.94
349.583	77.94
349.81	73.94
350.037	94.94
350.265	74.94
350.492	82.94
350.72	86.94
350.947	78.94
351.174	88.94
351.402	79.94
351.629	80.94
351.856	81.94
352.083	84.94
352.311	84.94
352.538	79.94
352.765	81.94
352.992	83.94
353.22	76.94
353.447	86.94
353.674	89.94
353.901	99.94
354.128	89.94
354.355	92.94
354.583	85.94
354.81	89.94
355.037	87.94
355.264	98.94
355.491	80.94
355.718	82.94
355.945	104.94
356.172	83.94
356.399	68.94
356.626	86.94
356.853	86.94
357.08	89.94
357.307	91.94
357.534	69.94
357.761	83.94
357.988	83.94
358.215	83.94
358.441	97.94
358.668	77.94
358.895	74.94
359.122	84.94
359.349	68.94
359.576	68.94
359.802	69.94
360.029	92.94
360.256	93.94
360.483	97.94
360.709	87.94
360.936	90.94
361.163	92.94
361.39	79.94
361.616	86.94
361.843	83.94
362.07	86.94
362.296	82.94
362.523	83.94
362.749	84.94
362.976	78.94
363.203	87.94
363.429	76.94
363.656	85.94
363.882	89.94
364.109	81.94
364.335	91.94
364.562	87.94
364.788	67.94
365.015	81.94
365.241	77.94
365.468	99.94
365.694	69.94
365.92	102.94
366.147	80.94
366.373	81.94
366.599	88.94
366.826	96.94
367.052	95.94
367.278	84.94
367.505	78.94
367.731	88.94
367.957	82.94
368.184	79.94
368.41	88.94
368.636	86.94
368.862	69.94
369.089	79.94
369.315	90.94
369.541	104.94
369.767	76.94
369.993	90.94
370.219	102.94
370.445	98.94
370.672	76.94
370.898	88.94
371.124	78.94
371.35	66.94
371.576	60.94
371.802	77.94
372.028	72.94
372.254	83.94
372.48	88.94
372.706	75.94
372.932	75.94
373.158	82.94
373.384	90.94
373.61	75.94
373.835	76.94
374.061	90.94
374.287	84.94
374.513	85.94
374.739	87.94
374.965	79.94
375.191	91.94
375.416	96.94
375.642	70.94
375.868	86.94
376.094	83.94
376.319	74.94
376.545	86.94
376.771	85.94
376.997	91.94
377.222	91.94
377.448	84.94
377.674	97.94
377.899	85.94
378.125	85.94
378.35	76.94
378.576	87.94
378.802	88.94
379.027	99.94
379.253	85.94
379.478	86.94
379.704	60.94
379.929	92.94
380.155	76.94
380.38	90.94
380.606	76.94
380.831	86.94
381.057	93.94
381.282	85.94
381.507	102.94
381.733	82.94
381.958	80.94
382.184	89.94
382.409	83.94
382.634	91.94
382.86	88.94
383.085	88.94
383.31	94.94
383.535	86.94
383.761	82.94
383.986	79.94
384.211	86.94
384.436	83.94
384.662	81.94
384.887	92.94
385.112	84.94
385.337	94.94
385.562	83.94
385.787	93.94
386.013	66.94
386.238	72.94
386.463	70.94
386.688	98.94
386.913	90.94
387.138	71.94
387.363	82.94
387.588	75.94
387.813	85.94
388.038	85.94
388.263	94.94
388.488	76.94
388.713	74.94
388.938	92.94
389.163	89.94
389.387	80.94
389.612	82.94
389.837	89.94
390.062	91.94
390.287	87.94
390.512	77.94
390.736	80.94
390.961	77.94
391.186	83.94
391.411	80.94
391.636	80.94
391.86	68.94
392.085	74.94
392.31	97.94
392.534	78.94
392.759	71.94
392.984	93.94
393.208	83.94
393.433	83.94
393.658	92.94
393.882	86.94
394.107	97.94
394.331	97.94
394.556	90.94
394.78	74.94
395.005	69.94
395.229	72.94
395.454	90.94
395.678	83.94
395.903	75.94
396.127	83.94
396.352	72.94
396.576	79.94
396.801	98.94
397.025	82.94
397.249	82.94
397.474	87.94
397.698	97.94
397.922	84.94
398.147	87.94
398.371	81.94
398.595	79.94
398.82	75.94
399.044	87.94
399.268	83.94
399.492	101.94
399.717	75.94
399.941	77.94
400.165	93.94
400.389	88.94
400.613	83.94
400.837	85.94
401.062	86.94
401.286	79.94
401.51	72.94
401.734	77.94
401.958	83.94
402.182	93.94
402.406	88.94
402.63	83.94
402.854	79.94
403.078	83.94
403.302	79.94
403.526	108.94
403.75	84.94
403.974	89.94
404.198	81.94
404.422	80.94
404.645	81.94
404.869	89.94
405.093	83.94
405.317	79.94
405.541	73.94
405.765	93.94
405.988	89.94
406.212	91.94
406.436	90.94
406.66	73.94
406.883	79.94
407.107	92.94
407.331	95.94
407.555	77.94
407.778	76.94
408.002	74.94
408.226	76.94
408.449	84.94
408.673	88.94
408.896	94.94
409.12	90.94
409.344	93.94
409.567	82.94
409.791	80.94
410.014	82.94
410.238	84.94
410.461	79.94
410.685	81.94
410.908	67.94
411.132	98.94
411.355	97.94
411.578	69.94
411.802	86.94
412.025	89.94
412.249	80.94
412.472	83.94
412.695	92.94
412.919	91.94
413.142	95.94
413.365	84.94
413.589	72.94
413.812	87.94
414.035	88.94
414.258	92.94
414.482	81.94
414.705	94.94
414.928	81.94
415.151	92.94
415.374	86.94
415.597	57.94
415.821	82.94
416.044	94.94
416.267	77.94
416.49	76.94
416.713	84.94
416.936	87.94
417.159	79.94
417.382	88.94
417.605	78.94
417.828	84.94
418.051	80.94
418.274	76.94
418.497	74.94
418.72	85.94
418.943	92.94
419.166	87.94
419.389	94.94
419.611	86.94
419.834	71.94
420.057	78.94
420.28	93.94
420.503	82.94
420.726	94.94
420.948	93.94
421.171	87.94
421.394	76.94
421.617	95.94
421.839	74.94
422.062	83.94
422.285	89.94
422.507	87.94
422.73	98.94
422.953	74.94
423.175	84.94
423.398	72.94
423.621	85.94
423.843	90.94
424.066	80.94
424.288	72.94
424.511	95.94
424.733	91.94
424.956	87.94
425.178	86.94
425.401	82.94
425.623	79.94
425.846	68.94
426.068	94.94
426.291	86.94
426.513	80.94
426.735	86.94
426.958	76.94
427.18	99.94
427.402	75.94
427.625	94.94
427.847	90.94
428.069	78.94
428.292	76.94
428.514	82.94
428.736	80.94
428.958	73.94
429.181	94.94
429.403	79.94
429.625	78.94
429.847	75.94
430.069	87.94
430.292	98.94
430.514	70.94
430.736	96.94
430.958	89.94
431.18	89.94
431.402	89.94
431.624	82.94
431.846	91.94
432.068	82.94
432.29	89.94
432.512	99.94
432.734	102.94
432.956	83.94
433.178	74.94
433.4	75.94
433.622	78.94
433.844	88.94
434.066	88.94
434.287	87.94
434.509	86.94
434.731	81.94
434.953	85.94
435.175	93.94
435.397	82.94
435.618	79.94
435.84	84.94
436.062	94.94
436.284	81.94
436.505	88.94
436.727	82.94
436.949	95.94
437.17	80.94
437.392	75.94
437.614	69.94
437.835	80.94
438.057	73.94
438.278	73.94
438.5	75.94
438.721	85.94
438.943	85.94
439.165	67.94
439.386	81.94
439.608	72.94
439.829	86.94
440.05	81.94
440.272	90.94
440.493	89.94
440.715	82.94
440.936	82.94
441.158	99.94
441.379	84.94
441.6	94.94
441.822	86.94
442.043	84.94
442.264	72.94
442.486	89.94
442.707	83.94
442.928	79.94
443.149	79.94
443.371	82.94
443.592	86.94
443.813	81.94
444.034	75.94
444.255	90.94
444.476	75.94
444.698	69.94
444.919	83.94
445.14	144.94
445.361	110.94
445.582	74.94
445.803	95.94
446.024	82.94
446.245	84.94
446.466	91.94
446.687	80.94
446.908	86.94
447.129	84.94
447.35	75.94
447.571	80.94
447.792	92.94
448.013	74.94
448.234	72.94
448.455	78.94
448.675	85.94
448.896	93.94
449.117	73.94
449.338	77.94
449.559	76.94
449.779	78.94
450	89.94
450.221	92.94
450.442	85.94
450.662	93.94
450.883	91.94
451.104	93.94
451.324	80.94
451.545	92.94
451.766	72.94
451.986	77.94
452.207	75.94
452.428	87.94
452.648	85.94
452.869	75.94
453.089	83.94
453.31	83.94
453.53	82.94
453.751	72.94
453.971	74.94
454.192	74.94
454.412	82.94
454.633	90.94
454.853	91.94
455.073	76.94
455.294	93.94
455.514	83.94
455.734	80.94
455.955	81.94
456.175	87.94
456.395	80.94
456.616	96.94
456.836	86.94
457.056	87.94
457.276	83.94
457.497	82.94
457.717	81.94
457.937	86.94
458.157	67.94
458.377	79.94
458.598	77.94
458.818	82.94
459.038	66.94
459.258	78.94
459.478	72.94
459.698	80.94
459.918	86.94
460.138	82.94
460.358	92.94
460.578	80.94
460.798	78.94
461.018	90.94
461.238	79.94
461.458	60.94
461.678	70.94
461.898	76.94
462.118	79.94
462.338	87.94
462.558	79.94
462.777	92.94
462.997	90.94
463.217	84.94
463.437	78.94
463.657	90.94
463.876	93.94
464.096	74.94
464.316	89.94
464.536	85.94
464.755	81.94
464.975	87.94
465.195	88.94
465.414	82.94
465.634	90.94
465.854	79.94
466.073	82.94
466.293	78.94
466.512	69.94
466.732	75.94
466.951	94.94
467.171	88.94
467.391	78.94
467.61	75.94
467.829	76.94
468.049	96.94
468.268	83.94
468.488	78.94
468.707	78.94
468.927	74.94
469.146	78.94
469.365	79.94
469.585	81.94
469.804	98.94
470.023	79.94
470.243	70.94
470.462	86.94
470.681	81.94
470.901	79.94
471.12	75.94
471.339	84.94
471.558	87.94
471.777	91.94
471.997	82.94
472.216	84.94
472.435	83.94
472.654	88.94
472.873	90.94
473.092	74.94
473.311	87.94
473.53	90.94
473.749	81.94
473.968	84.94
474.187	88.94
474.406	85.94
474.625	81.94
474.844	77.94
475.063	90.94
475.282	81.94
475.501	90.94
475.72	82.94
475.939	90.94
476.158	85.94
476.377	90.94
476.596	81.94
476.814	74.94
477.033	76.94
477.252	86.94
477.471	88.94
477.69	88.94
477.908	84.94
478.127	87.94
478.346	81.94
478.564	92.94
478.783	71.94
479.002	74.94
479.22	78.94
479.439	94.94
479.658	89.94
479.876	84.94
480.095	73.94
480.313	89.94
480.532	83.94
480.751	100.94
480.969	83.94
481.188	66.94
481.406	88.94
481.624	78.94
481.843	91.94
482.061	82.94
482.28	90.94
482.498	82.94
482.717	67.94
482.935	92.94
483.153	81.94
483.372	89.94
483.59	94.94
483.808	96.94
484.027	90.94
484.245	81.94
484.463	97.94
484.681	88.94
484.9	81.94
485.118	96.94
485.336	75.94
485.554	85.94
485.772	83.94
485.99	78.94
486.209	82.94
486.427	88.94
486.645	79.94
486.863	91.94
487.081	80.94
487.299	82.94
487.517	83.94
487.735	91.94
487.953	82.94
488.171	89.94
488.389	81.94
488.607	71.94
488.825	83.94
489.043	78.94
489.261	89.94
489.479	80.94
489.696	82.94
489.914	79.94
490.132	82.94
490.35	89.94
490.568	58.94
490.786	82.94
491.003	79.94
491.221	76.94
491.439	88.94
491.657	89.94
491.874	96.94
492.092	86.94
492.31	81.94
492.527	83.94
492.745	90.94
492.963	87.94
493.18	77.94
493.398	68.94
493.615	87.94
493.833	81.94
494.05	84.94
494.268	94.94
494.485	77.94
494.703	94.94
494.92	90.94
495.138	80.94
495.355	83.94
495.573	82.94
495.79	83.94
496.008	74.94
496.225	82.94
496.442	77.94
496.66	93.94
496.877	102.94
497.094	81.94
497.312	74.94
497.529	76.94
497.746	94.94
497.963	91.94
498.181	80.94
498.398	87.94
498.615	94.94
498.832	75.94
499.049	86.94
499.267	96.94
499.484	88.94
499.701	80.94
499.918	82.94
500.135	86.94
500.352	77.94
500.569	89.94
500.786	87.94
501.003	84.94
501.22	79.94
501.437	75.94
501.654	90.94
501.871	86.94
502.088	80.94
502.305	94.94
502.522	78.94
502.739	86.94
502.956	93.94
503.172	93.94
503.389	95.94
503.606	82.94
503.823	89.94
504.04	84.94
504.256	91.94
504.473	78.94
504.69	88.94
504.907	105.94
505.123	83.94
505.34	86.94
505.557	78.94
505.773	93.94
505.99	94.94
506.207	105.94
506.423	83.94
506.64	90.94
506.856	90.94
507.073	70.94
507.289	88.94
507.506	103.94
507.722	95.94
507.939	93.94
508.155	79.94
508.372	96.94
508.588	87.94
508.805	97.94
509.021	82.94
509.238	94.94
509.454	80.94
509.67	83.94
509.887	90.94
510.103	74.94
510.319	84.94
510.536	96.94
510.752	67.94
510.968	84.94
511.184	88.94
511.401	87.94
511.617	66.94
511.833	75.94
512.049	73.94
512.265	96.94
512.481	79.94
512.698	79.94
512.914	96.94
513.13	81.94
513.346	82.94
513.562	87.94
513.778	98.94
513.994	94.94
514.21	72.94
514.426	104.94
514.642	77.94
514.858	99.94
515.074	88.94
515.29	89.94
515.506	72.94
515.721	89.94
515.937	81.94
516.153	73.94
516.369	78.94
516.585	86.94
516.801	84.94
517.016	100.94
517.232	83.94
517.448	84.94
517.664	76.94
517.879	81.94
518.095	86.94
518.311	94.94
518.527	85.94
518.742	74.94
518.958	81.94
519.173	81.94
519.389	80.94
519.605	87.94
519.82	89.94
520.036	77.94
