Data from BG_HRD10591_016.txt Node
Date: Fri May 16 15:26:55 EDT 2025
User: Yrep
Spectrometer: HR+D1059
Trigger mode: 1
Integration Time (sec): 1.000000E-1
Scans to average: 1
Electric dark correction enabled: true
Nonlinearity correction enabled: false
Boxcar width: 0
XAxis mode: Wavelengths
Number of Pixels in Spectrum: 2048
>>>>>Begin Spectral Data<<<<<
223.165	-12
223.4	-12
223.635	-12
223.869	-24
224.104	-24
224.338	-20
224.573	-22
224.808	-8
225.042	-8
225.277	-3
225.511	5
225.746	13
225.98	5
226.215	29
226.449	10
226.683	23
226.918	8
227.152	28
227.387	25
227.621	17
227.856	38
228.09	50
228.324	52
228.559	73
228.793	55
229.027	68
229.262	74
229.496	67
229.73	73
229.964	71
230.199	73
230.433	75
230.667	72
230.901	80
231.136	76
231.37	73
231.604	82
231.838	75
232.072	83
232.306	103
232.541	80
232.775	87
233.009	74
233.243	88
233.477	78
233.711	72
233.945	74
234.179	78
234.413	72
234.647	88
234.881	78
235.115	69
235.349	83
235.583	82
235.817	75
236.051	72
236.285	78
236.519	92
236.753	81
236.987	78
237.221	85
237.455	80
237.689	69
237.922	80
238.156	81
238.39	74
238.624	92
238.858	77
239.091	71
239.325	68
239.559	71
239.793	82
240.027	76
240.26	93
240.494	82
240.728	73
240.961	65
241.195	84
241.429	70
241.662	74
241.896	79
242.13	74
242.363	69
242.597	64
242.83	71
243.064	73
243.298	91
243.531	73
243.765	70
243.998	100
244.232	87
244.465	87
244.699	80
244.932	74
245.166	81
245.399	68
245.633	81
245.866	84
246.099	86
246.333	72
246.566	77
246.8	62
247.033	56
247.266	76
247.5	68
247.733	75
247.966	88
248.2	64
248.433	66
248.666	90
248.899	89
249.133	75
249.366	78
249.599	88
249.832	65
250.066	83
250.299	78
250.532	80
250.765	78
250.998	84
251.231	77
251.465	85
251.698	91
251.931	84
252.164	69
252.397	80
252.63	88
252.863	76
253.096	73
253.329	80
253.562	81
253.795	90
254.028	86
254.261	72
254.494	77
254.727	81
254.96	87
255.193	88
255.426	84
255.659	77
255.892	76
256.124	87
256.357	83
256.59	86
256.823	76
257.056	71
257.289	77
257.521	81
257.754	89
257.987	72
258.22	83
258.452	89
258.685	90
258.918	81
259.151	87
259.383	82
259.616	87
259.849	89
260.081	88
260.314	82
260.547	77
260.779	76
261.012	77
261.244	82
261.477	88
261.71	90
261.942	80
262.175	80
262.407	61
262.64	77
262.872	86
263.105	75
263.337	72
263.57	81
263.802	80
264.035	74
264.267	86
264.499	80
264.732	90
264.964	87
265.197	80
265.429	89
265.661	72
265.894	80
266.126	89
266.358	86
266.591	73
266.823	80
267.055	77
267.287	79
267.52	86
267.752	96
267.984	84
268.216	73
268.448	78
268.681	82
268.913	92
269.145	87
269.377	84
269.609	66
269.841	79
270.073	82
270.306	84
270.538	99
270.77	78
271.002	86
271.234	90
271.466	75
271.698	72
271.93	80
272.162	98
272.394	79
272.626	81
272.858	100
273.09	78
273.322	74
273.553	83
273.785	77
274.017	76
274.249	80
274.481	69
274.713	79
274.945	88
275.176	86
275.408	86
275.64	83
275.872	89
276.104	98
276.335	88
276.567	80
276.799	97
277.031	79
277.262	72
277.494	79
277.726	76
277.957	79
278.189	92
278.421	72
278.652	88
278.884	77
279.115	73
279.347	91
279.579	86
279.81	81
280.042	95
280.273	89
280.505	86
280.736	92
280.968	86
281.199	81
281.431	86
281.662	65
281.894	92
282.125	82
282.356	85
282.588	82
282.819	85
283.051	90
283.282	77
283.513	95
283.745	88
283.976	74
284.207	93
284.439	90
284.67	101
284.901	90
285.132	84
285.364	72
285.595	88
285.826	82
286.057	83
286.288	76
286.52	86
286.751	76
286.982	97
287.213	80
287.444	85
287.675	90
287.906	92
288.138	86
288.369	76
288.6	103
288.831	109
289.062	102
289.293	93
289.524	89
289.755	78
289.986	93
290.217	86
290.448	78
290.679	89
290.91	86
291.141	70
291.371	84
291.602	89
291.833	79
292.064	84
292.295	86
292.526	86
292.757	87
292.987	97
293.218	80
293.449	93
293.68	81
293.91	79
294.141	88
294.372	100
294.603	84
294.833	62
295.064	86
295.295	74
295.525	70
295.756	85
295.987	91
296.217	96
296.448	80
296.679	90
296.909	92
297.14	89
297.37	100
297.601	87
297.831	80
298.062	101
298.292	92
298.523	92
298.753	90
298.984	82
299.214	86
299.445	88
299.675	76
299.905	87
300.136	93
300.366	91
300.597	81
300.827	84
301.057	76
301.288	96
301.518	92
301.748	88
301.979	89
302.209	75
302.439	95
302.669	94
302.9	97
303.13	106
303.36	97
303.59	87
303.82	97
304.051	93
304.281	98
304.511	85
304.741	87
304.971	88
305.201	85
305.431	95
305.661	84
305.891	89
306.121	88
306.352	73
306.582	78
306.812	79
307.042	73
307.272	89
307.502	82
307.731	86
307.961	86
308.191	85
308.421	97
308.651	95
308.881	95
309.111	87
309.341	85
309.571	84
309.8	86
310.03	96
310.26	82
310.49	88
310.72	105
310.949	93
311.179	92
311.409	91
311.639	84
311.868	88
312.098	83
312.328	90
312.557	87
312.787	98
313.017	92
313.246	96
313.476	89
313.706	75
313.935	82
314.165	88
314.394	94
314.624	84
314.853	85
315.083	82
315.312	92
315.542	78
315.771	84
316.001	77
316.23	91
316.46	75
316.689	80
316.919	78
317.148	96
317.377	102
317.607	87
317.836	88
318.065	77
318.295	72
318.524	83
318.753	81
318.983	92
319.212	78
319.441	92
319.67	86
319.9	87
320.129	86
320.358	91
320.587	74
320.816	84
321.046	85
321.275	98
321.504	83
321.733	83
321.962	84
322.191	83
322.42	83
322.649	89
322.878	83
323.108	98
323.337	77
323.566	95
323.795	86
324.024	97
324.253	95
324.482	92
324.71	106
324.939	78
325.168	81
325.397	93
325.626	95
325.855	87
326.084	79
326.313	92
326.542	73
326.77	93
326.999	80
327.228	84
327.457	86
327.686	93
327.914	88
328.143	85
328.372	92
328.6	85
328.829	85
329.058	96
329.287	78
329.515	90
329.744	81
329.972	85
330.201	94
330.43	78
330.658	73
330.887	100
331.115	84
331.344	84
331.572	94
331.801	78
332.03	75
332.258	92
332.486	75
332.715	75
332.943	85
333.172	88
333.4	91
333.629	98
333.857	102
334.085	86
334.314	74
334.542	96
334.771	80
334.999	103
335.227	88
335.455	89
335.684	93
335.912	103
336.14	88
336.369	89
336.597	81
336.825	81
337.053	89
337.281	92
337.51	85
337.738	76
337.966	85
338.194	84
338.422	88
338.65	90
338.878	84
339.106	93
339.334	71
339.562	80
339.79	102
340.018	80
340.246	89
340.474	82
340.702	100
340.93	95
341.158	92
341.386	94
341.614	82
341.842	89
342.07	86
342.298	85
342.526	90
342.754	93
342.981	90
343.209	92
343.437	102
343.665	76
343.893	81
344.12	95
344.348	80
344.576	89
344.804	84
345.031	88
345.259	87
345.487	85
345.714	87
345.942	96
346.17	82
346.397	91
346.625	90
346.853	104
347.08	80
347.308	86
347.535	80
347.763	78
347.99	101
348.218	91
348.445	83
348.673	88
348.9	85
349.128	94
349.355	80
349.583	88
349.81	91
350.037	78
350.265	94
350.492	78
350.72	80
350.947	95
351.174	84
351.402	86
351.629	77
351.856	93
352.083	86
352.311	91
352.538	82
352.765	88
352.992	101
353.22	84
353.447	94
353.674	87
353.901	95
354.128	83
354.355	74
354.583	93
354.81	87
355.037	78
355.264	79
355.491	78
355.718	86
355.945	89
356.172	88
356.399	100
356.626	86
356.853	67
357.08	80
357.307	79
357.534	93
357.761	83
357.988	89
358.215	78
358.441	85
358.668	93
358.895	85
359.122	94
359.349	82
359.576	87
359.802	98
360.029	88
360.256	94
360.483	90
360.709	81
360.936	80
361.163	80
361.39	95
361.616	92
361.843	87
362.07	88
362.296	105
362.523	97
362.749	79
362.976	88
363.203	88
363.429	85
363.656	86
363.882	83
364.109	93
364.335	94
364.562	85
364.788	70
365.015	82
365.241	92
365.468	91
365.694	88
365.92	78
366.147	89
366.373	94
366.599	95
366.826	94
367.052	82
367.278	81
367.505	98
367.731	95
367.957	88
368.184	78
368.41	87
368.636	96
368.862	100
369.089	86
369.315	88
369.541	88
369.767	84
369.993	84
370.219	75
370.445	82
370.672	86
370.898	88
371.124	92
371.35	81
371.576	74
371.802	89
372.028	108
372.254	81
372.48	95
372.706	96
372.932	98
373.158	89
373.384	90
373.61	100
373.835	94
374.061	82
374.287	74
374.513	77
374.739	89
374.965	92
375.191	92
375.416	90
375.642	84
375.868	84
376.094	89
376.319	82
376.545	84
376.771	87
376.997	90
377.222	69
377.448	102
377.674	83
377.899	88
378.125	84
378.35	89
378.576	90
378.802	83
379.027	80
379.253	92
379.478	93
379.704	96
379.929	86
380.155	87
380.38	93
380.606	81
380.831	87
381.057	110
381.282	80
381.507	98
381.733	89
381.958	77
382.184	100
382.409	80
382.634	82
382.86	89
383.085	90
383.31	89
383.535	69
383.761	94
383.986	98
384.211	92
384.436	85
384.662	90
384.887	90
385.112	86
385.337	80
385.562	88
385.787	85
386.013	85
386.238	82
386.463	92
386.688	94
386.913	88
387.138	81
387.363	94
387.588	103
387.813	84
388.038	91
388.263	75
388.488	95
388.713	85
388.938	71
389.163	85
389.387	84
389.612	88
389.837	77
390.062	86
390.287	82
390.512	97
390.736	81
390.961	92
391.186	78
391.411	95
391.636	82
391.86	77
392.085	89
392.31	86
392.534	98
392.759	92
392.984	81
393.208	92
393.433	74
393.658	90
393.882	100
394.107	101
394.331	109
394.556	75
394.78	89
395.005	80
395.229	87
395.454	88
395.678	92
395.903	87
396.127	89
396.352	82
396.576	91
396.801	87
397.025	79
397.249	88
397.474	94
397.698	80
397.922	83
398.147	93
398.371	95
398.595	117
398.82	87
399.044	82
399.268	102
399.492	91
399.717	87
399.941	91
400.165	97
400.389	84
400.613	91
400.837	97
401.062	86
401.286	89
401.51	94
401.734	91
401.958	82
402.182	94
402.406	97
402.63	93
402.854	74
403.078	99
403.302	89
403.526	94
403.75	82
403.974	85
404.198	90
404.422	82
404.645	100
404.869	95
405.093	90
405.317	80
405.541	94
405.765	81
405.988	87
406.212	86
406.436	75
406.66	86
406.883	92
407.107	89
407.331	98
407.555	90
407.778	88
408.002	87
408.226	91
408.449	104
408.673	89
408.896	93
409.12	82
409.344	88
409.567	79
409.791	90
410.014	91
410.238	76
410.461	79
410.685	82
410.908	86
411.132	78
411.355	94
411.578	68
411.802	80
412.025	85
412.249	81
412.472	90
412.695	106
412.919	78
413.142	77
413.365	96
413.589	98
413.812	90
414.035	87
414.258	87
414.482	93
414.705	88
414.928	103
415.151	82
415.374	96
415.597	94
415.821	93
416.044	84
416.267	98
416.49	110
416.713	102
416.936	118
417.159	105
417.382	89
417.605	89
417.828	85
418.051	92
418.274	92
418.497	85
418.72	89
418.943	88
419.166	80
419.389	79
419.611	83
419.834	89
420.057	95
420.28	66
420.503	84
420.726	93
420.948	79
421.171	87
421.394	76
421.617	90
421.839	78
422.062	88
422.285	93
422.507	86
422.73	93
422.953	92
423.175	85
423.398	99
423.621	95
423.843	90
424.066	103
424.288	91
424.511	86
424.733	84
424.956	95
425.178	82
425.401	100
425.623	88
425.846	102
426.068	84
426.291	87
426.513	92
426.735	92
426.958	85
427.18	79
427.402	82
427.625	81
427.847	76
428.069	79
428.292	74
428.514	86
428.736	83
428.958	92
429.181	95
429.403	90
429.625	82
429.847	83
430.069	95
430.292	97
430.514	79
430.736	79
430.958	81
431.18	70
431.402	89
431.624	82
431.846	87
432.068	96
432.29	86
432.512	88
432.734	88
432.956	98
433.178	109
433.4	82
433.622	71
433.844	84
434.066	80
434.287	89
434.509	81
434.731	74
434.953	79
435.175	91
435.397	85
435.618	89
435.84	88
436.062	93
436.284	97
436.505	81
436.727	91
436.949	94
437.17	89
437.392	90
437.614	88
437.835	75
438.057	84
438.278	88
438.5	98
438.721	73
438.943	94
439.165	81
439.386	96
439.608	80
439.829	76
440.05	88
440.272	81
440.493	72
440.715	98
440.936	89
441.158	88
441.379	92
441.6	87
441.822	88
442.043	78
442.264	85
442.486	65
442.707	67
442.928	87
443.149	91
443.371	82
443.592	87
443.813	90
444.034	93
444.255	90
444.476	81
444.698	82
444.919	91
445.14	176
445.361	137
445.582	94
445.803	94
446.024	88
446.245	98
446.466	91
446.687	98
446.908	89
447.129	95
447.35	74
447.571	80
447.792	86
448.013	81
448.234	104
448.455	93
448.675	78
448.896	91
449.117	81
449.338	95
449.559	84
449.779	88
450	69
450.221	86
450.442	80
450.662	78
450.883	80
451.104	85
451.324	92
451.545	80
451.766	75
451.986	85
452.207	93
452.428	94
452.648	82
452.869	81
453.089	101
453.31	77
453.53	89
453.751	89
453.971	85
454.192	91
454.412	91
454.633	80
454.853	91
455.073	97
455.294	88
455.514	95
455.734	101
455.955	93
456.175	83
456.395	80
456.616	95
456.836	95
457.056	101
457.276	88
457.497	96
457.717	93
457.937	84
458.157	96
458.377	90
458.598	75
458.818	87
459.038	91
459.258	82
459.478	96
459.698	89
459.918	104
460.138	93
460.358	84
460.578	94
460.798	96
461.018	93
461.238	88
461.458	93
461.678	100
461.898	90
462.118	102
462.338	100
462.558	105
462.777	88
462.997	97
463.217	74
463.437	93
463.657	94
463.876	100
464.096	76
464.316	80
464.536	87
464.755	93
464.975	97
465.195	84
465.414	93
465.634	75
465.854	89
466.073	88
466.293	93
466.512	104
466.732	77
466.951	76
467.171	97
467.391	90
467.61	92
467.829	89
468.049	82
468.268	84
468.488	86
468.707	94
468.927	85
469.146	96
469.365	88
469.585	100
469.804	81
470.023	92
470.243	93
470.462	76
470.681	88
470.901	85
471.12	90
471.339	96
471.558	81
471.777	74
471.997	76
472.216	89
472.435	76
472.654	84
472.873	79
473.092	95
473.311	90
473.53	88
473.749	70
473.968	77
474.187	71
474.406	85
474.625	77
474.844	106
475.063	92
475.282	82
475.501	80
475.72	96
475.939	79
476.158	76
476.377	81
476.596	79
476.814	90
477.033	92
477.252	84
477.471	97
477.69	74
477.908	87
478.127	102
478.346	80
478.564	84
478.783	98
479.002	90
479.22	89
479.439	87
479.658	74
479.876	83
480.095	101
480.313	82
480.532	90
480.751	90
480.969	83
481.188	101
481.406	101
481.624	94
481.843	84
482.061	80
482.28	85
482.498	81
482.717	96
482.935	92
483.153	80
483.372	95
483.59	92
483.808	93
484.027	82
484.245	82
484.463	89
484.681	94
484.9	87
485.118	106
485.336	82
485.554	92
485.772	102
485.99	90
486.209	103
486.427	92
486.645	91
486.863	93
487.081	70
487.299	101
487.517	86
487.735	76
487.953	88
488.171	94
488.389	98
488.607	85
488.825	84
489.043	69
489.261	92
489.479	97
489.696	88
489.914	89
490.132	79
490.35	85
490.568	90
490.786	85
491.003	98
491.221	98
491.439	95
491.657	93
491.874	94
492.092	90
492.31	85
492.527	93
492.745	100
492.963	89
493.18	98
493.398	85
493.615	91
493.833	81
494.05	100
494.268	84
494.485	73
494.703	88
494.92	92
495.138	95
495.355	87
495.573	88
495.79	88
496.008	89
496.225	85
496.442	107
496.66	100
496.877	79
497.094	95
497.312	75
497.529	89
497.746	89
497.963	95
498.181	72
498.398	82
498.615	90
498.832	84
499.049	96
499.267	98
499.484	92
499.701	95
499.918	112
500.135	102
500.352	124
500.569	97
500.786	104
501.003	100
501.22	106
501.437	95
501.654	93
501.871	86
502.088	100
502.305	78
502.522	105
502.739	100
502.956	86
503.172	90
503.389	96
503.606	93
503.823	100
504.04	93
504.256	83
504.473	95
504.69	106
504.907	92
505.123	88
505.34	71
505.557	93
505.773	84
505.99	97
506.207	86
506.423	94
506.64	80
506.856	88
507.073	97
507.289	104
507.506	89
507.722	98
507.939	94
508.155	84
508.372	75
508.588	86
508.805	103
509.021	87
509.238	78
509.454	80
509.67	79
509.887	77
510.103	103
510.319	84
510.536	90
510.752	77
510.968	84
511.184	65
511.401	81
511.617	100
511.833	97
512.049	92
512.265	97
512.481	89
512.698	87
512.914	86
513.13	82
513.346	86
513.562	87
513.778	85
513.994	76
514.21	80
514.426	88
514.642	92
514.858	92
515.074	72
515.29	93
515.506	86
515.721	82
515.937	78
516.153	88
516.369	62
516.585	107
516.801	81
517.016	85
517.232	100
517.448	96
517.664	84
517.879	88
518.095	90
518.311	79
518.527	92
518.742	97
518.958	104
519.173	90
519.389	87
519.605	98
519.82	101
520.036	90
520.251	90
520.467	79
520.682	94
520.898	68
521.113	86
521.329	90
521.544	87
521.76	89
521.975	92
522.19	89
522.406	90
522.621	79
522.836	100
523.052	90
523.267	94
523.482	87
523.698	86
523.913	96
524.128	88
524.343	91
524.559	93
524.774	92
524.989	77
525.204	92
525.419	93
525.634	84
525.849	88
526.064	96
526.28	89
526.495	92
526.71	82
526.925	88
527.14	84
527.355	85
527.57	77
527.785	78
527.999	82
528.214	93
528.429	80
528.644	85
528.859	92
529.074	77
529.289	82
529.503	92
529.718	104
529.933	102
530.148	84
530.363	89
530.577	77
530.792	79
531.007	76
531.221	85
531.436	77
531.651	93
531.865	81
532.08	84
532.295	95
532.509	90
532.724	96
532.938	76
533.153	83
533.367	84
533.582	91
533.796	72
534.011	98
534.225	90
534.44	89
534.654	95
534.868	92
535.083	90
535.297	92
535.511	93
535.726	85
535.94	101
536.154	93
536.369	100
536.583	90
536.797	87
537.011	90
537.225	78
537.44	96
537.654	100
537.868	84
538.082	90
538.296	80
538.51	86
538.724	76
538.938	87
539.153	82
539.367	81
539.581	96
539.795	69
540.009	80
540.222	95
540.436	80
540.65	102
540.864	96
541.078	87
541.292	72
541.506	81
541.72	91
541.934	98
542.147	91
542.361	88
542.575	105
542.789	100
543.002	86
543.216	92
543.43	102
543.644	87
543.857	95
544.071	76
544.285	90
544.498	102
544.712	82
544.925	85
545.139	84
545.352	82
545.566	93
545.779	72
545.993	76
546.206	84
546.42	72
546.633	95
546.847	90
547.06	84
547.274	94
547.487	102
547.7	95
547.914	84
548.127	79
548.34	93
548.554	86
548.767	100
548.98	96
549.193	78
549.407	94
549.62	94
549.833	77
550.046	81
550.259	86
550.473	90
550.686	79
550.899	91
551.112	81
551.325	87
551.538	80
551.751	88
551.964	86
552.177	90
552.39	98
552.603	95
552.816	100
553.029	91
553.242	80
553.455	89
553.667	72
553.88	86
554.093	85
554.306	106
554.519	85
554.732	80
554.944	92
555.157	95
555.37	103
555.583	89
555.795	98
556.008	97
556.221	94
556.433	100
556.646	96
556.859	74
557.071	76
557.284	92
557.496	89
557.709	80
557.921	84
558.134	89
558.346	92
558.559	75
558.771	87
558.984	102
559.196	85
559.409	97
559.621	87
559.833	84
560.046	90
560.258	76
560.47	82
560.683	90
560.895	86
561.107	94
561.32	85
561.532	92
561.744	109
561.956	90
562.168	93
562.381	100
562.593	91
562.805	82
563.017	80
563.229	91
563.441	76
563.653	76
563.865	85
564.077	89
564.289	90
564.501	91
564.713	88
564.925	101
565.137	83
565.349	80
565.561	87
565.773	103
565.985	78
566.197	92
566.408	87
566.62	91
566.832	76
567.044	108
567.255	106
567.467	95
567.679	82
567.891	95
568.102	95
568.314	81
568.526	90
568.737	81
568.949	91
569.161	85
569.372	94
569.584	91
569.795	93
570.007	89
570.218	97
570.43	92
570.641	85
570.853	79
571.064	74
571.276	71
571.487	81
571.698	88
571.91	89
572.121	83
572.333	84
572.544	78
572.755	80
572.966	75
573.178	90
573.389	94
573.6	84
573.811	86
574.023	91
574.234	88
574.445	83
574.656	91
574.867	89
575.078	83
575.289	80
575.501	82
575.712	71
575.923	86
576.134	80
576.345	70
576.556	86
576.767	104
576.978	86
577.188	82
577.399	81
577.61	79
577.821	97
578.032	72
578.243	88
578.454	89
578.665	83
578.875	82
579.086	86
579.297	89
579.508	93
579.718	89
579.929	74
580.14	91
580.35	83
580.561	81
580.772	84
580.982	84
581.193	73
581.403	84
581.614	88
581.825	97
582.035	90
582.246	88
582.456	88
582.667	85
582.877	82
583.087	75
583.298	92
583.508	94
583.719	78
583.929	90
584.139	92
584.35	87
584.56	76
584.77	68
584.981	78
585.191	85
585.401	81
585.611	78
585.821	85
586.032	77
586.242	83
586.452	80
586.662	93
586.872	83
587.082	93
587.292	102
587.502	83
587.713	78
587.923	95
588.133	81
588.343	96
588.553	79
588.762	82
588.972	77
589.182	105
