Data from BG_HRD10591_036.txt Node
Date: Fri May 16 15:27:05 EDT 2025
User: Yrep
Spectrometer: HR+D1059
Trigger mode: 1
Integration Time (sec): 1.000000E-1
Scans to average: 1
Electric dark correction enabled: true
Nonlinearity correction enabled: false
Boxcar width: 0
XAxis mode: Wavelengths
Number of Pixels in Spectrum: 2048
>>>>>Begin Spectral Data<<<<<
223.165	-14.88
223.4	-14.88
223.635	-14.88
223.869	-8.88
224.104	-22.88
224.338	-14.88
224.573	-4.88
224.808	-15.88
225.042	-4.88
225.277	-16.88
225.511	2.12
225.746	6.12
225.98	15.12
226.215	17.12
226.449	8.12
226.683	8.12
226.918	21.12
227.152	26.12
227.387	33.12
227.621	39.12
227.856	59.12
228.09	31.12
228.324	32.12
228.559	43.12
228.793	53.12
229.027	58.12
229.262	67.12
229.496	55.12
229.73	69.12
229.964	76.12
230.199	72.12
230.433	74.12
230.667	73.12
230.901	71.12
231.136	69.12
231.37	75.12
231.604	87.12
231.838	83.12
232.072	95.12
232.306	93.12
232.541	82.12
232.775	84.12
233.009	79.12
233.243	91.12
233.477	83.12
233.711	83.12
233.945	84.12
234.179	76.12
234.413	64.12
234.647	86.12
234.881	73.12
235.115	61.12
235.349	59.12
235.583	74.12
235.817	79.12
236.051	91.12
236.285	91.12
236.519	87.12
236.753	89.12
236.987	74.12
237.221	79.12
237.455	83.12
237.689	67.12
237.922	68.12
238.156	71.12
238.39	78.12
238.624	78.12
238.858	81.12
239.091	75.12
239.325	61.12
239.559	68.12
239.793	81.12
240.027	92.12
240.26	76.12
240.494	78.12
240.728	74.12
240.961	80.12
241.195	74.12
241.429	71.12
241.662	74.12
241.896	74.12
242.13	80.12
242.363	71.12
242.597	77.12
242.83	69.12
243.064	84.12
243.298	73.12
243.531	77.12
243.765	82.12
243.998	88.12
244.232	68.12
244.465	87.12
244.699	77.12
244.932	66.12
245.166	70.12
245.399	79.12
245.633	65.12
245.866	85.12
246.099	78.12
246.333	92.12
246.566	84.12
246.8	73.12
247.033	79.12
247.266	75.12
247.5	86.12
247.733	86.12
247.966	85.12
248.2	71.12
248.433	65.12
248.666	76.12
248.899	86.12
249.133	73.12
249.366	79.12
249.599	76.12
249.832	78.12
250.066	84.12
250.299	87.12
250.532	72.12
250.765	80.12
250.998	80.12
251.231	74.12
251.465	79.12
251.698	75.12
251.931	81.12
252.164	81.12
252.397	78.12
252.63	85.12
252.863	76.12
253.096	82.12
253.329	79.12
253.562	83.12
253.795	89.12
254.028	84.12
254.261	72.12
254.494	82.12
254.727	83.12
254.96	81.12
255.193	82.12
255.426	85.12
255.659	83.12
255.892	78.12
256.124	84.12
256.357	80.12
256.59	73.12
256.823	81.12
257.056	77.12
257.289	94.12
257.521	94.12
257.754	83.12
257.987	75.12
258.22	65.12
258.452	90.12
258.685	85.12
258.918	85.12
259.151	91.12
259.383	87.12
259.616	59.12
259.849	63.12
260.081	85.12
260.314	83.12
260.547	61.12
260.779	72.12
261.012	78.12
261.244	88.12
261.477	94.12
261.71	84.12
261.942	72.12
262.175	73.12
262.407	71.12
262.64	75.12
262.872	87.12
263.105	96.12
263.337	81.12
263.57	79.12
263.802	84.12
264.035	82.12
264.267	99.12
264.499	84.12
264.732	85.12
264.964	92.12
265.197	82.12
265.429	79.12
265.661	82.12
265.894	78.12
266.126	93.12
266.358	75.12
266.591	88.12
266.823	75.12
267.055	88.12
267.287	92.12
267.52	84.12
267.752	86.12
267.984	79.12
268.216	86.12
268.448	85.12
268.681	83.12
268.913	79.12
269.145	95.12
269.377	83.12
269.609	73.12
269.841	95.12
270.073	89.12
270.306	72.12
270.538	75.12
270.77	73.12
271.002	78.12
271.234	82.12
271.466	86.12
271.698	72.12
271.93	91.12
272.162	79.12
272.394	90.12
272.626	85.12
272.858	71.12
273.09	78.12
273.322	89.12
273.553	93.12
273.785	75.12
274.017	98.12
274.249	89.12
274.481	77.12
274.713	77.12
274.945	94.12
275.176	77.12
275.408	95.12
275.64	91.12
275.872	83.12
276.104	88.12
276.335	93.12
276.567	78.12
276.799	87.12
277.031	81.12
277.262	79.12
277.494	97.12
277.726	88.12
277.957	89.12
278.189	84.12
278.421	77.12
278.652	79.12
278.884	80.12
279.115	81.12
279.347	89.12
279.579	80.12
279.81	87.12
280.042	77.12
280.273	81.12
280.505	87.12
280.736	77.12
280.968	96.12
281.199	91.12
281.431	79.12
281.662	94.12
281.894	91.12
282.125	99.12
282.356	83.12
282.588	88.12
282.819	78.12
283.051	78.12
283.282	85.12
283.513	102.12
283.745	93.12
283.976	101.12
284.207	77.12
284.439	89.12
284.67	94.12
284.901	92.12
285.132	87.12
285.364	89.12
285.595	65.12
285.826	84.12
286.057	80.12
286.288	84.12
286.52	95.12
286.751	90.12
286.982	76.12
287.213	82.12
287.444	86.12
287.675	80.12
287.906	88.12
288.138	78.12
288.369	71.12
288.6	93.12
288.831	68.12
289.062	82.12
289.293	84.12
289.524	70.12
289.755	87.12
289.986	96.12
290.217	87.12
290.448	79.12
290.679	86.12
290.91	95.12
291.141	87.12
291.371	98.12
291.602	86.12
291.833	86.12
292.064	90.12
292.295	77.12
292.526	79.12
292.757	95.12
292.987	93.12
293.218	102.12
293.449	90.12
293.68	85.12
293.91	93.12
294.141	79.12
294.372	99.12
294.603	89.12
294.833	90.12
295.064	74.12
295.295	71.12
295.525	90.12
295.756	85.12
295.987	94.12
296.217	98.12
296.448	86.12
296.679	88.12
296.909	78.12
297.14	74.12
297.37	95.12
297.601	91.12
297.831	95.12
298.062	89.12
298.292	101.12
298.523	86.12
298.753	89.12
298.984	85.12
299.214	97.12
299.445	81.12
299.675	87.12
299.905	95.12
300.136	101.12
300.366	89.12
300.597	95.12
300.827	87.12
301.057	94.12
301.288	90.12
301.518	82.12
301.748	96.12
301.979	93.12
302.209	80.12
302.439	86.12
302.669	78.12
302.9	85.12
303.13	87.12
303.36	85.12
303.59	84.12
303.82	106.12
304.051	87.12
304.281	87.12
304.511	82.12
304.741	98.12
304.971	97.12
305.201	99.12
305.431	89.12
305.661	86.12
305.891	94.12
306.121	89.12
306.352	78.12
306.582	75.12
306.812	100.12
307.042	85.12
307.272	89.12
307.502	107.12
307.731	105.12
307.961	98.12
308.191	92.12
308.421	109.12
308.651	76.12
308.881	82.12
309.111	91.12
309.341	98.12
309.571	91.12
309.8	75.12
310.03	80.12
310.26	74.12
310.49	93.12
310.72	88.12
310.949	89.12
311.179	96.12
311.409	90.12
311.639	87.12
311.868	91.12
312.098	85.12
312.328	94.12
312.557	86.12
312.787	85.12
313.017	97.12
313.246	85.12
313.476	88.12
313.706	80.12
313.935	92.12
314.165	116.12
314.394	80.12
314.624	81.12
314.853	94.12
315.083	98.12
315.312	97.12
315.542	94.12
315.771	88.12
316.001	89.12
316.23	79.12
316.46	105.12
316.689	86.12
316.919	90.12
317.148	92.12
317.377	89.12
317.607	89.12
317.836	86.12
318.065	96.12
318.295	95.12
318.524	98.12
318.753	109.12
318.983	92.12
319.212	84.12
319.441	93.12
319.67	85.12
319.9	90.12
320.129	81.12
320.358	84.12
320.587	80.12
320.816	85.12
321.046	97.12
321.275	88.12
321.504	94.12
321.733	66.12
321.962	87.12
322.191	66.12
322.42	68.12
322.649	86.12
322.878	95.12
323.108	77.12
323.337	96.12
323.566	106.12
323.795	74.12
324.024	80.12
324.253	84.12
324.482	83.12
324.71	84.12
324.939	87.12
325.168	89.12
325.397	101.12
325.626	81.12
325.855	78.12
326.084	89.12
326.313	78.12
326.542	95.12
326.77	97.12
326.999	80.12
327.228	78.12
327.457	78.12
327.686	96.12
327.914	87.12
328.143	87.12
328.372	107.12
328.6	70.12
328.829	73.12
329.058	85.12
329.287	82.12
329.515	86.12
329.744	81.12
329.972	86.12
330.201	101.12
330.43	97.12
330.658	88.12
330.887	89.12
331.115	95.12
331.344	90.12
331.572	90.12
331.801	82.12
332.03	90.12
332.258	89.12
332.486	79.12
332.715	94.12
332.943	92.12
333.172	88.12
333.4	83.12
333.629	79.12
333.857	83.12
334.085	90.12
334.314	83.12
334.542	84.12
334.771	101.12
334.999	77.12
335.227	89.12
335.455	94.12
335.684	77.12
335.912	95.12
336.14	82.12
336.369	91.12
336.597	89.12
336.825	90.12
337.053	86.12
337.281	80.12
337.51	75.12
337.738	87.12
337.966	88.12
338.194	83.12
338.422	88.12
338.65	91.12
338.878	107.12
339.106	83.12
339.334	95.12
339.562	80.12
339.79	84.12
340.018	82.12
340.246	96.12
340.474	83.12
340.702	93.12
340.93	95.12
341.158	87.12
341.386	86.12
341.614	94.12
341.842	78.12
342.07	85.12
342.298	90.12
342.526	92.12
342.754	91.12
342.981	97.12
343.209	81.12
343.437	99.12
343.665	87.12
343.893	86.12
344.12	93.12
344.348	94.12
344.576	91.12
344.804	91.12
345.031	80.12
345.259	87.12
345.487	83.12
345.714	78.12
345.942	76.12
346.17	94.12
346.397	90.12
346.625	78.12
346.853	93.12
347.08	82.12
347.308	87.12
347.535	85.12
347.763	103.12
347.99	89.12
348.218	102.12
348.445	85.12
348.673	97.12
348.9	91.12
349.128	91.12
349.355	78.12
349.583	98.12
349.81	86.12
350.037	90.12
350.265	89.12
350.492	83.12
350.72	82.12
350.947	92.12
351.174	98.12
351.402	84.12
351.629	85.12
351.856	91.12
352.083	83.12
352.311	91.12
352.538	96.12
352.765	85.12
352.992	96.12
353.22	86.12
353.447	78.12
353.674	82.12
353.901	93.12
354.128	85.12
354.355	82.12
354.583	85.12
354.81	82.12
355.037	102.12
355.264	99.12
355.491	96.12
355.718	81.12
355.945	83.12
356.172	87.12
356.399	95.12
356.626	87.12
356.853	79.12
357.08	91.12
357.307	94.12
357.534	81.12
357.761	81.12
357.988	90.12
358.215	82.12
358.441	96.12
358.668	75.12
358.895	79.12
359.122	90.12
359.349	86.12
359.576	88.12
359.802	93.12
360.029	92.12
360.256	83.12
360.483	85.12
360.709	89.12
360.936	96.12
361.163	81.12
361.39	89.12
361.616	81.12
361.843	90.12
362.07	94.12
362.296	78.12
362.523	88.12
362.749	84.12
362.976	88.12
363.203	101.12
363.429	95.12
363.656	90.12
363.882	83.12
364.109	99.12
364.335	75.12
364.562	73.12
364.788	95.12
365.015	93.12
365.241	97.12
365.468	103.12
365.694	85.12
365.92	92.12
366.147	87.12
366.373	98.12
366.599	81.12
366.826	76.12
367.052	88.12
367.278	91.12
367.505	101.12
367.731	86.12
367.957	80.12
368.184	83.12
368.41	87.12
368.636	87.12
368.862	77.12
369.089	89.12
369.315	78.12
369.541	76.12
369.767	81.12
369.993	85.12
370.219	80.12
370.445	72.12
370.672	86.12
370.898	85.12
371.124	101.12
371.35	92.12
371.576	96.12
371.802	78.12
372.028	82.12
372.254	96.12
372.48	72.12
372.706	108.12
372.932	88.12
373.158	84.12
373.384	91.12
373.61	82.12
373.835	86.12
374.061	88.12
374.287	90.12
374.513	85.12
374.739	86.12
374.965	79.12
375.191	89.12
375.416	92.12
375.642	88.12
375.868	95.12
376.094	93.12
376.319	78.12
376.545	76.12
376.771	89.12
376.997	71.12
377.222	87.12
377.448	91.12
377.674	73.12
377.899	84.12
378.125	88.12
378.35	99.12
378.576	94.12
378.802	89.12
379.027	91.12
379.253	92.12
379.478	82.12
379.704	87.12
379.929	88.12
380.155	82.12
380.38	79.12
380.606	87.12
380.831	90.12
381.057	95.12
381.282	91.12
381.507	86.12
381.733	97.12
381.958	86.12
382.184	91.12
382.409	79.12
382.634	89.12
382.86	94.12
383.085	78.12
383.31	83.12
383.535	93.12
383.761	99.12
383.986	95.12
384.211	79.12
384.436	85.12
384.662	91.12
384.887	92.12
385.112	89.12
385.337	74.12
385.562	91.12
385.787	82.12
386.013	87.12
386.238	76.12
386.463	98.12
386.688	115.12
386.913	96.12
387.138	85.12
387.363	94.12
387.588	88.12
387.813	93.12
388.038	96.12
388.263	80.12
388.488	83.12
388.713	81.12
388.938	74.12
389.163	85.12
389.387	87.12
389.612	87.12
389.837	86.12
390.062	78.12
390.287	89.12
390.512	83.12
390.736	83.12
390.961	74.12
391.186	90.12
391.411	85.12
391.636	91.12
391.86	82.12
392.085	94.12
392.31	95.12
392.534	90.12
392.759	91.12
392.984	82.12
393.208	80.12
393.433	87.12
393.658	86.12
393.882	90.12
394.107	85.12
394.331	77.12
394.556	87.12
394.78	83.12
395.005	82.12
395.229	94.12
395.454	95.12
395.678	74.12
395.903	103.12
396.127	95.12
396.352	101.12
396.576	91.12
396.801	80.12
397.025	96.12
397.249	97.12
397.474	82.12
397.698	98.12
397.922	91.12
398.147	83.12
398.371	85.12
398.595	95.12
398.82	85.12
399.044	85.12
399.268	99.12
399.492	97.12
399.717	104.12
399.941	97.12
400.165	93.12
400.389	88.12
400.613	96.12
400.837	80.12
401.062	82.12
401.286	102.12
401.51	105.12
401.734	80.12
401.958	89.12
402.182	93.12
402.406	82.12
402.63	85.12
402.854	81.12
403.078	83.12
403.302	79.12
403.526	89.12
403.75	95.12
403.974	95.12
404.198	72.12
404.422	96.12
404.645	74.12
404.869	95.12
405.093	86.12
405.317	91.12
405.541	86.12
405.765	94.12
405.988	96.12
406.212	92.12
406.436	90.12
406.66	80.12
406.883	87.12
407.107	92.12
407.331	92.12
407.555	95.12
407.778	78.12
408.002	106.12
408.226	88.12
408.449	83.12
408.673	83.12
408.896	101.12
409.12	75.12
409.344	83.12
409.567	99.12
409.791	94.12
410.014	86.12
410.238	93.12
410.461	74.12
410.685	88.12
410.908	89.12
411.132	95.12
411.355	77.12
411.578	85.12
411.802	91.12
412.025	92.12
412.249	97.12
412.472	99.12
412.695	98.12
412.919	92.12
413.142	96.12
413.365	95.12
413.589	95.12
413.812	103.12
414.035	106.12
414.258	90.12
414.482	78.12
414.705	97.12
414.928	92.12
415.151	88.12
415.374	102.12
415.597	92.12
415.821	93.12
416.044	98.12
416.267	93.12
416.49	77.12
416.713	77.12
416.936	76.12
417.159	102.12
417.382	95.12
417.605	79.12
417.828	94.12
418.051	88.12
418.274	90.12
418.497	102.12
418.72	92.12
418.943	91.12
419.166	79.12
419.389	95.12
419.611	102.12
419.834	91.12
420.057	85.12
420.28	87.12
420.503	89.12
420.726	73.12
420.948	87.12
421.171	90.12
421.394	94.12
421.617	89.12
421.839	75.12
422.062	92.12
422.285	73.12
422.507	93.12
422.73	85.12
422.953	90.12
423.175	83.12
423.398	88.12
423.621	85.12
423.843	85.12
424.066	92.12
424.288	96.12
424.511	81.12
424.733	86.12
424.956	102.12
425.178	104.12
425.401	85.12
425.623	82.12
425.846	97.12
426.068	89.12
426.291	88.12
426.513	89.12
426.735	89.12
426.958	86.12
427.18	95.12
427.402	88.12
427.625	88.12
427.847	87.12
428.069	94.12
428.292	78.12
428.514	94.12
428.736	91.12
428.958	82.12
429.181	76.12
429.403	100.12
429.625	93.12
429.847	93.12
430.069	94.12
430.292	96.12
430.514	90.12
430.736	89.12
430.958	83.12
431.18	80.12
431.402	82.12
431.624	85.12
431.846	90.12
432.068	92.12
432.29	98.12
432.512	84.12
432.734	80.12
432.956	95.12
433.178	80.12
433.4	74.12
433.622	88.12
433.844	69.12
434.066	98.12
434.287	80.12
434.509	77.12
434.731	85.12
434.953	87.12
435.175	90.12
435.397	95.12
435.618	110.12
435.84	91.12
436.062	85.12
436.284	81.12
436.505	91.12
436.727	89.12
436.949	75.12
437.17	68.12
437.392	62.12
437.614	82.12
437.835	97.12
438.057	85.12
438.278	81.12
438.5	92.12
438.721	86.12
438.943	103.12
439.165	91.12
439.386	77.12
439.608	78.12
439.829	73.12
440.05	88.12
440.272	78.12
440.493	82.12
440.715	82.12
440.936	78.12
441.158	81.12
441.379	77.12
441.6	92.12
441.822	111.12
442.043	91.12
442.264	90.12
442.486	78.12
442.707	76.12
442.928	86.12
443.149	89.12
443.371	89.12
443.592	81.12
443.813	87.12
444.034	82.12
444.255	86.12
444.476	72.12
444.698	82.12
444.919	83.12
445.14	162.12
445.361	123.12
445.582	86.12
445.803	82.12
446.024	89.12
446.245	94.12
446.466	92.12
446.687	94.12
446.908	83.12
447.129	91.12
447.35	97.12
447.571	80.12
447.792	64.12
448.013	89.12
448.234	81.12
448.455	88.12
448.675	87.12
448.896	104.12
449.117	77.12
449.338	75.12
449.559	91.12
449.779	95.12
450	80.12
450.221	80.12
450.442	81.12
450.662	102.12
450.883	95.12
451.104	95.12
451.324	82.12
451.545	80.12
451.766	82.12
451.986	86.12
452.207	85.12
452.428	87.12
452.648	88.12
452.869	99.12
453.089	79.12
453.31	78.12
453.53	85.12
453.751	85.12
453.971	79.12
454.192	88.12
454.412	91.12
454.633	90.12
454.853	89.12
455.073	78.12
455.294	87.12
455.514	82.12
455.734	82.12
455.955	81.12
456.175	92.12
456.395	78.12
456.616	92.12
456.836	82.12
457.056	83.12
457.276	80.12
457.497	86.12
457.717	85.12
457.937	90.12
458.157	87.12
458.377	90.12
458.598	91.12
458.818	82.12
459.038	87.12
459.258	83.12
459.478	75.12
459.698	82.12
459.918	74.12
460.138	71.12
460.358	106.12
460.578	75.12
460.798	91.12
461.018	104.12
461.238	95.12
461.458	94.12
461.678	82.12
461.898	91.12
462.118	91.12
462.338	91.12
462.558	88.12
462.777	92.12
462.997	87.12
463.217	88.12
463.437	98.12
463.657	86.12
463.876	96.12
464.096	86.12
464.316	90.12
464.536	86.12
464.755	90.12
464.975	92.12
465.195	98.12
465.414	84.12
465.634	91.12
465.854	91.12
466.073	74.12
466.293	77.12
466.512	88.12
466.732	77.12
466.951	67.12
467.171	93.12
467.391	80.12
467.61	88.12
467.829	97.12
468.049	66.12
468.268	90.12
468.488	85.12
468.707	98.12
468.927	88.12
469.146	80.12
469.365	85.12
469.585	85.12
469.804	72.12
470.023	84.12
470.243	95.12
470.462	75.12
470.681	87.12
470.901	73.12
471.12	77.12
471.339	82.12
471.558	94.12
471.777	82.12
471.997	97.12
472.216	76.12
472.435	81.12
472.654	84.12
472.873	82.12
473.092	88.12
473.311	98.12
473.53	86.12
473.749	79.12
473.968	108.12
474.187	87.12
474.406	81.12
474.625	81.12
474.844	78.12
475.063	72.12
475.282	65.12
475.501	73.12
475.72	79.12
475.939	105.12
476.158	90.12
476.377	87.12
476.596	76.12
476.814	90.12
477.033	80.12
477.252	73.12
477.471	96.12
477.69	96.12
477.908	82.12
478.127	81.12
478.346	83.12
478.564	82.12
478.783	91.12
479.002	67.12
479.22	82.12
479.439	82.12
479.658	76.12
479.876	82.12
480.095	84.12
480.313	90.12
480.532	86.12
480.751	96.12
480.969	88.12
481.188	94.12
481.406	92.12
481.624	80.12
481.843	91.12
482.061	88.12
482.28	95.12
482.498	86.12
482.717	93.12
482.935	93.12
483.153	92.12
483.372	110.12
483.59	96.12
483.808	82.12
484.027	77.12
484.245	82.12
484.463	98.12
484.681	92.12
484.9	81.12
485.118	86.12
485.336	87.12
485.554	79.12
485.772	85.12
485.99	77.12
486.209	89.12
486.427	89.12
486.645	97.12
486.863	112.12
487.081	83.12
487.299	91.12
487.517	85.12
487.735	77.12
487.953	103.12
488.171	94.12
488.389	81.12
488.607	89.12
488.825	92.12
489.043	85.12
489.261	102.12
489.479	86.12
489.696	88.12
489.914	94.12
490.132	93.12
490.35	85.12
490.568	96.12
490.786	86.12
491.003	79.12
491.221	83.12
491.439	93.12
491.657	89.12
491.874	88.12
492.092	95.12
492.31	93.12
492.527	90.12
492.745	87.12
492.963	90.12
493.18	91.12
493.398	82.12
493.615	94.12
493.833	82.12
494.05	87.12
494.268	81.12
494.485	81.12
494.703	87.12
494.92	86.12
495.138	100.12
495.355	93.12
495.573	84.12
495.79	83.12
496.008	90.12
496.225	89.12
496.442	97.12
496.66	89.12
496.877	86.12
497.094	94.12
497.312	84.12
497.529	87.12
497.746	88.12
497.963	82.12
498.181	76.12
498.398	92.12
498.615	91.12
498.832	87.12
499.049	92.12
499.267	91.12
499.484	101.12
499.701	91.12
499.918	104.12
500.135	107.12
500.352	109.12
500.569	96.12
500.786	94.12
501.003	111.12
501.22	110.12
501.437	105.12
501.654	85.12
501.871	103.12
502.088	88.12
502.305	94.12
502.522	87.12
502.739	98.12
502.956	101.12
503.172	98.12
503.389	89.12
503.606	84.12
503.823	87.12
504.04	91.12
504.256	90.12
504.473	84.12
504.69	88.12
504.907	91.12
505.123	96.12
505.34	91.12
505.557	92.12
505.773	91.12
505.99	91.12
506.207	91.12
506.423	85.12
506.64	88.12
506.856	76.12
507.073	96.12
507.289	87.12
507.506	73.12
507.722	83.12
507.939	91.12
508.155	98.12
508.372	105.12
508.588	93.12
508.805	94.12
509.021	91.12
509.238	81.12
509.454	92.12
509.67	90.12
509.887	77.12
510.103	75.12
510.319	85.12
510.536	91.12
510.752	80.12
510.968	76.12
511.184	97.12
511.401	92.12
511.617	94.12
511.833	73.12
512.049	83.12
512.265	83.12
512.481	82.12
512.698	89.12
512.914	92.12
513.13	85.12
513.346	85.12
513.562	90.12
513.778	85.12
513.994	88.12
514.21	100.12
514.426	89.12
514.642	91.12
514.858	110.12
515.074	73.12
515.29	89.12
515.506	89.12
515.721	95.12
515.937	89.12
516.153	80.12
516.369	96.12
516.585	85.12
516.801	99.12
517.016	101.12
517.232	80.12
517.448	105.12
517.664	91.12
517.879	76.12
518.095	91.12
518.311	95.12
518.527	85.12
518.742	88.12
518.958	93.12
519.173	86.12
519.389	91.12
