Data from BG_HRD10591_100.txt Node
Date: Fri May 16 15:27:37 EDT 2025
User: Yrep
Spectrometer: HR+D1059
Trigger mode: 1
Integration Time (sec): 1.000000E-1
Scans to average: 1
Electric dark correction enabled: true
Nonlinearity correction enabled: false
Boxcar width: 0
XAxis mode: Wavelengths
Number of Pixels in Spectrum: 2048
>>>>>Begin Spectral Data<<<<<
223.165	-17.75
223.4	-17.75
223.635	-17.75
223.869	-21.75
224.104	-21.75
224.338	-0.75
224.573	-20.75
224.808	-19.75
225.042	-12.75
225.277	6.25
225.511	1.25
225.746	12.25
225.98	-1.75
226.215	19.25
226.449	12.25
226.683	17.25
226.918	26.25
227.152	22.25
227.387	22.25
227.621	36.25
227.856	47.25
228.09	43.25
228.324	60.25
228.559	72.25
228.793	54.25
229.027	64.25
229.262	69.25
229.496	74.25
229.73	58.25
229.964	70.25
230.199	56.25
230.433	82.25
230.667	83.25
230.901	66.25
231.136	90.25
231.37	93.25
231.604	74.25
231.838	69.25
232.072	75.25
232.306	75.25
232.541	87.25
232.775	94.25
233.009	80.25
233.243	92.25
233.477	88.25
233.711	80.25
233.945	80.25
234.179	80.25
234.413	73.25
234.647	72.25
234.881	99.25
235.115	82.25
235.349	71.25
235.583	76.25
235.817	70.25
236.051	86.25
236.285	80.25
236.519	83.25
236.753	83.25
236.987	68.25
237.221	90.25
237.455	70.25
237.689	86.25
237.922	78.25
238.156	66.25
238.39	77.25
238.624	71.25
238.858	68.25
239.091	85.25
239.325	82.25
239.559	85.25
239.793	81.25
240.027	74.25
240.26	84.25
240.494	79.25
240.728	75.25
240.961	77.25
241.195	83.25
241.429	87.25
241.662	70.25
241.896	88.25
242.13	76.25
242.363	64.25
242.597	78.25
242.83	80.25
243.064	68.25
243.298	85.25
243.531	72.25
243.765	72.25
243.998	91.25
244.232	90.25
244.465	71.25
244.699	67.25
244.932	70.25
245.166	74.25
245.399	86.25
245.633	93.25
245.866	79.25
246.099	74.25
246.333	80.25
246.566	83.25
246.8	74.25
247.033	71.25
247.266	67.25
247.5	79.25
247.733	73.25
247.966	74.25
248.2	67.25
248.433	80.25
248.666	70.25
248.899	73.25
249.133	83.25
249.366	89.25
249.599	91.25
249.832	78.25
250.066	79.25
250.299	79.25
250.532	89.25
250.765	83.25
250.998	95.25
251.231	84.25
251.465	91.25
251.698	84.25
251.931	99.25
252.164	74.25
252.397	82.25
252.63	81.25
252.863	80.25
253.096	77.25
253.329	91.25
253.562	85.25
253.795	84.25
254.028	81.25
254.261	60.25
254.494	74.25
254.727	93.25
254.96	79.25
255.193	82.25
255.426	76.25
255.659	84.25
255.892	80.25
256.124	87.25
256.357	78.25
256.59	72.25
256.823	75.25
257.056	69.25
257.289	66.25
257.521	77.25
257.754	86.25
257.987	86.25
258.22	92.25
258.452	75.25
258.685	79.25
258.918	82.25
259.151	75.25
259.383	78.25
259.616	66.25
259.849	97.25
260.081	87.25
260.314	75.25
260.547	62.25
260.779	76.25
261.012	89.25
261.244	75.25
261.477	80.25
261.71	80.25
261.942	82.25
262.175	97.25
262.407	87.25
262.64	83.25
262.872	89.25
263.105	88.25
263.337	88.25
263.57	76.25
263.802	81.25
264.035	86.25
264.267	80.25
264.499	98.25
264.732	66.25
264.964	77.25
265.197	100.25
265.429	75.25
265.661	73.25
265.894	75.25
266.126	88.25
266.358	78.25
266.591	87.25
266.823	74.25
267.055	84.25
267.287	104.25
267.52	85.25
267.752	93.25
267.984	90.25
268.216	79.25
268.448	65.25
268.681	85.25
268.913	96.25
269.145	70.25
269.377	72.25
269.609	94.25
269.841	91.25
270.073	89.25
270.306	88.25
270.538	90.25
270.77	80.25
271.002	76.25
271.234	79.25
271.466	79.25
271.698	83.25
271.93	78.25
272.162	94.25
272.394	84.25
272.626	79.25
272.858	80.25
273.09	85.25
273.322	103.25
273.553	86.25
273.785	69.25
274.017	82.25
274.249	90.25
274.481	79.25
274.713	67.25
274.945	88.25
275.176	79.25
275.408	93.25
275.64	74.25
275.872	84.25
276.104	87.25
276.335	74.25
276.567	78.25
276.799	81.25
277.031	91.25
277.262	78.25
277.494	73.25
277.726	84.25
277.957	92.25
278.189	93.25
278.421	91.25
278.652	91.25
278.884	72.25
279.115	90.25
279.347	86.25
279.579	84.25
279.81	82.25
280.042	93.25
280.273	78.25
280.505	85.25
280.736	89.25
280.968	90.25
281.199	79.25
281.431	83.25
281.662	94.25
281.894	82.25
282.125	84.25
282.356	91.25
282.588	96.25
282.819	78.25
283.051	79.25
283.282	88.25
283.513	84.25
283.745	81.25
283.976	83.25
284.207	79.25
284.439	80.25
284.67	83.25
284.901	72.25
285.132	86.25
285.364	79.25
285.595	84.25
285.826	79.25
286.057	90.25
286.288	70.25
286.52	84.25
286.751	99.25
286.982	77.25
287.213	74.25
287.444	87.25
287.675	94.25
287.906	83.25
288.138	78.25
288.369	73.25
288.6	82.25
288.831	91.25
289.062	80.25
289.293	85.25
289.524	78.25
289.755	98.25
289.986	83.25
290.217	87.25
290.448	80.25
290.679	67.25
290.91	87.25
291.141	80.25
291.371	88.25
291.602	83.25
291.833	92.25
292.064	84.25
292.295	87.25
292.526	93.25
292.757	90.25
292.987	89.25
293.218	94.25
293.449	78.25
293.68	74.25
293.91	88.25
294.141	85.25
294.372	83.25
294.603	86.25
294.833	76.25
295.064	81.25
295.295	87.25
295.525	87.25
295.756	88.25
295.987	80.25
296.217	73.25
296.448	90.25
296.679	82.25
296.909	88.25
297.14	88.25
297.37	102.25
297.601	84.25
297.831	74.25
298.062	83.25
298.292	96.25
298.523	87.25
298.753	74.25
298.984	83.25
299.214	79.25
299.445	85.25
299.675	93.25
299.905	90.25
300.136	74.25
300.366	67.25
300.597	59.25
300.827	88.25
301.057	86.25
301.288	91.25
301.518	76.25
301.748	85.25
301.979	92.25
302.209	105.25
302.439	88.25
302.669	86.25
302.9	83.25
303.13	67.25
303.36	81.25
303.59	101.25
303.82	84.25
304.051	102.25
304.281	78.25
304.511	83.25
304.741	106.25
304.971	62.25
305.201	92.25
305.431	90.25
305.661	82.25
305.891	62.25
306.121	78.25
306.352	84.25
306.582	90.25
306.812	94.25
307.042	74.25
307.272	89.25
307.502	83.25
307.731	88.25
307.961	90.25
308.191	70.25
308.421	81.25
308.651	78.25
308.881	91.25
309.111	76.25
309.341	89.25
309.571	97.25
309.8	91.25
310.03	88.25
310.26	74.25
310.49	81.25
310.72	89.25
310.949	89.25
311.179	87.25
311.409	75.25
311.639	77.25
311.868	76.25
312.098	89.25
312.328	93.25
312.557	92.25
312.787	79.25
313.017	86.25
313.246	87.25
313.476	76.25
313.706	72.25
313.935	84.25
314.165	81.25
314.394	87.25
314.624	91.25
314.853	88.25
315.083	81.25
315.312	76.25
315.542	89.25
315.771	76.25
316.001	83.25
316.23	80.25
316.46	77.25
316.689	94.25
316.919	92.25
317.148	89.25
317.377	91.25
317.607	103.25
317.836	90.25
318.065	86.25
318.295	89.25
318.524	78.25
318.753	97.25
318.983	94.25
319.212	82.25
319.441	89.25
319.67	90.25
319.9	74.25
320.129	87.25
320.358	88.25
320.587	75.25
320.816	86.25
321.046	82.25
321.275	80.25
321.504	94.25
321.733	84.25
321.962	77.25
322.191	80.25
322.42	85.25
322.649	86.25
322.878	90.25
323.108	82.25
323.337	76.25
323.566	95.25
323.795	86.25
324.024	90.25
324.253	89.25
324.482	83.25
324.71	79.25
324.939	77.25
325.168	80.25
325.397	78.25
325.626	91.25
325.855	90.25
326.084	89.25
326.313	84.25
326.542	73.25
326.77	81.25
326.999	84.25
327.228	76.25
327.457	82.25
327.686	80.25
327.914	74.25
328.143	96.25
328.372	86.25
328.6	82.25
328.829	80.25
329.058	72.25
329.287	73.25
329.515	83.25
329.744	88.25
329.972	86.25
330.201	94.25
330.43	76.25
330.658	91.25
330.887	83.25
331.115	97.25
331.344	83.25
331.572	83.25
331.801	98.25
332.03	82.25
332.258	88.25
332.486	91.25
332.715	69.25
332.943	80.25
333.172	86.25
333.4	97.25
333.629	80.25
333.857	93.25
334.085	95.25
334.314	80.25
334.542	92.25
334.771	91.25
334.999	71.25
335.227	79.25
335.455	90.25
335.684	94.25
335.912	95.25
336.14	74.25
336.369	91.25
336.597	84.25
336.825	84.25
337.053	84.25
337.281	88.25
337.51	94.25
337.738	89.25
337.966	78.25
338.194	80.25
338.422	69.25
338.65	71.25
338.878	84.25
339.106	81.25
339.334	84.25
339.562	87.25
339.79	95.25
340.018	84.25
340.246	94.25
340.474	78.25
340.702	81.25
340.93	90.25
341.158	66.25
341.386	75.25
341.614	67.25
341.842	81.25
342.07	80.25
342.298	81.25
342.526	96.25
342.754	85.25
342.981	84.25
343.209	81.25
343.437	86.25
343.665	77.25
343.893	93.25
344.12	89.25
344.348	81.25
344.576	91.25
344.804	91.25
345.031	82.25
345.259	86.25
345.487	88.25
345.714	81.25
345.942	79.25
346.17	82.25
346.397	74.25
346.625	94.25
346.853	84.25
347.08	79.25
347.308	73.25
347.535	81.25
347.763	87.25
347.99	103.25
348.218	93.25
348.445	74.25
348.673	74.25
348.9	76.25
349.128	90.25
349.355	91.25
349.583	94.25
349.81	87.25
350.037	74.25
350.265	86.25
350.492	76.25
350.72	87.25
350.947	76.25
351.174	102.25
351.402	74.25
351.629	77.25
351.856	84.25
352.083	72.25
352.311	87.25
352.538	90.25
352.765	86.25
352.992	94.25
353.22	92.25
353.447	77.25
353.674	92.25
353.901	77.25
354.128	93.25
354.355	76.25
354.583	70.25
354.81	90.25
355.037	86.25
355.264	82.25
355.491	71.25
355.718	77.25
355.945	81.25
356.172	78.25
356.399	68.25
356.626	82.25
356.853	88.25
357.08	95.25
357.307	81.25
357.534	75.25
357.761	93.25
357.988	81.25
358.215	81.25
358.441	74.25
358.668	78.25
358.895	91.25
359.122	78.25
359.349	72.25
359.576	78.25
359.802	67.25
360.029	84.25
360.256	96.25
360.483	82.25
360.709	78.25
360.936	79.25
361.163	75.25
361.39	90.25
361.616	86.25
361.843	72.25
362.07	76.25
362.296	92.25
362.523	93.25
362.749	82.25
362.976	78.25
363.203	76.25
363.429	77.25
363.656	85.25
363.882	81.25
364.109	84.25
364.335	75.25
364.562	78.25
364.788	85.25
365.015	94.25
365.241	86.25
365.468	83.25
365.694	76.25
365.92	85.25
366.147	90.25
366.373	90.25
366.599	82.25
366.826	88.25
367.052	104.25
367.278	93.25
367.505	103.25
367.731	102.25
367.957	81.25
368.184	82.25
368.41	86.25
368.636	76.25
368.862	86.25
369.089	72.25
369.315	82.25
369.541	87.25
369.767	76.25
369.993	67.25
370.219	84.25
370.445	78.25
370.672	75.25
370.898	84.25
371.124	86.25
371.35	79.25
371.576	96.25
371.802	71.25
372.028	82.25
372.254	89.25
372.48	86.25
372.706	77.25
372.932	73.25
373.158	89.25
373.384	73.25
373.61	88.25
373.835	68.25
374.061	79.25
374.287	78.25
374.513	66.25
374.739	83.25
374.965	86.25
375.191	91.25
375.416	83.25
375.642	66.25
375.868	86.25
376.094	62.25
376.319	78.25
376.545	88.25
376.771	76.25
376.997	89.25
377.222	80.25
377.448	74.25
377.674	97.25
377.899	100.25
378.125	84.25
378.35	72.25
378.576	83.25
378.802	76.25
379.027	89.25
379.253	85.25
379.478	85.25
379.704	87.25
379.929	81.25
380.155	88.25
380.38	90.25
380.606	91.25
380.831	78.25
381.057	92.25
381.282	75.25
381.507	87.25
381.733	72.25
381.958	81.25
382.184	81.25
382.409	79.25
382.634	87.25
382.86	89.25
383.085	84.25
383.31	73.25
383.535	81.25
383.761	69.25
383.986	72.25
384.211	81.25
384.436	80.25
384.662	86.25
384.887	78.25
385.112	65.25
385.337	84.25
385.562	75.25
385.787	86.25
386.013	80.25
386.238	90.25
386.463	79.25
386.688	98.25
386.913	76.25
387.138	90.25
387.363	84.25
387.588	70.25
387.813	81.25
388.038	76.25
388.263	85.25
388.488	84.25
388.713	73.25
388.938	83.25
389.163	67.25
389.387	81.25
389.612	88.25
389.837	88.25
390.062	90.25
390.287	89.25
390.512	89.25
390.736	81.25
390.961	84.25
391.186	74.25
391.411	77.25
391.636	78.25
391.86	68.25
392.085	77.25
392.31	84.25
392.534	81.25
392.759	91.25
392.984	97.25
393.208	79.25
393.433	95.25
393.658	79.25
393.882	80.25
394.107	76.25
394.331	88.25
394.556	89.25
394.78	73.25
395.005	74.25
395.229	86.25
395.454	78.25
395.678	74.25
395.903	80.25
396.127	90.25
396.352	76.25
396.576	71.25
396.801	92.25
397.025	75.25
397.249	67.25
397.474	71.25
397.698	76.25
397.922	71.25
398.147	91.25
398.371	83.25
398.595	88.25
398.82	93.25
399.044	92.25
399.268	75.25
399.492	63.25
399.717	63.25
399.941	75.25
400.165	80.25
400.389	80.25
400.613	78.25
400.837	88.25
401.062	88.25
401.286	80.25
401.51	81.25
401.734	73.25
401.958	89.25
402.182	75.25
402.406	77.25
402.63	70.25
402.854	65.25
403.078	76.25
403.302	82.25
403.526	78.25
403.75	73.25
403.974	91.25
404.198	93.25
404.422	85.25
404.645	78.25
404.869	81.25
405.093	66.25
405.317	61.25
405.541	74.25
405.765	86.25
405.988	86.25
406.212	87.25
406.436	79.25
406.66	86.25
406.883	88.25
407.107	82.25
407.331	78.25
407.555	74.25
407.778	86.25
408.002	74.25
408.226	82.25
408.449	77.25
408.673	88.25
408.896	78.25
409.12	76.25
409.344	86.25
409.567	73.25
409.791	77.25
410.014	76.25
410.238	91.25
410.461	86.25
410.685	68.25
410.908	96.25
411.132	75.25
411.355	88.25
411.578	88.25
411.802	69.25
412.025	76.25
412.249	80.25
412.472	63.25
412.695	82.25
412.919	86.25
413.142	81.25
413.365	74.25
413.589	76.25
413.812	71.25
414.035	90.25
414.258	82.25
414.482	77.25
414.705	97.25
414.928	93.25
415.151	87.25
415.374	86.25
415.597	88.25
415.821	74.25
416.044	78.25
416.267	81.25
416.49	85.25
416.713	85.25
416.936	88.25
417.159	79.25
417.382	79.25
417.605	84.25
417.828	76.25
418.051	87.25
418.274	79.25
418.497	73.25
418.72	84.25
418.943	78.25
419.166	75.25
419.389	81.25
419.611	66.25
419.834	85.25
420.057	83.25
420.28	80.25
420.503	76.25
420.726	81.25
420.948	91.25
421.171	74.25
421.394	89.25
421.617	83.25
421.839	84.25
422.062	83.25
422.285	87.25
422.507	76.25
422.73	79.25
422.953	77.25
423.175	91.25
423.398	91.25
423.621	90.25
423.843	87.25
424.066	80.25
424.288	92.25
424.511	76.25
424.733	80.25
424.956	77.25
425.178	83.25
425.401	73.25
425.623	67.25
425.846	84.25
426.068	84.25
426.291	87.25
426.513	67.25
426.735	75.25
426.958	86.25
427.18	83.25
427.402	60.25
427.625	62.25
427.847	84.25
428.069	96.25
428.292	91.25
428.514	93.25
428.736	70.25
428.958	83.25
429.181	87.25
429.403	87.25
429.625	87.25
429.847	82.25
430.069	78.25
430.292	80.25
430.514	94.25
430.736	90.25
430.958	80.25
431.18	83.25
431.402	56.25
431.624	86.25
431.846	81.25
432.068	90.25
432.29	83.25
432.512	83.25
432.734	80.25
432.956	74.25
433.178	75.25
433.4	89.25
433.622	86.25
433.844	84.25
434.066	70.25
434.287	77.25
434.509	82.25
434.731	82.25
434.953	79.25
435.175	73.25
435.397	81.25
435.618	81.25
435.84	83.25
436.062	72.25
436.284	71.25
436.505	74.25
436.727	76.25
436.949	76.25
437.17	89.25
437.392	88.25
437.614	84.25
437.835	78.25
438.057	79.25
438.278	79.25
438.5	88.25
438.721	84.25
438.943	94.25
439.165	79.25
439.386	95.25
439.608	77.25
439.829	74.25
440.05	84.25
440.272	62.25
440.493	90.25
440.715	81.25
440.936	86.25
441.158	83.25
441.379	80.25
441.6	78.25
441.822	79.25
442.043	90.25
442.264	73.25
442.486	80.25
442.707	80.25
442.928	82.25
443.149	84.25
443.371	74.25
443.592	70.25
443.813	96.25
444.034	83.25
444.255	77.25
444.476	62.25
444.698	76.25
444.919	78.25
445.14	149.25
445.361	122.25
445.582	74.25
445.803	82.25
446.024	80.25
446.245	76.25
446.466	92.25
446.687	77.25
446.908	92.25
447.129	84.25
447.35	66.25
447.571	78.25
447.792	82.25
448.013	67.25
448.234	79.25
448.455	87.25
448.675	78.25
448.896	72.25
449.117	73.25
449.338	71.25
449.559	80.25
449.779	96.25
450	86.25
450.221	82.25
450.442	70.25
450.662	90.25
450.883	86.25
451.104	81.25
451.324	83.25
451.545	73.25
451.766	80.25
451.986	93.25
452.207	97.25
452.428	98.25
452.648	69.25
452.869	79.25
453.089	86.25
453.31	79.25
453.53	83.25
453.751	86.25
453.971	75.25
454.192	83.25
454.412	75.25
454.633	80.25
454.853	78.25
455.073	82.25
455.294	77.25
455.514	90.25
455.734	89.25
455.955	80.25
456.175	82.25
456.395	88.25
456.616	83.25
456.836	83.25
457.056	84.25
457.276	76.25
457.497	70.25
457.717	92.25
457.937	77.25
458.157	67.25
458.377	90.25
458.598	83.25
458.818	72.25
459.038	62.25
459.258	84.25
459.478	98.25
459.698	81.25
459.918	89.25
460.138	89.25
460.358	98.25
460.578	69.25
460.798	76.25
461.018	78.25
461.238	72.25
461.458	72.25
461.678	102.25
461.898	66.25
462.118	80.25
462.338	87.25
462.558	99.25
462.777	86.25
462.997	82.25
463.217	75.25
463.437	71.25
463.657	83.25
463.876	82.25
464.096	64.25
464.316	74.25
464.536	83.25
464.755	85.25
464.975	74.25
465.195	92.25
465.414	90.25
465.634	87.25
465.854	72.25
466.073	78.25
466.293	90.25
466.512	77.25
466.732	87.25
466.951	81.25
467.171	80.25
467.391	77.25
467.61	97.25
467.829	92.25
468.049	77.25
468.268	82.25
468.488	79.25
468.707	84.25
468.927	87.25
469.146	70.25
469.365	74.25
469.585	79.25
469.804	77.25
470.023	78.25
470.243	86.25
470.462	96.25
470.681	80.25
470.901	64.25
471.12	83.25
471.339	89.25
471.558	89.25
471.777	88.25
471.997	92.25
472.216	65.25
472.435	75.25
472.654	62.25
472.873	98.25
473.092	67.25
473.311	73.25
473.53	79.25
473.749	89.25
473.968	94.25
474.187	78.25
474.406	86.25
474.625	82.25
474.844	90.25
475.063	86.25
475.282	75.25
475.501	57.25
475.72	104.25
475.939	95.25
476.158	73.25
476.377	86.25
476.596	80.25
476.814	91.25
477.033	83.25
477.252	73.25
477.471	84.25
477.69	78.25
477.908	65.25
478.127	89.25
478.346	65.25
478.564	95.25
478.783	80.25
479.002	88.25
479.22	90.25
479.439	92.25
479.658	66.25
479.876	80.25
480.095	93.25
480.313	90.25
480.532	79.25
480.751	80.25
480.969	94.25
481.188	95.25
481.406	85.25
481.624	86.25
481.843	81.25
482.061	80.25
482.28	83.25
482.498	67.25
482.717	72.25
482.935	90.25
483.153	89.25
483.372	88.25
483.59	89.25
483.808	82.25
484.027	94.25
484.245	90.25
484.463	82.25
484.681	89.25
484.9	84.25
485.118	91.25
485.336	90.25
485.554	100.25
485.772	84.25
485.99	75.25
486.209	91.25
486.427	68.25
486.645	89.25
486.863	80.25
487.081	85.25
487.299	84.25
487.517	74.25
487.735	62.25
487.953	82.25
488.171	86.25
488.389	75.25
488.607	77.25
488.825	85.25
489.043	102.25
489.261	84.25
489.479	89.25
489.696	70.25
489.914	78.25
490.132	72.25
490.35	66.25
490.568	72.25
490.786	82.25
491.003	87.25
491.221	71.25
491.439	93.25
491.657	88.25
491.874	93.25
492.092	76.25
492.31	74.25
492.527	89.25
492.745	73.25
492.963	86.25
493.18	86.25
493.398	92.25
493.615	60.25
493.833	90.25
494.05	82.25
494.268	94.25
494.485	86.25
494.703	89.25
494.92	83.25
495.138	81.25
495.355	81.25
495.573	80.25
495.79	78.25
496.008	78.25
496.225	95.25
496.442	89.25
496.66	96.25
496.877	87.25
497.094	84.25
497.312	93.25
497.529	82.25
497.746	67.25
497.963	79.25
498.181	72.25
498.398	88.25
498.615	91.25
498.832	86.25
499.049	79.25
499.267	79.25
499.484	91.25
499.701	72.25
499.918	81.25
500.135	79.25
500.352	87.25
500.569	88.25
500.786	87.25
501.003	77.25
501.22	96.25
501.437	92.25
501.654	70.25
501.871	69.25
502.088	84.25
502.305	88.25
502.522	91.25
502.739	86.25
502.956	70.25
503.172	91.25
503.389	80.25
503.606	90.25
503.823	93.25
504.04	76.25
504.256	79.25
504.473	86.25
504.69	80.25
504.907	96.25
505.123	94.25
505.34	97.25
505.557	94.25
505.773	82.25
505.99	79.25
506.207	90.25
506.423	86.25
506.64	74.25
506.856	72.25
507.073	86.25
507.289	77.25
507.506	58.25
507.722	102.25
507.939	89.25
508.155	88.25
508.372	96.25
508.588	94.25
508.805	82.25
509.021	82.25
509.238	80.25
509.454	82.25
509.67	70.25
509.887	76.25
510.103	79.25
510.319	80.25
510.536	87.25
510.752	82.25
510.968	83.25
511.184	93.25
511.401	82.25
511.617	88.25
511.833	87.25
512.049	87.25
512.265	87.25
512.481	80.25
512.698	74.25
512.914	88.25
513.13	84.25
513.346	74.25
513.562	84.25
513.778	81.25
513.994	80.25
514.21	80.25
514.426	96.25
514.642	71.25
514.858	86.25
515.074	90.25
515.29	67.25
515.506	83.25
515.721	84.25
515.937	102.25
516.153	98.25
516.369	87.25
516.585	75.25
516.801	88.25
517.016	81.25
517.232	66.25
517.448	85.25
517.664	94.25
517.879	87.25
518.095	82.25
518.311	89.25
518.527	78.25
518.742	89.25
518.958	94.25
519.173	86.25
519.389	86.25
519.605	80.25
519.82	83.25
520.036	78.25
