Data from BG_HRD10591_005.txt Node
Date: Fri May 16 15:26:49 EDT 2025
User: Yrep
Spectrometer: HR+D1059
Trigger mode: 1
Integration Time (sec): 1.000000E-1
Scans to average: 1
Electric dark correction enabled: true
Nonlinearity correction enabled: false
Boxcar width: 0
XAxis mode: Wavelengths
Number of Pixels in Spectrum: 2048
>>>>>Begin Spectral Data<<<<<
223.165	-14
223.4	-14
223.635	-14
223.869	-15
224.104	-22
224.338	-26
224.573	-6
224.808	-16
225.042	-3
225.277	6
225.511	3
225.746	-2
225.98	-2
226.215	7
226.449	28
226.683	10
226.918	24
227.152	28
227.387	40
227.621	42
227.856	48
228.09	52
228.324	59
228.559	57
228.793	48
229.027	65
229.262	65
229.496	74
229.73	72
229.964	63
230.199	71
230.433	78
230.667	70
230.901	69
231.136	81
231.37	86
231.604	71
231.838	88
232.072	80
232.306	90
232.541	94
232.775	75
233.009	78
233.243	93
233.477	90
233.711	88
233.945	69
234.179	74
234.413	87
234.647	74
234.881	71
235.115	81
235.349	86
235.583	79
235.817	84
236.051	74
236.285	81
236.519	81
236.753	68
236.987	67
237.221	79
237.455	63
237.689	68
237.922	81
238.156	80
238.39	81
238.624	79
238.858	74
239.091	70
239.325	85
239.559	65
239.793	79
240.027	81
240.26	72
240.494	84
240.728	76
240.961	67
241.195	90
241.429	83
241.662	61
241.896	72
242.13	70
242.363	65
242.597	74
242.83	78
243.064	75
243.298	82
243.531	99
243.765	79
243.998	93
244.232	76
244.465	84
244.699	65
244.932	83
245.166	86
245.399	73
245.633	80
245.866	82
246.099	77
246.333	85
246.566	69
246.8	74
247.033	82
247.266	88
247.5	73
247.733	92
247.966	80
248.2	65
248.433	80
248.666	78
248.899	66
249.133	80
249.366	81
249.599	64
249.832	75
250.066	87
250.299	83
250.532	80
250.765	88
250.998	65
251.231	93
251.465	88
251.698	68
251.931	66
252.164	75
252.397	83
252.63	88
252.863	69
253.096	89
253.329	86
253.562	82
253.795	79
254.028	83
254.261	68
254.494	71
254.727	81
254.96	78
255.193	76
255.426	80
255.659	75
255.892	89
256.124	83
256.357	98
256.59	90
256.823	78
257.056	87
257.289	78
257.521	84
257.754	81
257.987	79
258.22	90
258.452	84
258.685	75
258.918	80
259.151	84
259.383	83
259.616	76
259.849	78
260.081	77
260.314	94
260.547	94
260.779	75
261.012	89
261.244	93
261.477	89
261.71	74
261.942	80
262.175	79
262.407	68
262.64	82
262.872	92
263.105	88
263.337	87
263.57	76
263.802	65
264.035	82
264.267	76
264.499	90
264.732	78
264.964	78
265.197	88
265.429	83
265.661	80
265.894	93
266.126	77
266.358	79
266.591	72
266.823	90
267.055	86
267.287	87
267.52	80
267.752	87
267.984	82
268.216	79
268.448	87
268.681	85
268.913	98
269.145	87
269.377	72
269.609	84
269.841	99
270.073	85
270.306	74
270.538	91
270.77	92
271.002	75
271.234	81
271.466	82
271.698	93
271.93	58
272.162	91
272.394	90
272.626	93
272.858	74
273.09	81
273.322	83
273.553	75
273.785	97
274.017	78
274.249	87
274.481	68
274.713	80
274.945	91
275.176	89
275.408	86
275.64	85
275.872	83
276.104	79
276.335	93
276.567	87
276.799	90
277.031	87
277.262	83
277.494	87
277.726	92
277.957	79
278.189	86
278.421	93
278.652	90
278.884	82
279.115	80
279.347	86
279.579	93
279.81	83
280.042	82
280.273	86
280.505	62
280.736	72
280.968	83
281.199	78
281.431	90
281.662	92
281.894	73
282.125	83
282.356	96
282.588	88
282.819	80
283.051	99
283.282	94
283.513	93
283.745	79
283.976	95
284.207	83
284.439	92
284.67	90
284.901	85
285.132	87
285.364	77
285.595	76
285.826	83
286.057	73
286.288	83
286.52	83
286.751	78
286.982	75
287.213	76
287.444	94
287.675	81
287.906	86
288.138	89
288.369	77
288.6	80
288.831	81
289.062	84
289.293	89
289.524	96
289.755	92
289.986	80
290.217	80
290.448	81
290.679	86
290.91	83
291.141	88
291.371	90
291.602	88
291.833	86
292.064	89
292.295	90
292.526	82
292.757	90
292.987	80
293.218	78
293.449	79
293.68	74
293.91	72
294.141	90
294.372	74
294.603	80
294.833	89
295.064	70
295.295	88
295.525	95
295.756	87
295.987	94
296.217	90
296.448	96
296.679	69
296.909	86
297.14	89
297.37	93
297.601	85
297.831	85
298.062	106
298.292	94
298.523	86
298.753	78
298.984	80
299.214	79
299.445	81
299.675	91
299.905	80
300.136	86
300.366	97
300.597	91
300.827	94
301.057	92
301.288	88
301.518	95
301.748	83
301.979	79
302.209	81
302.439	83
302.669	96
302.9	90
303.13	92
303.36	95
303.59	89
303.82	87
304.051	99
304.281	102
304.511	86
304.741	86
304.971	86
305.201	67
305.431	90
305.661	95
305.891	90
306.121	100
306.352	95
306.582	86
306.812	88
307.042	87
307.272	86
307.502	96
307.731	90
307.961	98
308.191	84
308.421	83
308.651	90
308.881	94
309.111	83
309.341	87
309.571	89
309.8	102
310.03	79
310.26	92
310.49	75
310.72	79
310.949	76
311.179	85
311.409	89
311.639	92
311.868	85
312.098	91
312.328	95
312.557	95
312.787	75
313.017	69
313.246	84
313.476	94
313.706	95
313.935	76
314.165	86
314.394	88
314.624	97
314.853	93
315.083	94
315.312	95
315.542	95
315.771	85
316.001	88
316.23	90
316.46	95
316.689	86
316.919	78
317.148	85
317.377	103
317.607	84
317.836	100
318.065	82
318.295	78
318.524	90
318.753	98
318.983	83
319.212	104
319.441	83
319.67	87
319.9	84
320.129	82
320.358	98
320.587	89
320.816	88
321.046	79
321.275	88
321.504	83
321.733	91
321.962	86
322.191	78
322.42	88
322.649	101
322.878	86
323.108	82
323.337	68
323.566	86
323.795	105
324.024	83
324.253	99
324.482	83
324.71	99
324.939	91
325.168	98
325.397	104
325.626	80
325.855	94
326.084	78
326.313	86
326.542	100
326.77	97
326.999	79
327.228	86
327.457	101
327.686	84
327.914	83
328.143	105
328.372	82
328.6	98
328.829	83
329.058	91
329.287	82
329.515	86
329.744	88
329.972	90
330.201	89
330.43	86
330.658	91
330.887	87
331.115	101
331.344	88
331.572	89
331.801	89
332.03	85
332.258	95
332.486	85
332.715	88
332.943	87
333.172	72
333.4	97
333.629	92
333.857	85
334.085	91
334.314	90
334.542	99
334.771	96
334.999	101
335.227	102
335.455	95
335.684	96
335.912	86
336.14	74
336.369	98
336.597	97
336.825	91
337.053	91
337.281	84
337.51	92
337.738	78
337.966	96
338.194	92
338.422	88
338.65	91
338.878	87
339.106	91
339.334	85
339.562	71
339.79	90
340.018	88
340.246	95
340.474	83
340.702	84
340.93	95
341.158	87
341.386	85
341.614	96
341.842	97
342.07	93
342.298	88
342.526	91
342.754	85
342.981	73
343.209	77
343.437	97
343.665	91
343.893	92
344.12	94
344.348	90
344.576	87
344.804	87
345.031	82
345.259	99
345.487	75
345.714	87
345.942	80
346.17	95
346.397	89
346.625	92
346.853	89
347.08	89
347.308	78
347.535	100
347.763	96
347.99	95
348.218	88
348.445	93
348.673	80
348.9	88
349.128	78
349.355	89
349.583	80
349.81	80
350.037	87
350.265	96
350.492	90
350.72	83
350.947	83
351.174	79
351.402	91
351.629	99
351.856	90
352.083	92
352.311	103
352.538	80
352.765	87
352.992	89
353.22	80
353.447	87
353.674	94
353.901	87
354.128	87
354.355	77
354.583	86
354.81	87
355.037	84
355.264	79
355.491	90
355.718	82
355.945	96
356.172	91
356.399	90
356.626	87
356.853	94
357.08	92
357.307	94
357.534	84
357.761	80
357.988	82
358.215	74
358.441	88
358.668	79
358.895	95
359.122	79
359.349	96
359.576	89
359.802	85
360.029	89
360.256	97
360.483	79
360.709	74
360.936	108
361.163	95
361.39	87
361.616	99
361.843	91
362.07	88
362.296	83
362.523	76
362.749	74
362.976	92
363.203	104
363.429	83
363.656	92
363.882	78
364.109	90
364.335	88
364.562	72
364.788	83
365.015	84
365.241	82
365.468	93
365.694	91
365.92	105
366.147	83
366.373	80
366.599	89
366.826	90
367.052	89
367.278	97
367.505	84
367.731	92
367.957	73
368.184	73
368.41	83
368.636	94
368.862	72
369.089	95
369.315	97
369.541	78
369.767	97
369.993	76
370.219	83
370.445	87
370.672	83
370.898	86
371.124	104
371.35	88
371.576	88
371.802	92
372.028	88
372.254	86
372.48	82
372.706	82
372.932	100
373.158	71
373.384	90
373.61	75
373.835	97
374.061	88
374.287	86
374.513	79
374.739	68
374.965	93
375.191	91
375.416	90
375.642	78
375.868	90
376.094	93
376.319	99
376.545	80
376.771	86
376.997	87
377.222	89
377.448	99
377.674	93
377.899	76
378.125	90
378.35	79
378.576	77
378.802	84
379.027	91
379.253	80
379.478	94
379.704	86
379.929	81
380.155	84
380.38	84
380.606	104
380.831	92
381.057	89
381.282	87
381.507	90
381.733	94
381.958	84
382.184	88
382.409	81
382.634	82
382.86	83
383.085	86
383.31	96
383.535	87
383.761	80
383.986	84
384.211	70
384.436	90
384.662	86
384.887	82
385.112	92
385.337	86
385.562	88
385.787	75
386.013	94
386.238	91
386.463	74
386.688	90
386.913	91
387.138	95
387.363	92
387.588	102
387.813	102
388.038	86
388.263	79
388.488	85
388.713	89
388.938	91
389.163	90
389.387	92
389.612	93
389.837	92
390.062	78
390.287	86
390.512	84
390.736	87
390.961	82
391.186	82
391.411	83
391.636	91
391.86	98
392.085	106
392.31	93
392.534	87
392.759	92
392.984	89
393.208	76
393.433	84
393.658	80
393.882	83
394.107	87
394.331	79
394.556	71
394.78	78
395.005	79
395.229	87
395.454	90
395.678	95
395.903	86
396.127	75
396.352	86
396.576	82
396.801	83
397.025	91
397.249	94
397.474	94
397.698	95
397.922	92
398.147	85
398.371	81
398.595	71
398.82	93
399.044	84
399.268	92
399.492	85
399.717	101
399.941	92
400.165	87
400.389	83
400.613	83
400.837	93
401.062	90
401.286	91
401.51	90
401.734	90
401.958	84
402.182	96
402.406	83
402.63	93
402.854	92
403.078	90
403.302	93
403.526	91
403.75	79
403.974	85
404.198	87
404.422	90
404.645	94
404.869	82
405.093	87
405.317	104
405.541	87
405.765	93
405.988	99
406.212	88
406.436	71
406.66	94
406.883	99
407.107	95
407.331	94
407.555	82
407.778	83
408.002	88
408.226	96
408.449	91
408.673	76
408.896	85
409.12	97
409.344	90
409.567	91
409.791	86
410.014	77
410.238	92
410.461	79
410.685	87
410.908	79
411.132	83
411.355	86
411.578	72
411.802	90
412.025	80
412.249	91
412.472	97
412.695	87
412.919	76
413.142	88
413.365	96
413.589	91
413.812	83
414.035	102
414.258	89
414.482	77
414.705	88
414.928	91
415.151	80
415.374	92
415.597	80
415.821	102
416.044	91
416.267	86
416.49	89
416.713	86
416.936	83
417.159	99
417.382	86
417.605	87
417.828	95
418.051	87
418.274	96
418.497	92
418.72	96
418.943	88
419.166	101
419.389	88
419.611	82
419.834	88
420.057	73
420.28	77
420.503	80
420.726	91
420.948	74
421.171	85
421.394	97
421.617	92
421.839	94
422.062	89
422.285	78
422.507	80
422.73	84
422.953	84
423.175	84
423.398	83
423.621	91
423.843	101
424.066	86
424.288	74
424.511	89
424.733	89
424.956	89
425.178	96
425.401	86
425.623	82
425.846	84
426.068	91
426.291	82
426.513	74
426.735	92
426.958	84
427.18	89
427.402	75
427.625	109
427.847	86
428.069	80
428.292	90
428.514	83
428.736	74
428.958	100
429.181	86
429.403	86
429.625	80
429.847	72
430.069	98
430.292	78
430.514	80
430.736	91
430.958	91
431.18	104
431.402	104
431.624	80
431.846	91
432.068	88
432.29	74
432.512	94
432.734	93
432.956	88
433.178	101
433.4	102
433.622	72
433.844	91
434.066	86
434.287	83
434.509	93
434.731	95
434.953	89
435.175	82
435.397	92
435.618	85
435.84	92
436.062	81
436.284	92
436.505	101
436.727	62
436.949	85
437.17	86
437.392	84
437.614	88
437.835	69
438.057	102
438.278	74
438.5	95
438.721	91
438.943	93
439.165	87
439.386	90
439.608	78
439.829	84
440.05	88
440.272	81
440.493	88
440.715	79
440.936	92
441.158	95
441.379	90
441.6	81
441.822	90
442.043	89
442.264	90
442.486	81
442.707	81
442.928	80
443.149	87
443.371	67
443.592	94
443.813	87
444.034	95
444.255	89
444.476	95
444.698	98
444.919	106
445.14	180
445.361	136
445.582	86
445.803	77
446.024	74
446.245	88
446.466	77
446.687	78
446.908	75
447.129	80
447.35	96
447.571	86
447.792	83
448.013	82
448.234	71
448.455	82
448.675	104
448.896	95
449.117	86
449.338	96
449.559	88
449.779	80
450	93
450.221	90
450.442	80
450.662	87
450.883	89
451.104	72
451.324	62
451.545	90
451.766	94
451.986	94
452.207	92
452.428	88
452.648	98
452.869	93
453.089	98
453.31	91
453.53	93
453.751	85
453.971	80
454.192	86
454.412	92
454.633	82
454.853	77
455.073	87
455.294	89
455.514	90
455.734	83
455.955	89
456.175	94
456.395	85
456.616	87
456.836	80
457.056	82
457.276	76
457.497	88
457.717	69
457.937	94
458.157	100
458.377	97
458.598	91
458.818	94
459.038	93
459.258	90
459.478	93
459.698	75
459.918	94
460.138	82
460.358	87
460.578	89
460.798	103
461.018	94
461.238	96
461.458	88
461.678	89
461.898	85
462.118	86
462.338	95
462.558	83
462.777	85
462.997	96
463.217	90
463.437	97
463.657	91
463.876	76
464.096	91
464.316	89
464.536	95
464.755	95
464.975	84
465.195	95
465.414	83
465.634	81
465.854	92
466.073	96
466.293	87
466.512	97
466.732	102
466.951	79
467.171	106
467.391	97
467.61	91
467.829	86
468.049	78
468.268	83
468.488	89
468.707	90
468.927	78
469.146	79
469.365	82
469.585	97
469.804	90
470.023	89
470.243	79
470.462	88
470.681	90
470.901	83
471.12	95
471.339	90
471.558	96
471.777	72
471.997	88
472.216	84
472.435	91
472.654	88
472.873	99
473.092	104
473.311	83
473.53	79
473.749	85
473.968	98
474.187	86
474.406	92
474.625	88
474.844	82
475.063	97
475.282	70
475.501	82
475.72	70
475.939	102
476.158	94
476.377	81
476.596	105
476.814	89
477.033	101
477.252	88
477.471	72
477.69	88
477.908	73
478.127	91
478.346	96
478.564	96
478.783	87
479.002	106
479.22	89
479.439	93
479.658	83
479.876	80
480.095	83
480.313	84
480.532	86
480.751	84
480.969	93
481.188	86
481.406	79
481.624	80
481.843	94
482.061	91
482.28	84
482.498	96
482.717	97
482.935	94
483.153	91
483.372	90
483.59	89
483.808	96
484.027	91
484.245	92
484.463	89
484.681	93
484.9	107
485.118	90
485.336	69
485.554	93
485.772	90
485.99	85
486.209	94
486.427	97
486.645	99
486.863	64
487.081	81
487.299	89
487.517	89
487.735	94
487.953	98
488.171	78
488.389	88
488.607	87
488.825	86
489.043	87
489.261	97
489.479	92
489.696	74
489.914	89
490.132	99
490.35	99
490.568	94
490.786	93
491.003	102
491.221	88
491.439	97
491.657	86
491.874	82
492.092	78
492.31	97
492.527	74
492.745	93
492.963	96
493.18	88
493.398	83
493.615	93
493.833	96
494.05	90
494.268	89
494.485	94
494.703	94
494.92	91
495.138	80
495.355	92
495.573	91
495.79	86
496.008	98
496.225	82
496.442	99
496.66	102
496.877	90
497.094	94
497.312	92
497.529	90
497.746	104
497.963	93
498.181	93
498.398	94
498.615	87
498.832	97
499.049	99
499.267	99
499.484	110
499.701	102
499.918	90
500.135	111
500.352	112
500.569	114
500.786	110
501.003	104
501.22	121
501.437	94
501.654	98
501.871	103
502.088	102
502.305	102
502.522	106
502.739	81
502.956	83
503.172	102
503.389	102
503.606	73
503.823	95
504.04	91
504.256	95
504.473	99
504.69	101
504.907	80
505.123	93
505.34	86
505.557	93
505.773	98
505.99	92
506.207	92
506.423	88
506.64	93
506.856	104
507.073	98
507.289	91
507.506	79
507.722	94
507.939	89
508.155	97
508.372	88
508.588	92
508.805	91
509.021	65
509.238	86
509.454	78
509.67	76
509.887	81
510.103	74
510.319	75
510.536	85
510.752	86
510.968	69
511.184	83
511.401	90
511.617	87
511.833	84
512.049	89
512.265	92
512.481	83
512.698	93
512.914	86
513.13	91
513.346	92
513.562	92
513.778	91
513.994	91
514.21	77
514.426	95
514.642	89
514.858	84
515.074	91
515.29	97
515.506	82
515.721	95
515.937	96
516.153	84
516.369	88
516.585	83
516.801	84
517.016	85
517.232	86
517.448	86
517.664	84
517.879	84
518.095	76
518.311	95
518.527	92
518.742	106
518.958	88
519.173	81
519.389	99
519.605	95
519.82	90
520.036	88
520.251	86
520.467	96
520.682	92
520.898	78
521.113	84
521.329	85
521.544	85
521.76	89
521.975	92
522.19	79
522.406	100
522.621	99
522.836	96
523.052	91
523.267	80
523.482	84
523.698	74
523.913	84
524.128	90
524.343	92
524.559	79
524.774	100
524.989	91
525.204	92
525.419	92
525.634	77
525.849	92
526.064	87
526.28	79
526.495	87
526.71	86
526.925	77
527.14	96
527.355	90
527.57	84
527.785	91
527.999	90
528.214	95
528.429	97
528.644	93
528.859	76
529.074	83
529.289	84
529.503	101
529.718	94
529.933	78
530.148	88
530.363	80
530.577	82
530.792	102
531.007	94
531.221	88
531.436	94
531.651	82
531.865	82
532.08	105
532.295	88
532.509	83
532.724	86
532.938	90
533.153	73
533.367	84
533.582	104
533.796	96
534.011	86
534.225	110
534.44	86
534.654	105
534.868	91
535.083	87
535.297	98
535.511	91
535.726	88
535.94	87
536.154	96
536.369	88
536.583	88
536.797	94
537.011	91
537.225	84
537.44	89
537.654	102
537.868	86
538.082	84
538.296	86
538.51	96
538.724	93
538.938	83
539.153	79
539.367	98
539.581	83
539.795	86
540.009	79
540.222	95
540.436	86
540.65	88
540.864	85
541.078	89
541.292	93
541.506	95
541.72	98
541.934	85
542.147	82
542.361	98
542.575	99
542.789	94
543.002	86
543.216	91
543.43	83
543.644	96
543.857	92
544.071	88
544.285	105
544.498	84
544.712	93
544.925	91
545.139	88
545.352	92
545.566	90
545.779	89
545.993	95
546.206	83
546.42	85
546.633	84
546.847	88
547.06	81
547.274	97
547.487	100
547.7	90
547.914	90
548.127	92
548.34	78
548.554	87
548.767	91
548.98	76
549.193	88
549.407	83
549.62	87
549.833	88
550.046	87
550.259	88
550.473	82
550.686	84
550.899	91
551.112	97
551.325	86
551.538	86
551.751	96
551.964	88
552.177	103
552.39	81
552.603	90
552.816	97
553.029	91
553.242	98
553.455	101
553.667	96
553.88	91
554.093	85
554.306	85
554.519	84
554.732	86
554.944	94
555.157	90
555.37	91
555.583	76
555.795	92
556.008	67
556.221	88
556.433	93
556.646	106
556.859	96
557.071	91
557.284	90
557.496	89
557.709	87
557.921	83
558.134	95
558.346	99
558.559	91
558.771	80
558.984	86
559.196	94
559.409	83
559.621	96
559.833	77
560.046	80
560.258	92
560.47	80
560.683	77
560.895	75
561.107	88
561.32	93
561.532	99
561.744	90
561.956	76
562.168	93
562.381	95
562.593	88
562.805	92
563.017	80
563.229	96
563.441	87
563.653	102
563.865	89
564.077	89
564.289	95
564.501	84
564.713	88
564.925	78
565.137	99
565.349	88
565.561	100
565.773	87
565.985	89
566.197	102
566.408	84
566.62	100
566.832	103
567.044	94
567.255	99
567.467	113
567.679	77
567.891	96
568.102	96
568.314	99
568.526	83
568.737	84
568.949	88
569.161	78
569.372	93
569.584	90
569.795	88
570.007	91
570.218	88
570.43	82
570.641	90
570.853	91
571.064	91
571.276	95
571.487	90
571.698	94
571.91	87
572.121	83
572.333	91
572.544	90
572.755	97
572.966	79
573.178	96
573.389	79
573.6	91
573.811	84
574.023	83
574.234	89
574.445	97
574.656	84
574.867	87
575.078	78
575.289	77
575.501	79
575.712	79
575.923	91
576.134	96
576.345	96
576.556	91
576.767	103
576.978	91
577.188	80
577.399	90
577.61	81
577.821	92
578.032	86
578.243	91
578.454	79
578.665	79
578.875	83
579.086	87
579.297	81
579.508	92
579.718	82
579.929	103
580.14	76
580.35	83
580.561	97
580.772	85
580.982	80
581.193	72
581.403	75
581.614	102
581.825	97
582.035	90
582.246	86
582.456	85
582.667	92
582.877	80
583.087	83
583.298	95
583.508	95
583.719	90
583.929	95
584.139	65
584.35	82
584.56	92
584.77	91
584.981	87
585.191	92
585.401	74
585.611	81
585.821	87
586.032	83
586.242	82
586.452	107
586.662	96
586.872	78
587.082	85
587.292	90
587.502	87
587.713	80
587.923	81
588.133	97
588.343	86
588.553	82
588.762	93
588.972	99
589.182	89
589.392	86
589.602	76
