Data from BG_HRD10591_057.txt Node
Date: Fri May 16 15:27:15 EDT 2025
User: Yrep
Spectrometer: HR+D1059
Trigger mode: 1
Integration Time (sec): 1.000000E-1
Scans to average: 1
Electric dark correction enabled: true
Nonlinearity correction enabled: false
Boxcar width: 0
XAxis mode: Wavelengths
Number of Pixels in Spectrum: 2048
>>>>>Begin Spectral Data<<<<<
223.165	-30.12
223.4	-30.12
223.635	-30.12
223.869	-9.12
224.104	-24.12
224.338	-8.12
224.573	-22.12
224.808	5.88
225.042	-9.12
225.277	-7.12
225.511	4.88
225.746	-7.12
225.98	6.88
226.215	0.88
226.449	22.88
226.683	19.88
226.918	29.88
227.152	25.88
227.387	38.88
227.621	41.88
227.856	53.88
228.09	42.88
228.324	51.88
228.559	45.88
228.793	57.88
229.027	59.88
229.262	64.88
229.496	76.88
229.73	63.88
229.964	66.88
230.199	59.88
230.433	69.88
230.667	85.88
230.901	85.88
231.136	69.88
231.37	68.88
231.604	61.88
231.838	75.88
232.072	79.88
232.306	66.88
232.541	75.88
232.775	78.88
233.009	78.88
233.243	71.88
233.477	65.88
233.711	83.88
233.945	73.88
234.179	90.88
234.413	59.88
234.647	87.88
234.881	79.88
235.115	64.88
235.349	77.88
235.583	71.88
235.817	63.88
236.051	84.88
236.285	79.88
236.519	77.88
236.753	72.88
236.987	74.88
237.221	84.88
237.455	71.88
237.689	83.88
237.922	71.88
238.156	67.88
238.39	70.88
238.624	61.88
238.858	75.88
239.091	77.88
239.325	63.88
239.559	89.88
239.793	72.88
240.027	65.88
240.26	61.88
240.494	64.88
240.728	63.88
240.961	55.88
241.195	67.88
241.429	59.88
241.662	65.88
241.896	75.88
242.13	82.88
242.363	73.88
242.597	62.88
242.83	75.88
243.064	77.88
243.298	85.88
243.531	85.88
243.765	79.88
243.998	81.88
244.232	75.88
244.465	82.88
244.699	70.88
244.932	46.88
245.166	69.88
245.399	69.88
245.633	76.88
245.866	77.88
246.099	79.88
246.333	74.88
246.566	65.88
246.8	104.88
247.033	81.88
247.266	63.88
247.5	69.88
247.733	69.88
247.966	84.88
248.2	72.88
248.433	69.88
248.666	69.88
248.899	71.88
249.133	81.88
249.366	72.88
249.599	89.88
249.832	87.88
250.066	84.88
250.299	69.88
250.532	90.88
250.765	77.88
250.998	67.88
251.231	76.88
251.465	73.88
251.698	75.88
251.931	74.88
252.164	70.88
252.397	90.88
252.63	77.88
252.863	71.88
253.096	77.88
253.329	73.88
253.562	71.88
253.795	75.88
254.028	75.88
254.261	83.88
254.494	69.88
254.727	74.88
254.96	74.88
255.193	87.88
255.426	83.88
255.659	74.88
255.892	67.88
256.124	63.88
256.357	72.88
256.59	75.88
256.823	71.88
257.056	66.88
257.289	87.88
257.521	78.88
257.754	70.88
257.987	81.88
258.22	80.88
258.452	82.88
258.685	80.88
258.918	79.88
259.151	71.88
259.383	73.88
259.616	77.88
259.849	76.88
260.081	64.88
260.314	68.88
260.547	71.88
260.779	68.88
261.012	84.88
261.244	79.88
261.477	88.88
261.71	69.88
261.942	73.88
262.175	84.88
262.407	73.88
262.64	78.88
262.872	64.88
263.105	73.88
263.337	83.88
263.57	74.88
263.802	71.88
264.035	75.88
264.267	72.88
264.499	80.88
264.732	79.88
264.964	79.88
265.197	84.88
265.429	93.88
265.661	81.88
265.894	70.88
266.126	82.88
266.358	82.88
266.591	71.88
266.823	89.88
267.055	83.88
267.287	74.88
267.52	80.88
267.752	83.88
267.984	65.88
268.216	72.88
268.448	73.88
268.681	78.88
268.913	91.88
269.145	86.88
269.377	79.88
269.609	71.88
269.841	88.88
270.073	78.88
270.306	68.88
270.538	59.88
270.77	80.88
271.002	78.88
271.234	94.88
271.466	81.88
271.698	79.88
271.93	79.88
272.162	91.88
272.394	70.88
272.626	77.88
272.858	74.88
273.09	85.88
273.322	66.88
273.553	82.88
273.785	69.88
274.017	78.88
274.249	66.88
274.481	89.88
274.713	78.88
274.945	70.88
275.176	80.88
275.408	83.88
275.64	73.88
275.872	82.88
276.104	79.88
276.335	79.88
276.567	74.88
276.799	81.88
277.031	78.88
277.262	83.88
277.494	99.88
277.726	72.88
277.957	65.88
278.189	77.88
278.421	82.88
278.652	82.88
278.884	77.88
279.115	77.88
279.347	77.88
279.579	71.88
279.81	76.88
280.042	74.88
280.273	83.88
280.505	75.88
280.736	83.88
280.968	82.88
281.199	81.88
281.431	73.88
281.662	73.88
281.894	66.88
282.125	83.88
282.356	79.88
282.588	72.88
282.819	64.88
283.051	76.88
283.282	67.88
283.513	71.88
283.745	81.88
283.976	73.88
284.207	57.88
284.439	75.88
284.67	77.88
284.901	63.88
285.132	71.88
285.364	76.88
285.595	81.88
285.826	84.88
286.057	81.88
286.288	67.88
286.52	63.88
286.751	85.88
286.982	83.88
287.213	86.88
287.444	90.88
287.675	77.88
287.906	73.88
288.138	79.88
288.369	82.88
288.6	65.88
288.831	76.88
289.062	97.88
289.293	80.88
289.524	86.88
289.755	91.88
289.986	81.88
290.217	75.88
290.448	79.88
290.679	76.88
290.91	74.88
291.141	78.88
291.371	90.88
291.602	73.88
291.833	82.88
292.064	85.88
292.295	70.88
292.526	80.88
292.757	71.88
292.987	62.88
293.218	85.88
293.449	76.88
293.68	82.88
293.91	75.88
294.141	76.88
294.372	89.88
294.603	81.88
294.833	71.88
295.064	76.88
295.295	74.88
295.525	73.88
295.756	92.88
295.987	93.88
296.217	72.88
296.448	83.88
296.679	88.88
296.909	75.88
297.14	97.88
297.37	83.88
297.601	75.88
297.831	81.88
298.062	78.88
298.292	73.88
298.523	80.88
298.753	71.88
298.984	85.88
299.214	86.88
299.445	98.88
299.675	79.88
299.905	88.88
300.136	78.88
300.366	82.88
300.597	79.88
300.827	78.88
301.057	84.88
301.288	79.88
301.518	73.88
301.748	93.88
301.979	91.88
302.209	83.88
302.439	93.88
302.669	92.88
302.9	83.88
303.13	66.88
303.36	76.88
303.59	92.88
303.82	75.88
304.051	81.88
304.281	76.88
304.511	70.88
304.741	79.88
304.971	74.88
305.201	85.88
305.431	76.88
305.661	77.88
305.891	82.88
306.121	81.88
306.352	79.88
306.582	82.88
306.812	77.88
307.042	67.88
307.272	74.88
307.502	68.88
307.731	88.88
307.961	85.88
308.191	93.88
308.421	71.88
308.651	75.88
308.881	74.88
309.111	69.88
309.341	98.88
309.571	73.88
309.8	67.88
310.03	74.88
310.26	82.88
310.49	84.88
310.72	73.88
310.949	76.88
311.179	68.88
311.409	71.88
311.639	93.88
311.868	89.88
312.098	84.88
312.328	94.88
312.557	97.88
312.787	83.88
313.017	92.88
313.246	74.88
313.476	85.88
313.706	76.88
313.935	68.88
314.165	68.88
314.394	76.88
314.624	71.88
314.853	84.88
315.083	83.88
315.312	81.88
315.542	78.88
315.771	64.88
316.001	69.88
316.23	74.88
316.46	85.88
316.689	72.88
316.919	85.88
317.148	84.88
317.377	84.88
317.607	84.88
317.836	74.88
318.065	77.88
318.295	78.88
318.524	71.88
318.753	89.88
318.983	75.88
319.212	81.88
319.441	72.88
319.67	75.88
319.9	75.88
320.129	69.88
320.358	90.88
320.587	87.88
320.816	78.88
321.046	74.88
321.275	90.88
321.504	76.88
321.733	73.88
321.962	81.88
322.191	89.88
322.42	74.88
322.649	88.88
322.878	80.88
323.108	87.88
323.337	73.88
323.566	74.88
323.795	77.88
324.024	84.88
324.253	70.88
324.482	79.88
324.71	81.88
324.939	73.88
325.168	82.88
325.397	74.88
325.626	84.88
325.855	92.88
326.084	81.88
326.313	66.88
326.542	97.88
326.77	85.88
326.999	83.88
327.228	86.88
327.457	102.88
327.686	87.88
327.914	89.88
328.143	80.88
328.372	74.88
328.6	90.88
328.829	67.88
329.058	71.88
329.287	87.88
329.515	76.88
329.744	74.88
329.972	82.88
330.201	89.88
330.43	102.88
330.658	90.88
330.887	83.88
331.115	74.88
331.344	79.88
331.572	75.88
331.801	84.88
332.03	85.88
332.258	80.88
332.486	83.88
332.715	77.88
332.943	82.88
333.172	69.88
333.4	77.88
333.629	97.88
333.857	85.88
334.085	77.88
334.314	81.88
334.542	74.88
334.771	73.88
334.999	66.88
335.227	78.88
335.455	73.88
335.684	81.88
335.912	84.88
336.14	93.88
336.369	79.88
336.597	65.88
336.825	88.88
337.053	87.88
337.281	75.88
337.51	92.88
337.738	88.88
337.966	83.88
338.194	82.88
338.422	88.88
338.65	76.88
338.878	85.88
339.106	73.88
339.334	75.88
339.562	98.88
339.79	92.88
340.018	82.88
340.246	75.88
340.474	68.88
340.702	69.88
340.93	63.88
341.158	81.88
341.386	70.88
341.614	68.88
341.842	83.88
342.07	74.88
342.298	82.88
342.526	69.88
342.754	78.88
342.981	80.88
343.209	76.88
343.437	89.88
343.665	78.88
343.893	70.88
344.12	85.88
344.348	78.88
344.576	76.88
344.804	75.88
345.031	78.88
345.259	89.88
345.487	78.88
345.714	75.88
345.942	85.88
346.17	72.88
346.397	63.88
346.625	81.88
346.853	83.88
347.08	75.88
347.308	83.88
347.535	91.88
347.763	67.88
347.99	89.88
348.218	84.88
348.445	75.88
348.673	77.88
348.9	89.88
349.128	78.88
349.355	86.88
349.583	83.88
349.81	74.88
350.037	66.88
350.265	82.88
350.492	67.88
350.72	77.88
350.947	84.88
351.174	80.88
351.402	84.88
351.629	78.88
351.856	92.88
352.083	69.88
352.311	94.88
352.538	83.88
352.765	81.88
352.992	88.88
353.22	75.88
353.447	79.88
353.674	67.88
353.901	87.88
354.128	85.88
354.355	64.88
354.583	79.88
354.81	75.88
355.037	73.88
355.264	92.88
355.491	69.88
355.718	78.88
355.945	77.88
356.172	78.88
356.399	65.88
356.626	81.88
356.853	91.88
357.08	87.88
357.307	87.88
357.534	78.88
357.761	70.88
357.988	80.88
358.215	83.88
358.441	74.88
358.668	79.88
358.895	82.88
359.122	73.88
359.349	66.88
359.576	66.88
359.802	73.88
360.029	76.88
360.256	78.88
360.483	79.88
360.709	82.88
360.936	85.88
361.163	70.88
361.39	83.88
361.616	89.88
361.843	75.88
362.07	55.88
362.296	72.88
362.523	69.88
362.749	77.88
362.976	84.88
363.203	90.88
363.429	77.88
363.656	65.88
363.882	71.88
364.109	71.88
364.335	85.88
364.562	74.88
364.788	73.88
365.015	74.88
365.241	74.88
365.468	93.88
365.694	89.88
365.92	84.88
366.147	73.88
366.373	86.88
366.599	77.88
366.826	70.88
367.052	81.88
367.278	65.88
367.505	71.88
367.731	94.88
367.957	75.88
368.184	82.88
368.41	75.88
368.636	65.88
368.862	68.88
369.089	64.88
369.315	82.88
369.541	90.88
369.767	68.88
369.993	80.88
370.219	68.88
370.445	84.88
370.672	66.88
370.898	71.88
371.124	80.88
371.35	69.88
371.576	76.88
371.802	87.88
372.028	89.88
372.254	78.88
372.48	69.88
372.706	73.88
372.932	88.88
373.158	79.88
373.384	82.88
373.61	87.88
373.835	78.88
374.061	76.88
374.287	68.88
374.513	56.88
374.739	86.88
374.965	79.88
375.191	78.88
375.416	77.88
375.642	62.88
375.868	81.88
376.094	91.88
376.319	82.88
376.545	84.88
376.771	86.88
376.997	92.88
377.222	88.88
377.448	69.88
377.674	79.88
377.899	84.88
378.125	84.88
378.35	78.88
378.576	90.88
378.802	89.88
379.027	69.88
379.253	81.88
379.478	72.88
379.704	89.88
379.929	65.88
380.155	58.88
380.38	68.88
380.606	70.88
380.831	74.88
381.057	69.88
381.282	75.88
381.507	82.88
381.733	75.88
381.958	70.88
382.184	80.88
382.409	72.88
382.634	94.88
382.86	87.88
383.085	73.88
383.31	77.88
383.535	75.88
383.761	81.88
383.986	78.88
384.211	68.88
384.436	81.88
384.662	73.88
384.887	96.88
385.112	86.88
385.337	73.88
385.562	81.88
385.787	83.88
386.013	81.88
386.238	75.88
386.463	78.88
386.688	97.88
386.913	87.88
387.138	81.88
387.363	87.88
387.588	72.88
387.813	81.88
388.038	78.88
388.263	75.88
388.488	78.88
388.713	77.88
388.938	82.88
389.163	81.88
389.387	85.88
389.612	85.88
389.837	77.88
390.062	71.88
390.287	87.88
390.512	72.88
390.736	73.88
390.961	69.88
391.186	103.88
391.411	85.88
391.636	81.88
391.86	75.88
392.085	78.88
392.31	88.88
392.534	80.88
392.759	74.88
392.984	81.88
393.208	95.88
393.433	85.88
393.658	79.88
393.882	73.88
394.107	71.88
394.331	68.88
394.556	79.88
394.78	80.88
395.005	82.88
395.229	74.88
395.454	76.88
395.678	81.88
395.903	87.88
396.127	63.88
396.352	87.88
396.576	84.88
396.801	73.88
397.025	57.88
397.249	86.88
397.474	74.88
397.698	90.88
397.922	84.88
398.147	73.88
398.371	86.88
398.595	78.88
398.82	71.88
399.044	79.88
399.268	83.88
399.492	68.88
399.717	91.88
399.941	73.88
400.165	76.88
400.389	71.88
400.613	81.88
400.837	82.88
401.062	76.88
401.286	86.88
401.51	76.88
401.734	79.88
401.958	85.88
402.182	80.88
402.406	84.88
402.63	79.88
402.854	74.88
403.078	86.88
403.302	78.88
403.526	71.88
403.75	60.88
403.974	66.88
404.198	60.88
404.422	79.88
404.645	77.88
404.869	78.88
405.093	69.88
405.317	87.88
405.541	83.88
405.765	82.88
405.988	77.88
406.212	74.88
406.436	73.88
406.66	86.88
406.883	73.88
407.107	73.88
407.331	85.88
407.555	82.88
407.778	84.88
408.002	78.88
408.226	61.88
408.449	85.88
408.673	75.88
408.896	69.88
409.12	90.88
409.344	78.88
409.567	69.88
409.791	77.88
410.014	70.88
410.238	76.88
410.461	83.88
410.685	88.88
410.908	63.88
411.132	78.88
411.355	78.88
411.578	79.88
411.802	67.88
412.025	78.88
412.249	77.88
412.472	62.88
412.695	88.88
412.919	81.88
413.142	85.88
413.365	77.88
413.589	68.88
413.812	76.88
414.035	82.88
414.258	81.88
414.482	86.88
414.705	80.88
414.928	77.88
415.151	77.88
415.374	84.88
415.597	73.88
415.821	83.88
416.044	79.88
416.267	82.88
416.49	68.88
416.713	73.88
416.936	81.88
417.159	63.88
417.382	77.88
417.605	84.88
417.828	69.88
418.051	60.88
418.274	93.88
418.497	86.88
418.72	85.88
418.943	75.88
419.166	76.88
419.389	66.88
419.611	86.88
419.834	65.88
420.057	83.88
420.28	77.88
420.503	83.88
420.726	75.88
420.948	89.88
421.171	80.88
421.394	94.88
421.617	79.88
421.839	74.88
422.062	86.88
422.285	67.88
422.507	71.88
422.73	67.88
422.953	82.88
423.175	70.88
423.398	71.88
423.621	79.88
423.843	63.88
424.066	73.88
424.288	68.88
424.511	76.88
424.733	75.88
424.956	83.88
425.178	70.88
425.401	76.88
425.623	76.88
425.846	80.88
426.068	69.88
426.291	75.88
426.513	69.88
426.735	80.88
426.958	63.88
427.18	73.88
427.402	72.88
427.625	64.88
427.847	77.88
428.069	78.88
428.292	71.88
428.514	67.88
428.736	68.88
428.958	80.88
429.181	77.88
429.403	69.88
429.625	78.88
429.847	85.88
430.069	73.88
430.292	62.88
430.514	62.88
430.736	70.88
430.958	64.88
431.18	63.88
431.402	75.88
431.624	69.88
431.846	68.88
432.068	100.88
432.29	82.88
432.512	89.88
432.734	67.88
432.956	85.88
433.178	75.88
433.4	83.88
433.622	77.88
433.844	58.88
434.066	73.88
434.287	75.88
434.509	70.88
434.731	83.88
434.953	73.88
435.175	65.88
435.397	81.88
435.618	84.88
435.84	69.88
436.062	72.88
436.284	84.88
436.505	79.88
436.727	75.88
436.949	94.88
437.17	64.88
437.392	81.88
437.614	62.88
437.835	65.88
438.057	75.88
438.278	62.88
438.5	76.88
438.721	76.88
438.943	69.88
439.165	76.88
439.386	95.88
439.608	83.88
439.829	73.88
440.05	78.88
440.272	75.88
440.493	75.88
440.715	77.88
440.936	65.88
441.158	70.88
441.379	73.88
441.6	85.88
441.822	74.88
442.043	84.88
442.264	73.88
442.486	69.88
442.707	68.88
442.928	68.88
443.149	84.88
443.371	73.88
443.592	79.88
443.813	74.88
444.034	65.88
444.255	82.88
444.476	78.88
444.698	69.88
444.919	75.88
445.14	148.88
445.361	101.88
445.582	71.88
445.803	84.88
446.024	63.88
446.245	87.88
446.466	85.88
446.687	72.88
446.908	77.88
447.129	83.88
447.35	82.88
447.571	71.88
447.792	74.88
448.013	81.88
448.234	87.88
448.455	82.88
448.675	78.88
448.896	80.88
449.117	76.88
449.338	78.88
449.559	84.88
449.779	74.88
450	77.88
450.221	77.88
450.442	71.88
450.662	85.88
450.883	77.88
451.104	89.88
451.324	73.88
451.545	74.88
451.766	61.88
451.986	89.88
452.207	85.88
452.428	75.88
452.648	70.88
452.869	77.88
453.089	76.88
453.31	73.88
453.53	75.88
453.751	63.88
453.971	69.88
454.192	88.88
454.412	81.88
454.633	78.88
454.853	77.88
455.073	72.88
455.294	82.88
455.514	70.88
455.734	78.88
455.955	76.88
456.175	81.88
456.395	77.88
456.616	73.88
456.836	83.88
457.056	84.88
457.276	86.88
457.497	75.88
457.717	52.88
457.937	83.88
458.157	77.88
458.377	83.88
458.598	86.88
458.818	68.88
459.038	63.88
459.258	87.88
459.478	73.88
459.698	77.88
459.918	70.88
460.138	76.88
460.358	92.88
460.578	73.88
460.798	77.88
461.018	74.88
461.238	75.88
461.458	66.88
461.678	71.88
461.898	75.88
462.118	74.88
462.338	72.88
462.558	74.88
462.777	82.88
462.997	75.88
463.217	58.88
463.437	66.88
463.657	74.88
463.876	73.88
464.096	83.88
464.316	84.88
464.536	75.88
464.755	78.88
464.975	84.88
465.195	74.88
465.414	73.88
465.634	60.88
465.854	74.88
466.073	82.88
466.293	70.88
466.512	82.88
466.732	97.88
466.951	77.88
467.171	83.88
467.391	77.88
467.61	80.88
467.829	81.88
468.049	77.88
468.268	72.88
468.488	75.88
468.707	95.88
468.927	81.88
469.146	81.88
469.365	80.88
469.585	86.88
469.804	71.88
470.023	82.88
470.243	83.88
470.462	73.88
470.681	85.88
470.901	78.88
471.12	70.88
471.339	86.88
471.558	72.88
471.777	91.88
471.997	78.88
472.216	86.88
472.435	79.88
472.654	84.88
472.873	102.88
473.092	67.88
473.311	89.88
473.53	82.88
473.749	78.88
473.968	74.88
474.187	62.88
474.406	69.88
474.625	85.88
474.844	84.88
475.063	78.88
475.282	74.88
475.501	70.88
475.72	82.88
475.939	79.88
476.158	72.88
476.377	86.88
476.596	67.88
476.814	68.88
477.033	77.88
477.252	75.88
477.471	57.88
477.69	77.88
477.908	83.88
478.127	67.88
478.346	74.88
478.564	78.88
478.783	77.88
479.002	89.88
479.22	84.88
479.439	84.88
479.658	69.88
479.876	82.88
480.095	88.88
480.313	70.88
480.532	87.88
480.751	89.88
480.969	77.88
481.188	70.88
481.406	78.88
481.624	76.88
481.843	74.88
482.061	79.88
482.28	84.88
482.498	83.88
482.717	76.88
482.935	77.88
483.153	77.88
483.372	79.88
483.59	85.88
483.808	69.88
484.027	81.88
484.245	85.88
484.463	75.88
484.681	73.88
484.9	88.88
485.118	84.88
485.336	80.88
485.554	71.88
485.772	81.88
485.99	78.88
486.209	85.88
486.427	82.88
486.645	83.88
486.863	79.88
487.081	65.88
487.299	70.88
487.517	74.88
487.735	84.88
487.953	63.88
488.171	78.88
488.389	81.88
488.607	83.88
488.825	75.88
489.043	70.88
489.261	85.88
489.479	67.88
489.696	91.88
489.914	77.88
490.132	87.88
490.35	84.88
490.568	85.88
490.786	83.88
491.003	74.88
491.221	81.88
491.439	69.88
491.657	73.88
491.874	77.88
492.092	73.88
492.31	67.88
492.527	82.88
492.745	73.88
492.963	76.88
493.18	64.88
493.398	72.88
493.615	77.88
493.833	79.88
494.05	86.88
494.268	74.88
494.485	75.88
494.703	95.88
494.92	77.88
495.138	77.88
495.355	75.88
495.573	85.88
495.79	79.88
496.008	89.88
496.225	86.88
496.442	75.88
496.66	89.88
496.877	75.88
497.094	78.88
497.312	65.88
497.529	85.88
497.746	71.88
497.963	94.88
498.181	71.88
498.398	78.88
498.615	63.88
498.832	83.88
499.049	71.88
499.267	72.88
499.484	71.88
499.701	84.88
499.918	77.88
500.135	67.88
500.352	88.88
500.569	69.88
500.786	96.88
501.003	73.88
501.22	91.88
501.437	71.88
501.654	62.88
501.871	83.88
502.088	64.88
502.305	74.88
502.522	66.88
502.739	85.88
502.956	68.88
503.172	65.88
503.389	77.88
503.606	72.88
503.823	71.88
504.04	84.88
504.256	76.88
504.473	82.88
504.69	88.88
504.907	96.88
505.123	62.88
505.34	77.88
505.557	75.88
505.773	82.88
505.99	77.88
506.207	71.88
506.423	72.88
506.64	68.88
506.856	74.88
507.073	77.88
507.289	74.88
507.506	62.88
507.722	82.88
507.939	81.88
508.155	86.88
508.372	77.88
508.588	62.88
508.805	87.88
509.021	72.88
509.238	89.88
509.454	82.88
509.67	99.88
509.887	62.88
510.103	62.88
510.319	92.88
510.536	71.88
510.752	78.88
510.968	77.88
511.184	83.88
511.401	84.88
511.617	73.88
511.833	75.88
512.049	83.88
512.265	87.88
512.481	73.88
512.698	83.88
512.914	73.88
513.13	80.88
513.346	81.88
513.562	77.88
513.778	79.88
513.994	84.88
514.21	90.88
514.426	94.88
514.642	77.88
514.858	89.88
515.074	73.88
515.29	77.88
515.506	71.88
515.721	83.88
515.937	54.88
516.153	77.88
516.369	91.88
516.585	92.88
516.801	71.88
517.016	87.88
517.232	70.88
517.448	75.88
517.664	84.88
517.879	65.88
518.095	73.88
518.311	71.88
518.527	91.88
518.742	86.88
518.958	87.88
519.173	88.88
519.389	84.88
519.605	89.88
519.82	77.88
520.036	87.88
520.251	78.88
520.467	82.88
