Data from BG_HRD10591_067.txt Node
Date: Fri May 16 15:27:20 EDT 2025
User: Yrep
Spectrometer: HR+D1059
Trigger mode: 1
Integration Time (sec): 1.000000E-1
Scans to average: 1
Electric dark correction enabled: true
Nonlinearity correction enabled: false
Boxcar width: 0
XAxis mode: Wavelengths
Number of Pixels in Spectrum: 2048
>>>>>Begin Spectral Data<<<<<
223.165	-24.5
223.4	-24.5
223.635	-24.5
223.869	-31.5
224.104	-11.5
224.338	-5.5
224.573	-15.5
224.808	-4.5
225.042	-15.5
225.277	-2.5
225.511	-17.5
225.746	3.5
225.98	12.5
226.215	25.5
226.449	30.5
226.683	21.5
226.918	19.5
227.152	15.5
227.387	38.5
227.621	46.5
227.856	51.5
228.09	67.5
228.324	52.5
228.559	63.5
228.793	71.5
229.027	65.5
229.262	64.5
229.496	66.5
229.73	68.5
229.964	69.5
230.199	91.5
230.433	90.5
230.667	81.5
230.901	84.5
231.136	83.5
231.37	74.5
231.604	83.5
231.838	77.5
232.072	76.5
232.306	91.5
232.541	74.5
232.775	82.5
233.009	80.5
233.243	90.5
233.477	93.5
233.711	79.5
233.945	81.5
234.179	83.5
234.413	88.5
234.647	81.5
234.881	80.5
235.115	71.5
235.349	83.5
235.583	84.5
235.817	80.5
236.051	62.5
236.285	72.5
236.519	87.5
236.753	88.5
236.987	73.5
237.221	93.5
237.455	87.5
237.689	68.5
237.922	80.5
238.156	83.5
238.39	78.5
238.624	77.5
238.858	75.5
239.091	85.5
239.325	84.5
239.559	87.5
239.793	75.5
240.027	69.5
240.26	69.5
240.494	88.5
240.728	76.5
240.961	70.5
241.195	81.5
241.429	98.5
241.662	65.5
241.896	76.5
242.13	81.5
242.363	71.5
242.597	86.5
242.83	85.5
243.064	72.5
243.298	78.5
243.531	89.5
243.765	92.5
243.998	62.5
244.232	89.5
244.465	90.5
244.699	83.5
244.932	80.5
245.166	89.5
245.399	76.5
245.633	90.5
245.866	82.5
246.099	73.5
246.333	92.5
246.566	59.5
246.8	83.5
247.033	85.5
247.266	79.5
247.5	72.5
247.733	73.5
247.966	86.5
248.2	70.5
248.433	80.5
248.666	73.5
248.899	97.5
249.133	99.5
249.366	84.5
249.599	79.5
249.832	84.5
250.066	64.5
250.299	69.5
250.532	82.5
250.765	73.5
250.998	82.5
251.231	75.5
251.465	83.5
251.698	77.5
251.931	79.5
252.164	82.5
252.397	79.5
252.63	77.5
252.863	77.5
253.096	91.5
253.329	85.5
253.562	83.5
253.795	82.5
254.028	88.5
254.261	88.5
254.494	64.5
254.727	88.5
254.96	65.5
255.193	69.5
255.426	72.5
255.659	92.5
255.892	86.5
256.124	84.5
256.357	80.5
256.59	78.5
256.823	86.5
257.056	85.5
257.289	79.5
257.521	84.5
257.754	81.5
257.987	86.5
258.22	91.5
258.452	80.5
258.685	83.5
258.918	80.5
259.151	77.5
259.383	75.5
259.616	72.5
259.849	94.5
260.081	87.5
260.314	83.5
260.547	73.5
260.779	90.5
261.012	90.5
261.244	89.5
261.477	93.5
261.71	92.5
261.942	80.5
262.175	83.5
262.407	83.5
262.64	83.5
262.872	79.5
263.105	91.5
263.337	95.5
263.57	79.5
263.802	92.5
264.035	84.5
264.267	79.5
264.499	92.5
264.732	90.5
264.964	82.5
265.197	94.5
265.429	90.5
265.661	77.5
265.894	82.5
266.126	95.5
266.358	69.5
266.591	94.5
266.823	83.5
267.055	72.5
267.287	91.5
267.52	78.5
267.752	85.5
267.984	83.5
268.216	85.5
268.448	83.5
268.681	84.5
268.913	85.5
269.145	96.5
269.377	77.5
269.609	75.5
269.841	94.5
270.073	86.5
270.306	82.5
270.538	90.5
270.77	70.5
271.002	92.5
271.234	73.5
271.466	86.5
271.698	89.5
271.93	73.5
272.162	88.5
272.394	82.5
272.626	87.5
272.858	79.5
273.09	84.5
273.322	87.5
273.553	67.5
273.785	89.5
274.017	87.5
274.249	90.5
274.481	90.5
274.713	95.5
274.945	86.5
275.176	71.5
275.408	77.5
275.64	88.5
275.872	86.5
276.104	82.5
276.335	78.5
276.567	86.5
276.799	87.5
277.031	85.5
277.262	98.5
277.494	83.5
277.726	87.5
277.957	75.5
278.189	77.5
278.421	95.5
278.652	87.5
278.884	87.5
279.115	78.5
279.347	88.5
279.579	77.5
279.81	88.5
280.042	83.5
280.273	92.5
280.505	84.5
280.736	87.5
280.968	87.5
281.199	81.5
281.431	92.5
281.662	76.5
281.894	76.5
282.125	82.5
282.356	83.5
282.588	89.5
282.819	81.5
283.051	87.5
283.282	82.5
283.513	82.5
283.745	83.5
283.976	82.5
284.207	94.5
284.439	87.5
284.67	101.5
284.901	75.5
285.132	104.5
285.364	92.5
285.595	94.5
285.826	85.5
286.057	79.5
286.288	105.5
286.52	98.5
286.751	99.5
286.982	100.5
287.213	88.5
287.444	84.5
287.675	89.5
287.906	87.5
288.138	80.5
288.369	79.5
288.6	105.5
288.831	76.5
289.062	89.5
289.293	92.5
289.524	87.5
289.755	78.5
289.986	75.5
290.217	78.5
290.448	93.5
290.679	95.5
290.91	87.5
291.141	82.5
291.371	91.5
291.602	75.5
291.833	88.5
292.064	77.5
292.295	79.5
292.526	83.5
292.757	93.5
292.987	78.5
293.218	97.5
293.449	91.5
293.68	82.5
293.91	95.5
294.141	103.5
294.372	88.5
294.603	73.5
294.833	80.5
295.064	69.5
295.295	71.5
295.525	97.5
295.756	79.5
295.987	84.5
296.217	82.5
296.448	83.5
296.679	88.5
296.909	92.5
297.14	102.5
297.37	88.5
297.601	94.5
297.831	73.5
298.062	90.5
298.292	89.5
298.523	77.5
298.753	93.5
298.984	73.5
299.214	83.5
299.445	89.5
299.675	86.5
299.905	73.5
300.136	91.5
300.366	78.5
300.597	98.5
300.827	101.5
301.057	89.5
301.288	96.5
301.518	97.5
301.748	99.5
301.979	98.5
302.209	90.5
302.439	86.5
302.669	85.5
302.9	81.5
303.13	82.5
303.36	89.5
303.59	88.5
303.82	82.5
304.051	101.5
304.281	87.5
304.511	86.5
304.741	85.5
304.971	94.5
305.201	87.5
305.431	68.5
305.661	90.5
305.891	83.5
306.121	82.5
306.352	90.5
306.582	90.5
306.812	82.5
307.042	85.5
307.272	95.5
307.502	81.5
307.731	96.5
307.961	76.5
308.191	79.5
308.421	81.5
308.651	79.5
308.881	82.5
309.111	91.5
309.341	84.5
309.571	95.5
309.8	97.5
310.03	81.5
310.26	81.5
310.49	92.5
310.72	82.5
310.949	88.5
311.179	89.5
311.409	88.5
311.639	76.5
311.868	87.5
312.098	92.5
312.328	85.5
312.557	87.5
312.787	79.5
313.017	86.5
313.246	97.5
313.476	89.5
313.706	79.5
313.935	98.5
314.165	78.5
314.394	89.5
314.624	89.5
314.853	85.5
315.083	80.5
315.312	79.5
315.542	83.5
315.771	77.5
316.001	99.5
316.23	91.5
316.46	90.5
316.689	90.5
316.919	88.5
317.148	87.5
317.377	92.5
317.607	86.5
317.836	90.5
318.065	97.5
318.295	98.5
318.524	82.5
318.753	89.5
318.983	95.5
319.212	88.5
319.441	94.5
319.67	83.5
319.9	90.5
320.129	91.5
320.358	90.5
320.587	91.5
320.816	83.5
321.046	92.5
321.275	97.5
321.504	81.5
321.733	93.5
321.962	81.5
322.191	90.5
322.42	74.5
322.649	90.5
322.878	86.5
323.108	82.5
323.337	86.5
323.566	69.5
323.795	73.5
324.024	95.5
324.253	87.5
324.482	81.5
324.71	95.5
324.939	80.5
325.168	84.5
325.397	95.5
325.626	91.5
325.855	84.5
326.084	93.5
326.313	79.5
326.542	93.5
326.77	90.5
326.999	91.5
327.228	88.5
327.457	93.5
327.686	95.5
327.914	81.5
328.143	79.5
328.372	86.5
328.6	80.5
328.829	95.5
329.058	75.5
329.287	92.5
329.515	83.5
329.744	93.5
329.972	91.5
330.201	86.5
330.43	84.5
330.658	75.5
330.887	85.5
331.115	91.5
331.344	87.5
331.572	82.5
331.801	84.5
332.03	83.5
332.258	93.5
332.486	90.5
332.715	83.5
332.943	101.5
333.172	85.5
333.4	84.5
333.629	97.5
333.857	85.5
334.085	90.5
334.314	87.5
334.542	104.5
334.771	87.5
334.999	79.5
335.227	83.5
335.455	72.5
335.684	88.5
335.912	69.5
336.14	82.5
336.369	71.5
336.597	88.5
336.825	99.5
337.053	86.5
337.281	85.5
337.51	81.5
337.738	95.5
337.966	81.5
338.194	83.5
338.422	86.5
338.65	74.5
338.878	87.5
339.106	96.5
339.334	86.5
339.562	87.5
339.79	86.5
340.018	93.5
340.246	81.5
340.474	92.5
340.702	83.5
340.93	91.5
341.158	94.5
341.386	87.5
341.614	90.5
341.842	98.5
342.07	80.5
342.298	89.5
342.526	88.5
342.754	79.5
342.981	85.5
343.209	67.5
343.437	100.5
343.665	73.5
343.893	96.5
344.12	90.5
344.348	89.5
344.576	91.5
344.804	90.5
345.031	87.5
345.259	81.5
345.487	81.5
345.714	95.5
345.942	96.5
346.17	90.5
346.397	96.5
346.625	92.5
346.853	88.5
347.08	80.5
347.308	88.5
347.535	92.5
347.763	87.5
347.99	94.5
348.218	83.5
348.445	86.5
348.673	94.5
348.9	88.5
349.128	88.5
349.355	77.5
349.583	83.5
349.81	79.5
350.037	91.5
350.265	92.5
350.492	88.5
350.72	69.5
350.947	91.5
351.174	86.5
351.402	81.5
351.629	87.5
351.856	92.5
352.083	81.5
352.311	93.5
352.538	93.5
352.765	87.5
352.992	89.5
353.22	86.5
353.447	75.5
353.674	86.5
353.901	93.5
354.128	102.5
354.355	85.5
354.583	77.5
354.81	77.5
355.037	81.5
355.264	91.5
355.491	79.5
355.718	87.5
355.945	104.5
356.172	84.5
356.399	77.5
356.626	77.5
356.853	98.5
357.08	88.5
357.307	91.5
357.534	77.5
357.761	75.5
357.988	79.5
358.215	88.5
358.441	82.5
358.668	82.5
358.895	81.5
359.122	72.5
359.349	92.5
359.576	82.5
359.802	86.5
360.029	77.5
360.256	100.5
360.483	96.5
360.709	86.5
360.936	75.5
361.163	80.5
361.39	81.5
361.616	79.5
361.843	84.5
362.07	80.5
362.296	81.5
362.523	81.5
362.749	80.5
362.976	91.5
363.203	81.5
363.429	81.5
363.656	68.5
363.882	96.5
364.109	95.5
364.335	83.5
364.562	71.5
364.788	75.5
365.015	95.5
365.241	83.5
365.468	97.5
365.694	85.5
365.92	82.5
366.147	90.5
366.373	88.5
366.599	79.5
366.826	73.5
367.052	90.5
367.278	92.5
367.505	86.5
367.731	87.5
367.957	68.5
368.184	79.5
368.41	79.5
368.636	80.5
368.862	91.5
369.089	68.5
369.315	91.5
369.541	81.5
369.767	81.5
369.993	80.5
370.219	82.5
370.445	74.5
370.672	75.5
370.898	83.5
371.124	80.5
371.35	76.5
371.576	96.5
371.802	84.5
372.028	84.5
372.254	89.5
372.48	89.5
372.706	76.5
372.932	79.5
373.158	93.5
373.384	79.5
373.61	90.5
373.835	82.5
374.061	80.5
374.287	83.5
374.513	79.5
374.739	79.5
374.965	96.5
375.191	85.5
375.416	68.5
375.642	79.5
375.868	75.5
376.094	86.5
376.319	70.5
376.545	85.5
376.771	87.5
376.997	76.5
377.222	88.5
377.448	93.5
377.674	81.5
377.899	89.5
378.125	83.5
378.35	85.5
378.576	88.5
378.802	66.5
379.027	91.5
379.253	83.5
379.478	90.5
379.704	77.5
379.929	76.5
380.155	90.5
380.38	78.5
380.606	81.5
380.831	85.5
381.057	67.5
381.282	77.5
381.507	80.5
381.733	88.5
381.958	90.5
382.184	99.5
382.409	80.5
382.634	81.5
382.86	83.5
383.085	82.5
383.31	80.5
383.535	79.5
383.761	77.5
383.986	96.5
384.211	89.5
384.436	74.5
384.662	94.5
384.887	88.5
385.112	75.5
385.337	77.5
385.562	77.5
385.787	86.5
386.013	76.5
386.238	87.5
386.463	88.5
386.688	92.5
386.913	86.5
387.138	95.5
387.363	85.5
387.588	92.5
387.813	74.5
388.038	86.5
388.263	75.5
388.488	105.5
388.713	89.5
388.938	79.5
389.163	80.5
389.387	84.5
389.612	88.5
389.837	87.5
390.062	89.5
390.287	87.5
390.512	83.5
390.736	72.5
390.961	69.5
391.186	75.5
391.411	80.5
391.636	76.5
391.86	85.5
392.085	79.5
392.31	96.5
392.534	88.5
392.759	77.5
392.984	92.5
393.208	84.5
393.433	88.5
393.658	83.5
393.882	77.5
394.107	89.5
394.331	89.5
394.556	84.5
394.78	91.5
395.005	87.5
395.229	69.5
395.454	101.5
395.678	78.5
395.903	81.5
396.127	94.5
396.352	100.5
396.576	89.5
396.801	76.5
397.025	80.5
397.249	79.5
397.474	91.5
397.698	85.5
397.922	80.5
398.147	69.5
398.371	94.5
398.595	79.5
398.82	78.5
399.044	87.5
399.268	65.5
399.492	88.5
399.717	89.5
399.941	73.5
400.165	88.5
400.389	76.5
400.613	91.5
400.837	80.5
401.062	83.5
401.286	80.5
401.51	85.5
401.734	87.5
401.958	83.5
402.182	88.5
402.406	77.5
402.63	73.5
402.854	78.5
403.078	90.5
403.302	91.5
403.526	89.5
403.75	91.5
403.974	83.5
404.198	83.5
404.422	92.5
404.645	93.5
404.869	88.5
405.093	78.5
405.317	81.5
405.541	92.5
405.765	91.5
405.988	90.5
406.212	91.5
406.436	85.5
406.66	79.5
406.883	93.5
407.107	90.5
407.331	80.5
407.555	79.5
407.778	87.5
408.002	80.5
408.226	93.5
408.449	89.5
408.673	85.5
408.896	76.5
409.12	100.5
409.344	90.5
409.567	83.5
409.791	74.5
410.014	84.5
410.238	88.5
410.461	90.5
410.685	75.5
410.908	99.5
411.132	77.5
411.355	75.5
411.578	85.5
411.802	86.5
412.025	74.5
412.249	75.5
412.472	108.5
412.695	83.5
412.919	78.5
413.142	82.5
413.365	77.5
413.589	84.5
413.812	76.5
414.035	84.5
414.258	99.5
414.482	86.5
414.705	71.5
414.928	76.5
415.151	79.5
415.374	85.5
415.597	83.5
415.821	84.5
416.044	86.5
416.267	80.5
416.49	87.5
416.713	77.5
416.936	75.5
417.159	72.5
417.382	67.5
417.605	82.5
417.828	92.5
418.051	74.5
418.274	88.5
418.497	85.5
418.72	75.5
418.943	87.5
419.166	82.5
419.389	100.5
419.611	85.5
419.834	86.5
420.057	100.5
420.28	83.5
420.503	82.5
420.726	69.5
420.948	79.5
421.171	83.5
421.394	85.5
421.617	94.5
421.839	82.5
422.062	81.5
422.285	84.5
422.507	77.5
422.73	65.5
422.953	87.5
423.175	97.5
423.398	83.5
423.621	77.5
423.843	83.5
424.066	77.5
424.288	74.5
424.511	87.5
424.733	76.5
424.956	99.5
425.178	92.5
425.401	89.5
425.623	73.5
425.846	79.5
426.068	84.5
426.291	73.5
426.513	72.5
426.735	97.5
426.958	92.5
427.18	90.5
427.402	85.5
427.625	79.5
427.847	72.5
428.069	81.5
428.292	80.5
428.514	83.5
428.736	74.5
428.958	76.5
429.181	77.5
429.403	90.5
429.625	86.5
429.847	87.5
430.069	87.5
430.292	76.5
430.514	87.5
430.736	86.5
430.958	91.5
431.18	72.5
431.402	73.5
431.624	80.5
431.846	73.5
432.068	91.5
432.29	79.5
432.512	94.5
432.734	84.5
432.956	71.5
433.178	96.5
433.4	73.5
433.622	88.5
433.844	66.5
434.066	91.5
434.287	98.5
434.509	90.5
434.731	84.5
434.953	79.5
435.175	94.5
435.397	67.5
435.618	81.5
435.84	68.5
436.062	76.5
436.284	91.5
436.505	80.5
436.727	73.5
436.949	79.5
437.17	75.5
437.392	90.5
437.614	82.5
437.835	79.5
438.057	70.5
438.278	84.5
438.5	76.5
438.721	78.5
438.943	64.5
439.165	81.5
439.386	69.5
439.608	91.5
439.829	76.5
440.05	97.5
440.272	82.5
440.493	77.5
440.715	85.5
440.936	96.5
441.158	83.5
441.379	65.5
441.6	79.5
441.822	83.5
442.043	92.5
442.264	74.5
442.486	72.5
442.707	82.5
442.928	76.5
443.149	69.5
443.371	77.5
443.592	73.5
443.813	84.5
444.034	82.5
444.255	78.5
444.476	81.5
444.698	87.5
444.919	76.5
445.14	158.5
445.361	121.5
445.582	85.5
445.803	87.5
446.024	88.5
446.245	86.5
446.466	89.5
446.687	87.5
446.908	96.5
447.129	89.5
447.35	90.5
447.571	106.5
447.792	86.5
448.013	84.5
448.234	92.5
448.455	70.5
448.675	92.5
448.896	88.5
449.117	81.5
449.338	80.5
449.559	79.5
449.779	91.5
450	100.5
450.221	81.5
450.442	72.5
450.662	92.5
450.883	72.5
451.104	83.5
451.324	77.5
451.545	91.5
451.766	74.5
451.986	91.5
452.207	78.5
452.428	83.5
452.648	80.5
452.869	82.5
453.089	89.5
453.31	81.5
453.53	77.5
453.751	85.5
453.971	86.5
454.192	80.5
454.412	85.5
454.633	77.5
454.853	77.5
455.073	80.5
455.294	87.5
455.514	89.5
455.734	74.5
455.955	77.5
456.175	91.5
456.395	89.5
456.616	69.5
456.836	75.5
457.056	77.5
457.276	88.5
457.497	87.5
457.717	69.5
457.937	95.5
458.157	93.5
458.377	91.5
458.598	71.5
458.818	78.5
459.038	84.5
459.258	83.5
459.478	87.5
459.698	79.5
459.918	88.5
460.138	79.5
460.358	75.5
460.578	81.5
460.798	85.5
461.018	81.5
461.238	79.5
461.458	81.5
461.678	88.5
461.898	87.5
462.118	84.5
462.338	92.5
462.558	78.5
462.777	82.5
462.997	87.5
463.217	77.5
463.437	85.5
463.657	97.5
463.876	83.5
464.096	87.5
464.316	77.5
464.536	83.5
464.755	68.5
464.975	79.5
465.195	82.5
465.414	94.5
465.634	77.5
465.854	80.5
466.073	78.5
466.293	74.5
466.512	69.5
466.732	85.5
466.951	76.5
467.171	85.5
467.391	81.5
467.61	99.5
467.829	79.5
468.049	68.5
468.268	75.5
468.488	80.5
468.707	93.5
468.927	84.5
469.146	81.5
469.365	77.5
469.585	73.5
469.804	97.5
470.023	88.5
470.243	86.5
470.462	86.5
470.681	81.5
470.901	78.5
471.12	87.5
471.339	87.5
471.558	87.5
471.777	88.5
471.997	92.5
472.216	95.5
472.435	88.5
472.654	69.5
472.873	76.5
473.092	62.5
473.311	87.5
473.53	78.5
473.749	84.5
473.968	87.5
474.187	90.5
474.406	84.5
474.625	85.5
474.844	75.5
475.063	89.5
475.282	97.5
475.501	89.5
475.72	87.5
475.939	94.5
476.158	64.5
476.377	72.5
476.596	78.5
476.814	84.5
477.033	83.5
477.252	81.5
477.471	76.5
477.69	62.5
477.908	82.5
478.127	92.5
478.346	89.5
478.564	96.5
478.783	79.5
479.002	71.5
479.22	77.5
479.439	77.5
479.658	76.5
479.876	86.5
480.095	84.5
480.313	71.5
480.532	88.5
480.751	88.5
480.969	91.5
481.188	72.5
481.406	77.5
481.624	87.5
481.843	91.5
482.061	87.5
482.28	69.5
482.498	83.5
482.717	79.5
482.935	93.5
483.153	76.5
483.372	83.5
483.59	97.5
483.808	88.5
484.027	89.5
484.245	83.5
484.463	79.5
484.681	76.5
484.9	92.5
485.118	91.5
485.336	60.5
485.554	93.5
485.772	77.5
485.99	75.5
486.209	77.5
486.427	79.5
486.645	80.5
486.863	64.5
487.081	85.5
487.299	70.5
487.517	90.5
487.735	86.5
487.953	92.5
488.171	77.5
488.389	85.5
488.607	95.5
488.825	84.5
489.043	85.5
489.261	96.5
489.479	84.5
489.696	84.5
489.914	74.5
490.132	92.5
490.35	77.5
490.568	91.5
490.786	92.5
491.003	88.5
491.221	82.5
491.439	68.5
491.657	78.5
491.874	92.5
492.092	77.5
492.31	74.5
492.527	76.5
492.745	74.5
492.963	88.5
493.18	83.5
493.398	87.5
493.615	84.5
493.833	89.5
494.05	80.5
494.268	83.5
494.485	78.5
494.703	88.5
494.92	83.5
495.138	93.5
495.355	78.5
495.573	98.5
495.79	84.5
496.008	86.5
496.225	86.5
496.442	86.5
496.66	81.5
496.877	96.5
497.094	86.5
497.312	86.5
497.529	84.5
497.746	86.5
497.963	103.5
498.181	97.5
498.398	65.5
498.615	92.5
498.832	77.5
499.049	89.5
499.267	87.5
499.484	82.5
499.701	81.5
499.918	87.5
500.135	79.5
500.352	92.5
500.569	75.5
500.786	74.5
501.003	82.5
501.22	85.5
501.437	81.5
501.654	75.5
501.871	80.5
502.088	84.5
502.305	103.5
502.522	100.5
502.739	82.5
502.956	82.5
503.172	81.5
503.389	83.5
503.606	88.5
503.823	88.5
504.04	77.5
504.256	82.5
504.473	98.5
504.69	85.5
504.907	99.5
505.123	68.5
505.34	62.5
505.557	81.5
505.773	76.5
505.99	90.5
506.207	73.5
506.423	73.5
506.64	88.5
506.856	87.5
507.073	96.5
507.289	81.5
507.506	87.5
507.722	93.5
507.939	89.5
508.155	89.5
508.372	85.5
508.588	83.5
508.805	69.5
509.021	77.5
509.238	92.5
509.454	86.5
509.67	85.5
509.887	76.5
510.103	81.5
510.319	73.5
510.536	69.5
510.752	78.5
510.968	70.5
511.184	92.5
511.401	77.5
511.617	93.5
511.833	81.5
512.049	80.5
512.265	87.5
512.481	87.5
512.698	98.5
512.914	93.5
513.13	65.5
513.346	78.5
513.562	85.5
513.778	103.5
513.994	81.5
514.21	93.5
514.426	81.5
514.642	75.5
514.858	92.5
515.074	101.5
515.29	92.5
515.506	94.5
515.721	94.5
515.937	94.5
516.153	83.5
516.369	99.5
516.585	74.5
516.801	84.5
517.016	89.5
517.232	83.5
517.448	85.5
517.664	83.5
517.879	89.5
518.095	92.5
518.311	81.5
518.527	103.5
518.742	89.5
518.958	98.5
519.173	83.5
519.389	88.5
519.605	82.5
519.82	77.5
520.036	93.5
520.251	87.5
520.467	77.5
520.682	76.5
520.898	83.5
521.113	85.5
521.329	85.5
521.544	88.5
521.76	91.5
521.975	90.5
522.19	93.5
522.406	91.5
522.621	77.5
522.836	84.5
523.052	90.5
523.267	92.5
523.482	94.5
523.698	87.5
523.913	89.5
524.128	85.5
524.343	80.5
524.559	93.5
524.774	85.5
524.989	82.5
525.204	72.5
525.419	92.5
525.634	88.5
525.849	78.5
526.064	82.5
526.28	104.5
526.495	89.5
526.71	76.5
526.925	100.5
527.14	95.5
527.355	71.5
527.57	91.5
527.785	85.5
527.999	85.5
528.214	91.5
528.429	75.5
528.644	93.5
528.859	90.5
529.074	89.5
529.289	86.5
529.503	79.5
529.718	84.5
529.933	89.5
530.148	99.5
530.363	99.5
530.577	89.5
530.792	89.5
531.007	85.5
531.221	87.5
531.436	77.5
531.651	81.5
531.865	82.5
532.08	93.5
532.295	91.5
532.509	90.5
532.724	97.5
532.938	83.5
533.153	100.5
533.367	89.5
533.582	85.5
533.796	78.5
534.011	84.5
534.225	96.5
534.44	77.5
534.654	95.5
534.868	78.5
535.083	88.5
535.297	95.5
535.511	68.5
535.726	81.5
535.94	93.5
536.154	96.5
536.369	79.5
536.583	85.5
536.797	75.5
537.011	75.5
537.225	80.5
537.44	89.5
537.654	71.5
537.868	107.5
538.082	82.5
538.296	92.5
538.51	98.5
538.724	96.5
538.938	92.5
539.153	105.5
539.367	89.5
539.581	92.5
539.795	80.5
540.009	81.5
540.222	75.5
