Data from BG_HRD10591_052.txt Node
Date: Fri May 16 15:27:13 EDT 2025
User: Yrep
Spectrometer: HR+D1059
Trigger mode: 1
Integration Time (sec): 1.000000E-1
Scans to average: 1
Electric dark correction enabled: true
Nonlinearity correction enabled: false
Boxcar width: 0
XAxis mode: Wavelengths
Number of Pixels in Spectrum: 2048
>>>>>Begin Spectral Data<<<<<
223.165	-12.06
223.4	-12.06
223.635	-12.06
223.869	-22.06
224.104	-18.06
224.338	-17.06
224.573	-15.06
224.808	-18.06
225.042	-9.06
225.277	-7.06
225.511	-12.06
225.746	11.94
225.98	3.94
226.215	8.94
226.449	25.94
226.683	11.94
226.918	25.94
227.152	41.94
227.387	39.94
227.621	38.94
227.856	39.94
228.09	36.94
228.324	57.94
228.559	70.94
228.793	65.94
229.027	56.94
229.262	65.94
229.496	63.94
229.73	61.94
229.964	68.94
230.199	77.94
230.433	82.94
230.667	90.94
230.901	66.94
231.136	90.94
231.37	76.94
231.604	78.94
231.838	84.94
232.072	64.94
232.306	78.94
232.541	98.94
232.775	90.94
233.009	90.94
233.243	97.94
233.477	93.94
233.711	74.94
233.945	83.94
234.179	79.94
234.413	86.94
234.647	77.94
234.881	90.94
235.115	86.94
235.349	83.94
235.583	87.94
235.817	85.94
236.051	77.94
236.285	79.94
236.519	82.94
236.753	75.94
236.987	85.94
237.221	82.94
237.455	59.94
237.689	91.94
237.922	79.94
238.156	76.94
238.39	85.94
238.624	76.94
238.858	65.94
239.091	75.94
239.325	59.94
239.559	83.94
239.793	91.94
240.027	81.94
240.26	87.94
240.494	80.94
240.728	92.94
240.961	55.94
241.195	67.94
241.429	83.94
241.662	79.94
241.896	78.94
242.13	74.94
242.363	89.94
242.597	97.94
242.83	85.94
243.064	79.94
243.298	71.94
243.531	97.94
243.765	84.94
243.998	85.94
244.232	91.94
244.465	92.94
244.699	80.94
244.932	82.94
245.166	74.94
245.399	82.94
245.633	95.94
245.866	76.94
246.099	82.94
246.333	73.94
246.566	83.94
246.8	88.94
247.033	73.94
247.266	93.94
247.5	88.94
247.733	79.94
247.966	75.94
248.2	83.94
248.433	89.94
248.666	91.94
248.899	86.94
249.133	88.94
249.366	82.94
249.599	91.94
249.832	85.94
250.066	87.94
250.299	100.94
250.532	77.94
250.765	75.94
250.998	85.94
251.231	86.94
251.465	73.94
251.698	72.94
251.931	76.94
252.164	80.94
252.397	70.94
252.63	89.94
252.863	90.94
253.096	76.94
253.329	84.94
253.562	82.94
253.795	87.94
254.028	85.94
254.261	85.94
254.494	79.94
254.727	92.94
254.96	86.94
255.193	97.94
255.426	94.94
255.659	73.94
255.892	77.94
256.124	91.94
256.357	81.94
256.59	68.94
256.823	90.94
257.056	97.94
257.289	83.94
257.521	90.94
257.754	69.94
257.987	80.94
258.22	86.94
258.452	95.94
258.685	82.94
258.918	95.94
259.151	87.94
259.383	89.94
259.616	81.94
259.849	79.94
260.081	84.94
260.314	81.94
260.547	75.94
260.779	80.94
261.012	89.94
261.244	84.94
261.477	90.94
261.71	65.94
261.942	78.94
262.175	85.94
262.407	91.94
262.64	76.94
262.872	83.94
263.105	87.94
263.337	91.94
263.57	73.94
263.802	86.94
264.035	79.94
264.267	71.94
264.499	89.94
264.732	86.94
264.964	95.94
265.197	89.94
265.429	85.94
265.661	88.94
265.894	95.94
266.126	83.94
266.358	86.94
266.591	86.94
266.823	90.94
267.055	79.94
267.287	89.94
267.52	86.94
267.752	81.94
267.984	102.94
268.216	88.94
268.448	85.94
268.681	83.94
268.913	75.94
269.145	95.94
269.377	89.94
269.609	78.94
269.841	95.94
270.073	87.94
270.306	84.94
270.538	98.94
270.77	105.94
271.002	78.94
271.234	89.94
271.466	112.94
271.698	91.94
271.93	94.94
272.162	94.94
272.394	95.94
272.626	87.94
272.858	78.94
273.09	92.94
273.322	84.94
273.553	80.94
273.785	89.94
274.017	85.94
274.249	86.94
274.481	97.94
274.713	79.94
274.945	95.94
275.176	84.94
275.408	85.94
275.64	94.94
275.872	65.94
276.104	92.94
276.335	89.94
276.567	89.94
276.799	76.94
277.031	83.94
277.262	93.94
277.494	91.94
277.726	101.94
277.957	89.94
278.189	91.94
278.421	92.94
278.652	99.94
278.884	91.94
279.115	91.94
279.347	89.94
279.579	103.94
279.81	88.94
280.042	94.94
280.273	93.94
280.505	81.94
280.736	96.94
280.968	89.94
281.199	112.94
281.431	83.94
281.662	84.94
281.894	101.94
282.125	96.94
282.356	85.94
282.588	87.94
282.819	82.94
283.051	97.94
283.282	88.94
283.513	98.94
283.745	100.94
283.976	89.94
284.207	92.94
284.439	87.94
284.67	86.94
284.901	93.94
285.132	81.94
285.364	95.94
285.595	90.94
285.826	80.94
286.057	93.94
286.288	89.94
286.52	99.94
286.751	99.94
286.982	93.94
287.213	85.94
287.444	92.94
287.675	107.94
287.906	98.94
288.138	86.94
288.369	85.94
288.6	91.94
288.831	81.94
289.062	100.94
289.293	95.94
289.524	86.94
289.755	80.94
289.986	92.94
290.217	73.94
290.448	88.94
290.679	87.94
290.91	86.94
291.141	84.94
291.371	80.94
291.602	87.94
291.833	82.94
292.064	94.94
292.295	95.94
292.526	95.94
292.757	94.94
292.987	108.94
293.218	89.94
293.449	72.94
293.68	97.94
293.91	87.94
294.141	96.94
294.372	90.94
294.603	93.94
294.833	73.94
295.064	101.94
295.295	91.94
295.525	83.94
295.756	98.94
295.987	94.94
296.217	98.94
296.448	92.94
296.679	85.94
296.909	93.94
297.14	89.94
297.37	85.94
297.601	73.94
297.831	92.94
298.062	102.94
298.292	103.94
298.523	88.94
298.753	89.94
298.984	90.94
299.214	88.94
299.445	73.94
299.675	84.94
299.905	88.94
300.136	100.94
300.366	97.94
300.597	89.94
300.827	92.94
301.057	89.94
301.288	94.94
301.518	98.94
301.748	91.94
301.979	113.94
302.209	98.94
302.439	89.94
302.669	99.94
302.9	95.94
303.13	82.94
303.36	91.94
303.59	85.94
303.82	84.94
304.051	93.94
304.281	87.94
304.511	89.94
304.741	88.94
304.971	92.94
305.201	102.94
305.431	89.94
305.661	93.94
305.891	90.94
306.121	86.94
306.352	93.94
306.582	101.94
306.812	81.94
307.042	90.94
307.272	94.94
307.502	97.94
307.731	86.94
307.961	83.94
308.191	93.94
308.421	81.94
308.651	86.94
308.881	91.94
309.111	84.94
309.341	90.94
309.571	83.94
309.8	93.94
310.03	91.94
310.26	72.94
310.49	83.94
310.72	75.94
310.949	78.94
311.179	99.94
311.409	85.94
311.639	95.94
311.868	100.94
312.098	98.94
312.328	98.94
312.557	86.94
312.787	93.94
313.017	98.94
313.246	101.94
313.476	99.94
313.706	87.94
313.935	89.94
314.165	79.94
314.394	78.94
314.624	100.94
314.853	105.94
315.083	90.94
315.312	98.94
315.542	88.94
315.771	98.94
316.001	80.94
316.23	86.94
316.46	99.94
316.689	99.94
316.919	86.94
317.148	85.94
317.377	94.94
317.607	102.94
317.836	94.94
318.065	85.94
318.295	95.94
318.524	105.94
318.753	99.94
318.983	91.94
319.212	96.94
319.441	87.94
319.67	91.94
319.9	69.94
320.129	93.94
320.358	85.94
320.587	101.94
320.816	88.94
321.046	88.94
321.275	97.94
321.504	107.94
321.733	93.94
321.962	94.94
322.191	88.94
322.42	84.94
322.649	94.94
322.878	92.94
323.108	105.94
323.337	98.94
323.566	95.94
323.795	91.94
324.024	84.94
324.253	98.94
324.482	92.94
324.71	97.94
324.939	91.94
325.168	101.94
325.397	90.94
325.626	89.94
325.855	101.94
326.084	99.94
326.313	91.94
326.542	86.94
326.77	87.94
326.999	97.94
327.228	101.94
327.457	86.94
327.686	91.94
327.914	102.94
328.143	91.94
328.372	85.94
328.6	90.94
328.829	98.94
329.058	102.94
329.287	96.94
329.515	101.94
329.744	92.94
329.972	91.94
330.201	84.94
330.43	87.94
330.658	82.94
330.887	83.94
331.115	93.94
331.344	95.94
331.572	101.94
331.801	88.94
332.03	94.94
332.258	95.94
332.486	95.94
332.715	84.94
332.943	88.94
333.172	83.94
333.4	93.94
333.629	93.94
333.857	93.94
334.085	79.94
334.314	81.94
334.542	86.94
334.771	90.94
334.999	96.94
335.227	101.94
335.455	102.94
335.684	91.94
335.912	92.94
336.14	101.94
336.369	85.94
336.597	99.94
336.825	87.94
337.053	86.94
337.281	81.94
337.51	89.94
337.738	74.94
337.966	99.94
338.194	95.94
338.422	77.94
338.65	91.94
338.878	106.94
339.106	95.94
339.334	94.94
339.562	97.94
339.79	87.94
340.018	98.94
340.246	96.94
340.474	86.94
340.702	92.94
340.93	96.94
341.158	85.94
341.386	113.94
341.614	93.94
341.842	92.94
342.07	99.94
342.298	92.94
342.526	98.94
342.754	93.94
342.981	72.94
343.209	78.94
343.437	98.94
343.665	82.94
343.893	71.94
344.12	86.94
344.348	96.94
344.576	84.94
344.804	91.94
345.031	92.94
345.259	97.94
345.487	84.94
345.714	94.94
345.942	88.94
346.17	81.94
346.397	85.94
346.625	77.94
346.853	81.94
347.08	85.94
347.308	92.94
347.535	97.94
347.763	94.94
347.99	94.94
348.218	87.94
348.445	98.94
348.673	96.94
348.9	93.94
349.128	110.94
349.355	90.94
349.583	89.94
349.81	100.94
350.037	84.94
350.265	88.94
350.492	93.94
350.72	86.94
350.947	98.94
351.174	107.94
351.402	96.94
351.629	80.94
351.856	108.94
352.083	85.94
352.311	98.94
352.538	99.94
352.765	90.94
352.992	105.94
353.22	99.94
353.447	86.94
353.674	87.94
353.901	87.94
354.128	80.94
354.355	77.94
354.583	95.94
354.81	93.94
355.037	92.94
355.264	98.94
355.491	107.94
355.718	82.94
355.945	88.94
356.172	86.94
356.399	81.94
356.626	94.94
356.853	98.94
357.08	86.94
357.307	86.94
357.534	108.94
357.761	93.94
357.988	90.94
358.215	77.94
358.441	93.94
358.668	90.94
358.895	83.94
359.122	92.94
359.349	97.94
359.576	81.94
359.802	83.94
360.029	104.94
360.256	78.94
360.483	87.94
360.709	91.94
360.936	86.94
361.163	109.94
361.39	95.94
361.616	94.94
361.843	104.94
362.07	102.94
362.296	86.94
362.523	99.94
362.749	81.94
362.976	78.94
363.203	95.94
363.429	90.94
363.656	103.94
363.882	75.94
364.109	94.94
364.335	89.94
364.562	95.94
364.788	92.94
365.015	89.94
365.241	107.94
365.468	96.94
365.694	87.94
365.92	98.94
366.147	96.94
366.373	83.94
366.599	82.94
366.826	89.94
367.052	84.94
367.278	101.94
367.505	81.94
367.731	92.94
367.957	93.94
368.184	95.94
368.41	72.94
368.636	78.94
368.862	84.94
369.089	95.94
369.315	83.94
369.541	87.94
369.767	89.94
369.993	91.94
370.219	93.94
370.445	91.94
370.672	79.94
370.898	91.94
371.124	85.94
371.35	80.94
371.576	90.94
371.802	79.94
372.028	94.94
372.254	79.94
372.48	96.94
372.706	88.94
372.932	97.94
373.158	100.94
373.384	98.94
373.61	89.94
373.835	102.94
374.061	95.94
374.287	96.94
374.513	89.94
374.739	86.94
374.965	101.94
375.191	90.94
375.416	93.94
375.642	90.94
375.868	91.94
376.094	83.94
376.319	89.94
376.545	89.94
376.771	85.94
376.997	99.94
377.222	97.94
377.448	97.94
377.674	85.94
377.899	94.94
378.125	89.94
378.35	89.94
378.576	80.94
378.802	86.94
379.027	84.94
379.253	83.94
379.478	94.94
379.704	98.94
379.929	97.94
380.155	83.94
380.38	92.94
380.606	76.94
380.831	97.94
381.057	97.94
381.282	95.94
381.507	93.94
381.733	82.94
381.958	85.94
382.184	92.94
382.409	79.94
382.634	85.94
382.86	90.94
383.085	85.94
383.31	89.94
383.535	91.94
383.761	85.94
383.986	98.94
384.211	84.94
384.436	105.94
384.662	89.94
384.887	96.94
385.112	93.94
385.337	99.94
385.562	90.94
385.787	98.94
386.013	91.94
386.238	85.94
386.463	101.94
386.688	101.94
386.913	89.94
387.138	83.94
387.363	82.94
387.588	98.94
387.813	105.94
388.038	87.94
388.263	96.94
388.488	81.94
388.713	77.94
388.938	87.94
389.163	100.94
389.387	83.94
389.612	94.94
389.837	85.94
390.062	93.94
390.287	91.94
390.512	94.94
390.736	88.94
390.961	71.94
391.186	81.94
391.411	86.94
391.636	90.94
391.86	87.94
392.085	94.94
392.31	83.94
392.534	87.94
392.759	99.94
392.984	87.94
393.208	89.94
393.433	105.94
393.658	93.94
393.882	95.94
394.107	89.94
394.331	101.94
394.556	71.94
394.78	86.94
395.005	85.94
395.229	88.94
395.454	98.94
395.678	80.94
395.903	94.94
396.127	94.94
396.352	86.94
396.576	97.94
396.801	80.94
397.025	74.94
397.249	97.94
397.474	84.94
397.698	74.94
397.922	95.94
398.147	89.94
398.371	86.94
398.595	99.94
398.82	106.94
399.044	91.94
399.268	90.94
399.492	108.94
399.717	100.94
399.941	85.94
400.165	89.94
400.389	85.94
400.613	89.94
400.837	87.94
401.062	101.94
401.286	92.94
401.51	71.94
401.734	79.94
401.958	105.94
402.182	96.94
402.406	86.94
402.63	91.94
402.854	93.94
403.078	84.94
403.302	95.94
403.526	101.94
403.75	106.94
403.974	102.94
404.198	91.94
404.422	97.94
404.645	101.94
404.869	84.94
405.093	90.94
405.317	90.94
405.541	87.94
405.765	105.94
405.988	83.94
406.212	95.94
406.436	80.94
406.66	103.94
406.883	88.94
407.107	100.94
407.331	85.94
407.555	96.94
407.778	82.94
408.002	94.94
408.226	96.94
408.449	103.94
408.673	86.94
408.896	97.94
409.12	86.94
409.344	105.94
409.567	100.94
409.791	107.94
410.014	102.94
410.238	99.94
410.461	94.94
410.685	89.94
410.908	96.94
411.132	83.94
411.355	86.94
411.578	82.94
411.802	99.94
412.025	95.94
412.249	102.94
412.472	92.94
412.695	92.94
412.919	97.94
413.142	93.94
413.365	89.94
413.589	82.94
413.812	86.94
414.035	95.94
414.258	100.94
414.482	85.94
414.705	79.94
414.928	100.94
415.151	95.94
415.374	94.94
415.597	96.94
415.821	100.94
416.044	79.94
416.267	96.94
416.49	96.94
416.713	85.94
416.936	83.94
417.159	95.94
417.382	95.94
417.605	92.94
417.828	78.94
418.051	91.94
418.274	102.94
418.497	88.94
418.72	73.94
418.943	100.94
419.166	89.94
419.389	92.94
419.611	91.94
419.834	98.94
420.057	87.94
420.28	82.94
420.503	91.94
420.726	88.94
420.948	90.94
421.171	79.94
421.394	97.94
421.617	96.94
421.839	105.94
422.062	89.94
422.285	80.94
422.507	90.94
422.73	83.94
422.953	86.94
423.175	81.94
423.398	92.94
423.621	99.94
423.843	87.94
424.066	110.94
424.288	96.94
424.511	99.94
424.733	89.94
424.956	79.94
425.178	92.94
425.401	96.94
425.623	78.94
425.846	92.94
426.068	84.94
426.291	80.94
426.513	93.94
426.735	108.94
426.958	87.94
427.18	85.94
427.402	84.94
427.625	93.94
427.847	85.94
428.069	89.94
428.292	93.94
428.514	92.94
428.736	83.94
428.958	95.94
429.181	93.94
429.403	99.94
429.625	94.94
429.847	88.94
430.069	90.94
430.292	92.94
430.514	102.94
430.736	82.94
430.958	81.94
431.18	84.94
431.402	96.94
431.624	78.94
431.846	79.94
432.068	87.94
432.29	92.94
432.512	92.94
432.734	96.94
432.956	90.94
433.178	94.94
433.4	80.94
433.622	90.94
433.844	85.94
434.066	89.94
434.287	95.94
434.509	82.94
434.731	96.94
434.953	89.94
435.175	91.94
435.397	99.94
435.618	87.94
435.84	111.94
436.062	82.94
436.284	86.94
436.505	92.94
436.727	95.94
436.949	94.94
437.17	82.94
437.392	93.94
437.614	95.94
437.835	70.94
438.057	97.94
438.278	89.94
438.5	73.94
438.721	91.94
438.943	82.94
439.165	94.94
439.386	96.94
439.608	78.94
439.829	98.94
440.05	87.94
440.272	106.94
440.493	97.94
440.715	86.94
440.936	100.94
441.158	85.94
441.379	89.94
441.6	93.94
441.822	82.94
442.043	94.94
442.264	99.94
442.486	88.94
442.707	76.94
442.928	90.94
443.149	87.94
443.371	103.94
443.592	97.94
443.813	97.94
444.034	91.94
444.255	95.94
444.476	78.94
444.698	90.94
444.919	84.94
445.14	159.94
445.361	121.94
445.582	101.94
445.803	93.94
446.024	83.94
446.245	98.94
446.466	81.94
446.687	72.94
446.908	96.94
447.129	76.94
447.35	91.94
447.571	77.94
447.792	102.94
448.013	109.94
448.234	97.94
448.455	102.94
448.675	95.94
448.896	86.94
449.117	84.94
449.338	94.94
449.559	86.94
449.779	79.94
450	85.94
450.221	83.94
450.442	85.94
450.662	77.94
450.883	92.94
451.104	92.94
451.324	94.94
451.545	81.94
451.766	105.94
451.986	77.94
452.207	96.94
452.428	91.94
452.648	87.94
452.869	76.94
453.089	80.94
453.31	94.94
453.53	87.94
453.751	83.94
453.971	93.94
454.192	72.94
454.412	80.94
454.633	92.94
454.853	107.94
455.073	86.94
455.294	91.94
455.514	100.94
455.734	84.94
455.955	90.94
456.175	73.94
456.395	97.94
456.616	93.94
456.836	82.94
457.056	99.94
457.276	88.94
457.497	71.94
457.717	90.94
457.937	96.94
458.157	86.94
458.377	77.94
458.598	91.94
458.818	89.94
459.038	90.94
459.258	87.94
459.478	81.94
459.698	86.94
459.918	90.94
460.138	84.94
460.358	83.94
460.578	105.94
460.798	98.94
461.018	86.94
461.238	91.94
461.458	95.94
461.678	97.94
461.898	86.94
462.118	75.94
462.338	80.94
462.558	100.94
462.777	95.94
462.997	105.94
463.217	91.94
463.437	100.94
463.657	93.94
463.876	93.94
464.096	96.94
464.316	82.94
464.536	107.94
464.755	96.94
464.975	93.94
465.195	79.94
465.414	79.94
465.634	85.94
465.854	101.94
466.073	98.94
466.293	91.94
466.512	91.94
466.732	82.94
466.951	89.94
467.171	86.94
467.391	85.94
467.61	86.94
467.829	92.94
468.049	88.94
468.268	95.94
468.488	93.94
468.707	83.94
468.927	83.94
469.146	84.94
469.365	90.94
469.585	97.94
469.804	95.94
470.023	79.94
470.243	89.94
470.462	89.94
470.681	88.94
470.901	85.94
471.12	99.94
471.339	97.94
471.558	94.94
471.777	102.94
471.997	91.94
472.216	101.94
472.435	102.94
472.654	84.94
472.873	92.94
473.092	98.94
473.311	87.94
473.53	97.94
473.749	85.94
473.968	91.94
474.187	81.94
474.406	86.94
474.625	73.94
474.844	93.94
475.063	94.94
475.282	85.94
475.501	83.94
475.72	101.94
475.939	87.94
476.158	88.94
476.377	99.94
476.596	89.94
476.814	85.94
477.033	101.94
477.252	95.94
477.471	84.94
477.69	92.94
477.908	81.94
478.127	95.94
478.346	94.94
478.564	90.94
478.783	90.94
479.002	101.94
479.22	78.94
479.439	88.94
479.658	94.94
479.876	87.94
480.095	92.94
480.313	89.94
480.532	107.94
480.751	95.94
480.969	79.94
481.188	90.94
481.406	94.94
481.624	90.94
481.843	85.94
482.061	103.94
482.28	101.94
482.498	81.94
482.717	94.94
482.935	95.94
483.153	97.94
483.372	94.94
483.59	97.94
483.808	88.94
484.027	91.94
484.245	101.94
484.463	103.94
484.681	98.94
484.9	82.94
485.118	87.94
485.336	92.94
485.554	93.94
485.772	91.94
485.99	86.94
486.209	92.94
486.427	94.94
486.645	80.94
486.863	113.94
487.081	103.94
487.299	100.94
487.517	78.94
487.735	75.94
487.953	87.94
488.171	97.94
488.389	81.94
488.607	99.94
488.825	90.94
489.043	86.94
489.261	99.94
489.479	91.94
489.696	100.94
489.914	80.94
490.132	86.94
490.35	93.94
490.568	93.94
490.786	82.94
491.003	93.94
491.221	89.94
491.439	101.94
491.657	93.94
491.874	80.94
492.092	95.94
492.31	100.94
492.527	92.94
492.745	82.94
492.963	97.94
493.18	90.94
493.398	103.94
493.615	89.94
493.833	90.94
494.05	98.94
494.268	95.94
494.485	93.94
494.703	110.94
494.92	84.94
495.138	66.94
495.355	86.94
495.573	95.94
495.79	94.94
496.008	89.94
496.225	93.94
496.442	91.94
496.66	94.94
496.877	95.94
497.094	98.94
497.312	92.94
497.529	101.94
497.746	90.94
497.963	92.94
498.181	92.94
498.398	113.94
498.615	92.94
498.832	95.94
499.049	93.94
499.267	102.94
499.484	87.94
499.701	96.94
499.918	113.94
500.135	115.94
500.352	102.94
500.569	113.94
500.786	106.94
501.003	118.94
501.22	87.94
501.437	102.94
501.654	105.94
501.871	107.94
502.088	91.94
502.305	101.94
502.522	94.94
502.739	106.94
502.956	90.94
503.172	100.94
503.389	99.94
503.606	90.94
503.823	105.94
504.04	102.94
504.256	100.94
504.473	102.94
504.69	89.94
504.907	95.94
505.123	95.94
505.34	89.94
505.557	89.94
505.773	94.94
505.99	102.94
506.207	92.94
506.423	105.94
506.64	90.94
506.856	90.94
507.073	98.94
507.289	90.94
507.506	92.94
507.722	94.94
507.939	92.94
508.155	95.94
508.372	92.94
508.588	93.94
508.805	108.94
509.021	81.94
509.238	82.94
509.454	84.94
509.67	82.94
509.887	96.94
510.103	92.94
510.319	92.94
510.536	94.94
510.752	94.94
510.968	69.94
511.184	84.94
511.401	90.94
511.617	99.94
511.833	85.94
512.049	88.94
512.265	86.94
512.481	99.94
512.698	94.94
512.914	98.94
513.13	85.94
513.346	86.94
513.562	91.94
513.778	101.94
513.994	101.94
514.21	85.94
514.426	90.94
514.642	77.94
514.858	96.94
515.074	103.94
515.29	114.94
515.506	97.94
515.721	83.94
515.937	95.94
516.153	94.94
516.369	92.94
516.585	96.94
516.801	102.94
517.016	85.94
517.232	83.94
517.448	93.94
517.664	96.94
517.879	97.94
518.095	102.94
