Data from BG_HRD10591_015.txt Node
Date: Fri May 16 15:26:54 EDT 2025
User: Yrep
Spectrometer: HR+D1059
Trigger mode: 1
Integration Time (sec): 1.000000E-1
Scans to average: 1
Electric dark correction enabled: true
Nonlinearity correction enabled: false
Boxcar width: 0
XAxis mode: Wavelengths
Number of Pixels in Spectrum: 2048
>>>>>Begin Spectral Data<<<<<
223.165	-29.31
223.4	-29.31
223.635	-29.31
223.869	-20.31
224.104	-19.31
224.338	-8.31
224.573	-12.31
224.808	-13.31
225.042	-7.31
225.277	-5.31
225.511	-2.31
225.746	7.69
225.98	17.69
226.215	6.69
226.449	19.69
226.683	21.69
226.918	16.69
227.152	27.69
227.387	26.69
227.621	49.69
227.856	47.69
228.09	51.69
228.324	54.69
228.559	65.69
228.793	60.69
229.027	70.69
229.262	82.69
229.496	75.69
229.73	73.69
229.964	76.69
230.199	65.69
230.433	78.69
230.667	75.69
230.901	91.69
231.136	82.69
231.37	91.69
231.604	86.69
231.838	79.69
232.072	74.69
232.306	80.69
232.541	77.69
232.775	74.69
233.009	85.69
233.243	64.69
233.477	86.69
233.711	82.69
233.945	82.69
234.179	82.69
234.413	96.69
234.647	88.69
234.881	82.69
235.115	82.69
235.349	75.69
235.583	82.69
235.817	74.69
236.051	87.69
236.285	65.69
236.519	69.69
236.753	71.69
236.987	75.69
237.221	79.69
237.455	85.69
237.689	70.69
237.922	80.69
238.156	92.69
238.39	92.69
238.624	86.69
238.858	78.69
239.091	78.69
239.325	77.69
239.559	96.69
239.793	77.69
240.027	83.69
240.26	79.69
240.494	79.69
240.728	74.69
240.961	78.69
241.195	80.69
241.429	80.69
241.662	79.69
241.896	69.69
242.13	75.69
242.363	75.69
242.597	64.69
242.83	74.69
243.064	76.69
243.298	83.69
243.531	68.69
243.765	88.69
243.998	83.69
244.232	73.69
244.465	72.69
244.699	82.69
244.932	56.69
245.166	89.69
245.399	69.69
245.633	74.69
245.866	81.69
246.099	76.69
246.333	75.69
246.566	86.69
246.8	70.69
247.033	75.69
247.266	93.69
247.5	77.69
247.733	76.69
247.966	78.69
248.2	74.69
248.433	79.69
248.666	82.69
248.899	83.69
249.133	70.69
249.366	75.69
249.599	88.69
249.832	82.69
250.066	104.69
250.299	64.69
250.532	69.69
250.765	97.69
250.998	80.69
251.231	74.69
251.465	74.69
251.698	76.69
251.931	82.69
252.164	74.69
252.397	83.69
252.63	90.69
252.863	78.69
253.096	71.69
253.329	77.69
253.562	80.69
253.795	75.69
254.028	82.69
254.261	74.69
254.494	86.69
254.727	72.69
254.96	62.69
255.193	82.69
255.426	78.69
255.659	74.69
255.892	74.69
256.124	83.69
256.357	94.69
256.59	62.69
256.823	91.69
257.056	82.69
257.289	79.69
257.521	70.69
257.754	85.69
257.987	75.69
258.22	83.69
258.452	74.69
258.685	87.69
258.918	80.69
259.151	93.69
259.383	81.69
259.616	78.69
259.849	92.69
260.081	81.69
260.314	79.69
260.547	79.69
260.779	74.69
261.012	85.69
261.244	85.69
261.477	86.69
261.71	75.69
261.942	88.69
262.175	86.69
262.407	86.69
262.64	82.69
262.872	86.69
263.105	82.69
263.337	70.69
263.57	68.69
263.802	81.69
264.035	81.69
264.267	71.69
264.499	82.69
264.732	72.69
264.964	95.69
265.197	90.69
265.429	88.69
265.661	75.69
265.894	92.69
266.126	85.69
266.358	102.69
266.591	92.69
266.823	86.69
267.055	89.69
267.287	90.69
267.52	77.69
267.752	85.69
267.984	80.69
268.216	82.69
268.448	86.69
268.681	85.69
268.913	86.69
269.145	82.69
269.377	76.69
269.609	91.69
269.841	87.69
270.073	80.69
270.306	69.69
270.538	79.69
270.77	74.69
271.002	74.69
271.234	76.69
271.466	92.69
271.698	77.69
271.93	86.69
272.162	89.69
272.394	82.69
272.626	87.69
272.858	83.69
273.09	73.69
273.322	95.69
273.553	98.69
273.785	78.69
274.017	80.69
274.249	79.69
274.481	86.69
274.713	90.69
274.945	87.69
275.176	88.69
275.408	89.69
275.64	78.69
275.872	84.69
276.104	79.69
276.335	87.69
276.567	75.69
276.799	96.69
277.031	86.69
277.262	91.69
277.494	89.69
277.726	82.69
277.957	82.69
278.189	76.69
278.421	95.69
278.652	79.69
278.884	83.69
279.115	83.69
279.347	83.69
279.579	90.69
279.81	76.69
280.042	85.69
280.273	82.69
280.505	75.69
280.736	89.69
280.968	86.69
281.199	84.69
281.431	75.69
281.662	82.69
281.894	96.69
282.125	92.69
282.356	75.69
282.588	88.69
282.819	77.69
283.051	86.69
283.282	90.69
283.513	89.69
283.745	81.69
283.976	93.69
284.207	81.69
284.439	86.69
284.67	104.69
284.901	80.69
285.132	86.69
285.364	75.69
285.595	78.69
285.826	75.69
286.057	81.69
286.288	92.69
286.52	84.69
286.751	74.69
286.982	78.69
287.213	88.69
287.444	96.69
287.675	91.69
287.906	87.69
288.138	77.69
288.369	88.69
288.6	77.69
288.831	88.69
289.062	78.69
289.293	93.69
289.524	89.69
289.755	86.69
289.986	80.69
290.217	99.69
290.448	83.69
290.679	87.69
290.91	86.69
291.141	86.69
291.371	106.69
291.602	87.69
291.833	97.69
292.064	93.69
292.295	91.69
292.526	86.69
292.757	91.69
292.987	97.69
293.218	88.69
293.449	73.69
293.68	90.69
293.91	91.69
294.141	81.69
294.372	80.69
294.603	80.69
294.833	86.69
295.064	86.69
295.295	92.69
295.525	94.69
295.756	93.69
295.987	98.69
296.217	74.69
296.448	71.69
296.679	73.69
296.909	90.69
297.14	79.69
297.37	90.69
297.601	96.69
297.831	80.69
298.062	84.69
298.292	66.69
298.523	75.69
298.753	96.69
298.984	96.69
299.214	87.69
299.445	95.69
299.675	87.69
299.905	80.69
300.136	88.69
300.366	79.69
300.597	82.69
300.827	76.69
301.057	92.69
301.288	91.69
301.518	77.69
301.748	84.69
301.979	102.69
302.209	81.69
302.439	80.69
302.669	88.69
302.9	102.69
303.13	79.69
303.36	81.69
303.59	73.69
303.82	83.69
304.051	82.69
304.281	87.69
304.511	88.69
304.741	73.69
304.971	75.69
305.201	99.69
305.431	80.69
305.661	89.69
305.891	80.69
306.121	92.69
306.352	81.69
306.582	83.69
306.812	76.69
307.042	81.69
307.272	94.69
307.502	78.69
307.731	87.69
307.961	83.69
308.191	94.69
308.421	94.69
308.651	87.69
308.881	80.69
309.111	83.69
309.341	90.69
309.571	95.69
309.8	102.69
310.03	95.69
310.26	82.69
310.49	78.69
310.72	67.69
310.949	94.69
311.179	73.69
311.409	92.69
311.639	68.69
311.868	76.69
312.098	95.69
312.328	102.69
312.557	86.69
312.787	74.69
313.017	90.69
313.246	88.69
313.476	66.69
313.706	95.69
313.935	91.69
314.165	75.69
314.394	95.69
314.624	93.69
314.853	86.69
315.083	92.69
315.312	91.69
315.542	89.69
315.771	80.69
316.001	86.69
316.23	72.69
316.46	83.69
316.689	83.69
316.919	89.69
317.148	94.69
317.377	80.69
317.607	95.69
317.836	102.69
318.065	83.69
318.295	84.69
318.524	91.69
318.753	78.69
318.983	80.69
319.212	76.69
319.441	90.69
319.67	92.69
319.9	86.69
320.129	84.69
320.358	86.69
320.587	86.69
320.816	80.69
321.046	90.69
321.275	78.69
321.504	87.69
321.733	86.69
321.962	84.69
322.191	83.69
322.42	84.69
322.649	72.69
322.878	85.69
323.108	81.69
323.337	81.69
323.566	82.69
323.795	88.69
324.024	95.69
324.253	86.69
324.482	76.69
324.71	88.69
324.939	89.69
325.168	75.69
325.397	89.69
325.626	68.69
325.855	80.69
326.084	84.69
326.313	99.69
326.542	83.69
326.77	77.69
326.999	87.69
327.228	80.69
327.457	89.69
327.686	96.69
327.914	94.69
328.143	92.69
328.372	97.69
328.6	82.69
328.829	82.69
329.058	68.69
329.287	64.69
329.515	98.69
329.744	93.69
329.972	86.69
330.201	90.69
330.43	84.69
330.658	87.69
330.887	90.69
331.115	94.69
331.344	76.69
331.572	94.69
331.801	91.69
332.03	82.69
332.258	77.69
332.486	92.69
332.715	90.69
332.943	76.69
333.172	87.69
333.4	95.69
333.629	91.69
333.857	79.69
334.085	87.69
334.314	78.69
334.542	98.69
334.771	80.69
334.999	82.69
335.227	88.69
335.455	79.69
335.684	72.69
335.912	82.69
336.14	95.69
336.369	110.69
336.597	88.69
336.825	77.69
337.053	90.69
337.281	88.69
337.51	77.69
337.738	96.69
337.966	89.69
338.194	83.69
338.422	74.69
338.65	98.69
338.878	79.69
339.106	97.69
339.334	92.69
339.562	75.69
339.79	75.69
340.018	76.69
340.246	79.69
340.474	70.69
340.702	91.69
340.93	94.69
341.158	90.69
341.386	82.69
341.614	91.69
341.842	81.69
342.07	93.69
342.298	79.69
342.526	68.69
342.754	92.69
342.981	91.69
343.209	98.69
343.437	114.69
343.665	80.69
343.893	83.69
344.12	85.69
344.348	80.69
344.576	91.69
344.804	82.69
345.031	88.69
345.259	80.69
345.487	86.69
345.714	90.69
345.942	77.69
346.17	69.69
346.397	90.69
346.625	82.69
346.853	87.69
347.08	84.69
347.308	85.69
347.535	69.69
347.763	67.69
347.99	82.69
348.218	80.69
348.445	82.69
348.673	78.69
348.9	98.69
349.128	101.69
349.355	81.69
349.583	87.69
349.81	78.69
350.037	81.69
350.265	88.69
350.492	66.69
350.72	83.69
350.947	82.69
351.174	83.69
351.402	89.69
351.629	92.69
351.856	73.69
352.083	72.69
352.311	79.69
352.538	91.69
352.765	80.69
352.992	80.69
353.22	76.69
353.447	89.69
353.674	85.69
353.901	78.69
354.128	89.69
354.355	82.69
354.583	81.69
354.81	89.69
355.037	82.69
355.264	88.69
355.491	82.69
355.718	84.69
355.945	87.69
356.172	86.69
356.399	92.69
356.626	87.69
356.853	87.69
357.08	94.69
357.307	87.69
357.534	89.69
357.761	64.69
357.988	78.69
358.215	80.69
358.441	79.69
358.668	84.69
358.895	69.69
359.122	90.69
359.349	82.69
359.576	80.69
359.802	87.69
360.029	77.69
360.256	86.69
360.483	90.69
360.709	92.69
360.936	96.69
361.163	103.69
361.39	75.69
361.616	84.69
361.843	90.69
362.07	79.69
362.296	80.69
362.523	94.69
362.749	89.69
362.976	68.69
363.203	78.69
363.429	75.69
363.656	67.69
363.882	87.69
364.109	88.69
364.335	86.69
364.562	70.69
364.788	82.69
365.015	88.69
365.241	80.69
365.468	78.69
365.694	80.69
365.92	86.69
366.147	86.69
366.373	82.69
366.599	86.69
366.826	90.69
367.052	85.69
367.278	79.69
367.505	93.69
367.731	83.69
367.957	89.69
368.184	70.69
368.41	87.69
368.636	73.69
368.862	80.69
369.089	99.69
369.315	91.69
369.541	82.69
369.767	88.69
369.993	88.69
370.219	96.69
370.445	97.69
370.672	80.69
370.898	88.69
371.124	77.69
371.35	76.69
371.576	84.69
371.802	88.69
372.028	84.69
372.254	89.69
372.48	72.69
372.706	87.69
372.932	80.69
373.158	86.69
373.384	83.69
373.61	82.69
373.835	103.69
374.061	75.69
374.287	72.69
374.513	78.69
374.739	89.69
374.965	82.69
375.191	79.69
375.416	74.69
375.642	80.69
375.868	74.69
376.094	97.69
376.319	92.69
376.545	76.69
376.771	87.69
376.997	91.69
377.222	88.69
377.448	93.69
377.674	83.69
377.899	90.69
378.125	94.69
378.35	76.69
378.576	72.69
378.802	83.69
379.027	79.69
379.253	92.69
379.478	82.69
379.704	78.69
379.929	87.69
380.155	80.69
380.38	88.69
380.606	94.69
380.831	85.69
381.057	99.69
381.282	79.69
381.507	78.69
381.733	90.69
381.958	72.69
382.184	89.69
382.409	88.69
382.634	83.69
382.86	82.69
383.085	82.69
383.31	88.69
383.535	92.69
383.761	81.69
383.986	77.69
384.211	86.69
384.436	74.69
384.662	78.69
384.887	94.69
385.112	87.69
385.337	77.69
385.562	92.69
385.787	87.69
386.013	65.69
386.238	73.69
386.463	70.69
386.688	83.69
386.913	81.69
387.138	83.69
387.363	77.69
387.588	88.69
387.813	83.69
388.038	86.69
388.263	85.69
388.488	90.69
388.713	83.69
388.938	81.69
389.163	82.69
389.387	83.69
389.612	84.69
389.837	82.69
390.062	68.69
390.287	79.69
390.512	76.69
390.736	84.69
390.961	78.69
391.186	76.69
391.411	97.69
391.636	82.69
391.86	83.69
392.085	88.69
392.31	96.69
392.534	89.69
392.759	92.69
392.984	77.69
393.208	81.69
393.433	75.69
393.658	73.69
393.882	76.69
394.107	74.69
394.331	91.69
394.556	74.69
394.78	94.69
395.005	96.69
395.229	81.69
395.454	86.69
395.678	92.69
395.903	97.69
396.127	81.69
396.352	86.69
396.576	91.69
396.801	84.69
397.025	83.69
397.249	86.69
397.474	80.69
397.698	90.69
397.922	80.69
398.147	86.69
398.371	75.69
398.595	86.69
398.82	81.69
399.044	87.69
399.268	70.69
399.492	76.69
399.717	88.69
399.941	68.69
400.165	73.69
400.389	89.69
400.613	84.69
400.837	75.69
401.062	82.69
401.286	84.69
401.51	88.69
401.734	98.69
401.958	79.69
402.182	82.69
402.406	71.69
402.63	83.69
402.854	82.69
403.078	76.69
403.302	89.69
403.526	89.69
403.75	77.69
403.974	72.69
404.198	86.69
404.422	87.69
404.645	65.69
404.869	78.69
405.093	74.69
405.317	78.69
405.541	87.69
405.765	70.69
405.988	87.69
406.212	82.69
406.436	98.69
406.66	82.69
406.883	88.69
407.107	76.69
407.331	76.69
407.555	76.69
407.778	86.69
408.002	77.69
408.226	86.69
408.449	76.69
408.673	84.69
408.896	90.69
409.12	81.69
409.344	90.69
409.567	91.69
409.791	82.69
410.014	95.69
410.238	78.69
410.461	88.69
410.685	86.69
410.908	83.69
411.132	82.69
411.355	90.69
411.578	76.69
411.802	82.69
412.025	79.69
412.249	81.69
412.472	75.69
412.695	81.69
412.919	68.69
413.142	92.69
413.365	87.69
413.589	84.69
413.812	92.69
414.035	77.69
414.258	82.69
414.482	78.69
414.705	81.69
414.928	83.69
415.151	79.69
415.374	92.69
415.597	86.69
415.821	71.69
416.044	79.69
416.267	83.69
416.49	70.69
416.713	81.69
416.936	84.69
417.159	81.69
417.382	79.69
417.605	80.69
417.828	71.69
418.051	73.69
418.274	82.69
418.497	80.69
418.72	88.69
418.943	88.69
419.166	90.69
419.389	90.69
419.611	82.69
419.834	78.69
420.057	76.69
420.28	86.69
420.503	81.69
420.726	87.69
420.948	90.69
421.171	78.69
421.394	77.69
421.617	74.69
421.839	77.69
422.062	77.69
422.285	90.69
422.507	65.69
422.73	81.69
422.953	64.69
423.175	70.69
423.398	79.69
423.621	95.69
423.843	88.69
424.066	71.69
424.288	73.69
424.511	86.69
424.733	92.69
424.956	74.69
425.178	76.69
425.401	89.69
425.623	81.69
425.846	54.69
426.068	68.69
426.291	69.69
426.513	80.69
426.735	92.69
426.958	71.69
427.18	74.69
427.402	93.69
427.625	89.69
427.847	85.69
428.069	78.69
428.292	77.69
428.514	82.69
428.736	100.69
428.958	88.69
429.181	92.69
429.403	81.69
429.625	82.69
429.847	83.69
430.069	85.69
430.292	80.69
430.514	75.69
430.736	86.69
430.958	85.69
431.18	89.69
431.402	79.69
431.624	85.69
431.846	74.69
432.068	90.69
432.29	89.69
432.512	76.69
432.734	91.69
432.956	109.69
433.178	90.69
433.4	89.69
433.622	62.69
433.844	86.69
434.066	86.69
434.287	81.69
434.509	78.69
434.731	79.69
434.953	83.69
435.175	87.69
435.397	78.69
435.618	68.69
435.84	74.69
436.062	80.69
436.284	84.69
436.505	87.69
436.727	82.69
436.949	85.69
437.17	84.69
437.392	89.69
437.614	86.69
437.835	71.69
438.057	94.69
438.278	66.69
438.5	86.69
438.721	98.69
438.943	87.69
439.165	84.69
439.386	89.69
439.608	88.69
439.829	76.69
440.05	86.69
440.272	82.69
440.493	84.69
440.715	86.69
440.936	75.69
441.158	79.69
441.379	69.69
441.6	90.69
441.822	86.69
442.043	87.69
442.264	83.69
442.486	74.69
442.707	84.69
442.928	84.69
443.149	93.69
443.371	77.69
443.592	78.69
443.813	71.69
444.034	91.69
444.255	83.69
444.476	72.69
444.698	94.69
444.919	94.69
445.14	167.69
445.361	116.69
445.582	81.69
445.803	79.69
446.024	77.69
446.245	72.69
446.466	70.69
446.687	76.69
446.908	82.69
447.129	75.69
447.35	79.69
447.571	70.69
447.792	59.69
448.013	71.69
448.234	73.69
448.455	85.69
448.675	81.69
448.896	97.69
449.117	70.69
449.338	75.69
449.559	77.69
449.779	72.69
450	89.69
450.221	87.69
450.442	76.69
450.662	82.69
450.883	86.69
451.104	85.69
451.324	74.69
451.545	86.69
451.766	81.69
451.986	95.69
452.207	87.69
452.428	71.69
452.648	72.69
452.869	81.69
453.089	80.69
453.31	70.69
453.53	75.69
453.751	86.69
453.971	86.69
454.192	74.69
454.412	83.69
454.633	84.69
454.853	96.69
455.073	88.69
455.294	79.69
455.514	95.69
455.734	81.69
455.955	78.69
456.175	92.69
456.395	84.69
456.616	94.69
456.836	93.69
457.056	80.69
457.276	82.69
457.497	81.69
457.717	85.69
457.937	78.69
458.157	77.69
458.377	82.69
458.598	72.69
458.818	83.69
459.038	83.69
459.258	80.69
459.478	78.69
459.698	84.69
459.918	88.69
460.138	83.69
460.358	79.69
460.578	88.69
460.798	93.69
461.018	75.69
461.238	64.69
461.458	71.69
461.678	84.69
461.898	76.69
462.118	78.69
462.338	74.69
462.558	63.69
462.777	82.69
462.997	80.69
463.217	81.69
463.437	85.69
463.657	81.69
463.876	74.69
464.096	94.69
464.316	96.69
464.536	80.69
464.755	84.69
464.975	83.69
465.195	83.69
465.414	83.69
465.634	83.69
465.854	76.69
466.073	83.69
466.293	72.69
466.512	73.69
466.732	79.69
466.951	68.69
467.171	94.69
467.391	89.69
467.61	70.69
467.829	87.69
468.049	90.69
468.268	78.69
468.488	73.69
468.707	75.69
468.927	83.69
469.146	69.69
469.365	89.69
469.585	81.69
469.804	84.69
470.023	81.69
470.243	89.69
470.462	90.69
470.681	86.69
470.901	85.69
471.12	65.69
471.339	87.69
471.558	78.69
471.777	72.69
471.997	93.69
472.216	67.69
472.435	77.69
472.654	92.69
472.873	82.69
473.092	79.69
473.311	84.69
473.53	78.69
473.749	79.69
473.968	83.69
474.187	76.69
474.406	86.69
474.625	88.69
474.844	90.69
475.063	76.69
475.282	93.69
475.501	79.69
475.72	85.69
475.939	96.69
476.158	79.69
476.377	83.69
476.596	88.69
476.814	68.69
477.033	74.69
477.252	79.69
477.471	84.69
477.69	75.69
477.908	87.69
478.127	84.69
478.346	66.69
478.564	91.69
478.783	82.69
479.002	79.69
479.22	76.69
479.439	95.69
479.658	97.69
479.876	78.69
480.095	73.69
480.313	87.69
480.532	103.69
480.751	86.69
480.969	74.69
481.188	88.69
481.406	88.69
481.624	83.69
481.843	81.69
482.061	78.69
482.28	77.69
482.498	83.69
482.717	71.69
482.935	73.69
483.153	78.69
483.372	82.69
483.59	86.69
483.808	85.69
484.027	96.69
484.245	90.69
484.463	75.69
484.681	86.69
484.9	76.69
485.118	82.69
485.336	76.69
485.554	83.69
485.772	91.69
485.99	68.69
486.209	78.69
486.427	86.69
486.645	85.69
486.863	87.69
487.081	80.69
487.299	82.69
487.517	77.69
487.735	98.69
487.953	90.69
488.171	75.69
488.389	96.69
488.607	82.69
488.825	81.69
489.043	74.69
489.261	84.69
489.479	79.69
489.696	92.69
489.914	80.69
490.132	88.69
490.35	74.69
490.568	96.69
490.786	78.69
491.003	76.69
491.221	85.69
491.439	83.69
491.657	79.69
491.874	68.69
492.092	83.69
492.31	86.69
492.527	80.69
492.745	101.69
492.963	78.69
493.18	88.69
493.398	91.69
493.615	89.69
493.833	89.69
494.05	71.69
494.268	84.69
494.485	88.69
494.703	92.69
494.92	77.69
495.138	83.69
495.355	81.69
495.573	81.69
495.79	89.69
496.008	97.69
496.225	78.69
496.442	85.69
496.66	77.69
496.877	87.69
497.094	84.69
497.312	87.69
497.529	84.69
497.746	74.69
497.963	84.69
498.181	78.69
498.398	74.69
498.615	87.69
498.832	79.69
499.049	92.69
499.267	75.69
499.484	88.69
499.701	86.69
499.918	94.69
500.135	94.69
500.352	81.69
500.569	76.69
500.786	88.69
501.003	91.69
501.22	75.69
501.437	89.69
501.654	94.69
501.871	77.69
502.088	65.69
502.305	89.69
502.522	73.69
502.739	92.69
502.956	85.69
503.172	82.69
503.389	92.69
503.606	83.69
503.823	79.69
504.04	87.69
504.256	89.69
504.473	65.69
504.69	82.69
504.907	83.69
505.123	83.69
505.34	97.69
505.557	79.69
505.773	85.69
505.99	81.69
506.207	91.69
506.423	83.69
506.64	79.69
506.856	94.69
507.073	82.69
507.289	83.69
507.506	88.69
507.722	82.69
507.939	84.69
508.155	86.69
508.372	78.69
508.588	90.69
508.805	84.69
509.021	83.69
509.238	80.69
509.454	82.69
509.67	83.69
509.887	85.69
510.103	75.69
510.319	67.69
510.536	104.69
510.752	78.69
510.968	81.69
511.184	82.69
511.401	85.69
511.617	99.69
511.833	85.69
512.049	86.69
512.265	92.69
512.481	97.69
512.698	91.69
512.914	86.69
513.13	82.69
513.346	90.69
513.562	89.69
513.778	75.69
513.994	76.69
514.21	77.69
514.426	85.69
514.642	81.69
514.858	85.69
515.074	89.69
515.29	90.69
515.506	74.69
515.721	82.69
515.937	80.69
516.153	81.69
516.369	80.69
516.585	78.69
516.801	91.69
517.016	82.69
517.232	77.69
517.448	83.69
517.664	75.69
517.879	83.69
518.095	77.69
518.311	81.69
518.527	86.69
518.742	87.69
518.958	78.69
519.173	92.69
519.389	91.69
519.605	79.69
519.82	93.69
520.036	91.69
