Data from BG_HRD10591_086.txt Node
Date: Fri May 16 15:27:30 EDT 2025
User: Yrep
Spectrometer: HR+D1059
Trigger mode: 1
Integration Time (sec): 1.000000E-1
Scans to average: 1
Electric dark correction enabled: true
Nonlinearity correction enabled: false
Boxcar width: 0
XAxis mode: Wavelengths
Number of Pixels in Spectrum: 2048
>>>>>Begin Spectral Data<<<<<
223.165	-15.19
223.4	-15.19
223.635	-15.19
223.869	-10.19
224.104	-27.19
224.338	-27.19
224.573	-13.19
224.808	-10.19
225.042	-15.19
225.277	-15.19
225.511	-4.19
225.746	0.81
225.98	21.81
226.215	17.81
226.449	25.81
226.683	16.81
226.918	18.81
227.152	35.81
227.387	21.81
227.621	26.81
227.856	31.81
228.09	52.81
228.324	55.81
228.559	59.81
228.793	64.81
229.027	62.81
229.262	53.81
229.496	62.81
229.73	59.81
229.964	61.81
230.199	67.81
230.433	65.81
230.667	75.81
230.901	72.81
231.136	67.81
231.37	73.81
231.604	83.81
231.838	78.81
232.072	75.81
232.306	89.81
232.541	84.81
232.775	81.81
233.009	92.81
233.243	66.81
233.477	74.81
233.711	77.81
233.945	55.81
234.179	66.81
234.413	72.81
234.647	81.81
234.881	80.81
235.115	73.81
235.349	74.81
235.583	76.81
235.817	71.81
236.051	71.81
236.285	70.81
236.519	60.81
236.753	68.81
236.987	83.81
237.221	74.81
237.455	76.81
237.689	77.81
237.922	65.81
238.156	58.81
238.39	75.81
238.624	80.81
238.858	63.81
239.091	77.81
239.325	72.81
239.559	70.81
239.793	70.81
240.027	65.81
240.26	69.81
240.494	67.81
240.728	57.81
240.961	68.81
241.195	68.81
241.429	62.81
241.662	75.81
241.896	61.81
242.13	83.81
242.363	69.81
242.597	69.81
242.83	94.81
243.064	75.81
243.298	68.81
243.531	65.81
243.765	70.81
243.998	67.81
244.232	74.81
244.465	62.81
244.699	74.81
244.932	67.81
245.166	74.81
245.399	70.81
245.633	82.81
245.866	66.81
246.099	70.81
246.333	75.81
246.566	62.81
246.8	55.81
247.033	67.81
247.266	74.81
247.5	70.81
247.733	51.81
247.966	80.81
248.2	68.81
248.433	71.81
248.666	87.81
248.899	79.81
249.133	75.81
249.366	68.81
249.599	77.81
249.832	77.81
250.066	62.81
250.299	76.81
250.532	82.81
250.765	75.81
250.998	73.81
251.231	62.81
251.465	62.81
251.698	81.81
251.931	69.81
252.164	76.81
252.397	66.81
252.63	68.81
252.863	90.81
253.096	70.81
253.329	80.81
253.562	83.81
253.795	77.81
254.028	59.81
254.261	79.81
254.494	72.81
254.727	83.81
254.96	80.81
255.193	72.81
255.426	64.81
255.659	76.81
255.892	77.81
256.124	75.81
256.357	66.81
256.59	88.81
256.823	85.81
257.056	76.81
257.289	74.81
257.521	62.81
257.754	81.81
257.987	85.81
258.22	75.81
258.452	80.81
258.685	74.81
258.918	62.81
259.151	78.81
259.383	66.81
259.616	77.81
259.849	82.81
260.081	73.81
260.314	69.81
260.547	77.81
260.779	86.81
261.012	80.81
261.244	73.81
261.477	88.81
261.71	84.81
261.942	73.81
262.175	82.81
262.407	70.81
262.64	76.81
262.872	77.81
263.105	81.81
263.337	80.81
263.57	64.81
263.802	82.81
264.035	79.81
264.267	74.81
264.499	80.81
264.732	79.81
264.964	91.81
265.197	77.81
265.429	81.81
265.661	77.81
265.894	78.81
266.126	78.81
266.358	80.81
266.591	72.81
266.823	72.81
267.055	61.81
267.287	82.81
267.52	70.81
267.752	81.81
267.984	73.81
268.216	58.81
268.448	84.81
268.681	73.81
268.913	76.81
269.145	77.81
269.377	64.81
269.609	83.81
269.841	62.81
270.073	65.81
270.306	70.81
270.538	81.81
270.77	67.81
271.002	78.81
271.234	82.81
271.466	86.81
271.698	62.81
271.93	74.81
272.162	73.81
272.394	76.81
272.626	78.81
272.858	86.81
273.09	81.81
273.322	78.81
273.553	80.81
273.785	69.81
274.017	70.81
274.249	74.81
274.481	62.81
274.713	79.81
274.945	76.81
275.176	77.81
275.408	81.81
275.64	81.81
275.872	76.81
276.104	92.81
276.335	76.81
276.567	86.81
276.799	90.81
277.031	72.81
277.262	80.81
277.494	68.81
277.726	69.81
277.957	82.81
278.189	78.81
278.421	84.81
278.652	82.81
278.884	73.81
279.115	88.81
279.347	96.81
279.579	75.81
279.81	95.81
280.042	82.81
280.273	74.81
280.505	82.81
280.736	81.81
280.968	75.81
281.199	87.81
281.431	65.81
281.662	72.81
281.894	63.81
282.125	88.81
282.356	64.81
282.588	86.81
282.819	75.81
283.051	76.81
283.282	61.81
283.513	80.81
283.745	60.81
283.976	78.81
284.207	81.81
284.439	90.81
284.67	71.81
284.901	92.81
285.132	80.81
285.364	68.81
285.595	78.81
285.826	84.81
286.057	82.81
286.288	85.81
286.52	83.81
286.751	81.81
286.982	71.81
287.213	88.81
287.444	84.81
287.675	97.81
287.906	86.81
288.138	86.81
288.369	74.81
288.6	66.81
288.831	64.81
289.062	78.81
289.293	90.81
289.524	84.81
289.755	84.81
289.986	63.81
290.217	77.81
290.448	82.81
290.679	81.81
290.91	79.81
291.141	91.81
291.371	87.81
291.602	79.81
291.833	63.81
292.064	68.81
292.295	83.81
292.526	87.81
292.757	80.81
292.987	83.81
293.218	89.81
293.449	93.81
293.68	81.81
293.91	87.81
294.141	66.81
294.372	52.81
294.603	77.81
294.833	67.81
295.064	89.81
295.295	76.81
295.525	74.81
295.756	72.81
295.987	80.81
296.217	81.81
296.448	89.81
296.679	79.81
296.909	78.81
297.14	70.81
297.37	85.81
297.601	85.81
297.831	77.81
298.062	82.81
298.292	65.81
298.523	98.81
298.753	77.81
298.984	84.81
299.214	82.81
299.445	80.81
299.675	71.81
299.905	69.81
300.136	68.81
300.366	72.81
300.597	83.81
300.827	77.81
301.057	78.81
301.288	81.81
301.518	81.81
301.748	88.81
301.979	90.81
302.209	86.81
302.439	83.81
302.669	68.81
302.9	76.81
303.13	83.81
303.36	86.81
303.59	87.81
303.82	80.81
304.051	76.81
304.281	77.81
304.511	71.81
304.741	75.81
304.971	82.81
305.201	76.81
305.431	74.81
305.661	74.81
305.891	74.81
306.121	61.81
306.352	78.81
306.582	66.81
306.812	86.81
307.042	76.81
307.272	81.81
307.502	84.81
307.731	65.81
307.961	81.81
308.191	83.81
308.421	77.81
308.651	68.81
308.881	78.81
309.111	76.81
309.341	81.81
309.571	72.81
309.8	74.81
310.03	80.81
310.26	58.81
310.49	89.81
310.72	85.81
310.949	75.81
311.179	61.81
311.409	78.81
311.639	88.81
311.868	84.81
312.098	83.81
312.328	69.81
312.557	83.81
312.787	80.81
313.017	70.81
313.246	76.81
313.476	78.81
313.706	76.81
313.935	88.81
314.165	73.81
314.394	71.81
314.624	71.81
314.853	76.81
315.083	75.81
315.312	72.81
315.542	88.81
315.771	75.81
316.001	77.81
316.23	82.81
316.46	76.81
316.689	74.81
316.919	99.81
317.148	80.81
317.377	92.81
317.607	78.81
317.836	77.81
318.065	84.81
318.295	80.81
318.524	79.81
318.753	93.81
318.983	77.81
319.212	81.81
319.441	81.81
319.67	80.81
319.9	73.81
320.129	87.81
320.358	84.81
320.587	89.81
320.816	85.81
321.046	85.81
321.275	86.81
321.504	86.81
321.733	87.81
321.962	81.81
322.191	78.81
322.42	81.81
322.649	78.81
322.878	63.81
323.108	72.81
323.337	85.81
323.566	78.81
323.795	78.81
324.024	85.81
324.253	75.81
324.482	84.81
324.71	83.81
324.939	76.81
325.168	89.81
325.397	80.81
325.626	76.81
325.855	82.81
326.084	80.81
326.313	81.81
326.542	88.81
326.77	65.81
326.999	70.81
327.228	84.81
327.457	77.81
327.686	73.81
327.914	84.81
328.143	91.81
328.372	77.81
328.6	93.81
328.829	70.81
329.058	89.81
329.287	105.81
329.515	79.81
329.744	75.81
329.972	82.81
330.201	90.81
330.43	82.81
330.658	94.81
330.887	82.81
331.115	61.81
331.344	76.81
331.572	75.81
331.801	75.81
332.03	98.81
332.258	86.81
332.486	88.81
332.715	90.81
332.943	88.81
333.172	67.81
333.4	93.81
333.629	81.81
333.857	73.81
334.085	85.81
334.314	67.81
334.542	90.81
334.771	73.81
334.999	85.81
335.227	76.81
335.455	77.81
335.684	70.81
335.912	76.81
336.14	72.81
336.369	69.81
336.597	73.81
336.825	84.81
337.053	78.81
337.281	74.81
337.51	68.81
337.738	78.81
337.966	83.81
338.194	80.81
338.422	81.81
338.65	63.81
338.878	72.81
339.106	70.81
339.334	70.81
339.562	80.81
339.79	84.81
340.018	77.81
340.246	76.81
340.474	64.81
340.702	76.81
340.93	84.81
341.158	68.81
341.386	84.81
341.614	85.81
341.842	77.81
342.07	82.81
342.298	88.81
342.526	87.81
342.754	71.81
342.981	89.81
343.209	85.81
343.437	91.81
343.665	78.81
343.893	91.81
344.12	72.81
344.348	70.81
344.576	66.81
344.804	80.81
345.031	63.81
345.259	71.81
345.487	84.81
345.714	84.81
345.942	78.81
346.17	70.81
346.397	83.81
346.625	85.81
346.853	77.81
347.08	86.81
347.308	75.81
347.535	80.81
347.763	69.81
347.99	74.81
348.218	67.81
348.445	81.81
348.673	74.81
348.9	90.81
349.128	83.81
349.355	81.81
349.583	83.81
349.81	76.81
350.037	89.81
350.265	79.81
350.492	82.81
350.72	69.81
350.947	66.81
351.174	59.81
351.402	77.81
351.629	82.81
351.856	81.81
352.083	78.81
352.311	78.81
352.538	74.81
352.765	75.81
352.992	76.81
353.22	84.81
353.447	83.81
353.674	68.81
353.901	82.81
354.128	70.81
354.355	83.81
354.583	81.81
354.81	80.81
355.037	84.81
355.264	80.81
355.491	80.81
355.718	86.81
355.945	76.81
356.172	86.81
356.399	72.81
356.626	82.81
356.853	75.81
357.08	86.81
357.307	83.81
357.534	84.81
357.761	84.81
357.988	78.81
358.215	84.81
358.441	76.81
358.668	69.81
358.895	81.81
359.122	67.81
359.349	80.81
359.576	77.81
359.802	82.81
360.029	81.81
360.256	81.81
360.483	77.81
360.709	75.81
360.936	79.81
361.163	77.81
361.39	77.81
361.616	71.81
361.843	94.81
362.07	73.81
362.296	75.81
362.523	70.81
362.749	75.81
362.976	66.81
363.203	81.81
363.429	74.81
363.656	76.81
363.882	76.81
364.109	76.81
364.335	76.81
364.562	76.81
364.788	78.81
365.015	72.81
365.241	85.81
365.468	68.81
365.694	75.81
365.92	78.81
366.147	78.81
366.373	82.81
366.599	72.81
366.826	78.81
367.052	66.81
367.278	91.81
367.505	86.81
367.731	79.81
367.957	87.81
368.184	82.81
368.41	79.81
368.636	84.81
368.862	77.81
369.089	72.81
369.315	77.81
369.541	73.81
369.767	69.81
369.993	82.81
370.219	92.81
370.445	72.81
370.672	84.81
370.898	77.81
371.124	78.81
371.35	84.81
371.576	85.81
371.802	78.81
372.028	72.81
372.254	78.81
372.48	74.81
372.706	85.81
372.932	73.81
373.158	62.81
373.384	80.81
373.61	86.81
373.835	62.81
374.061	74.81
374.287	90.81
374.513	89.81
374.739	76.81
374.965	56.81
375.191	70.81
375.416	76.81
375.642	92.81
375.868	83.81
376.094	70.81
376.319	86.81
376.545	81.81
376.771	65.81
376.997	62.81
377.222	77.81
377.448	79.81
377.674	72.81
377.899	72.81
378.125	63.81
378.35	63.81
378.576	78.81
378.802	77.81
379.027	70.81
379.253	81.81
379.478	92.81
379.704	69.81
379.929	86.81
380.155	75.81
380.38	82.81
380.606	74.81
380.831	72.81
381.057	74.81
381.282	81.81
381.507	84.81
381.733	78.81
381.958	79.81
382.184	72.81
382.409	72.81
382.634	74.81
382.86	83.81
383.085	75.81
383.31	66.81
383.535	76.81
383.761	66.81
383.986	74.81
384.211	68.81
384.436	77.81
384.662	68.81
384.887	78.81
385.112	60.81
385.337	76.81
385.562	65.81
385.787	75.81
386.013	78.81
386.238	62.81
386.463	78.81
386.688	82.81
386.913	84.81
387.138	78.81
387.363	89.81
387.588	76.81
387.813	77.81
388.038	77.81
388.263	80.81
388.488	76.81
388.713	84.81
388.938	68.81
389.163	73.81
389.387	66.81
389.612	74.81
389.837	73.81
390.062	78.81
390.287	84.81
390.512	81.81
390.736	75.81
390.961	76.81
391.186	71.81
391.411	70.81
391.636	70.81
391.86	83.81
392.085	66.81
392.31	73.81
392.534	86.81
392.759	77.81
392.984	66.81
393.208	56.81
393.433	70.81
393.658	72.81
393.882	76.81
394.107	76.81
394.331	76.81
394.556	57.81
394.78	69.81
395.005	82.81
395.229	67.81
395.454	75.81
395.678	67.81
395.903	63.81
396.127	69.81
396.352	87.81
396.576	75.81
396.801	89.81
397.025	73.81
397.249	71.81
397.474	75.81
397.698	65.81
397.922	84.81
398.147	96.81
398.371	72.81
398.595	74.81
398.82	65.81
399.044	69.81
399.268	72.81
399.492	84.81
399.717	81.81
399.941	80.81
400.165	74.81
400.389	68.81
400.613	63.81
400.837	63.81
401.062	76.81
401.286	73.81
401.51	77.81
401.734	69.81
401.958	72.81
402.182	74.81
402.406	79.81
402.63	73.81
402.854	80.81
403.078	81.81
403.302	86.81
403.526	81.81
403.75	98.81
403.974	72.81
404.198	75.81
404.422	78.81
404.645	84.81
404.869	75.81
405.093	67.81
405.317	76.81
405.541	61.81
405.765	73.81
405.988	76.81
406.212	82.81
406.436	83.81
406.66	62.81
406.883	72.81
407.107	73.81
407.331	75.81
407.555	78.81
407.778	75.81
408.002	77.81
408.226	59.81
408.449	69.81
408.673	76.81
408.896	76.81
409.12	90.81
409.344	77.81
409.567	80.81
409.791	70.81
410.014	74.81
410.238	67.81
410.461	82.81
410.685	86.81
410.908	71.81
411.132	71.81
411.355	79.81
411.578	67.81
411.802	73.81
412.025	70.81
412.249	78.81
412.472	64.81
412.695	80.81
412.919	77.81
413.142	74.81
413.365	76.81
413.589	82.81
413.812	67.81
414.035	74.81
414.258	90.81
414.482	82.81
414.705	73.81
414.928	81.81
415.151	81.81
415.374	74.81
415.597	73.81
415.821	78.81
416.044	89.81
416.267	94.81
416.49	84.81
416.713	75.81
416.936	75.81
417.159	77.81
417.382	88.81
417.605	85.81
417.828	75.81
418.051	64.81
418.274	78.81
418.497	76.81
418.72	71.81
418.943	87.81
419.166	77.81
419.389	81.81
419.611	65.81
419.834	68.81
420.057	70.81
420.28	75.81
420.503	89.81
420.726	64.81
420.948	80.81
421.171	69.81
421.394	90.81
421.617	62.81
421.839	78.81
422.062	86.81
422.285	72.81
422.507	69.81
422.73	69.81
422.953	85.81
423.175	76.81
423.398	62.81
423.621	70.81
423.843	64.81
424.066	74.81
424.288	79.81
424.511	68.81
424.733	73.81
424.956	75.81
425.178	77.81
425.401	80.81
425.623	63.81
425.846	73.81
426.068	66.81
426.291	74.81
426.513	82.81
426.735	66.81
426.958	58.81
427.18	72.81
427.402	67.81
427.625	77.81
427.847	76.81
428.069	85.81
428.292	84.81
428.514	73.81
428.736	63.81
428.958	71.81
429.181	78.81
429.403	82.81
429.625	70.81
429.847	68.81
430.069	89.81
430.292	84.81
430.514	62.81
430.736	84.81
430.958	81.81
431.18	70.81
431.402	81.81
431.624	71.81
431.846	70.81
432.068	85.81
432.29	73.81
432.512	76.81
432.734	78.81
432.956	82.81
433.178	76.81
433.4	68.81
433.622	65.81
433.844	58.81
434.066	76.81
434.287	68.81
434.509	80.81
434.731	83.81
434.953	65.81
435.175	70.81
435.397	74.81
435.618	78.81
435.84	74.81
436.062	67.81
436.284	72.81
436.505	66.81
436.727	86.81
436.949	72.81
437.17	65.81
437.392	76.81
437.614	78.81
437.835	74.81
438.057	73.81
438.278	69.81
438.5	62.81
438.721	80.81
438.943	84.81
439.165	71.81
439.386	81.81
439.608	84.81
439.829	76.81
440.05	79.81
440.272	70.81
440.493	62.81
440.715	68.81
440.936	66.81
441.158	80.81
441.379	78.81
441.6	66.81
441.822	75.81
442.043	72.81
442.264	69.81
442.486	74.81
442.707	72.81
442.928	66.81
443.149	64.81
443.371	72.81
443.592	79.81
443.813	82.81
444.034	71.81
444.255	83.81
444.476	78.81
444.698	86.81
444.919	61.81
445.14	142.81
445.361	104.81
445.582	70.81
445.803	73.81
446.024	84.81
446.245	82.81
446.466	67.81
446.687	71.81
446.908	82.81
447.129	76.81
447.35	69.81
447.571	84.81
447.792	70.81
448.013	70.81
448.234	72.81
448.455	82.81
448.675	87.81
448.896	65.81
449.117	70.81
449.338	72.81
449.559	75.81
449.779	67.81
450	80.81
450.221	78.81
450.442	75.81
450.662	73.81
450.883	69.81
451.104	65.81
451.324	67.81
451.545	76.81
451.766	60.81
451.986	80.81
452.207	75.81
452.428	73.81
452.648	74.81
452.869	84.81
453.089	62.81
453.31	91.81
453.53	71.81
453.751	76.81
453.971	72.81
454.192	73.81
454.412	76.81
454.633	82.81
454.853	77.81
455.073	68.81
455.294	83.81
455.514	81.81
455.734	76.81
455.955	88.81
456.175	71.81
456.395	58.81
456.616	66.81
456.836	68.81
457.056	77.81
457.276	85.81
457.497	67.81
457.717	76.81
457.937	80.81
458.157	80.81
458.377	70.81
458.598	73.81
458.818	77.81
459.038	72.81
459.258	72.81
459.478	66.81
459.698	81.81
459.918	80.81
460.138	69.81
460.358	66.81
460.578	73.81
460.798	74.81
461.018	82.81
461.238	89.81
461.458	74.81
461.678	77.81
461.898	68.81
462.118	88.81
462.338	75.81
462.558	68.81
462.777	77.81
462.997	72.81
463.217	92.81
463.437	61.81
463.657	67.81
463.876	70.81
464.096	73.81
464.316	60.81
464.536	81.81
464.755	75.81
464.975	85.81
465.195	79.81
465.414	82.81
465.634	69.81
465.854	67.81
466.073	68.81
466.293	72.81
466.512	76.81
466.732	65.81
466.951	68.81
467.171	90.81
467.391	81.81
467.61	81.81
467.829	76.81
468.049	68.81
468.268	81.81
468.488	66.81
468.707	72.81
468.927	86.81
469.146	74.81
469.365	66.81
469.585	76.81
469.804	77.81
470.023	69.81
470.243	68.81
470.462	79.81
470.681	78.81
470.901	74.81
471.12	77.81
471.339	77.81
471.558	78.81
471.777	73.81
471.997	91.81
472.216	73.81
472.435	76.81
472.654	75.81
472.873	80.81
473.092	76.81
473.311	74.81
473.53	66.81
473.749	76.81
473.968	72.81
474.187	76.81
474.406	59.81
474.625	72.81
474.844	72.81
475.063	65.81
475.282	80.81
475.501	75.81
475.72	74.81
475.939	74.81
476.158	70.81
476.377	74.81
476.596	65.81
476.814	70.81
477.033	66.81
477.252	81.81
477.471	83.81
477.69	76.81
477.908	77.81
478.127	66.81
478.346	85.81
478.564	69.81
478.783	69.81
479.002	59.81
479.22	80.81
479.439	90.81
479.658	91.81
479.876	72.81
480.095	75.81
480.313	71.81
480.532	70.81
480.751	77.81
480.969	80.81
481.188	66.81
481.406	85.81
481.624	83.81
481.843	78.81
482.061	81.81
482.28	73.81
482.498	71.81
482.717	76.81
482.935	90.81
483.153	69.81
483.372	72.81
483.59	66.81
483.808	70.81
484.027	83.81
484.245	86.81
484.463	75.81
484.681	95.81
484.9	82.81
485.118	67.81
485.336	71.81
485.554	77.81
485.772	87.81
485.99	72.81
486.209	89.81
486.427	92.81
486.645	68.81
486.863	68.81
487.081	65.81
487.299	74.81
487.517	77.81
487.735	87.81
487.953	76.81
488.171	76.81
488.389	73.81
488.607	86.81
488.825	89.81
489.043	69.81
489.261	77.81
489.479	70.81
489.696	89.81
489.914	68.81
490.132	66.81
490.35	80.81
490.568	73.81
490.786	70.81
491.003	85.81
491.221	80.81
491.439	56.81
491.657	68.81
491.874	69.81
492.092	75.81
492.31	78.81
492.527	80.81
492.745	73.81
492.963	80.81
493.18	72.81
493.398	72.81
493.615	73.81
493.833	82.81
494.05	76.81
494.268	86.81
494.485	69.81
494.703	71.81
494.92	79.81
495.138	70.81
495.355	84.81
495.573	65.81
495.79	73.81
496.008	73.81
496.225	64.81
496.442	85.81
496.66	99.81
496.877	88.81
497.094	91.81
497.312	80.81
497.529	83.81
497.746	61.81
497.963	81.81
498.181	76.81
498.398	68.81
498.615	75.81
498.832	78.81
499.049	71.81
499.267	82.81
499.484	84.81
499.701	90.81
499.918	91.81
500.135	81.81
500.352	77.81
500.569	79.81
500.786	85.81
501.003	74.81
501.22	75.81
501.437	58.81
501.654	74.81
501.871	55.81
502.088	92.81
502.305	76.81
502.522	80.81
502.739	72.81
502.956	86.81
503.172	75.81
503.389	86.81
503.606	86.81
503.823	65.81
504.04	78.81
504.256	78.81
504.473	68.81
504.69	74.81
504.907	81.81
505.123	84.81
505.34	81.81
505.557	67.81
505.773	76.81
505.99	91.81
506.207	82.81
506.423	76.81
506.64	82.81
506.856	80.81
507.073	82.81
507.289	78.81
507.506	70.81
507.722	67.81
507.939	65.81
508.155	66.81
508.372	73.81
508.588	77.81
508.805	75.81
509.021	65.81
509.238	81.81
509.454	84.81
509.67	83.81
509.887	84.81
510.103	84.81
510.319	81.81
510.536	80.81
510.752	70.81
510.968	76.81
511.184	79.81
511.401	73.81
511.617	77.81
511.833	81.81
512.049	74.81
512.265	85.81
512.481	73.81
512.698	59.81
512.914	104.81
513.13	75.81
513.346	76.81
513.562	66.81
513.778	77.81
513.994	80.81
514.21	82.81
514.426	86.81
514.642	82.81
514.858	88.81
515.074	74.81
515.29	87.81
515.506	91.81
515.721	68.81
515.937	77.81
516.153	85.81
516.369	78.81
516.585	90.81
516.801	74.81
517.016	61.81
517.232	71.81
517.448	79.81
517.664	77.81
517.879	72.81
518.095	82.81
518.311	81.81
518.527	78.81
518.742	92.81
518.958	89.81
519.173	81.81
519.389	72.81
519.605	68.81
519.82	76.81
520.036	71.81
520.251	70.81
