Data from BG_HRD10591_091.txt Node
Date: Fri May 16 15:27:32 EDT 2025
User: Yrep
Spectrometer: HR+D1059
Trigger mode: 1
Integration Time (sec): 1.000000E-1
Scans to average: 1
Electric dark correction enabled: true
Nonlinearity correction enabled: false
Boxcar width: 0
XAxis mode: Wavelengths
Number of Pixels in Spectrum: 2048
>>>>>Begin Spectral Data<<<<<
223.165	-12.62
223.4	-12.62
223.635	-12.62
223.869	-21.62
224.104	-15.62
224.338	-15.62
224.573	-16.62
224.808	-14.62
225.042	-1.62
225.277	-8.62
225.511	3.38
225.746	5.38
225.98	7.38
226.215	8.38
226.449	17.38
226.683	23.38
226.918	23.38
227.152	18.38
227.387	30.38
227.621	43.38
227.856	62.38
228.09	43.38
228.324	45.38
228.559	69.38
228.793	59.38
229.027	69.38
229.262	72.38
229.496	84.38
229.73	58.38
229.964	76.38
230.199	72.38
230.433	85.38
230.667	79.38
230.901	70.38
231.136	62.38
231.37	75.38
231.604	79.38
231.838	87.38
232.072	94.38
232.306	77.38
232.541	71.38
232.775	84.38
233.009	80.38
233.243	77.38
233.477	64.38
233.711	65.38
233.945	82.38
234.179	86.38
234.413	80.38
234.647	73.38
234.881	79.38
235.115	68.38
235.349	90.38
235.583	80.38
235.817	77.38
236.051	80.38
236.285	63.38
236.519	78.38
236.753	76.38
236.987	58.38
237.221	67.38
237.455	67.38
237.689	69.38
237.922	77.38
238.156	71.38
238.39	74.38
238.624	72.38
238.858	71.38
239.091	69.38
239.325	64.38
239.559	75.38
239.793	53.38
240.027	69.38
240.26	76.38
240.494	72.38
240.728	79.38
240.961	91.38
241.195	75.38
241.429	73.38
241.662	85.38
241.896	75.38
242.13	68.38
242.363	66.38
242.597	68.38
242.83	73.38
243.064	71.38
243.298	61.38
243.531	75.38
243.765	64.38
243.998	77.38
244.232	89.38
244.465	71.38
244.699	74.38
244.932	68.38
245.166	88.38
245.399	72.38
245.633	85.38
245.866	77.38
246.099	75.38
246.333	71.38
246.566	82.38
246.8	73.38
247.033	84.38
247.266	82.38
247.5	67.38
247.733	86.38
247.966	70.38
248.2	67.38
248.433	76.38
248.666	88.38
248.899	80.38
249.133	88.38
249.366	77.38
249.599	78.38
249.832	66.38
250.066	78.38
250.299	91.38
250.532	70.38
250.765	86.38
250.998	92.38
251.231	72.38
251.465	84.38
251.698	75.38
251.931	63.38
252.164	79.38
252.397	77.38
252.63	84.38
252.863	81.38
253.096	79.38
253.329	81.38
253.562	67.38
253.795	76.38
254.028	74.38
254.261	76.38
254.494	81.38
254.727	72.38
254.96	90.38
255.193	81.38
255.426	81.38
255.659	77.38
255.892	81.38
256.124	52.38
256.357	70.38
256.59	88.38
256.823	59.38
257.056	77.38
257.289	80.38
257.521	76.38
257.754	65.38
257.987	78.38
258.22	74.38
258.452	83.38
258.685	86.38
258.918	74.38
259.151	87.38
259.383	80.38
259.616	95.38
259.849	82.38
260.081	70.38
260.314	65.38
260.547	74.38
260.779	79.38
261.012	74.38
261.244	69.38
261.477	93.38
261.71	88.38
261.942	91.38
262.175	88.38
262.407	73.38
262.64	84.38
262.872	86.38
263.105	63.38
263.337	93.38
263.57	80.38
263.802	94.38
264.035	80.38
264.267	89.38
264.499	76.38
264.732	83.38
264.964	89.38
265.197	87.38
265.429	79.38
265.661	88.38
265.894	77.38
266.126	84.38
266.358	96.38
266.591	83.38
266.823	79.38
267.055	79.38
267.287	93.38
267.52	78.38
267.752	85.38
267.984	84.38
268.216	80.38
268.448	80.38
268.681	66.38
268.913	71.38
269.145	77.38
269.377	74.38
269.609	72.38
269.841	79.38
270.073	77.38
270.306	74.38
270.538	76.38
270.77	81.38
271.002	93.38
271.234	79.38
271.466	88.38
271.698	75.38
271.93	75.38
272.162	74.38
272.394	86.38
272.626	80.38
272.858	76.38
273.09	86.38
273.322	77.38
273.553	86.38
273.785	66.38
274.017	79.38
274.249	67.38
274.481	81.38
274.713	87.38
274.945	91.38
275.176	76.38
275.408	80.38
275.64	76.38
275.872	85.38
276.104	75.38
276.335	80.38
276.567	80.38
276.799	81.38
277.031	83.38
277.262	76.38
277.494	87.38
277.726	89.38
277.957	72.38
278.189	90.38
278.421	92.38
278.652	70.38
278.884	80.38
279.115	69.38
279.347	64.38
279.579	80.38
279.81	77.38
280.042	75.38
280.273	84.38
280.505	79.38
280.736	77.38
280.968	89.38
281.199	94.38
281.431	81.38
281.662	83.38
281.894	85.38
282.125	87.38
282.356	95.38
282.588	80.38
282.819	75.38
283.051	92.38
283.282	95.38
283.513	73.38
283.745	79.38
283.976	85.38
284.207	79.38
284.439	89.38
284.67	89.38
284.901	79.38
285.132	83.38
285.364	86.38
285.595	93.38
285.826	91.38
286.057	88.38
286.288	80.38
286.52	86.38
286.751	79.38
286.982	95.38
287.213	80.38
287.444	92.38
287.675	75.38
287.906	87.38
288.138	79.38
288.369	83.38
288.6	78.38
288.831	90.38
289.062	92.38
289.293	77.38
289.524	81.38
289.755	81.38
289.986	81.38
290.217	74.38
290.448	83.38
290.679	80.38
290.91	83.38
291.141	89.38
291.371	84.38
291.602	97.38
291.833	86.38
292.064	80.38
292.295	80.38
292.526	79.38
292.757	72.38
292.987	96.38
293.218	72.38
293.449	81.38
293.68	71.38
293.91	88.38
294.141	77.38
294.372	75.38
294.603	99.38
294.833	80.38
295.064	85.38
295.295	73.38
295.525	89.38
295.756	83.38
295.987	72.38
296.217	82.38
296.448	78.38
296.679	78.38
296.909	94.38
297.14	81.38
297.37	90.38
297.601	85.38
297.831	76.38
298.062	79.38
298.292	86.38
298.523	82.38
298.753	87.38
298.984	91.38
299.214	77.38
299.445	72.38
299.675	80.38
299.905	80.38
300.136	75.38
300.366	76.38
300.597	86.38
300.827	91.38
301.057	88.38
301.288	87.38
301.518	86.38
301.748	91.38
301.979	96.38
302.209	91.38
302.439	85.38
302.669	77.38
302.9	74.38
303.13	80.38
303.36	82.38
303.59	75.38
303.82	81.38
304.051	76.38
304.281	83.38
304.511	89.38
304.741	84.38
304.971	80.38
305.201	94.38
305.431	74.38
305.661	66.38
305.891	86.38
306.121	81.38
306.352	81.38
306.582	84.38
306.812	84.38
307.042	84.38
307.272	83.38
307.502	90.38
307.731	85.38
307.961	94.38
308.191	90.38
308.421	83.38
308.651	85.38
308.881	86.38
309.111	84.38
309.341	78.38
309.571	71.38
309.8	74.38
310.03	76.38
310.26	84.38
310.49	100.38
310.72	83.38
310.949	84.38
311.179	90.38
311.409	77.38
311.639	85.38
311.868	87.38
312.098	85.38
312.328	73.38
312.557	68.38
312.787	85.38
313.017	87.38
313.246	79.38
313.476	69.38
313.706	81.38
313.935	66.38
314.165	73.38
314.394	87.38
314.624	86.38
314.853	83.38
315.083	91.38
315.312	87.38
315.542	85.38
315.771	77.38
316.001	81.38
316.23	78.38
316.46	77.38
316.689	79.38
316.919	71.38
317.148	71.38
317.377	83.38
317.607	83.38
317.836	83.38
318.065	82.38
318.295	87.38
318.524	79.38
318.753	80.38
318.983	91.38
319.212	75.38
319.441	97.38
319.67	82.38
319.9	71.38
320.129	80.38
320.358	82.38
320.587	79.38
320.816	79.38
321.046	77.38
321.275	78.38
321.504	92.38
321.733	82.38
321.962	86.38
322.191	68.38
322.42	90.38
322.649	84.38
322.878	69.38
323.108	85.38
323.337	94.38
323.566	84.38
323.795	92.38
324.024	79.38
324.253	59.38
324.482	80.38
324.71	95.38
324.939	83.38
325.168	81.38
325.397	88.38
325.626	88.38
325.855	76.38
326.084	87.38
326.313	101.38
326.542	79.38
326.77	96.38
326.999	76.38
327.228	85.38
327.457	91.38
327.686	95.38
327.914	93.38
328.143	81.38
328.372	81.38
328.6	75.38
328.829	85.38
329.058	77.38
329.287	77.38
329.515	86.38
329.744	82.38
329.972	76.38
330.201	77.38
330.43	81.38
330.658	87.38
330.887	77.38
331.115	80.38
331.344	82.38
331.572	80.38
331.801	71.38
332.03	89.38
332.258	80.38
332.486	82.38
332.715	85.38
332.943	77.38
333.172	76.38
333.4	79.38
333.629	97.38
333.857	72.38
334.085	83.38
334.314	87.38
334.542	70.38
334.771	83.38
334.999	86.38
335.227	89.38
335.455	77.38
335.684	83.38
335.912	76.38
336.14	92.38
336.369	89.38
336.597	86.38
336.825	87.38
337.053	89.38
337.281	88.38
337.51	73.38
337.738	78.38
337.966	77.38
338.194	77.38
338.422	86.38
338.65	86.38
338.878	80.38
339.106	79.38
339.334	79.38
339.562	81.38
339.79	92.38
340.018	76.38
340.246	81.38
340.474	86.38
340.702	82.38
340.93	74.38
341.158	90.38
341.386	80.38
341.614	91.38
341.842	80.38
342.07	66.38
342.298	71.38
342.526	91.38
342.754	94.38
342.981	73.38
343.209	79.38
343.437	91.38
343.665	63.38
343.893	91.38
344.12	84.38
344.348	83.38
344.576	85.38
344.804	85.38
345.031	84.38
345.259	81.38
345.487	109.38
345.714	76.38
345.942	78.38
346.17	80.38
346.397	75.38
346.625	76.38
346.853	61.38
347.08	72.38
347.308	86.38
347.535	84.38
347.763	79.38
347.99	84.38
348.218	87.38
348.445	78.38
348.673	87.38
348.9	83.38
349.128	73.38
349.355	76.38
349.583	88.38
349.81	81.38
350.037	89.38
350.265	79.38
350.492	79.38
350.72	84.38
350.947	89.38
351.174	80.38
351.402	98.38
351.629	84.38
351.856	87.38
352.083	76.38
352.311	93.38
352.538	80.38
352.765	93.38
352.992	95.38
353.22	78.38
353.447	82.38
353.674	88.38
353.901	91.38
354.128	76.38
354.355	77.38
354.583	72.38
354.81	81.38
355.037	76.38
355.264	91.38
355.491	81.38
355.718	72.38
355.945	94.38
356.172	76.38
356.399	75.38
356.626	71.38
356.853	72.38
357.08	85.38
357.307	84.38
357.534	81.38
357.761	84.38
357.988	90.38
358.215	71.38
358.441	90.38
358.668	89.38
358.895	79.38
359.122	97.38
359.349	86.38
359.576	86.38
359.802	74.38
360.029	83.38
360.256	86.38
360.483	71.38
360.709	74.38
360.936	99.38
361.163	73.38
361.39	80.38
361.616	69.38
361.843	91.38
362.07	81.38
362.296	91.38
362.523	67.38
362.749	84.38
362.976	87.38
363.203	75.38
363.429	80.38
363.656	92.38
363.882	92.38
364.109	76.38
364.335	84.38
364.562	80.38
364.788	67.38
365.015	92.38
365.241	95.38
365.468	97.38
365.694	70.38
365.92	91.38
366.147	88.38
366.373	79.38
366.599	89.38
366.826	80.38
367.052	74.38
367.278	76.38
367.505	95.38
367.731	88.38
367.957	80.38
368.184	74.38
368.41	84.38
368.636	97.38
368.862	91.38
369.089	91.38
369.315	75.38
369.541	89.38
369.767	75.38
369.993	75.38
370.219	93.38
370.445	76.38
370.672	85.38
370.898	74.38
371.124	87.38
371.35	88.38
371.576	86.38
371.802	78.38
372.028	82.38
372.254	95.38
372.48	83.38
372.706	79.38
372.932	74.38
373.158	73.38
373.384	85.38
373.61	68.38
373.835	84.38
374.061	73.38
374.287	84.38
374.513	85.38
374.739	78.38
374.965	78.38
375.191	78.38
375.416	74.38
375.642	86.38
375.868	92.38
376.094	77.38
376.319	83.38
376.545	75.38
376.771	79.38
376.997	94.38
377.222	98.38
377.448	79.38
377.674	100.38
377.899	89.38
378.125	94.38
378.35	80.38
378.576	71.38
378.802	78.38
379.027	91.38
379.253	73.38
379.478	81.38
379.704	72.38
379.929	84.38
380.155	79.38
380.38	74.38
380.606	76.38
380.831	77.38
381.057	94.38
381.282	81.38
381.507	95.38
381.733	78.38
381.958	81.38
382.184	80.38
382.409	85.38
382.634	86.38
382.86	88.38
383.085	96.38
383.31	81.38
383.535	107.38
383.761	94.38
383.986	79.38
384.211	75.38
384.436	81.38
384.662	86.38
384.887	79.38
385.112	61.38
385.337	83.38
385.562	80.38
385.787	83.38
386.013	83.38
386.238	78.38
386.463	85.38
386.688	93.38
386.913	70.38
387.138	87.38
387.363	73.38
387.588	93.38
387.813	82.38
388.038	94.38
388.263	91.38
388.488	81.38
388.713	76.38
388.938	71.38
389.163	75.38
389.387	86.38
389.612	83.38
389.837	79.38
390.062	87.38
390.287	83.38
390.512	76.38
390.736	77.38
390.961	85.38
391.186	85.38
391.411	76.38
391.636	66.38
391.86	78.38
392.085	72.38
392.31	86.38
392.534	73.38
392.759	74.38
392.984	86.38
393.208	81.38
393.433	78.38
393.658	81.38
393.882	68.38
394.107	80.38
394.331	82.38
394.556	71.38
394.78	76.38
395.005	79.38
395.229	82.38
395.454	90.38
395.678	79.38
395.903	92.38
396.127	77.38
396.352	65.38
396.576	75.38
396.801	68.38
397.025	83.38
397.249	78.38
397.474	81.38
397.698	75.38
397.922	69.38
398.147	82.38
398.371	74.38
398.595	85.38
398.82	81.38
399.044	81.38
399.268	82.38
399.492	80.38
399.717	79.38
399.941	87.38
400.165	89.38
400.389	75.38
400.613	64.38
400.837	65.38
401.062	89.38
401.286	83.38
401.51	85.38
401.734	93.38
401.958	99.38
402.182	77.38
402.406	88.38
402.63	78.38
402.854	91.38
403.078	80.38
403.302	88.38
403.526	66.38
403.75	64.38
403.974	69.38
404.198	92.38
404.422	73.38
404.645	83.38
404.869	67.38
405.093	82.38
405.317	77.38
405.541	78.38
405.765	71.38
405.988	77.38
406.212	89.38
406.436	83.38
406.66	76.38
406.883	75.38
407.107	69.38
407.331	78.38
407.555	82.38
407.778	74.38
408.002	81.38
408.226	83.38
408.449	75.38
408.673	92.38
408.896	71.38
409.12	85.38
409.344	87.38
409.567	72.38
409.791	77.38
410.014	91.38
410.238	81.38
410.461	91.38
410.685	78.38
410.908	63.38
411.132	91.38
411.355	82.38
411.578	71.38
411.802	75.38
412.025	80.38
412.249	78.38
412.472	92.38
412.695	77.38
412.919	75.38
413.142	65.38
413.365	83.38
413.589	76.38
413.812	70.38
414.035	82.38
414.258	78.38
414.482	77.38
414.705	71.38
414.928	78.38
415.151	80.38
415.374	78.38
415.597	81.38
415.821	74.38
416.044	95.38
416.267	92.38
416.49	76.38
416.713	79.38
416.936	78.38
417.159	79.38
417.382	68.38
417.605	64.38
417.828	71.38
418.051	59.38
418.274	83.38
418.497	78.38
418.72	82.38
418.943	71.38
419.166	75.38
419.389	87.38
419.611	89.38
419.834	71.38
420.057	73.38
420.28	79.38
420.503	87.38
420.726	77.38
420.948	73.38
421.171	72.38
421.394	78.38
421.617	74.38
421.839	71.38
422.062	83.38
422.285	76.38
422.507	70.38
422.73	77.38
422.953	70.38
423.175	79.38
423.398	82.38
423.621	93.38
423.843	67.38
424.066	85.38
424.288	83.38
424.511	76.38
424.733	87.38
424.956	62.38
425.178	81.38
425.401	76.38
425.623	80.38
425.846	79.38
426.068	83.38
426.291	85.38
426.513	72.38
426.735	80.38
426.958	77.38
427.18	73.38
427.402	72.38
427.625	79.38
427.847	61.38
428.069	75.38
428.292	71.38
428.514	67.38
428.736	84.38
428.958	85.38
429.181	77.38
429.403	75.38
429.625	77.38
429.847	75.38
430.069	85.38
430.292	81.38
430.514	86.38
430.736	79.38
430.958	83.38
431.18	90.38
431.402	80.38
431.624	83.38
431.846	71.38
432.068	93.38
432.29	75.38
432.512	71.38
432.734	71.38
432.956	70.38
433.178	95.38
433.4	83.38
433.622	97.38
433.844	72.38
434.066	79.38
434.287	67.38
434.509	71.38
434.731	74.38
434.953	74.38
435.175	78.38
435.397	85.38
435.618	87.38
435.84	88.38
436.062	76.38
436.284	65.38
436.505	68.38
436.727	77.38
436.949	76.38
437.17	83.38
437.392	71.38
437.614	71.38
437.835	93.38
438.057	83.38
438.278	78.38
438.5	79.38
438.721	74.38
438.943	84.38
439.165	79.38
439.386	79.38
439.608	83.38
439.829	70.38
440.05	81.38
440.272	105.38
440.493	75.38
440.715	79.38
440.936	80.38
441.158	75.38
441.379	86.38
441.6	83.38
441.822	71.38
442.043	84.38
442.264	79.38
442.486	69.38
442.707	77.38
442.928	77.38
443.149	79.38
443.371	87.38
443.592	87.38
443.813	68.38
444.034	74.38
444.255	81.38
444.476	73.38
444.698	86.38
444.919	67.38
445.14	141.38
445.361	106.38
445.582	98.38
445.803	83.38
446.024	83.38
446.245	92.38
446.466	82.38
446.687	63.38
446.908	79.38
447.129	83.38
447.35	93.38
447.571	79.38
447.792	88.38
448.013	83.38
448.234	84.38
448.455	89.38
448.675	76.38
448.896	81.38
449.117	79.38
449.338	71.38
449.559	99.38
449.779	83.38
450	97.38
450.221	87.38
450.442	70.38
450.662	76.38
450.883	80.38
451.104	77.38
451.324	94.38
451.545	76.38
451.766	72.38
451.986	63.38
452.207	76.38
452.428	75.38
452.648	79.38
452.869	73.38
453.089	88.38
453.31	63.38
453.53	77.38
453.751	85.38
453.971	88.38
454.192	93.38
454.412	64.38
454.633	88.38
454.853	79.38
455.073	94.38
455.294	85.38
455.514	83.38
455.734	84.38
455.955	101.38
456.175	88.38
456.395	84.38
456.616	79.38
456.836	75.38
457.056	68.38
457.276	74.38
457.497	75.38
457.717	76.38
457.937	81.38
458.157	88.38
458.377	73.38
458.598	65.38
458.818	68.38
459.038	71.38
459.258	76.38
459.478	83.38
459.698	77.38
459.918	87.38
460.138	92.38
460.358	80.38
460.578	87.38
460.798	85.38
461.018	76.38
461.238	84.38
461.458	78.38
461.678	76.38
461.898	69.38
462.118	80.38
462.338	64.38
462.558	94.38
462.777	83.38
462.997	80.38
463.217	74.38
463.437	76.38
463.657	78.38
463.876	85.38
464.096	96.38
464.316	79.38
464.536	81.38
464.755	76.38
464.975	62.38
465.195	77.38
465.414	75.38
465.634	78.38
465.854	76.38
466.073	83.38
466.293	67.38
466.512	75.38
466.732	86.38
466.951	79.38
467.171	75.38
467.391	76.38
467.61	86.38
467.829	85.38
468.049	67.38
468.268	80.38
468.488	83.38
468.707	69.38
468.927	90.38
469.146	67.38
469.365	87.38
469.585	72.38
469.804	79.38
470.023	73.38
470.243	85.38
470.462	80.38
470.681	94.38
470.901	74.38
471.12	77.38
471.339	86.38
471.558	66.38
471.777	73.38
471.997	72.38
472.216	76.38
472.435	88.38
472.654	81.38
472.873	85.38
473.092	73.38
473.311	92.38
473.53	80.38
473.749	73.38
473.968	89.38
474.187	78.38
474.406	56.38
474.625	76.38
474.844	82.38
475.063	70.38
475.282	88.38
475.501	90.38
475.72	66.38
475.939	71.38
476.158	65.38
476.377	72.38
476.596	60.38
476.814	79.38
477.033	83.38
477.252	68.38
477.471	95.38
477.69	71.38
477.908	90.38
478.127	75.38
478.346	75.38
478.564	76.38
478.783	78.38
479.002	81.38
479.22	81.38
479.439	84.38
479.658	80.38
479.876	66.38
480.095	71.38
480.313	79.38
480.532	86.38
480.751	65.38
480.969	82.38
481.188	97.38
481.406	86.38
481.624	94.38
481.843	78.38
482.061	82.38
482.28	75.38
482.498	73.38
482.717	93.38
482.935	77.38
483.153	84.38
483.372	83.38
483.59	81.38
483.808	78.38
484.027	68.38
484.245	83.38
484.463	80.38
484.681	77.38
484.9	88.38
485.118	79.38
485.336	75.38
485.554	80.38
485.772	68.38
485.99	88.38
486.209	83.38
486.427	79.38
486.645	78.38
486.863	75.38
487.081	91.38
487.299	91.38
487.517	79.38
487.735	86.38
487.953	86.38
488.171	75.38
488.389	76.38
488.607	89.38
488.825	82.38
489.043	79.38
489.261	75.38
489.479	80.38
489.696	83.38
489.914	88.38
490.132	73.38
490.35	81.38
490.568	80.38
490.786	59.38
491.003	85.38
491.221	88.38
491.439	87.38
491.657	82.38
491.874	82.38
492.092	85.38
492.31	71.38
492.527	71.38
492.745	75.38
492.963	74.38
493.18	81.38
493.398	75.38
493.615	76.38
493.833	78.38
494.05	76.38
494.268	79.38
494.485	84.38
494.703	88.38
494.92	84.38
495.138	79.38
495.355	78.38
495.573	85.38
495.79	86.38
496.008	71.38
496.225	73.38
496.442	75.38
496.66	76.38
496.877	82.38
497.094	97.38
497.312	77.38
497.529	80.38
497.746	67.38
497.963	80.38
498.181	73.38
498.398	68.38
498.615	73.38
498.832	89.38
499.049	78.38
499.267	83.38
499.484	91.38
499.701	87.38
499.918	72.38
500.135	83.38
500.352	83.38
500.569	80.38
500.786	87.38
501.003	85.38
501.22	78.38
501.437	86.38
501.654	75.38
501.871	76.38
502.088	80.38
502.305	87.38
502.522	81.38
502.739	79.38
502.956	96.38
503.172	85.38
503.389	89.38
503.606	84.38
503.823	84.38
504.04	88.38
504.256	75.38
504.473	87.38
504.69	85.38
504.907	75.38
505.123	74.38
505.34	80.38
505.557	82.38
505.773	73.38
505.99	85.38
506.207	101.38
506.423	81.38
506.64	77.38
506.856	70.38
507.073	76.38
507.289	82.38
507.506	78.38
507.722	87.38
507.939	74.38
508.155	85.38
508.372	84.38
508.588	70.38
508.805	89.38
509.021	75.38
509.238	88.38
509.454	87.38
509.67	78.38
509.887	67.38
510.103	82.38
510.319	76.38
510.536	89.38
510.752	76.38
510.968	66.38
511.184	80.38
511.401	88.38
511.617	92.38
511.833	90.38
512.049	78.38
512.265	75.38
512.481	71.38
512.698	76.38
512.914	78.38
513.13	92.38
513.346	71.38
513.562	90.38
513.778	104.38
513.994	90.38
514.21	76.38
514.426	80.38
514.642	92.38
514.858	85.38
515.074	93.38
515.29	93.38
515.506	83.38
515.721	78.38
515.937	81.38
516.153	76.38
516.369	65.38
516.585	73.38
516.801	85.38
517.016	77.38
517.232	75.38
517.448	80.38
517.664	75.38
517.879	84.38
518.095	75.38
518.311	82.38
518.527	92.38
518.742	73.38
518.958	81.38
519.173	80.38
519.389	80.38
519.605	83.38
519.82	80.38
520.036	84.38
520.251	70.38
