Data from BG_HRD10591_064.txt Node
Date: Fri May 16 15:27:19 EDT 2025
User: Yrep
Spectrometer: HR+D1059
Trigger mode: 1
Integration Time (sec): 1.000000E-1
Scans to average: 1
Electric dark correction enabled: true
Nonlinearity correction enabled: false
Boxcar width: 0
XAxis mode: Wavelengths
Number of Pixels in Spectrum: 2048
>>>>>Begin Spectral Data<<<<<
223.165	-24.31
223.4	-24.31
223.635	-24.31
223.869	-23.31
224.104	-31.31
224.338	-5.31
224.573	-8.31
224.808	-2.31
225.042	-19.31
225.277	-16.31
225.511	6.69
225.746	5.69
225.98	0.69
226.215	0.69
226.449	25.69
226.683	29.69
226.918	24.69
227.152	36.69
227.387	31.69
227.621	34.69
227.856	44.69
228.09	42.69
228.324	45.69
228.559	60.69
228.793	63.69
229.027	52.69
229.262	50.69
229.496	56.69
229.73	72.69
229.964	66.69
230.199	80.69
230.433	65.69
230.667	66.69
230.901	61.69
231.136	68.69
231.37	72.69
231.604	77.69
231.838	64.69
232.072	80.69
232.306	78.69
232.541	83.69
232.775	82.69
233.009	78.69
233.243	82.69
233.477	73.69
233.711	77.69
233.945	65.69
234.179	71.69
234.413	88.69
234.647	74.69
234.881	72.69
235.115	65.69
235.349	66.69
235.583	68.69
235.817	65.69
236.051	62.69
236.285	68.69
236.519	63.69
236.753	75.69
236.987	71.69
237.221	76.69
237.455	75.69
237.689	65.69
237.922	75.69
238.156	83.69
238.39	71.69
238.624	72.69
238.858	68.69
239.091	75.69
239.325	74.69
239.559	97.69
239.793	91.69
240.027	78.69
240.26	84.69
240.494	66.69
240.728	62.69
240.961	61.69
241.195	81.69
241.429	78.69
241.662	67.69
241.896	72.69
242.13	68.69
242.363	75.69
242.597	62.69
242.83	71.69
243.064	68.69
243.298	73.69
243.531	80.69
243.765	68.69
243.998	67.69
244.232	77.69
244.465	72.69
244.699	68.69
244.932	77.69
245.166	68.69
245.399	76.69
245.633	74.69
245.866	65.69
246.099	82.69
246.333	81.69
246.566	87.69
246.8	60.69
247.033	74.69
247.266	68.69
247.5	68.69
247.733	74.69
247.966	76.69
248.2	82.69
248.433	65.69
248.666	81.69
248.899	67.69
249.133	73.69
249.366	88.69
249.599	88.69
249.832	77.69
250.066	86.69
250.299	84.69
250.532	61.69
250.765	72.69
250.998	72.69
251.231	65.69
251.465	74.69
251.698	68.69
251.931	84.69
252.164	79.69
252.397	75.69
252.63	68.69
252.863	78.69
253.096	77.69
253.329	68.69
253.562	75.69
253.795	83.69
254.028	76.69
254.261	80.69
254.494	73.69
254.727	74.69
254.96	63.69
255.193	73.69
255.426	72.69
255.659	72.69
255.892	87.69
256.124	70.69
256.357	86.69
256.59	78.69
256.823	70.69
257.056	80.69
257.289	81.69
257.521	67.69
257.754	80.69
257.987	84.69
258.22	81.69
258.452	70.69
258.685	79.69
258.918	61.69
259.151	67.69
259.383	80.69
259.616	75.69
259.849	82.69
260.081	85.69
260.314	79.69
260.547	75.69
260.779	72.69
261.012	65.69
261.244	72.69
261.477	78.69
261.71	73.69
261.942	79.69
262.175	88.69
262.407	69.69
262.64	65.69
262.872	77.69
263.105	69.69
263.337	75.69
263.57	65.69
263.802	80.69
264.035	69.69
264.267	70.69
264.499	71.69
264.732	82.69
264.964	81.69
265.197	73.69
265.429	84.69
265.661	64.69
265.894	76.69
266.126	79.69
266.358	82.69
266.591	76.69
266.823	85.69
267.055	90.69
267.287	67.69
267.52	72.69
267.752	76.69
267.984	77.69
268.216	72.69
268.448	82.69
268.681	68.69
268.913	75.69
269.145	77.69
269.377	88.69
269.609	80.69
269.841	88.69
270.073	82.69
270.306	82.69
270.538	70.69
270.77	77.69
271.002	72.69
271.234	80.69
271.466	80.69
271.698	78.69
271.93	83.69
272.162	76.69
272.394	80.69
272.626	85.69
272.858	77.69
273.09	73.69
273.322	89.69
273.553	66.69
273.785	69.69
274.017	76.69
274.249	72.69
274.481	74.69
274.713	66.69
274.945	84.69
275.176	76.69
275.408	81.69
275.64	79.69
275.872	77.69
276.104	84.69
276.335	84.69
276.567	76.69
276.799	71.69
277.031	72.69
277.262	76.69
277.494	82.69
277.726	68.69
277.957	70.69
278.189	77.69
278.421	80.69
278.652	80.69
278.884	80.69
279.115	72.69
279.347	89.69
279.579	74.69
279.81	74.69
280.042	79.69
280.273	75.69
280.505	80.69
280.736	84.69
280.968	82.69
281.199	84.69
281.431	68.69
281.662	86.69
281.894	81.69
282.125	73.69
282.356	84.69
282.588	79.69
282.819	64.69
283.051	80.69
283.282	71.69
283.513	72.69
283.745	85.69
283.976	76.69
284.207	74.69
284.439	88.69
284.67	74.69
284.901	81.69
285.132	80.69
285.364	79.69
285.595	87.69
285.826	76.69
286.057	79.69
286.288	77.69
286.52	70.69
286.751	90.69
286.982	69.69
287.213	70.69
287.444	89.69
287.675	82.69
287.906	83.69
288.138	67.69
288.369	75.69
288.6	74.69
288.831	81.69
289.062	80.69
289.293	82.69
289.524	67.69
289.755	86.69
289.986	82.69
290.217	79.69
290.448	84.69
290.679	87.69
290.91	85.69
291.141	85.69
291.371	82.69
291.602	78.69
291.833	81.69
292.064	87.69
292.295	75.69
292.526	79.69
292.757	90.69
292.987	81.69
293.218	84.69
293.449	78.69
293.68	87.69
293.91	81.69
294.141	78.69
294.372	85.69
294.603	86.69
294.833	86.69
295.064	78.69
295.295	78.69
295.525	71.69
295.756	76.69
295.987	78.69
296.217	78.69
296.448	85.69
296.679	80.69
296.909	92.69
297.14	86.69
297.37	86.69
297.601	82.69
297.831	85.69
298.062	83.69
298.292	88.69
298.523	96.69
298.753	82.69
298.984	60.69
299.214	84.69
299.445	74.69
299.675	82.69
299.905	80.69
300.136	79.69
300.366	77.69
300.597	72.69
300.827	77.69
301.057	85.69
301.288	86.69
301.518	87.69
301.748	78.69
301.979	94.69
302.209	72.69
302.439	92.69
302.669	80.69
302.9	75.69
303.13	84.69
303.36	68.69
303.59	79.69
303.82	82.69
304.051	87.69
304.281	77.69
304.511	71.69
304.741	79.69
304.971	76.69
305.201	78.69
305.431	77.69
305.661	88.69
305.891	77.69
306.121	81.69
306.352	62.69
306.582	72.69
306.812	83.69
307.042	68.69
307.272	74.69
307.502	83.69
307.731	72.69
307.961	90.69
308.191	88.69
308.421	77.69
308.651	86.69
308.881	79.69
309.111	85.69
309.341	80.69
309.571	80.69
309.8	72.69
310.03	62.69
310.26	79.69
310.49	64.69
310.72	68.69
310.949	76.69
311.179	72.69
311.409	85.69
311.639	86.69
311.868	75.69
312.098	68.69
312.328	82.69
312.557	79.69
312.787	69.69
313.017	82.69
313.246	64.69
313.476	68.69
313.706	74.69
313.935	83.69
314.165	84.69
314.394	75.69
314.624	77.69
314.853	66.69
315.083	81.69
315.312	72.69
315.542	88.69
315.771	80.69
316.001	60.69
316.23	82.69
316.46	69.69
316.689	76.69
316.919	70.69
317.148	88.69
317.377	70.69
317.607	71.69
317.836	73.69
318.065	82.69
318.295	98.69
318.524	94.69
318.753	80.69
318.983	77.69
319.212	76.69
319.441	74.69
319.67	92.69
319.9	84.69
320.129	80.69
320.358	90.69
320.587	74.69
320.816	85.69
321.046	73.69
321.275	81.69
321.504	79.69
321.733	76.69
321.962	81.69
322.191	80.69
322.42	72.69
322.649	92.69
322.878	80.69
323.108	84.69
323.337	91.69
323.566	77.69
323.795	86.69
324.024	73.69
324.253	80.69
324.482	79.69
324.71	77.69
324.939	73.69
325.168	74.69
325.397	64.69
325.626	77.69
325.855	76.69
326.084	66.69
326.313	77.69
326.542	78.69
326.77	86.69
326.999	74.69
327.228	72.69
327.457	85.69
327.686	93.69
327.914	82.69
328.143	80.69
328.372	78.69
328.6	75.69
328.829	78.69
329.058	81.69
329.287	91.69
329.515	82.69
329.744	70.69
329.972	88.69
330.201	81.69
330.43	84.69
330.658	80.69
330.887	76.69
331.115	78.69
331.344	84.69
331.572	82.69
331.801	89.69
332.03	81.69
332.258	83.69
332.486	74.69
332.715	60.69
332.943	80.69
333.172	78.69
333.4	85.69
333.629	74.69
333.857	76.69
334.085	71.69
334.314	92.69
334.542	85.69
334.771	70.69
334.999	72.69
335.227	70.69
335.455	84.69
335.684	80.69
335.912	84.69
336.14	77.69
336.369	90.69
336.597	73.69
336.825	90.69
337.053	82.69
337.281	89.69
337.51	72.69
337.738	74.69
337.966	82.69
338.194	74.69
338.422	78.69
338.65	84.69
338.878	88.69
339.106	80.69
339.334	82.69
339.562	75.69
339.79	84.69
340.018	91.69
340.246	76.69
340.474	93.69
340.702	89.69
340.93	80.69
341.158	77.69
341.386	72.69
341.614	80.69
341.842	88.69
342.07	91.69
342.298	82.69
342.526	79.69
342.754	82.69
342.981	79.69
343.209	87.69
343.437	80.69
343.665	75.69
343.893	92.69
344.12	79.69
344.348	76.69
344.576	86.69
344.804	94.69
345.031	63.69
345.259	73.69
345.487	75.69
345.714	88.69
345.942	82.69
346.17	78.69
346.397	88.69
346.625	92.69
346.853	88.69
347.08	77.69
347.308	96.69
347.535	68.69
347.763	78.69
347.99	86.69
348.218	91.69
348.445	90.69
348.673	83.69
348.9	76.69
349.128	89.69
349.355	89.69
349.583	79.69
349.81	76.69
350.037	86.69
350.265	84.69
350.492	83.69
350.72	86.69
350.947	76.69
351.174	76.69
351.402	75.69
351.629	78.69
351.856	82.69
352.083	77.69
352.311	88.69
352.538	82.69
352.765	82.69
352.992	100.69
353.22	80.69
353.447	78.69
353.674	74.69
353.901	80.69
354.128	73.69
354.355	80.69
354.583	82.69
354.81	93.69
355.037	82.69
355.264	78.69
355.491	74.69
355.718	82.69
355.945	82.69
356.172	83.69
356.399	79.69
356.626	84.69
356.853	74.69
357.08	102.69
357.307	70.69
357.534	68.69
357.761	85.69
357.988	80.69
358.215	60.69
358.441	77.69
358.668	78.69
358.895	89.69
359.122	72.69
359.349	86.69
359.576	90.69
359.802	75.69
360.029	81.69
360.256	77.69
360.483	81.69
360.709	77.69
360.936	78.69
361.163	89.69
361.39	75.69
361.616	78.69
361.843	83.69
362.07	88.69
362.296	72.69
362.523	81.69
362.749	78.69
362.976	68.69
363.203	69.69
363.429	76.69
363.656	73.69
363.882	81.69
364.109	71.69
364.335	82.69
364.562	81.69
364.788	85.69
365.015	80.69
365.241	86.69
365.468	68.69
365.694	75.69
365.92	65.69
366.147	75.69
366.373	71.69
366.599	83.69
366.826	92.69
367.052	62.69
367.278	86.69
367.505	75.69
367.731	81.69
367.957	73.69
368.184	77.69
368.41	76.69
368.636	83.69
368.862	85.69
369.089	71.69
369.315	86.69
369.541	92.69
369.767	61.69
369.993	84.69
370.219	86.69
370.445	82.69
370.672	84.69
370.898	76.69
371.124	69.69
371.35	81.69
371.576	76.69
371.802	86.69
372.028	66.69
372.254	77.69
372.48	74.69
372.706	86.69
372.932	73.69
373.158	90.69
373.384	87.69
373.61	66.69
373.835	83.69
374.061	83.69
374.287	74.69
374.513	73.69
374.739	77.69
374.965	79.69
375.191	90.69
375.416	80.69
375.642	73.69
375.868	75.69
376.094	79.69
376.319	90.69
376.545	70.69
376.771	80.69
376.997	78.69
377.222	70.69
377.448	75.69
377.674	67.69
377.899	90.69
378.125	82.69
378.35	73.69
378.576	65.69
378.802	76.69
379.027	75.69
379.253	78.69
379.478	81.69
379.704	70.69
379.929	84.69
380.155	82.69
380.38	61.69
380.606	65.69
380.831	76.69
381.057	77.69
381.282	80.69
381.507	77.69
381.733	67.69
381.958	77.69
382.184	90.69
382.409	87.69
382.634	88.69
382.86	80.69
383.085	77.69
383.31	73.69
383.535	81.69
383.761	69.69
383.986	90.69
384.211	71.69
384.436	71.69
384.662	68.69
384.887	81.69
385.112	71.69
385.337	98.69
385.562	86.69
385.787	80.69
386.013	77.69
386.238	84.69
386.463	82.69
386.688	90.69
386.913	80.69
387.138	76.69
387.363	64.69
387.588	70.69
387.813	69.69
388.038	83.69
388.263	84.69
388.488	87.69
388.713	73.69
388.938	70.69
389.163	76.69
389.387	78.69
389.612	79.69
389.837	68.69
390.062	71.69
390.287	83.69
390.512	74.69
390.736	88.69
390.961	83.69
391.186	85.69
391.411	74.69
391.636	79.69
391.86	73.69
392.085	59.69
392.31	70.69
392.534	70.69
392.759	77.69
392.984	74.69
393.208	84.69
393.433	80.69
393.658	77.69
393.882	68.69
394.107	70.69
394.331	71.69
394.556	78.69
394.78	83.69
395.005	76.69
395.229	76.69
395.454	70.69
395.678	63.69
395.903	73.69
396.127	74.69
396.352	86.69
396.576	76.69
396.801	74.69
397.025	85.69
397.249	68.69
397.474	87.69
397.698	77.69
397.922	84.69
398.147	77.69
398.371	80.69
398.595	66.69
398.82	81.69
399.044	67.69
399.268	81.69
399.492	60.69
399.717	81.69
399.941	94.69
400.165	82.69
400.389	69.69
400.613	72.69
400.837	75.69
401.062	74.69
401.286	79.69
401.51	86.69
401.734	83.69
401.958	82.69
402.182	78.69
402.406	80.69
402.63	82.69
402.854	69.69
403.078	72.69
403.302	94.69
403.526	59.69
403.75	78.69
403.974	85.69
404.198	89.69
404.422	83.69
404.645	88.69
404.869	70.69
405.093	89.69
405.317	78.69
405.541	61.69
405.765	81.69
405.988	71.69
406.212	83.69
406.436	87.69
406.66	81.69
406.883	70.69
407.107	72.69
407.331	73.69
407.555	76.69
407.778	75.69
408.002	82.69
408.226	76.69
408.449	90.69
408.673	79.69
408.896	74.69
409.12	77.69
409.344	74.69
409.567	72.69
409.791	75.69
410.014	83.69
410.238	79.69
410.461	81.69
410.685	75.69
410.908	88.69
411.132	76.69
411.355	79.69
411.578	67.69
411.802	90.69
412.025	72.69
412.249	90.69
412.472	77.69
412.695	78.69
412.919	77.69
413.142	73.69
413.365	80.69
413.589	70.69
413.812	73.69
414.035	88.69
414.258	75.69
414.482	78.69
414.705	77.69
414.928	89.69
415.151	59.69
415.374	78.69
415.597	74.69
415.821	77.69
416.044	90.69
416.267	71.69
416.49	80.69
416.713	71.69
416.936	60.69
417.159	89.69
417.382	96.69
417.605	73.69
417.828	79.69
418.051	76.69
418.274	78.69
418.497	72.69
418.72	91.69
418.943	83.69
419.166	78.69
419.389	69.69
419.611	85.69
419.834	77.69
420.057	76.69
420.28	86.69
420.503	71.69
420.726	75.69
420.948	84.69
421.171	87.69
421.394	87.69
421.617	66.69
421.839	78.69
422.062	77.69
422.285	82.69
422.507	69.69
422.73	93.69
422.953	78.69
423.175	85.69
423.398	79.69
423.621	81.69
423.843	83.69
424.066	90.69
424.288	93.69
424.511	82.69
424.733	91.69
424.956	72.69
425.178	65.69
425.401	67.69
425.623	82.69
425.846	74.69
426.068	73.69
426.291	89.69
426.513	79.69
426.735	78.69
426.958	73.69
427.18	76.69
427.402	79.69
427.625	83.69
427.847	67.69
428.069	88.69
428.292	94.69
428.514	82.69
428.736	57.69
428.958	75.69
429.181	66.69
429.403	66.69
429.625	69.69
429.847	74.69
430.069	74.69
430.292	73.69
430.514	70.69
430.736	68.69
430.958	81.69
431.18	67.69
431.402	79.69
431.624	80.69
431.846	62.69
432.068	87.69
432.29	72.69
432.512	75.69
432.734	79.69
432.956	84.69
433.178	84.69
433.4	87.69
433.622	79.69
433.844	77.69
434.066	85.69
434.287	67.69
434.509	82.69
434.731	88.69
434.953	69.69
435.175	76.69
435.397	69.69
435.618	70.69
435.84	80.69
436.062	76.69
436.284	83.69
436.505	80.69
436.727	78.69
436.949	69.69
437.17	69.69
437.392	76.69
437.614	73.69
437.835	71.69
438.057	75.69
438.278	74.69
438.5	78.69
438.721	89.69
438.943	78.69
439.165	84.69
439.386	75.69
439.608	66.69
439.829	74.69
440.05	62.69
440.272	86.69
440.493	84.69
440.715	69.69
440.936	73.69
441.158	76.69
441.379	85.69
441.6	69.69
441.822	79.69
442.043	69.69
442.264	85.69
442.486	65.69
442.707	75.69
442.928	71.69
443.149	68.69
443.371	76.69
443.592	77.69
443.813	64.69
444.034	66.69
444.255	68.69
444.476	72.69
444.698	76.69
444.919	80.69
445.14	144.69
445.361	108.69
445.582	79.69
445.803	74.69
446.024	74.69
446.245	83.69
446.466	84.69
446.687	76.69
446.908	80.69
447.129	72.69
447.35	88.69
447.571	77.69
447.792	70.69
448.013	69.69
448.234	67.69
448.455	74.69
448.675	76.69
448.896	74.69
449.117	80.69
449.338	61.69
449.559	59.69
449.779	75.69
450	76.69
450.221	76.69
450.442	71.69
450.662	68.69
450.883	77.69
451.104	74.69
451.324	63.69
451.545	73.69
451.766	61.69
451.986	54.69
452.207	73.69
452.428	76.69
452.648	68.69
452.869	75.69
453.089	84.69
453.31	80.69
453.53	86.69
453.751	75.69
453.971	82.69
454.192	82.69
454.412	72.69
454.633	74.69
454.853	89.69
455.073	73.69
455.294	92.69
455.514	78.69
455.734	75.69
455.955	76.69
456.175	84.69
456.395	82.69
456.616	87.69
456.836	74.69
457.056	78.69
457.276	75.69
457.497	81.69
457.717	68.69
457.937	83.69
458.157	87.69
458.377	74.69
458.598	70.69
458.818	84.69
459.038	66.69
459.258	77.69
459.478	86.69
459.698	84.69
459.918	88.69
460.138	91.69
460.358	82.69
460.578	83.69
460.798	76.69
461.018	65.69
461.238	79.69
461.458	81.69
461.678	82.69
461.898	94.69
462.118	84.69
462.338	95.69
462.558	85.69
462.777	73.69
462.997	85.69
463.217	84.69
463.437	71.69
463.657	71.69
463.876	84.69
464.096	83.69
464.316	79.69
464.536	73.69
464.755	74.69
464.975	63.69
465.195	86.69
465.414	90.69
465.634	80.69
465.854	84.69
466.073	76.69
466.293	72.69
466.512	61.69
466.732	79.69
466.951	61.69
467.171	87.69
467.391	77.69
467.61	62.69
467.829	80.69
468.049	75.69
468.268	77.69
468.488	83.69
468.707	82.69
468.927	77.69
469.146	78.69
469.365	88.69
469.585	78.69
469.804	69.69
470.023	74.69
470.243	82.69
470.462	65.69
470.681	70.69
470.901	74.69
471.12	71.69
471.339	64.69
471.558	72.69
471.777	68.69
471.997	74.69
472.216	75.69
472.435	76.69
472.654	96.69
472.873	68.69
473.092	70.69
473.311	82.69
473.53	77.69
473.749	76.69
473.968	91.69
474.187	85.69
474.406	84.69
474.625	69.69
474.844	74.69
475.063	79.69
475.282	80.69
475.501	76.69
475.72	82.69
475.939	62.69
476.158	62.69
476.377	68.69
476.596	80.69
476.814	77.69
477.033	64.69
477.252	87.69
477.471	70.69
477.69	75.69
477.908	77.69
478.127	74.69
478.346	58.69
478.564	77.69
478.783	77.69
479.002	80.69
479.22	62.69
479.439	87.69
479.658	85.69
479.876	81.69
480.095	88.69
480.313	72.69
480.532	65.69
480.751	70.69
480.969	85.69
481.188	81.69
481.406	78.69
481.624	80.69
481.843	68.69
482.061	81.69
482.28	72.69
482.498	89.69
482.717	72.69
482.935	82.69
483.153	80.69
483.372	79.69
483.59	78.69
483.808	76.69
484.027	69.69
484.245	78.69
484.463	75.69
484.681	71.69
484.9	80.69
485.118	84.69
485.336	70.69
485.554	76.69
485.772	82.69
485.99	84.69
486.209	85.69
486.427	84.69
486.645	77.69
486.863	71.69
487.081	62.69
487.299	86.69
487.517	81.69
487.735	85.69
487.953	74.69
488.171	84.69
488.389	82.69
488.607	79.69
488.825	72.69
489.043	77.69
489.261	77.69
489.479	86.69
489.696	73.69
489.914	80.69
490.132	72.69
490.35	81.69
490.568	63.69
490.786	75.69
491.003	84.69
491.221	79.69
491.439	84.69
491.657	81.69
491.874	79.69
492.092	77.69
492.31	87.69
492.527	71.69
492.745	76.69
492.963	74.69
493.18	78.69
493.398	86.69
493.615	77.69
493.833	74.69
494.05	78.69
494.268	81.69
494.485	80.69
494.703	77.69
494.92	62.69
495.138	85.69
495.355	90.69
495.573	89.69
495.79	85.69
496.008	79.69
496.225	79.69
496.442	69.69
496.66	70.69
496.877	81.69
497.094	74.69
497.312	84.69
497.529	85.69
497.746	78.69
497.963	86.69
498.181	74.69
498.398	75.69
498.615	71.69
498.832	69.69
499.049	68.69
499.267	88.69
499.484	70.69
499.701	76.69
499.918	65.69
500.135	79.69
500.352	78.69
500.569	80.69
500.786	79.69
501.003	85.69
501.22	82.69
501.437	90.69
501.654	83.69
501.871	71.69
502.088	86.69
502.305	96.69
502.522	84.69
502.739	73.69
502.956	77.69
503.172	81.69
503.389	84.69
503.606	61.69
503.823	70.69
504.04	85.69
504.256	78.69
504.473	75.69
504.69	66.69
504.907	80.69
505.123	72.69
505.34	77.69
505.557	81.69
505.773	77.69
505.99	74.69
506.207	86.69
506.423	81.69
506.64	84.69
506.856	70.69
507.073	78.69
507.289	96.69
507.506	80.69
507.722	69.69
507.939	76.69
508.155	75.69
508.372	72.69
508.588	88.69
508.805	70.69
509.021	72.69
509.238	76.69
509.454	85.69
509.67	73.69
509.887	87.69
510.103	82.69
510.319	91.69
510.536	87.69
510.752	83.69
510.968	78.69
511.184	71.69
511.401	79.69
511.617	88.69
511.833	74.69
512.049	77.69
512.265	68.69
512.481	73.69
512.698	74.69
512.914	78.69
513.13	74.69
513.346	83.69
513.562	76.69
513.778	85.69
513.994	89.69
514.21	65.69
514.426	78.69
514.642	77.69
514.858	77.69
515.074	68.69
515.29	95.69
515.506	80.69
515.721	83.69
515.937	97.69
516.153	76.69
516.369	67.69
516.585	74.69
516.801	78.69
517.016	76.69
517.232	86.69
517.448	78.69
517.664	82.69
517.879	80.69
518.095	82.69
518.311	93.69
518.527	79.69
518.742	82.69
518.958	76.69
519.173	82.69
519.389	81.69
519.605	78.69
519.82	90.69
520.036	74.69
520.251	79.69
520.467	86.69
