Data from BG_HRD10591_027.txt Node
Date: Fri May 16 15:27:00 EDT 2025
User: Yrep
Spectrometer: HR+D1059
Trigger mode: 1
Integration Time (sec): 1.000000E-1
Scans to average: 1
Electric dark correction enabled: true
Nonlinearity correction enabled: false
Boxcar width: 0
XAxis mode: Wavelengths
Number of Pixels in Spectrum: 2048
>>>>>Begin Spectral Data<<<<<
223.165	-15.19
223.4	-15.19
223.635	-15.19
223.869	-28.19
224.104	-15.19
224.338	-9.19
224.573	-18.19
224.808	-4.19
225.042	-4.19
225.277	-5.19
225.511	-2.19
225.746	3.81
225.98	13.81
226.215	14.81
226.449	1.81
226.683	23.81
226.918	18.81
227.152	24.81
227.387	42.81
227.621	39.81
227.856	53.81
228.09	53.81
228.324	47.81
228.559	50.81
228.793	59.81
229.027	58.81
229.262	56.81
229.496	72.81
229.73	59.81
229.964	76.81
230.199	73.81
230.433	79.81
230.667	86.81
230.901	64.81
231.136	83.81
231.37	84.81
231.604	74.81
231.838	62.81
232.072	70.81
232.306	81.81
232.541	75.81
232.775	84.81
233.009	78.81
233.243	79.81
233.477	78.81
233.711	80.81
233.945	77.81
234.179	77.81
234.413	84.81
234.647	84.81
234.881	69.81
235.115	74.81
235.349	69.81
235.583	70.81
235.817	77.81
236.051	72.81
236.285	72.81
236.519	72.81
236.753	72.81
236.987	57.81
237.221	74.81
237.455	76.81
237.689	79.81
237.922	65.81
238.156	83.81
238.39	79.81
238.624	80.81
238.858	88.81
239.091	63.81
239.325	72.81
239.559	71.81
239.793	62.81
240.027	75.81
240.26	79.81
240.494	83.81
240.728	71.81
240.961	69.81
241.195	69.81
241.429	84.81
241.662	77.81
241.896	63.81
242.13	66.81
242.363	79.81
242.597	78.81
242.83	66.81
243.064	67.81
243.298	70.81
243.531	63.81
243.765	85.81
243.998	72.81
244.232	68.81
244.465	83.81
244.699	72.81
244.932	69.81
245.166	87.81
245.399	99.81
245.633	91.81
245.866	84.81
246.099	87.81
246.333	76.81
246.566	80.81
246.8	70.81
247.033	69.81
247.266	89.81
247.5	73.81
247.733	68.81
247.966	84.81
248.2	74.81
248.433	75.81
248.666	69.81
248.899	78.81
249.133	65.81
249.366	80.81
249.599	68.81
249.832	65.81
250.066	79.81
250.299	85.81
250.532	74.81
250.765	75.81
250.998	78.81
251.231	73.81
251.465	75.81
251.698	65.81
251.931	65.81
252.164	68.81
252.397	87.81
252.63	78.81
252.863	71.81
253.096	83.81
253.329	85.81
253.562	78.81
253.795	87.81
254.028	77.81
254.261	87.81
254.494	71.81
254.727	78.81
254.96	89.81
255.193	85.81
255.426	69.81
255.659	86.81
255.892	79.81
256.124	78.81
256.357	79.81
256.59	83.81
256.823	78.81
257.056	86.81
257.289	70.81
257.521	73.81
257.754	86.81
257.987	85.81
258.22	89.81
258.452	81.81
258.685	75.81
258.918	73.81
259.151	76.81
259.383	83.81
259.616	83.81
259.849	94.81
260.081	80.81
260.314	80.81
260.547	72.81
260.779	101.81
261.012	89.81
261.244	78.81
261.477	82.81
261.71	67.81
261.942	88.81
262.175	83.81
262.407	79.81
262.64	88.81
262.872	91.81
263.105	89.81
263.337	89.81
263.57	94.81
263.802	91.81
264.035	89.81
264.267	76.81
264.499	65.81
264.732	83.81
264.964	75.81
265.197	75.81
265.429	73.81
265.661	73.81
265.894	67.81
266.126	73.81
266.358	70.81
266.591	79.81
266.823	80.81
267.055	80.81
267.287	84.81
267.52	68.81
267.752	84.81
267.984	74.81
268.216	75.81
268.448	96.81
268.681	62.81
268.913	75.81
269.145	89.81
269.377	85.81
269.609	87.81
269.841	91.81
270.073	83.81
270.306	80.81
270.538	94.81
270.77	85.81
271.002	76.81
271.234	69.81
271.466	92.81
271.698	71.81
271.93	83.81
272.162	77.81
272.394	81.81
272.626	84.81
272.858	71.81
273.09	87.81
273.322	71.81
273.553	71.81
273.785	93.81
274.017	91.81
274.249	78.81
274.481	78.81
274.713	78.81
274.945	83.81
275.176	79.81
275.408	81.81
275.64	84.81
275.872	95.81
276.104	90.81
276.335	76.81
276.567	69.81
276.799	85.81
277.031	89.81
277.262	82.81
277.494	92.81
277.726	80.81
277.957	81.81
278.189	82.81
278.421	68.81
278.652	84.81
278.884	78.81
279.115	72.81
279.347	83.81
279.579	95.81
279.81	88.81
280.042	80.81
280.273	76.81
280.505	73.81
280.736	79.81
280.968	93.81
281.199	89.81
281.431	80.81
281.662	81.81
281.894	88.81
282.125	90.81
282.356	77.81
282.588	84.81
282.819	85.81
283.051	76.81
283.282	73.81
283.513	74.81
283.745	84.81
283.976	71.81
284.207	94.81
284.439	81.81
284.67	89.81
284.901	74.81
285.132	85.81
285.364	71.81
285.595	77.81
285.826	78.81
286.057	86.81
286.288	91.81
286.52	79.81
286.751	87.81
286.982	87.81
287.213	72.81
287.444	90.81
287.675	86.81
287.906	88.81
288.138	69.81
288.369	82.81
288.6	82.81
288.831	75.81
289.062	78.81
289.293	89.81
289.524	78.81
289.755	76.81
289.986	80.81
290.217	77.81
290.448	84.81
290.679	74.81
290.91	71.81
291.141	71.81
291.371	65.81
291.602	75.81
291.833	96.81
292.064	83.81
292.295	75.81
292.526	82.81
292.757	84.81
292.987	86.81
293.218	76.81
293.449	85.81
293.68	80.81
293.91	67.81
294.141	85.81
294.372	83.81
294.603	82.81
294.833	96.81
295.064	81.81
295.295	75.81
295.525	77.81
295.756	76.81
295.987	89.81
296.217	90.81
296.448	73.81
296.679	72.81
296.909	79.81
297.14	80.81
297.37	92.81
297.601	87.81
297.831	82.81
298.062	83.81
298.292	88.81
298.523	100.81
298.753	72.81
298.984	90.81
299.214	91.81
299.445	86.81
299.675	78.81
299.905	78.81
300.136	72.81
300.366	89.81
300.597	87.81
300.827	84.81
301.057	76.81
301.288	80.81
301.518	95.81
301.748	86.81
301.979	90.81
302.209	88.81
302.439	89.81
302.669	84.81
302.9	89.81
303.13	90.81
303.36	99.81
303.59	91.81
303.82	87.81
304.051	89.81
304.281	85.81
304.511	88.81
304.741	85.81
304.971	77.81
305.201	78.81
305.431	74.81
305.661	91.81
305.891	83.81
306.121	90.81
306.352	89.81
306.582	99.81
306.812	75.81
307.042	76.81
307.272	90.81
307.502	92.81
307.731	73.81
307.961	72.81
308.191	76.81
308.421	83.81
308.651	76.81
308.881	87.81
309.111	76.81
309.341	91.81
309.571	80.81
309.8	81.81
310.03	69.81
310.26	92.81
310.49	80.81
310.72	81.81
310.949	85.81
311.179	77.81
311.409	79.81
311.639	78.81
311.868	57.81
312.098	69.81
312.328	76.81
312.557	81.81
312.787	89.81
313.017	81.81
313.246	69.81
313.476	86.81
313.706	94.81
313.935	86.81
314.165	57.81
314.394	72.81
314.624	80.81
314.853	84.81
315.083	87.81
315.312	99.81
315.542	80.81
315.771	83.81
316.001	76.81
316.23	83.81
316.46	78.81
316.689	75.81
316.919	85.81
317.148	87.81
317.377	71.81
317.607	69.81
317.836	76.81
318.065	78.81
318.295	76.81
318.524	81.81
318.753	75.81
318.983	73.81
319.212	83.81
319.441	88.81
319.67	91.81
319.9	83.81
320.129	72.81
320.358	87.81
320.587	77.81
320.816	91.81
321.046	86.81
321.275	87.81
321.504	70.81
321.733	75.81
321.962	84.81
322.191	80.81
322.42	81.81
322.649	81.81
322.878	92.81
323.108	102.81
323.337	92.81
323.566	85.81
323.795	83.81
324.024	71.81
324.253	76.81
324.482	81.81
324.71	83.81
324.939	78.81
325.168	67.81
325.397	80.81
325.626	84.81
325.855	79.81
326.084	74.81
326.313	92.81
326.542	86.81
326.77	89.81
326.999	78.81
327.228	83.81
327.457	83.81
327.686	84.81
327.914	68.81
328.143	90.81
328.372	77.81
328.6	87.81
328.829	89.81
329.058	93.81
329.287	77.81
329.515	68.81
329.744	78.81
329.972	80.81
330.201	75.81
330.43	83.81
330.658	94.81
330.887	101.81
331.115	92.81
331.344	68.81
331.572	81.81
331.801	86.81
332.03	90.81
332.258	74.81
332.486	87.81
332.715	72.81
332.943	84.81
333.172	77.81
333.4	82.81
333.629	73.81
333.857	87.81
334.085	80.81
334.314	73.81
334.542	76.81
334.771	85.81
334.999	84.81
335.227	79.81
335.455	73.81
335.684	88.81
335.912	76.81
336.14	80.81
336.369	87.81
336.597	86.81
336.825	72.81
337.053	69.81
337.281	89.81
337.51	71.81
337.738	82.81
337.966	75.81
338.194	73.81
338.422	89.81
338.65	73.81
338.878	87.81
339.106	89.81
339.334	83.81
339.562	75.81
339.79	80.81
340.018	88.81
340.246	71.81
340.474	89.81
340.702	79.81
340.93	80.81
341.158	92.81
341.386	89.81
341.614	79.81
341.842	91.81
342.07	92.81
342.298	99.81
342.526	81.81
342.754	81.81
342.981	70.81
343.209	83.81
343.437	94.81
343.665	85.81
343.893	77.81
344.12	71.81
344.348	85.81
344.576	75.81
344.804	77.81
345.031	75.81
345.259	87.81
345.487	80.81
345.714	92.81
345.942	92.81
346.17	81.81
346.397	77.81
346.625	88.81
346.853	74.81
347.08	74.81
347.308	76.81
347.535	83.81
347.763	73.81
347.99	93.81
348.218	84.81
348.445	78.81
348.673	79.81
348.9	84.81
349.128	81.81
349.355	71.81
349.583	83.81
349.81	82.81
350.037	85.81
350.265	79.81
350.492	71.81
350.72	66.81
350.947	68.81
351.174	72.81
351.402	71.81
351.629	83.81
351.856	75.81
352.083	76.81
352.311	87.81
352.538	84.81
352.765	95.81
352.992	93.81
353.22	77.81
353.447	79.81
353.674	99.81
353.901	77.81
354.128	95.81
354.355	80.81
354.583	80.81
354.81	84.81
355.037	87.81
355.264	79.81
355.491	92.81
355.718	78.81
355.945	66.81
356.172	102.81
356.399	77.81
356.626	69.81
356.853	91.81
357.08	90.81
357.307	86.81
357.534	80.81
357.761	83.81
357.988	92.81
358.215	91.81
358.441	91.81
358.668	89.81
358.895	85.81
359.122	70.81
359.349	83.81
359.576	73.81
359.802	76.81
360.029	82.81
360.256	84.81
360.483	72.81
360.709	76.81
360.936	96.81
361.163	71.81
361.39	95.81
361.616	72.81
361.843	68.81
362.07	88.81
362.296	73.81
362.523	83.81
362.749	69.81
362.976	81.81
363.203	81.81
363.429	67.81
363.656	84.81
363.882	78.81
364.109	85.81
364.335	73.81
364.562	70.81
364.788	83.81
365.015	86.81
365.241	76.81
365.468	91.81
365.694	66.81
365.92	77.81
366.147	90.81
366.373	78.81
366.599	77.81
366.826	80.81
367.052	77.81
367.278	85.81
367.505	76.81
367.731	85.81
367.957	83.81
368.184	75.81
368.41	72.81
368.636	78.81
368.862	76.81
369.089	67.81
369.315	71.81
369.541	74.81
369.767	93.81
369.993	83.81
370.219	76.81
370.445	77.81
370.672	84.81
370.898	75.81
371.124	86.81
371.35	83.81
371.576	83.81
371.802	81.81
372.028	100.81
372.254	85.81
372.48	61.81
372.706	93.81
372.932	83.81
373.158	75.81
373.384	94.81
373.61	85.81
373.835	79.81
374.061	92.81
374.287	88.81
374.513	62.81
374.739	93.81
374.965	55.81
375.191	81.81
375.416	75.81
375.642	63.81
375.868	76.81
376.094	81.81
376.319	88.81
376.545	69.81
376.771	83.81
376.997	80.81
377.222	79.81
377.448	71.81
377.674	80.81
377.899	87.81
378.125	86.81
378.35	78.81
378.576	70.81
378.802	64.81
379.027	84.81
379.253	67.81
379.478	83.81
379.704	77.81
379.929	71.81
380.155	91.81
380.38	74.81
380.606	83.81
380.831	91.81
381.057	81.81
381.282	79.81
381.507	72.81
381.733	78.81
381.958	75.81
382.184	78.81
382.409	74.81
382.634	88.81
382.86	80.81
383.085	79.81
383.31	84.81
383.535	72.81
383.761	64.81
383.986	78.81
384.211	81.81
384.436	73.81
384.662	88.81
384.887	81.81
385.112	61.81
385.337	81.81
385.562	61.81
385.787	77.81
386.013	80.81
386.238	79.81
386.463	89.81
386.688	66.81
386.913	84.81
387.138	79.81
387.363	91.81
387.588	89.81
387.813	76.81
388.038	79.81
388.263	92.81
388.488	65.81
388.713	75.81
388.938	77.81
389.163	82.81
389.387	67.81
389.612	68.81
389.837	79.81
390.062	92.81
390.287	73.81
390.512	74.81
390.736	96.81
390.961	85.81
391.186	73.81
391.411	79.81
391.636	84.81
391.86	93.81
392.085	62.81
392.31	78.81
392.534	72.81
392.759	68.81
392.984	73.81
393.208	79.81
393.433	84.81
393.658	74.81
393.882	79.81
394.107	77.81
394.331	81.81
394.556	76.81
394.78	83.81
395.005	87.81
395.229	81.81
395.454	76.81
395.678	77.81
395.903	78.81
396.127	83.81
396.352	76.81
396.576	79.81
396.801	60.81
397.025	66.81
397.249	84.81
397.474	72.81
397.698	85.81
397.922	86.81
398.147	68.81
398.371	94.81
398.595	79.81
398.82	87.81
399.044	83.81
399.268	93.81
399.492	77.81
399.717	85.81
399.941	81.81
400.165	78.81
400.389	74.81
400.613	63.81
400.837	71.81
401.062	82.81
401.286	75.81
401.51	65.81
401.734	84.81
401.958	84.81
402.182	71.81
402.406	74.81
402.63	96.81
402.854	70.81
403.078	73.81
403.302	71.81
403.526	90.81
403.75	88.81
403.974	75.81
404.198	86.81
404.422	77.81
404.645	88.81
404.869	69.81
405.093	75.81
405.317	69.81
405.541	66.81
405.765	77.81
405.988	74.81
406.212	82.81
406.436	70.81
406.66	85.81
406.883	74.81
407.107	83.81
407.331	79.81
407.555	71.81
407.778	88.81
408.002	77.81
408.226	75.81
408.449	76.81
408.673	74.81
408.896	87.81
409.12	69.81
409.344	85.81
409.567	74.81
409.791	71.81
410.014	79.81
410.238	83.81
410.461	75.81
410.685	83.81
410.908	68.81
411.132	86.81
411.355	75.81
411.578	83.81
411.802	82.81
412.025	81.81
412.249	59.81
412.472	67.81
412.695	70.81
412.919	66.81
413.142	75.81
413.365	87.81
413.589	78.81
413.812	78.81
414.035	96.81
414.258	60.81
414.482	83.81
414.705	65.81
414.928	65.81
415.151	79.81
415.374	79.81
415.597	74.81
415.821	78.81
416.044	76.81
416.267	66.81
416.49	66.81
416.713	81.81
416.936	63.81
417.159	88.81
417.382	83.81
417.605	78.81
417.828	85.81
418.051	86.81
418.274	68.81
418.497	75.81
418.72	77.81
418.943	74.81
419.166	67.81
419.389	76.81
419.611	83.81
419.834	71.81
420.057	105.81
420.28	87.81
420.503	82.81
420.726	77.81
420.948	74.81
421.171	89.81
421.394	67.81
421.617	87.81
421.839	83.81
422.062	76.81
422.285	68.81
422.507	70.81
422.73	72.81
422.953	81.81
423.175	83.81
423.398	79.81
423.621	77.81
423.843	93.81
424.066	85.81
424.288	74.81
424.511	68.81
424.733	81.81
424.956	80.81
425.178	74.81
425.401	65.81
425.623	75.81
425.846	81.81
426.068	90.81
426.291	84.81
426.513	70.81
426.735	65.81
426.958	65.81
427.18	74.81
427.402	66.81
427.625	79.81
427.847	72.81
428.069	81.81
428.292	94.81
428.514	73.81
428.736	83.81
428.958	75.81
429.181	75.81
429.403	87.81
429.625	77.81
429.847	84.81
430.069	75.81
430.292	81.81
430.514	89.81
430.736	77.81
430.958	69.81
431.18	71.81
431.402	77.81
431.624	75.81
431.846	75.81
432.068	79.81
432.29	73.81
432.512	76.81
432.734	74.81
432.956	71.81
433.178	77.81
433.4	81.81
433.622	83.81
433.844	75.81
434.066	72.81
434.287	85.81
434.509	69.81
434.731	80.81
434.953	73.81
435.175	86.81
435.397	80.81
435.618	82.81
435.84	88.81
436.062	89.81
436.284	75.81
436.505	69.81
436.727	68.81
436.949	78.81
437.17	81.81
437.392	79.81
437.614	81.81
437.835	74.81
438.057	86.81
438.278	85.81
438.5	65.81
438.721	83.81
438.943	72.81
439.165	68.81
439.386	85.81
439.608	67.81
439.829	75.81
440.05	80.81
440.272	78.81
440.493	81.81
440.715	95.81
440.936	91.81
441.158	91.81
441.379	77.81
441.6	77.81
441.822	77.81
442.043	78.81
442.264	62.81
442.486	83.81
442.707	85.81
442.928	62.81
443.149	70.81
443.371	84.81
443.592	77.81
443.813	80.81
444.034	72.81
444.255	85.81
444.476	80.81
444.698	86.81
444.919	71.81
445.14	145.81
445.361	115.81
445.582	71.81
445.803	76.81
446.024	79.81
446.245	101.81
446.466	86.81
446.687	81.81
446.908	82.81
447.129	84.81
447.35	80.81
447.571	86.81
447.792	71.81
448.013	92.81
448.234	69.81
448.455	64.81
448.675	79.81
448.896	73.81
449.117	73.81
449.338	77.81
449.559	81.81
449.779	73.81
450	78.81
450.221	53.81
450.442	62.81
450.662	83.81
450.883	77.81
451.104	89.81
451.324	87.81
451.545	85.81
451.766	79.81
451.986	75.81
452.207	72.81
452.428	75.81
452.648	75.81
452.869	75.81
453.089	87.81
453.31	92.81
453.53	85.81
453.751	79.81
453.971	79.81
454.192	93.81
454.412	72.81
454.633	80.81
454.853	81.81
455.073	73.81
455.294	80.81
455.514	75.81
455.734	82.81
455.955	81.81
456.175	92.81
456.395	81.81
456.616	70.81
456.836	74.81
457.056	83.81
457.276	79.81
457.497	84.81
457.717	75.81
457.937	86.81
458.157	75.81
458.377	74.81
458.598	65.81
458.818	77.81
459.038	87.81
459.258	86.81
459.478	85.81
459.698	74.81
459.918	73.81
460.138	80.81
460.358	82.81
460.578	77.81
460.798	76.81
461.018	69.81
461.238	65.81
461.458	77.81
461.678	71.81
461.898	76.81
462.118	77.81
462.338	79.81
462.558	85.81
462.777	85.81
462.997	74.81
463.217	84.81
463.437	79.81
463.657	77.81
463.876	74.81
464.096	91.81
464.316	66.81
464.536	84.81
464.755	83.81
464.975	76.81
465.195	80.81
465.414	66.81
465.634	84.81
465.854	75.81
466.073	77.81
466.293	82.81
466.512	76.81
466.732	62.81
466.951	83.81
467.171	89.81
467.391	94.81
467.61	74.81
467.829	76.81
468.049	74.81
468.268	90.81
468.488	70.81
468.707	83.81
468.927	73.81
469.146	86.81
469.365	76.81
469.585	83.81
469.804	92.81
470.023	87.81
470.243	78.81
470.462	78.81
470.681	90.81
470.901	65.81
471.12	83.81
471.339	89.81
471.558	78.81
471.777	78.81
471.997	79.81
472.216	63.81
472.435	87.81
472.654	85.81
472.873	61.81
473.092	82.81
473.311	71.81
473.53	81.81
473.749	79.81
473.968	94.81
474.187	62.81
474.406	74.81
474.625	77.81
474.844	75.81
475.063	77.81
475.282	88.81
475.501	83.81
475.72	91.81
475.939	76.81
476.158	85.81
476.377	88.81
476.596	74.81
476.814	89.81
477.033	79.81
477.252	72.81
477.471	73.81
477.69	88.81
477.908	77.81
478.127	88.81
478.346	79.81
478.564	83.81
478.783	81.81
479.002	80.81
479.22	68.81
479.439	92.81
479.658	79.81
479.876	79.81
480.095	73.81
480.313	79.81
480.532	99.81
480.751	81.81
480.969	81.81
481.188	77.81
481.406	87.81
481.624	81.81
481.843	85.81
482.061	72.81
482.28	75.81
482.498	73.81
482.717	78.81
482.935	65.81
483.153	77.81
483.372	80.81
483.59	79.81
483.808	77.81
484.027	76.81
484.245	80.81
484.463	93.81
484.681	84.81
484.9	62.81
485.118	83.81
485.336	91.81
485.554	83.81
485.772	81.81
485.99	83.81
486.209	71.81
486.427	81.81
486.645	69.81
486.863	80.81
487.081	73.81
487.299	87.81
487.517	76.81
487.735	78.81
487.953	89.81
488.171	94.81
488.389	81.81
488.607	78.81
488.825	73.81
489.043	74.81
489.261	85.81
489.479	78.81
489.696	77.81
489.914	67.81
490.132	90.81
490.35	99.81
490.568	79.81
490.786	80.81
491.003	81.81
491.221	85.81
491.439	80.81
491.657	85.81
491.874	88.81
492.092	77.81
492.31	70.81
492.527	80.81
492.745	70.81
492.963	91.81
493.18	74.81
493.398	91.81
493.615	74.81
493.833	97.81
494.05	81.81
494.268	79.81
494.485	94.81
494.703	101.81
494.92	77.81
495.138	83.81
495.355	94.81
495.573	79.81
495.79	67.81
496.008	89.81
496.225	78.81
496.442	79.81
496.66	76.81
496.877	80.81
497.094	77.81
497.312	80.81
497.529	87.81
497.746	75.81
497.963	85.81
498.181	87.81
498.398	80.81
498.615	85.81
498.832	88.81
499.049	89.81
499.267	77.81
499.484	78.81
499.701	85.81
499.918	79.81
500.135	77.81
500.352	73.81
500.569	73.81
500.786	88.81
501.003	67.81
501.22	81.81
501.437	84.81
501.654	93.81
501.871	84.81
502.088	73.81
502.305	98.81
502.522	72.81
502.739	71.81
502.956	84.81
503.172	70.81
503.389	75.81
503.606	89.81
503.823	87.81
504.04	92.81
504.256	86.81
504.473	68.81
504.69	83.81
504.907	74.81
505.123	91.81
505.34	85.81
505.557	75.81
505.773	79.81
505.99	85.81
506.207	89.81
506.423	77.81
506.64	88.81
506.856	85.81
507.073	65.81
507.289	71.81
507.506	78.81
507.722	84.81
507.939	85.81
508.155	94.81
508.372	80.81
508.588	75.81
508.805	79.81
509.021	81.81
509.238	86.81
509.454	69.81
509.67	77.81
509.887	80.81
510.103	79.81
510.319	92.81
510.536	89.81
510.752	79.81
510.968	87.81
511.184	63.81
511.401	82.81
511.617	85.81
511.833	77.81
512.049	98.81
512.265	86.81
512.481	83.81
512.698	83.81
512.914	70.81
513.13	83.81
513.346	73.81
513.562	88.81
513.778	91.81
513.994	83.81
514.21	96.81
514.426	78.81
514.642	63.81
514.858	87.81
515.074	61.81
515.29	77.81
515.506	75.81
515.721	82.81
515.937	88.81
516.153	66.81
516.369	87.81
516.585	79.81
516.801	79.81
517.016	88.81
517.232	68.81
517.448	81.81
517.664	84.81
517.879	86.81
518.095	88.81
518.311	84.81
518.527	86.81
518.742	70.81
518.958	79.81
519.173	80.81
519.389	75.81
519.605	83.81
519.82	73.81
520.036	85.81
520.251	80.81
