Data from BG_HRD10591_022.txt Node
Date: Fri May 16 15:26:58 EDT 2025
User: Yrep
Spectrometer: HR+D1059
Trigger mode: 1
Integration Time (sec): 1.000000E-1
Scans to average: 1
Electric dark correction enabled: true
Nonlinearity correction enabled: false
Boxcar width: 0
XAxis mode: Wavelengths
Number of Pixels in Spectrum: 2048
>>>>>Begin Spectral Data<<<<<
223.165	-15.44
223.4	-15.44
223.635	-15.44
223.869	-23.44
224.104	-24.44
224.338	-29.44
224.573	-8.44
224.808	-24.44
225.042	-1.44
225.277	-3.44
225.511	2.56
225.746	14.56
225.98	4.56
226.215	3.56
226.449	14.56
226.683	23.56
226.918	30.56
227.152	36.56
227.387	35.56
227.621	44.56
227.856	36.56
228.09	39.56
228.324	51.56
228.559	57.56
228.793	64.56
229.027	70.56
229.262	69.56
229.496	78.56
229.73	76.56
229.964	71.56
230.199	79.56
230.433	66.56
230.667	83.56
230.901	77.56
231.136	71.56
231.37	86.56
231.604	84.56
231.838	77.56
232.072	72.56
232.306	74.56
232.541	66.56
232.775	94.56
233.009	72.56
233.243	79.56
233.477	68.56
233.711	75.56
233.945	82.56
234.179	77.56
234.413	78.56
234.647	80.56
234.881	72.56
235.115	78.56
235.349	86.56
235.583	80.56
235.817	90.56
236.051	65.56
236.285	83.56
236.519	79.56
236.753	76.56
236.987	79.56
237.221	72.56
237.455	77.56
237.689	72.56
237.922	82.56
238.156	76.56
238.39	74.56
238.624	63.56
238.858	76.56
239.091	74.56
239.325	71.56
239.559	82.56
239.793	82.56
240.027	81.56
240.26	64.56
240.494	75.56
240.728	85.56
240.961	88.56
241.195	71.56
241.429	79.56
241.662	74.56
241.896	75.56
242.13	75.56
242.363	74.56
242.597	86.56
242.83	83.56
243.064	82.56
243.298	85.56
243.531	71.56
243.765	84.56
243.998	76.56
244.232	73.56
244.465	83.56
244.699	70.56
244.932	81.56
245.166	88.56
245.399	92.56
245.633	70.56
245.866	84.56
246.099	72.56
246.333	59.56
246.566	66.56
246.8	67.56
247.033	76.56
247.266	67.56
247.5	86.56
247.733	94.56
247.966	76.56
248.2	104.56
248.433	73.56
248.666	79.56
248.899	70.56
249.133	83.56
249.366	85.56
249.599	73.56
249.832	71.56
250.066	72.56
250.299	90.56
250.532	71.56
250.765	78.56
250.998	78.56
251.231	76.56
251.465	83.56
251.698	85.56
251.931	68.56
252.164	78.56
252.397	77.56
252.63	82.56
252.863	84.56
253.096	82.56
253.329	72.56
253.562	78.56
253.795	77.56
254.028	85.56
254.261	80.56
254.494	80.56
254.727	75.56
254.96	79.56
255.193	80.56
255.426	70.56
255.659	71.56
255.892	79.56
256.124	63.56
256.357	61.56
256.59	72.56
256.823	61.56
257.056	90.56
257.289	76.56
257.521	87.56
257.754	80.56
257.987	71.56
258.22	92.56
258.452	100.56
258.685	82.56
258.918	74.56
259.151	74.56
259.383	84.56
259.616	100.56
259.849	72.56
260.081	76.56
260.314	80.56
260.547	79.56
260.779	78.56
261.012	82.56
261.244	88.56
261.477	80.56
261.71	91.56
261.942	93.56
262.175	76.56
262.407	70.56
262.64	91.56
262.872	91.56
263.105	64.56
263.337	84.56
263.57	72.56
263.802	91.56
264.035	85.56
264.267	76.56
264.499	73.56
264.732	93.56
264.964	77.56
265.197	90.56
265.429	87.56
265.661	86.56
265.894	88.56
266.126	86.56
266.358	84.56
266.591	84.56
266.823	62.56
267.055	77.56
267.287	68.56
267.52	66.56
267.752	85.56
267.984	76.56
268.216	82.56
268.448	81.56
268.681	88.56
268.913	75.56
269.145	82.56
269.377	77.56
269.609	74.56
269.841	71.56
270.073	75.56
270.306	89.56
270.538	90.56
270.77	69.56
271.002	79.56
271.234	77.56
271.466	85.56
271.698	89.56
271.93	64.56
272.162	79.56
272.394	88.56
272.626	85.56
272.858	73.56
273.09	88.56
273.322	86.56
273.553	79.56
273.785	93.56
274.017	77.56
274.249	74.56
274.481	76.56
274.713	77.56
274.945	87.56
275.176	78.56
275.408	94.56
275.64	78.56
275.872	87.56
276.104	72.56
276.335	79.56
276.567	97.56
276.799	72.56
277.031	72.56
277.262	86.56
277.494	98.56
277.726	86.56
277.957	75.56
278.189	86.56
278.421	86.56
278.652	86.56
278.884	109.56
279.115	90.56
279.347	84.56
279.579	88.56
279.81	83.56
280.042	77.56
280.273	99.56
280.505	78.56
280.736	81.56
280.968	88.56
281.199	76.56
281.431	78.56
281.662	77.56
281.894	78.56
282.125	77.56
282.356	82.56
282.588	72.56
282.819	78.56
283.051	88.56
283.282	84.56
283.513	81.56
283.745	78.56
283.976	84.56
284.207	94.56
284.439	73.56
284.67	85.56
284.901	70.56
285.132	75.56
285.364	78.56
285.595	88.56
285.826	79.56
286.057	91.56
286.288	72.56
286.52	83.56
286.751	84.56
286.982	75.56
287.213	70.56
287.444	83.56
287.675	77.56
287.906	79.56
288.138	79.56
288.369	87.56
288.6	90.56
288.831	90.56
289.062	79.56
289.293	82.56
289.524	76.56
289.755	80.56
289.986	83.56
290.217	82.56
290.448	88.56
290.679	79.56
290.91	76.56
291.141	79.56
291.371	88.56
291.602	88.56
291.833	84.56
292.064	93.56
292.295	67.56
292.526	75.56
292.757	76.56
292.987	92.56
293.218	89.56
293.449	79.56
293.68	86.56
293.91	93.56
294.141	84.56
294.372	64.56
294.603	82.56
294.833	102.56
295.064	88.56
295.295	72.56
295.525	86.56
295.756	79.56
295.987	83.56
296.217	87.56
296.448	86.56
296.679	100.56
296.909	100.56
297.14	75.56
297.37	78.56
297.601	85.56
297.831	80.56
298.062	82.56
298.292	93.56
298.523	92.56
298.753	75.56
298.984	87.56
299.214	79.56
299.445	80.56
299.675	94.56
299.905	82.56
300.136	80.56
300.366	86.56
300.597	82.56
300.827	82.56
301.057	95.56
301.288	90.56
301.518	87.56
301.748	99.56
301.979	102.56
302.209	86.56
302.439	81.56
302.669	83.56
302.9	87.56
303.13	80.56
303.36	92.56
303.59	75.56
303.82	81.56
304.051	86.56
304.281	82.56
304.511	94.56
304.741	87.56
304.971	84.56
305.201	87.56
305.431	82.56
305.661	95.56
305.891	85.56
306.121	80.56
306.352	64.56
306.582	71.56
306.812	79.56
307.042	73.56
307.272	86.56
307.502	79.56
307.731	67.56
307.961	91.56
308.191	76.56
308.421	91.56
308.651	100.56
308.881	92.56
309.111	77.56
309.341	77.56
309.571	86.56
309.8	78.56
310.03	93.56
310.26	77.56
310.49	91.56
310.72	82.56
310.949	80.56
311.179	76.56
311.409	86.56
311.639	82.56
311.868	83.56
312.098	87.56
312.328	96.56
312.557	81.56
312.787	84.56
313.017	92.56
313.246	73.56
313.476	79.56
313.706	90.56
313.935	84.56
314.165	82.56
314.394	88.56
314.624	70.56
314.853	82.56
315.083	87.56
315.312	82.56
315.542	77.56
315.771	78.56
316.001	85.56
316.23	90.56
316.46	74.56
316.689	90.56
316.919	83.56
317.148	84.56
317.377	92.56
317.607	75.56
317.836	67.56
318.065	72.56
318.295	62.56
318.524	85.56
318.753	99.56
318.983	96.56
319.212	86.56
319.441	79.56
319.67	78.56
319.9	95.56
320.129	78.56
320.358	87.56
320.587	79.56
320.816	72.56
321.046	75.56
321.275	78.56
321.504	75.56
321.733	84.56
321.962	98.56
322.191	92.56
322.42	92.56
322.649	74.56
322.878	84.56
323.108	71.56
323.337	82.56
323.566	82.56
323.795	74.56
324.024	100.56
324.253	71.56
324.482	74.56
324.71	87.56
324.939	91.56
325.168	83.56
325.397	88.56
325.626	81.56
325.855	70.56
326.084	82.56
326.313	84.56
326.542	84.56
326.77	84.56
326.999	78.56
327.228	79.56
327.457	82.56
327.686	84.56
327.914	82.56
328.143	94.56
328.372	83.56
328.6	98.56
328.829	80.56
329.058	86.56
329.287	85.56
329.515	90.56
329.744	87.56
329.972	79.56
330.201	85.56
330.43	98.56
330.658	81.56
330.887	80.56
331.115	80.56
331.344	79.56
331.572	96.56
331.801	82.56
332.03	89.56
332.258	86.56
332.486	96.56
332.715	69.56
332.943	88.56
333.172	87.56
333.4	86.56
333.629	85.56
333.857	70.56
334.085	90.56
334.314	81.56
334.542	89.56
334.771	80.56
334.999	87.56
335.227	90.56
335.455	86.56
335.684	93.56
335.912	83.56
336.14	83.56
336.369	81.56
336.597	86.56
336.825	82.56
337.053	79.56
337.281	84.56
337.51	65.56
337.738	78.56
337.966	79.56
338.194	95.56
338.422	83.56
338.65	79.56
338.878	92.56
339.106	70.56
339.334	75.56
339.562	82.56
339.79	75.56
340.018	91.56
340.246	90.56
340.474	82.56
340.702	82.56
340.93	82.56
341.158	76.56
341.386	79.56
341.614	72.56
341.842	76.56
342.07	75.56
342.298	78.56
342.526	88.56
342.754	69.56
342.981	72.56
343.209	82.56
343.437	97.56
343.665	79.56
343.893	83.56
344.12	91.56
344.348	70.56
344.576	72.56
344.804	80.56
345.031	71.56
345.259	71.56
345.487	83.56
345.714	82.56
345.942	90.56
346.17	79.56
346.397	80.56
346.625	68.56
346.853	81.56
347.08	80.56
347.308	74.56
347.535	78.56
347.763	98.56
347.99	92.56
348.218	78.56
348.445	82.56
348.673	89.56
348.9	79.56
349.128	76.56
349.355	82.56
349.583	79.56
349.81	78.56
350.037	86.56
350.265	65.56
350.492	85.56
350.72	83.56
350.947	86.56
351.174	79.56
351.402	69.56
351.629	77.56
351.856	97.56
352.083	83.56
352.311	85.56
352.538	63.56
352.765	88.56
352.992	91.56
353.22	63.56
353.447	81.56
353.674	90.56
353.901	87.56
354.128	74.56
354.355	88.56
354.583	68.56
354.81	75.56
355.037	88.56
355.264	86.56
355.491	88.56
355.718	87.56
355.945	71.56
356.172	87.56
356.399	69.56
356.626	86.56
356.853	83.56
357.08	79.56
357.307	75.56
357.534	73.56
357.761	86.56
357.988	83.56
358.215	82.56
358.441	90.56
358.668	79.56
358.895	77.56
359.122	79.56
359.349	74.56
359.576	95.56
359.802	77.56
360.029	94.56
360.256	74.56
360.483	90.56
360.709	79.56
360.936	88.56
361.163	82.56
361.39	75.56
361.616	76.56
361.843	87.56
362.07	87.56
362.296	82.56
362.523	69.56
362.749	82.56
362.976	90.56
363.203	93.56
363.429	79.56
363.656	91.56
363.882	81.56
364.109	64.56
364.335	78.56
364.562	78.56
364.788	84.56
365.015	88.56
365.241	72.56
365.468	77.56
365.694	86.56
365.92	94.56
366.147	83.56
366.373	81.56
366.599	81.56
366.826	91.56
367.052	81.56
367.278	85.56
367.505	83.56
367.731	84.56
367.957	70.56
368.184	69.56
368.41	70.56
368.636	87.56
368.862	87.56
369.089	74.56
369.315	87.56
369.541	79.56
369.767	79.56
369.993	75.56
370.219	76.56
370.445	71.56
370.672	85.56
370.898	72.56
371.124	84.56
371.35	70.56
371.576	90.56
371.802	78.56
372.028	84.56
372.254	90.56
372.48	88.56
372.706	90.56
372.932	93.56
373.158	74.56
373.384	85.56
373.61	61.56
373.835	86.56
374.061	84.56
374.287	79.56
374.513	78.56
374.739	81.56
374.965	93.56
375.191	90.56
375.416	75.56
375.642	78.56
375.868	84.56
376.094	88.56
376.319	84.56
376.545	74.56
376.771	79.56
376.997	82.56
377.222	72.56
377.448	76.56
377.674	87.56
377.899	75.56
378.125	64.56
378.35	90.56
378.576	74.56
378.802	73.56
379.027	86.56
379.253	83.56
379.478	81.56
379.704	71.56
379.929	68.56
380.155	81.56
380.38	86.56
380.606	74.56
380.831	93.56
381.057	90.56
381.282	78.56
381.507	84.56
381.733	74.56
381.958	78.56
382.184	89.56
382.409	80.56
382.634	84.56
382.86	74.56
383.085	82.56
383.31	82.56
383.535	74.56
383.761	80.56
383.986	79.56
384.211	72.56
384.436	95.56
384.662	80.56
384.887	76.56
385.112	75.56
385.337	86.56
385.562	79.56
385.787	77.56
386.013	90.56
386.238	76.56
386.463	91.56
386.688	95.56
386.913	92.56
387.138	88.56
387.363	82.56
387.588	70.56
387.813	82.56
388.038	87.56
388.263	99.56
388.488	90.56
388.713	91.56
388.938	65.56
389.163	62.56
389.387	80.56
389.612	86.56
389.837	88.56
390.062	91.56
390.287	90.56
390.512	84.56
390.736	80.56
390.961	89.56
391.186	84.56
391.411	88.56
391.636	83.56
391.86	90.56
392.085	87.56
392.31	75.56
392.534	76.56
392.759	77.56
392.984	84.56
393.208	86.56
393.433	78.56
393.658	87.56
393.882	72.56
394.107	84.56
394.331	89.56
394.556	72.56
394.78	65.56
395.005	62.56
395.229	70.56
395.454	83.56
395.678	79.56
395.903	79.56
396.127	83.56
396.352	77.56
396.576	82.56
396.801	71.56
397.025	82.56
397.249	82.56
397.474	83.56
397.698	101.56
397.922	85.56
398.147	68.56
398.371	82.56
398.595	81.56
398.82	87.56
399.044	95.56
399.268	84.56
399.492	56.56
399.717	74.56
399.941	64.56
400.165	81.56
400.389	84.56
400.613	82.56
400.837	82.56
401.062	86.56
401.286	84.56
401.51	82.56
401.734	83.56
401.958	73.56
402.182	75.56
402.406	74.56
402.63	96.56
402.854	85.56
403.078	75.56
403.302	76.56
403.526	72.56
403.75	80.56
403.974	70.56
404.198	68.56
404.422	88.56
404.645	82.56
404.869	77.56
405.093	82.56
405.317	70.56
405.541	82.56
405.765	83.56
405.988	79.56
406.212	83.56
406.436	86.56
406.66	73.56
406.883	72.56
407.107	82.56
407.331	77.56
407.555	73.56
407.778	88.56
408.002	72.56
408.226	88.56
408.449	80.56
408.673	91.56
408.896	72.56
409.12	72.56
409.344	87.56
409.567	69.56
409.791	76.56
410.014	95.56
410.238	79.56
410.461	66.56
410.685	77.56
410.908	79.56
411.132	71.56
411.355	93.56
411.578	80.56
411.802	84.56
412.025	88.56
412.249	70.56
412.472	82.56
412.695	95.56
412.919	85.56
413.142	76.56
413.365	77.56
413.589	85.56
413.812	77.56
414.035	93.56
414.258	76.56
414.482	76.56
414.705	78.56
414.928	80.56
415.151	62.56
415.374	83.56
415.597	80.56
415.821	79.56
416.044	82.56
416.267	80.56
416.49	76.56
416.713	90.56
416.936	71.56
417.159	78.56
417.382	84.56
417.605	88.56
417.828	78.56
418.051	87.56
418.274	87.56
418.497	84.56
418.72	81.56
418.943	84.56
419.166	57.56
419.389	82.56
419.611	73.56
419.834	84.56
420.057	78.56
420.28	94.56
420.503	86.56
420.726	72.56
420.948	68.56
421.171	92.56
421.394	84.56
421.617	86.56
421.839	81.56
422.062	85.56
422.285	82.56
422.507	82.56
422.73	60.56
422.953	69.56
423.175	84.56
423.398	72.56
423.621	75.56
423.843	70.56
424.066	90.56
424.288	96.56
424.511	85.56
424.733	89.56
424.956	88.56
425.178	79.56
425.401	74.56
425.623	80.56
425.846	77.56
426.068	82.56
426.291	76.56
426.513	76.56
426.735	83.56
426.958	86.56
427.18	79.56
427.402	77.56
427.625	70.56
427.847	74.56
428.069	85.56
428.292	56.56
428.514	72.56
428.736	94.56
428.958	64.56
429.181	80.56
429.403	78.56
429.625	75.56
429.847	74.56
430.069	79.56
430.292	80.56
430.514	71.56
430.736	93.56
430.958	76.56
431.18	82.56
431.402	74.56
431.624	66.56
431.846	70.56
432.068	85.56
432.29	60.56
432.512	73.56
432.734	78.56
432.956	76.56
433.178	65.56
433.4	82.56
433.622	79.56
433.844	84.56
434.066	78.56
434.287	79.56
434.509	81.56
434.731	78.56
434.953	79.56
435.175	69.56
435.397	70.56
435.618	82.56
435.84	72.56
436.062	83.56
436.284	82.56
436.505	89.56
436.727	74.56
436.949	84.56
437.17	78.56
437.392	65.56
437.614	78.56
437.835	95.56
438.057	80.56
438.278	83.56
438.5	91.56
438.721	83.56
438.943	78.56
439.165	90.56
439.386	93.56
439.608	82.56
439.829	71.56
440.05	81.56
440.272	95.56
440.493	76.56
440.715	78.56
440.936	85.56
441.158	102.56
441.379	64.56
441.6	88.56
441.822	79.56
442.043	91.56
442.264	74.56
442.486	69.56
442.707	78.56
442.928	78.56
443.149	78.56
443.371	86.56
443.592	81.56
443.813	68.56
444.034	84.56
444.255	87.56
444.476	69.56
444.698	84.56
444.919	80.56
445.14	135.56
445.361	126.56
445.582	77.56
445.803	85.56
446.024	85.56
446.245	83.56
446.466	88.56
446.687	77.56
446.908	75.56
447.129	77.56
447.35	73.56
447.571	73.56
447.792	75.56
448.013	90.56
448.234	86.56
448.455	83.56
448.675	98.56
448.896	82.56
449.117	78.56
449.338	72.56
449.559	72.56
449.779	87.56
450	75.56
450.221	70.56
450.442	92.56
450.662	84.56
450.883	78.56
451.104	78.56
451.324	71.56
451.545	74.56
451.766	77.56
451.986	64.56
452.207	107.56
452.428	88.56
452.648	74.56
452.869	79.56
453.089	83.56
453.31	90.56
453.53	87.56
453.751	77.56
453.971	92.56
454.192	86.56
454.412	88.56
454.633	78.56
454.853	85.56
455.073	83.56
455.294	76.56
455.514	88.56
455.734	81.56
455.955	86.56
456.175	74.56
456.395	86.56
456.616	71.56
456.836	79.56
457.056	88.56
457.276	68.56
457.497	87.56
457.717	75.56
457.937	70.56
458.157	83.56
458.377	76.56
458.598	71.56
458.818	77.56
459.038	61.56
459.258	66.56
459.478	87.56
459.698	74.56
459.918	78.56
460.138	73.56
460.358	78.56
460.578	86.56
460.798	78.56
461.018	70.56
461.238	78.56
461.458	77.56
461.678	70.56
461.898	85.56
462.118	93.56
462.338	87.56
462.558	80.56
462.777	92.56
462.997	84.56
463.217	86.56
463.437	76.56
463.657	76.56
463.876	87.56
464.096	88.56
464.316	93.56
464.536	78.56
464.755	79.56
464.975	80.56
465.195	84.56
465.414	87.56
465.634	90.56
465.854	93.56
466.073	88.56
466.293	80.56
466.512	62.56
466.732	71.56
466.951	94.56
467.171	76.56
467.391	83.56
467.61	95.56
467.829	85.56
468.049	73.56
468.268	78.56
468.488	81.56
468.707	83.56
468.927	77.56
469.146	71.56
469.365	67.56
469.585	83.56
469.804	83.56
470.023	73.56
470.243	74.56
470.462	80.56
470.681	65.56
470.901	68.56
471.12	78.56
471.339	81.56
471.558	82.56
471.777	75.56
471.997	73.56
472.216	72.56
472.435	89.56
472.654	87.56
472.873	81.56
473.092	72.56
473.311	73.56
473.53	82.56
473.749	82.56
473.968	83.56
474.187	74.56
474.406	68.56
474.625	80.56
474.844	82.56
475.063	72.56
475.282	75.56
475.501	86.56
475.72	70.56
475.939	84.56
476.158	78.56
476.377	76.56
476.596	83.56
476.814	95.56
477.033	76.56
477.252	89.56
477.471	83.56
477.69	94.56
477.908	90.56
478.127	81.56
478.346	75.56
478.564	79.56
478.783	74.56
479.002	82.56
479.22	80.56
479.439	84.56
479.658	77.56
479.876	84.56
480.095	88.56
480.313	86.56
480.532	83.56
480.751	80.56
480.969	75.56
481.188	73.56
481.406	71.56
481.624	74.56
481.843	84.56
482.061	75.56
482.28	76.56
482.498	75.56
482.717	72.56
482.935	80.56
483.153	82.56
483.372	74.56
483.59	62.56
483.808	72.56
484.027	80.56
484.245	76.56
484.463	87.56
484.681	90.56
484.9	88.56
485.118	100.56
485.336	91.56
485.554	93.56
485.772	78.56
485.99	85.56
486.209	71.56
486.427	83.56
486.645	96.56
486.863	78.56
487.081	80.56
487.299	86.56
487.517	82.56
487.735	85.56
487.953	85.56
488.171	71.56
488.389	71.56
488.607	61.56
488.825	83.56
489.043	106.56
489.261	93.56
489.479	64.56
489.696	86.56
489.914	100.56
490.132	78.56
490.35	76.56
490.568	90.56
490.786	82.56
491.003	78.56
491.221	82.56
491.439	84.56
491.657	90.56
491.874	77.56
492.092	67.56
492.31	86.56
492.527	76.56
492.745	87.56
492.963	73.56
493.18	92.56
493.398	66.56
493.615	76.56
493.833	79.56
494.05	75.56
494.268	82.56
494.485	98.56
494.703	85.56
494.92	84.56
495.138	73.56
495.355	82.56
495.573	75.56
495.79	74.56
496.008	92.56
496.225	74.56
496.442	82.56
496.66	79.56
496.877	80.56
497.094	90.56
497.312	77.56
497.529	87.56
497.746	83.56
497.963	65.56
498.181	83.56
498.398	71.56
498.615	75.56
498.832	90.56
499.049	76.56
499.267	86.56
499.484	72.56
499.701	85.56
499.918	84.56
500.135	86.56
500.352	88.56
500.569	81.56
500.786	76.56
501.003	87.56
501.22	96.56
501.437	92.56
501.654	89.56
501.871	82.56
502.088	73.56
502.305	78.56
502.522	106.56
502.739	90.56
502.956	86.56
503.172	81.56
503.389	86.56
503.606	78.56
503.823	81.56
504.04	78.56
504.256	82.56
504.473	72.56
504.69	87.56
504.907	95.56
505.123	72.56
505.34	83.56
505.557	87.56
505.773	91.56
505.99	85.56
506.207	75.56
506.423	93.56
506.64	83.56
506.856	91.56
507.073	79.56
507.289	84.56
507.506	91.56
507.722	64.56
507.939	78.56
508.155	85.56
508.372	79.56
508.588	90.56
508.805	86.56
509.021	83.56
509.238	93.56
509.454	86.56
509.67	76.56
509.887	75.56
510.103	79.56
510.319	91.56
510.536	91.56
510.752	85.56
510.968	74.56
511.184	84.56
511.401	63.56
511.617	92.56
511.833	75.56
512.049	79.56
512.265	91.56
512.481	80.56
512.698	91.56
512.914	87.56
513.13	70.56
513.346	72.56
513.562	88.56
513.778	81.56
513.994	86.56
514.21	78.56
514.426	80.56
514.642	93.56
514.858	87.56
515.074	82.56
515.29	87.56
515.506	87.56
515.721	79.56
515.937	78.56
516.153	69.56
516.369	78.56
516.585	82.56
516.801	74.56
517.016	62.56
517.232	86.56
517.448	93.56
517.664	90.56
517.879	99.56
518.095	83.56
518.311	75.56
518.527	81.56
518.742	80.56
518.958	83.56
519.173	67.56
519.389	94.56
519.605	66.56
519.82	96.56
520.036	72.56
520.251	83.56
