Data from BG_HRD10591_011.txt Node
Date: Fri May 16 15:26:52 EDT 2025
User: Yrep
Spectrometer: HR+D1059
Trigger mode: 1
Integration Time (sec): 1.000000E-1
Scans to average: 1
Electric dark correction enabled: true
Nonlinearity correction enabled: false
Boxcar width: 0
XAxis mode: Wavelengths
Number of Pixels in Spectrum: 2048
>>>>>Begin Spectral Data<<<<<
223.165	-14.31
223.4	-14.31
223.635	-14.31
223.869	-27.31
224.104	-18.31
224.338	-15.31
224.573	-25.31
224.808	-13.31
225.042	1.69
225.277	-5.31
225.511	0.69
225.746	12.69
225.98	-2.31
226.215	12.69
226.449	34.69
226.683	10.69
226.918	23.69
227.152	24.69
227.387	35.69
227.621	29.69
227.856	33.69
228.09	34.69
228.324	44.69
228.559	59.69
228.793	51.69
229.027	52.69
229.262	79.69
229.496	50.69
229.73	61.69
229.964	54.69
230.199	65.69
230.433	62.69
230.667	72.69
230.901	64.69
231.136	73.69
231.37	81.69
231.604	72.69
231.838	91.69
232.072	75.69
232.306	74.69
232.541	71.69
232.775	68.69
233.009	72.69
233.243	78.69
233.477	80.69
233.711	75.69
233.945	75.69
234.179	81.69
234.413	76.69
234.647	73.69
234.881	69.69
235.115	80.69
235.349	82.69
235.583	76.69
235.817	73.69
236.051	68.69
236.285	74.69
236.519	68.69
236.753	88.69
236.987	58.69
237.221	73.69
237.455	77.69
237.689	67.69
237.922	79.69
238.156	72.69
238.39	64.69
238.624	71.69
238.858	75.69
239.091	84.69
239.325	74.69
239.559	66.69
239.793	81.69
240.027	70.69
240.26	58.69
240.494	68.69
240.728	70.69
240.961	63.69
241.195	73.69
241.429	65.69
241.662	66.69
241.896	74.69
242.13	73.69
242.363	75.69
242.597	73.69
242.83	72.69
243.064	74.69
243.298	69.69
243.531	80.69
243.765	62.69
243.998	66.69
244.232	70.69
244.465	62.69
244.699	74.69
244.932	76.69
245.166	68.69
245.399	82.69
245.633	82.69
245.866	66.69
246.099	96.69
246.333	76.69
246.566	59.69
246.8	68.69
247.033	69.69
247.266	61.69
247.5	69.69
247.733	80.69
247.966	69.69
248.2	64.69
248.433	77.69
248.666	69.69
248.899	68.69
249.133	76.69
249.366	72.69
249.599	77.69
249.832	75.69
250.066	71.69
250.299	76.69
250.532	72.69
250.765	80.69
250.998	76.69
251.231	80.69
251.465	68.69
251.698	74.69
251.931	56.69
252.164	81.69
252.397	67.69
252.63	72.69
252.863	68.69
253.096	76.69
253.329	86.69
253.562	73.69
253.795	62.69
254.028	80.69
254.261	80.69
254.494	77.69
254.727	76.69
254.96	84.69
255.193	75.69
255.426	65.69
255.659	63.69
255.892	69.69
256.124	58.69
256.357	89.69
256.59	76.69
256.823	68.69
257.056	75.69
257.289	88.69
257.521	75.69
257.754	72.69
257.987	74.69
258.22	90.69
258.452	68.69
258.685	72.69
258.918	78.69
259.151	89.69
259.383	84.69
259.616	72.69
259.849	67.69
260.081	70.69
260.314	69.69
260.547	72.69
260.779	66.69
261.012	82.69
261.244	76.69
261.477	88.69
261.71	76.69
261.942	68.69
262.175	73.69
262.407	80.69
262.64	78.69
262.872	72.69
263.105	70.69
263.337	85.69
263.57	74.69
263.802	84.69
264.035	66.69
264.267	86.69
264.499	84.69
264.732	69.69
264.964	65.69
265.197	84.69
265.429	87.69
265.661	68.69
265.894	78.69
266.126	73.69
266.358	63.69
266.591	83.69
266.823	79.69
267.055	73.69
267.287	96.69
267.52	66.69
267.752	82.69
267.984	68.69
268.216	80.69
268.448	74.69
268.681	74.69
268.913	82.69
269.145	84.69
269.377	82.69
269.609	70.69
269.841	61.69
270.073	68.69
270.306	80.69
270.538	72.69
270.77	83.69
271.002	77.69
271.234	72.69
271.466	78.69
271.698	83.69
271.93	84.69
272.162	77.69
272.394	84.69
272.626	60.69
272.858	79.69
273.09	83.69
273.322	75.69
273.553	88.69
273.785	84.69
274.017	69.69
274.249	73.69
274.481	80.69
274.713	68.69
274.945	89.69
275.176	73.69
275.408	87.69
275.64	80.69
275.872	86.69
276.104	79.69
276.335	66.69
276.567	77.69
276.799	80.69
277.031	74.69
277.262	80.69
277.494	83.69
277.726	71.69
277.957	77.69
278.189	77.69
278.421	89.69
278.652	73.69
278.884	84.69
279.115	93.69
279.347	72.69
279.579	74.69
279.81	72.69
280.042	72.69
280.273	72.69
280.505	82.69
280.736	93.69
280.968	68.69
281.199	80.69
281.431	84.69
281.662	70.69
281.894	74.69
282.125	76.69
282.356	75.69
282.588	75.69
282.819	72.69
283.051	91.69
283.282	76.69
283.513	71.69
283.745	83.69
283.976	72.69
284.207	76.69
284.439	81.69
284.67	65.69
284.901	81.69
285.132	87.69
285.364	91.69
285.595	93.69
285.826	73.69
286.057	84.69
286.288	94.69
286.52	66.69
286.751	75.69
286.982	76.69
287.213	73.69
287.444	65.69
287.675	67.69
287.906	81.69
288.138	82.69
288.369	85.69
288.6	79.69
288.831	89.69
289.062	86.69
289.293	74.69
289.524	82.69
289.755	78.69
289.986	79.69
290.217	68.69
290.448	80.69
290.679	80.69
290.91	89.69
291.141	82.69
291.371	75.69
291.602	89.69
291.833	78.69
292.064	91.69
292.295	73.69
292.526	82.69
292.757	74.69
292.987	85.69
293.218	74.69
293.449	83.69
293.68	91.69
293.91	90.69
294.141	74.69
294.372	77.69
294.603	82.69
294.833	83.69
295.064	89.69
295.295	74.69
295.525	76.69
295.756	75.69
295.987	79.69
296.217	88.69
296.448	69.69
296.679	80.69
296.909	86.69
297.14	81.69
297.37	73.69
297.601	89.69
297.831	80.69
298.062	79.69
298.292	86.69
298.523	83.69
298.753	82.69
298.984	72.69
299.214	85.69
299.445	82.69
299.675	76.69
299.905	80.69
300.136	83.69
300.366	80.69
300.597	72.69
300.827	84.69
301.057	80.69
301.288	76.69
301.518	84.69
301.748	83.69
301.979	81.69
302.209	83.69
302.439	87.69
302.669	71.69
302.9	88.69
303.13	68.69
303.36	59.69
303.59	85.69
303.82	85.69
304.051	78.69
304.281	78.69
304.511	85.69
304.741	81.69
304.971	83.69
305.201	97.69
305.431	73.69
305.661	82.69
305.891	75.69
306.121	75.69
306.352	97.69
306.582	90.69
306.812	85.69
307.042	73.69
307.272	76.69
307.502	78.69
307.731	80.69
307.961	84.69
308.191	83.69
308.421	78.69
308.651	83.69
308.881	72.69
309.111	88.69
309.341	72.69
309.571	78.69
309.8	74.69
310.03	74.69
310.26	78.69
310.49	74.69
310.72	65.69
310.949	78.69
311.179	73.69
311.409	83.69
311.639	79.69
311.868	77.69
312.098	66.69
312.328	76.69
312.557	81.69
312.787	79.69
313.017	80.69
313.246	96.69
313.476	76.69
313.706	77.69
313.935	79.69
314.165	88.69
314.394	77.69
314.624	80.69
314.853	78.69
315.083	71.69
315.312	98.69
315.542	87.69
315.771	82.69
316.001	84.69
316.23	75.69
316.46	90.69
316.689	86.69
316.919	83.69
317.148	87.69
317.377	76.69
317.607	82.69
317.836	83.69
318.065	80.69
318.295	77.69
318.524	88.69
318.753	90.69
318.983	66.69
319.212	84.69
319.441	84.69
319.67	77.69
319.9	100.69
320.129	84.69
320.358	94.69
320.587	73.69
320.816	76.69
321.046	75.69
321.275	89.69
321.504	84.69
321.733	87.69
321.962	76.69
322.191	73.69
322.42	77.69
322.649	67.69
322.878	97.69
323.108	70.69
323.337	74.69
323.566	79.69
323.795	77.69
324.024	81.69
324.253	80.69
324.482	82.69
324.71	80.69
324.939	77.69
325.168	75.69
325.397	78.69
325.626	74.69
325.855	68.69
326.084	81.69
326.313	78.69
326.542	76.69
326.77	67.69
326.999	85.69
327.228	86.69
327.457	73.69
327.686	78.69
327.914	79.69
328.143	72.69
328.372	92.69
328.6	85.69
328.829	89.69
329.058	80.69
329.287	86.69
329.515	77.69
329.744	78.69
329.972	77.69
330.201	94.69
330.43	88.69
330.658	81.69
330.887	81.69
331.115	89.69
331.344	80.69
331.572	83.69
331.801	82.69
332.03	91.69
332.258	87.69
332.486	88.69
332.715	76.69
332.943	81.69
333.172	73.69
333.4	71.69
333.629	79.69
333.857	77.69
334.085	82.69
334.314	77.69
334.542	82.69
334.771	66.69
334.999	96.69
335.227	96.69
335.455	70.69
335.684	74.69
335.912	67.69
336.14	76.69
336.369	68.69
336.597	78.69
336.825	88.69
337.053	86.69
337.281	72.69
337.51	84.69
337.738	89.69
337.966	69.69
338.194	88.69
338.422	82.69
338.65	78.69
338.878	87.69
339.106	85.69
339.334	86.69
339.562	81.69
339.79	74.69
340.018	80.69
340.246	70.69
340.474	79.69
340.702	75.69
340.93	72.69
341.158	81.69
341.386	80.69
341.614	67.69
341.842	56.69
342.07	85.69
342.298	60.69
342.526	80.69
342.754	77.69
342.981	83.69
343.209	78.69
343.437	88.69
343.665	80.69
343.893	91.69
344.12	84.69
344.348	65.69
344.576	58.69
344.804	73.69
345.031	87.69
345.259	90.69
345.487	76.69
345.714	76.69
345.942	62.69
346.17	76.69
346.397	91.69
346.625	82.69
346.853	87.69
347.08	88.69
347.308	76.69
347.535	73.69
347.763	73.69
347.99	89.69
348.218	84.69
348.445	88.69
348.673	81.69
348.9	74.69
349.128	82.69
349.355	91.69
349.583	79.69
349.81	77.69
350.037	80.69
350.265	80.69
350.492	78.69
350.72	75.69
350.947	90.69
351.174	78.69
351.402	76.69
351.629	73.69
351.856	86.69
352.083	83.69
352.311	79.69
352.538	83.69
352.765	85.69
352.992	82.69
353.22	88.69
353.447	90.69
353.674	79.69
353.901	96.69
354.128	75.69
354.355	58.69
354.583	67.69
354.81	68.69
355.037	81.69
355.264	92.69
355.491	72.69
355.718	76.69
355.945	82.69
356.172	87.69
356.399	81.69
356.626	83.69
356.853	87.69
357.08	84.69
357.307	88.69
357.534	80.69
357.761	77.69
357.988	72.69
358.215	72.69
358.441	75.69
358.668	68.69
358.895	80.69
359.122	91.69
359.349	72.69
359.576	78.69
359.802	65.69
360.029	71.69
360.256	87.69
360.483	77.69
360.709	62.69
360.936	87.69
361.163	92.69
361.39	85.69
361.616	90.69
361.843	90.69
362.07	91.69
362.296	78.69
362.523	78.69
362.749	82.69
362.976	89.69
363.203	93.69
363.429	87.69
363.656	73.69
363.882	67.69
364.109	71.69
364.335	80.69
364.562	86.69
364.788	74.69
365.015	80.69
365.241	72.69
365.468	78.69
365.694	72.69
365.92	79.69
366.147	79.69
366.373	84.69
366.599	98.69
366.826	70.69
367.052	81.69
367.278	93.69
367.505	84.69
367.731	71.69
367.957	79.69
368.184	81.69
368.41	73.69
368.636	73.69
368.862	80.69
369.089	80.69
369.315	86.69
369.541	91.69
369.767	83.69
369.993	81.69
370.219	87.69
370.445	85.69
370.672	75.69
370.898	76.69
371.124	72.69
371.35	79.69
371.576	70.69
371.802	81.69
372.028	73.69
372.254	73.69
372.48	68.69
372.706	70.69
372.932	83.69
373.158	86.69
373.384	84.69
373.61	89.69
373.835	85.69
374.061	80.69
374.287	64.69
374.513	78.69
374.739	91.69
374.965	92.69
375.191	84.69
375.416	74.69
375.642	73.69
375.868	81.69
376.094	73.69
376.319	73.69
376.545	77.69
376.771	72.69
376.997	74.69
377.222	97.69
377.448	100.69
377.674	93.69
377.899	80.69
378.125	84.69
378.35	73.69
378.576	72.69
378.802	83.69
379.027	82.69
379.253	80.69
379.478	81.69
379.704	89.69
379.929	78.69
380.155	61.69
380.38	65.69
380.606	70.69
380.831	88.69
381.057	79.69
381.282	87.69
381.507	60.69
381.733	60.69
381.958	74.69
382.184	76.69
382.409	89.69
382.634	76.69
382.86	73.69
383.085	89.69
383.31	85.69
383.535	83.69
383.761	88.69
383.986	73.69
384.211	60.69
384.436	80.69
384.662	65.69
384.887	82.69
385.112	71.69
385.337	75.69
385.562	74.69
385.787	84.69
386.013	92.69
386.238	73.69
386.463	66.69
386.688	86.69
386.913	76.69
387.138	72.69
387.363	84.69
387.588	77.69
387.813	86.69
388.038	87.69
388.263	66.69
388.488	77.69
388.713	72.69
388.938	71.69
389.163	69.69
389.387	73.69
389.612	66.69
389.837	77.69
390.062	78.69
390.287	73.69
390.512	81.69
390.736	90.69
390.961	73.69
391.186	71.69
391.411	83.69
391.636	87.69
391.86	74.69
392.085	75.69
392.31	81.69
392.534	72.69
392.759	73.69
392.984	85.69
393.208	83.69
393.433	83.69
393.658	80.69
393.882	82.69
394.107	66.69
394.331	77.69
394.556	72.69
394.78	85.69
395.005	80.69
395.229	69.69
395.454	88.69
395.678	72.69
395.903	86.69
396.127	79.69
396.352	71.69
396.576	93.69
396.801	73.69
397.025	76.69
397.249	84.69
397.474	80.69
397.698	72.69
397.922	90.69
398.147	74.69
398.371	81.69
398.595	77.69
398.82	62.69
399.044	80.69
399.268	75.69
399.492	82.69
399.717	85.69
399.941	69.69
400.165	74.69
400.389	69.69
400.613	67.69
400.837	83.69
401.062	70.69
401.286	77.69
401.51	98.69
401.734	78.69
401.958	58.69
402.182	82.69
402.406	62.69
402.63	84.69
402.854	70.69
403.078	73.69
403.302	66.69
403.526	92.69
403.75	69.69
403.974	63.69
404.198	93.69
404.422	68.69
404.645	73.69
404.869	72.69
405.093	79.69
405.317	85.69
405.541	89.69
405.765	74.69
405.988	75.69
406.212	79.69
406.436	75.69
406.66	97.69
406.883	74.69
407.107	72.69
407.331	94.69
407.555	83.69
407.778	76.69
408.002	73.69
408.226	72.69
408.449	78.69
408.673	82.69
408.896	84.69
409.12	90.69
409.344	83.69
409.567	72.69
409.791	82.69
410.014	78.69
410.238	77.69
410.461	72.69
410.685	81.69
410.908	80.69
411.132	78.69
411.355	83.69
411.578	75.69
411.802	86.69
412.025	74.69
412.249	70.69
412.472	63.69
412.695	69.69
412.919	73.69
413.142	80.69
413.365	85.69
413.589	81.69
413.812	77.69
414.035	79.69
414.258	70.69
414.482	70.69
414.705	86.69
414.928	78.69
415.151	89.69
415.374	82.69
415.597	78.69
415.821	84.69
416.044	95.69
416.267	81.69
416.49	78.69
416.713	83.69
416.936	82.69
417.159	86.69
417.382	78.69
417.605	69.69
417.828	82.69
418.051	71.69
418.274	92.69
418.497	62.69
418.72	74.69
418.943	86.69
419.166	68.69
419.389	75.69
419.611	81.69
419.834	77.69
420.057	72.69
420.28	77.69
420.503	84.69
420.726	68.69
420.948	81.69
421.171	79.69
421.394	61.69
421.617	73.69
421.839	76.69
422.062	59.69
422.285	63.69
422.507	67.69
422.73	78.69
422.953	80.69
423.175	66.69
423.398	79.69
423.621	91.69
423.843	68.69
424.066	68.69
424.288	60.69
424.511	81.69
424.733	58.69
424.956	85.69
425.178	100.69
425.401	80.69
425.623	86.69
425.846	88.69
426.068	62.69
426.291	70.69
426.513	82.69
426.735	75.69
426.958	80.69
427.18	67.69
427.402	62.69
427.625	72.69
427.847	70.69
428.069	84.69
428.292	78.69
428.514	78.69
428.736	69.69
428.958	75.69
429.181	81.69
429.403	74.69
429.625	77.69
429.847	85.69
430.069	61.69
430.292	87.69
430.514	68.69
430.736	75.69
430.958	84.69
431.18	84.69
431.402	76.69
431.624	67.69
431.846	84.69
432.068	81.69
432.29	83.69
432.512	77.69
432.734	72.69
432.956	60.69
433.178	80.69
433.4	88.69
433.622	85.69
433.844	83.69
434.066	68.69
434.287	97.69
434.509	73.69
434.731	91.69
434.953	92.69
435.175	76.69
435.397	83.69
435.618	72.69
435.84	80.69
436.062	79.69
436.284	89.69
436.505	75.69
436.727	74.69
436.949	89.69
437.17	79.69
437.392	72.69
437.614	91.69
437.835	81.69
438.057	72.69
438.278	74.69
438.5	90.69
438.721	86.69
438.943	87.69
439.165	78.69
439.386	85.69
439.608	68.69
439.829	80.69
440.05	81.69
440.272	75.69
440.493	75.69
440.715	82.69
440.936	76.69
441.158	70.69
441.379	75.69
441.6	87.69
441.822	78.69
442.043	80.69
442.264	80.69
442.486	77.69
442.707	62.69
442.928	78.69
443.149	70.69
443.371	76.69
443.592	89.69
443.813	73.69
444.034	73.69
444.255	83.69
444.476	75.69
444.698	87.69
444.919	85.69
445.14	153.69
445.361	118.69
445.582	68.69
445.803	85.69
446.024	74.69
446.245	75.69
446.466	60.69
446.687	68.69
446.908	72.69
447.129	92.69
447.35	67.69
447.571	82.69
447.792	84.69
448.013	68.69
448.234	68.69
448.455	93.69
448.675	75.69
448.896	75.69
449.117	77.69
449.338	72.69
449.559	76.69
449.779	74.69
450	69.69
450.221	73.69
450.442	66.69
450.662	75.69
450.883	70.69
451.104	76.69
451.324	84.69
451.545	71.69
451.766	72.69
451.986	66.69
452.207	75.69
452.428	73.69
452.648	76.69
452.869	68.69
453.089	95.69
453.31	74.69
453.53	86.69
453.751	70.69
453.971	70.69
454.192	76.69
454.412	77.69
454.633	71.69
454.853	77.69
455.073	88.69
455.294	87.69
455.514	74.69
455.734	82.69
455.955	72.69
456.175	82.69
456.395	82.69
456.616	86.69
456.836	93.69
457.056	89.69
457.276	67.69
457.497	71.69
457.717	86.69
457.937	73.69
458.157	70.69
458.377	80.69
458.598	80.69
458.818	68.69
459.038	92.69
459.258	83.69
459.478	68.69
459.698	89.69
459.918	82.69
460.138	62.69
460.358	83.69
460.578	86.69
460.798	86.69
461.018	90.69
461.238	77.69
461.458	81.69
461.678	79.69
461.898	84.69
462.118	80.69
462.338	75.69
462.558	78.69
462.777	70.69
462.997	79.69
463.217	62.69
463.437	84.69
463.657	92.69
463.876	71.69
464.096	84.69
464.316	77.69
464.536	76.69
464.755	63.69
464.975	86.69
465.195	85.69
465.414	67.69
465.634	79.69
465.854	68.69
466.073	84.69
466.293	81.69
466.512	81.69
466.732	91.69
466.951	78.69
467.171	69.69
467.391	82.69
467.61	72.69
467.829	80.69
468.049	86.69
468.268	83.69
468.488	87.69
468.707	65.69
468.927	79.69
469.146	68.69
469.365	70.69
469.585	75.69
469.804	77.69
470.023	83.69
470.243	68.69
470.462	86.69
470.681	85.69
470.901	92.69
471.12	81.69
471.339	59.69
471.558	89.69
471.777	83.69
471.997	87.69
472.216	90.69
472.435	69.69
472.654	72.69
472.873	88.69
473.092	73.69
473.311	76.69
473.53	66.69
473.749	98.69
473.968	86.69
474.187	81.69
474.406	60.69
474.625	76.69
474.844	67.69
475.063	81.69
475.282	67.69
475.501	74.69
475.72	87.69
475.939	87.69
476.158	84.69
476.377	65.69
476.596	73.69
476.814	61.69
477.033	71.69
477.252	85.69
477.471	76.69
477.69	70.69
477.908	104.69
478.127	78.69
478.346	72.69
478.564	83.69
478.783	90.69
479.002	87.69
479.22	68.69
479.439	67.69
479.658	79.69
479.876	78.69
480.095	70.69
480.313	85.69
480.532	81.69
480.751	74.69
480.969	60.69
481.188	73.69
481.406	89.69
481.624	79.69
481.843	86.69
482.061	77.69
482.28	87.69
482.498	68.69
482.717	74.69
482.935	69.69
483.153	82.69
483.372	84.69
483.59	74.69
483.808	88.69
484.027	91.69
484.245	76.69
484.463	77.69
484.681	90.69
484.9	79.69
485.118	78.69
485.336	82.69
485.554	78.69
485.772	78.69
485.99	68.69
486.209	82.69
486.427	71.69
486.645	82.69
486.863	69.69
487.081	69.69
487.299	76.69
487.517	88.69
487.735	79.69
487.953	84.69
488.171	96.69
488.389	93.69
488.607	74.69
488.825	80.69
489.043	80.69
489.261	87.69
489.479	80.69
489.696	63.69
489.914	99.69
490.132	84.69
490.35	94.69
490.568	76.69
490.786	71.69
491.003	72.69
491.221	77.69
491.439	91.69
491.657	77.69
491.874	78.69
492.092	78.69
492.31	91.69
492.527	80.69
492.745	73.69
492.963	67.69
493.18	69.69
493.398	90.69
493.615	72.69
493.833	77.69
494.05	76.69
494.268	76.69
494.485	68.69
494.703	73.69
494.92	76.69
495.138	77.69
495.355	62.69
495.573	91.69
495.79	62.69
496.008	86.69
496.225	71.69
496.442	70.69
496.66	67.69
496.877	94.69
497.094	74.69
497.312	84.69
497.529	97.69
497.746	59.69
497.963	86.69
498.181	83.69
498.398	75.69
498.615	76.69
498.832	83.69
499.049	96.69
499.267	86.69
499.484	88.69
499.701	94.69
499.918	77.69
500.135	76.69
500.352	80.69
500.569	65.69
500.786	76.69
501.003	76.69
501.22	74.69
501.437	84.69
501.654	80.69
501.871	83.69
502.088	61.69
502.305	71.69
502.522	75.69
502.739	75.69
502.956	83.69
503.172	72.69
503.389	76.69
503.606	75.69
503.823	69.69
504.04	79.69
504.256	81.69
504.473	83.69
504.69	81.69
504.907	83.69
505.123	69.69
505.34	85.69
505.557	75.69
505.773	84.69
505.99	80.69
506.207	74.69
506.423	85.69
506.64	79.69
506.856	68.69
507.073	96.69
507.289	88.69
507.506	91.69
507.722	65.69
507.939	76.69
508.155	70.69
508.372	78.69
508.588	84.69
508.805	86.69
509.021	88.69
509.238	75.69
509.454	66.69
509.67	78.69
509.887	71.69
510.103	80.69
510.319	79.69
510.536	78.69
510.752	81.69
510.968	85.69
511.184	76.69
511.401	72.69
511.617	84.69
511.833	74.69
512.049	63.69
512.265	78.69
512.481	80.69
512.698	93.69
512.914	92.69
513.13	91.69
513.346	81.69
513.562	74.69
513.778	86.69
513.994	72.69
514.21	77.69
514.426	71.69
514.642	89.69
514.858	72.69
515.074	82.69
515.29	79.69
515.506	62.69
515.721	70.69
515.937	77.69
516.153	73.69
516.369	91.69
516.585	83.69
516.801	70.69
517.016	79.69
517.232	84.69
517.448	74.69
517.664	80.69
517.879	71.69
518.095	84.69
518.311	82.69
518.527	72.69
518.742	80.69
518.958	66.69
519.173	100.69
519.389	88.69
519.605	89.69
519.82	68.69
520.036	68.69
520.251	80.69
