Data from BG_HRD10591_088.txt Node
Date: Fri May 16 15:27:31 EDT 2025
User: Yrep
Spectrometer: HR+D1059
Trigger mode: 1
Integration Time (sec): 1.000000E-1
Scans to average: 1
Electric dark correction enabled: true
Nonlinearity correction enabled: false
Boxcar width: 0
XAxis mode: Wavelengths
Number of Pixels in Spectrum: 2048
>>>>>Begin Spectral Data<<<<<
223.165	-32.06
223.4	-32.06
223.635	-32.06
223.869	-15.06
224.104	-13.06
224.338	-18.06
224.573	-5.06
224.808	-10.06
225.042	-7.06
225.277	-15.06
225.511	-4.06
225.746	-8.06
225.98	-4.06
226.215	17.94
226.449	15.94
226.683	31.94
226.918	30.94
227.152	34.94
227.387	23.94
227.621	53.94
227.856	52.94
228.09	60.94
228.324	55.94
228.559	75.94
228.793	56.94
229.027	58.94
229.262	57.94
229.496	70.94
229.73	71.94
229.964	62.94
230.199	65.94
230.433	64.94
230.667	70.94
230.901	75.94
231.136	71.94
231.37	76.94
231.604	90.94
231.838	75.94
232.072	85.94
232.306	71.94
232.541	76.94
232.775	87.94
233.009	75.94
233.243	80.94
233.477	94.94
233.711	94.94
233.945	90.94
234.179	81.94
234.413	75.94
234.647	67.94
234.881	71.94
235.115	69.94
235.349	79.94
235.583	70.94
235.817	86.94
236.051	91.94
236.285	78.94
236.519	81.94
236.753	82.94
236.987	77.94
237.221	82.94
237.455	68.94
237.689	85.94
237.922	72.94
238.156	75.94
238.39	70.94
238.624	71.94
238.858	68.94
239.091	80.94
239.325	73.94
239.559	57.94
239.793	73.94
240.027	85.94
240.26	65.94
240.494	85.94
240.728	86.94
240.961	90.94
241.195	84.94
241.429	72.94
241.662	58.94
241.896	79.94
242.13	75.94
242.363	82.94
242.597	65.94
242.83	82.94
243.064	81.94
243.298	84.94
243.531	86.94
243.765	77.94
243.998	87.94
244.232	73.94
244.465	80.94
244.699	73.94
244.932	72.94
245.166	78.94
245.399	72.94
245.633	67.94
245.866	77.94
246.099	77.94
246.333	76.94
246.566	82.94
246.8	87.94
247.033	85.94
247.266	83.94
247.5	74.94
247.733	86.94
247.966	67.94
248.2	84.94
248.433	81.94
248.666	74.94
248.899	70.94
249.133	75.94
249.366	84.94
249.599	73.94
249.832	61.94
250.066	66.94
250.299	68.94
250.532	80.94
250.765	74.94
250.998	83.94
251.231	73.94
251.465	86.94
251.698	71.94
251.931	77.94
252.164	68.94
252.397	97.94
252.63	73.94
252.863	70.94
253.096	75.94
253.329	88.94
253.562	79.94
253.795	82.94
254.028	76.94
254.261	85.94
254.494	80.94
254.727	83.94
254.96	80.94
255.193	84.94
255.426	89.94
255.659	77.94
255.892	92.94
256.124	81.94
256.357	80.94
256.59	77.94
256.823	74.94
257.056	88.94
257.289	92.94
257.521	74.94
257.754	73.94
257.987	87.94
258.22	86.94
258.452	65.94
258.685	76.94
258.918	72.94
259.151	83.94
259.383	91.94
259.616	79.94
259.849	93.94
260.081	90.94
260.314	74.94
260.547	80.94
260.779	69.94
261.012	75.94
261.244	90.94
261.477	79.94
261.71	69.94
261.942	74.94
262.175	85.94
262.407	61.94
262.64	103.94
262.872	87.94
263.105	80.94
263.337	83.94
263.57	81.94
263.802	73.94
264.035	82.94
264.267	86.94
264.499	84.94
264.732	84.94
264.964	70.94
265.197	72.94
265.429	88.94
265.661	78.94
265.894	72.94
266.126	80.94
266.358	75.94
266.591	73.94
266.823	80.94
267.055	79.94
267.287	78.94
267.52	64.94
267.752	76.94
267.984	75.94
268.216	80.94
268.448	81.94
268.681	82.94
268.913	88.94
269.145	71.94
269.377	87.94
269.609	86.94
269.841	95.94
270.073	83.94
270.306	83.94
270.538	85.94
270.77	65.94
271.002	81.94
271.234	78.94
271.466	83.94
271.698	85.94
271.93	78.94
272.162	76.94
272.394	96.94
272.626	77.94
272.858	80.94
273.09	83.94
273.322	83.94
273.553	85.94
273.785	72.94
274.017	76.94
274.249	74.94
274.481	97.94
274.713	81.94
274.945	77.94
275.176	82.94
275.408	74.94
275.64	84.94
275.872	85.94
276.104	75.94
276.335	75.94
276.567	83.94
276.799	86.94
277.031	82.94
277.262	78.94
277.494	82.94
277.726	97.94
277.957	59.94
278.189	72.94
278.421	76.94
278.652	77.94
278.884	89.94
279.115	88.94
279.347	80.94
279.579	85.94
279.81	75.94
280.042	80.94
280.273	75.94
280.505	77.94
280.736	85.94
280.968	79.94
281.199	71.94
281.431	73.94
281.662	81.94
281.894	93.94
282.125	82.94
282.356	74.94
282.588	92.94
282.819	89.94
283.051	71.94
283.282	88.94
283.513	77.94
283.745	89.94
283.976	85.94
284.207	76.94
284.439	92.94
284.67	92.94
284.901	82.94
285.132	78.94
285.364	83.94
285.595	92.94
285.826	92.94
286.057	80.94
286.288	75.94
286.52	80.94
286.751	86.94
286.982	82.94
287.213	103.94
287.444	75.94
287.675	88.94
287.906	96.94
288.138	82.94
288.369	82.94
288.6	94.94
288.831	88.94
289.062	90.94
289.293	84.94
289.524	72.94
289.755	85.94
289.986	77.94
290.217	83.94
290.448	67.94
290.679	81.94
290.91	91.94
291.141	91.94
291.371	90.94
291.602	102.94
291.833	76.94
292.064	73.94
292.295	77.94
292.526	87.94
292.757	90.94
292.987	68.94
293.218	74.94
293.449	89.94
293.68	82.94
293.91	84.94
294.141	90.94
294.372	76.94
294.603	82.94
294.833	93.94
295.064	85.94
295.295	65.94
295.525	82.94
295.756	88.94
295.987	81.94
296.217	68.94
296.448	80.94
296.679	88.94
296.909	108.94
297.14	87.94
297.37	76.94
297.601	88.94
297.831	77.94
298.062	73.94
298.292	78.94
298.523	83.94
298.753	87.94
298.984	103.94
299.214	83.94
299.445	91.94
299.675	84.94
299.905	83.94
300.136	77.94
300.366	79.94
300.597	75.94
300.827	83.94
301.057	78.94
301.288	83.94
301.518	94.94
301.748	73.94
301.979	90.94
302.209	77.94
302.439	82.94
302.669	82.94
302.9	70.94
303.13	87.94
303.36	90.94
303.59	94.94
303.82	86.94
304.051	92.94
304.281	86.94
304.511	99.94
304.741	91.94
304.971	93.94
305.201	95.94
305.431	59.94
305.661	92.94
305.891	84.94
306.121	68.94
306.352	79.94
306.582	83.94
306.812	85.94
307.042	89.94
307.272	89.94
307.502	86.94
307.731	92.94
307.961	97.94
308.191	87.94
308.421	71.94
308.651	90.94
308.881	86.94
309.111	77.94
309.341	85.94
309.571	82.94
309.8	80.94
310.03	80.94
310.26	94.94
310.49	89.94
310.72	82.94
310.949	95.94
311.179	84.94
311.409	78.94
311.639	84.94
311.868	88.94
312.098	93.94
312.328	91.94
312.557	85.94
312.787	91.94
313.017	95.94
313.246	86.94
313.476	85.94
313.706	104.94
313.935	83.94
314.165	69.94
314.394	94.94
314.624	83.94
314.853	81.94
315.083	78.94
315.312	79.94
315.542	92.94
315.771	91.94
316.001	85.94
316.23	79.94
316.46	87.94
316.689	81.94
316.919	90.94
317.148	88.94
317.377	75.94
317.607	88.94
317.836	83.94
318.065	85.94
318.295	66.94
318.524	75.94
318.753	93.94
318.983	92.94
319.212	92.94
319.441	83.94
319.67	83.94
319.9	75.94
320.129	96.94
320.358	82.94
320.587	87.94
320.816	75.94
321.046	75.94
321.275	88.94
321.504	88.94
321.733	78.94
321.962	75.94
322.191	73.94
322.42	80.94
322.649	88.94
322.878	88.94
323.108	81.94
323.337	91.94
323.566	86.94
323.795	74.94
324.024	89.94
324.253	77.94
324.482	74.94
324.71	83.94
324.939	97.94
325.168	92.94
325.397	95.94
325.626	81.94
325.855	72.94
326.084	63.94
326.313	73.94
326.542	64.94
326.77	81.94
326.999	75.94
327.228	88.94
327.457	79.94
327.686	86.94
327.914	83.94
328.143	71.94
328.372	77.94
328.6	89.94
328.829	98.94
329.058	87.94
329.287	88.94
329.515	85.94
329.744	95.94
329.972	90.94
330.201	93.94
330.43	79.94
330.658	84.94
330.887	85.94
331.115	87.94
331.344	81.94
331.572	81.94
331.801	94.94
332.03	75.94
332.258	82.94
332.486	72.94
332.715	78.94
332.943	74.94
333.172	81.94
333.4	82.94
333.629	101.94
333.857	97.94
334.085	85.94
334.314	78.94
334.542	95.94
334.771	72.94
334.999	79.94
335.227	81.94
335.455	90.94
335.684	87.94
335.912	79.94
336.14	86.94
336.369	73.94
336.597	79.94
336.825	79.94
337.053	88.94
337.281	83.94
337.51	76.94
337.738	90.94
337.966	66.94
338.194	75.94
338.422	85.94
338.65	79.94
338.878	103.94
339.106	86.94
339.334	82.94
339.562	80.94
339.79	98.94
340.018	79.94
340.246	84.94
340.474	83.94
340.702	79.94
340.93	92.94
341.158	88.94
341.386	92.94
341.614	95.94
341.842	77.94
342.07	77.94
342.298	83.94
342.526	81.94
342.754	76.94
342.981	94.94
343.209	94.94
343.437	91.94
343.665	77.94
343.893	90.94
344.12	82.94
344.348	75.94
344.576	80.94
344.804	79.94
345.031	82.94
345.259	90.94
345.487	72.94
345.714	86.94
345.942	85.94
346.17	77.94
346.397	74.94
346.625	87.94
346.853	85.94
347.08	87.94
347.308	89.94
347.535	88.94
347.763	81.94
347.99	85.94
348.218	84.94
348.445	67.94
348.673	92.94
348.9	89.94
349.128	93.94
349.355	78.94
349.583	91.94
349.81	83.94
350.037	88.94
350.265	105.94
350.492	81.94
350.72	71.94
350.947	80.94
351.174	73.94
351.402	90.94
351.629	81.94
351.856	94.94
352.083	86.94
352.311	89.94
352.538	80.94
352.765	86.94
352.992	86.94
353.22	82.94
353.447	80.94
353.674	88.94
353.901	82.94
354.128	87.94
354.355	83.94
354.583	77.94
354.81	82.94
355.037	86.94
355.264	80.94
355.491	83.94
355.718	73.94
355.945	75.94
356.172	82.94
356.399	94.94
356.626	77.94
356.853	81.94
357.08	86.94
357.307	73.94
357.534	91.94
357.761	85.94
357.988	90.94
358.215	77.94
358.441	83.94
358.668	87.94
358.895	76.94
359.122	78.94
359.349	90.94
359.576	94.94
359.802	69.94
360.029	70.94
360.256	88.94
360.483	74.94
360.709	65.94
360.936	73.94
361.163	77.94
361.39	87.94
361.616	75.94
361.843	73.94
362.07	83.94
362.296	79.94
362.523	70.94
362.749	76.94
362.976	85.94
363.203	87.94
363.429	83.94
363.656	81.94
363.882	82.94
364.109	85.94
364.335	94.94
364.562	83.94
364.788	85.94
365.015	84.94
365.241	83.94
365.468	71.94
365.694	87.94
365.92	96.94
366.147	61.94
366.373	87.94
366.599	79.94
366.826	90.94
367.052	73.94
367.278	75.94
367.505	70.94
367.731	81.94
367.957	78.94
368.184	83.94
368.41	64.94
368.636	78.94
368.862	92.94
369.089	95.94
369.315	87.94
369.541	80.94
369.767	84.94
369.993	87.94
370.219	98.94
370.445	81.94
370.672	70.94
370.898	91.94
371.124	73.94
371.35	71.94
371.576	89.94
371.802	88.94
372.028	92.94
372.254	94.94
372.48	94.94
372.706	92.94
372.932	84.94
373.158	82.94
373.384	88.94
373.61	93.94
373.835	88.94
374.061	73.94
374.287	77.94
374.513	92.94
374.739	97.94
374.965	81.94
375.191	83.94
375.416	88.94
375.642	82.94
375.868	75.94
376.094	77.94
376.319	82.94
376.545	89.94
376.771	91.94
376.997	64.94
377.222	85.94
377.448	84.94
377.674	76.94
377.899	83.94
378.125	81.94
378.35	92.94
378.576	81.94
378.802	79.94
379.027	89.94
379.253	96.94
379.478	72.94
379.704	74.94
379.929	74.94
380.155	76.94
380.38	75.94
380.606	81.94
380.831	77.94
381.057	79.94
381.282	70.94
381.507	74.94
381.733	82.94
381.958	77.94
382.184	72.94
382.409	88.94
382.634	76.94
382.86	77.94
383.085	76.94
383.31	80.94
383.535	84.94
383.761	88.94
383.986	85.94
384.211	81.94
384.436	93.94
384.662	81.94
384.887	78.94
385.112	76.94
385.337	67.94
385.562	83.94
385.787	93.94
386.013	97.94
386.238	83.94
386.463	85.94
386.688	82.94
386.913	78.94
387.138	77.94
387.363	89.94
387.588	92.94
387.813	85.94
388.038	78.94
388.263	78.94
388.488	77.94
388.713	92.94
388.938	75.94
389.163	81.94
389.387	84.94
389.612	85.94
389.837	83.94
390.062	111.94
390.287	78.94
390.512	91.94
390.736	69.94
390.961	82.94
391.186	71.94
391.411	73.94
391.636	86.94
391.86	92.94
392.085	75.94
392.31	81.94
392.534	81.94
392.759	92.94
392.984	81.94
393.208	79.94
393.433	71.94
393.658	82.94
393.882	83.94
394.107	68.94
394.331	84.94
394.556	83.94
394.78	85.94
395.005	81.94
395.229	80.94
395.454	73.94
395.678	85.94
395.903	89.94
396.127	88.94
396.352	70.94
396.576	78.94
396.801	89.94
397.025	78.94
397.249	80.94
397.474	96.94
397.698	91.94
397.922	90.94
398.147	75.94
398.371	71.94
398.595	96.94
398.82	66.94
399.044	75.94
399.268	61.94
399.492	72.94
399.717	80.94
399.941	86.94
400.165	82.94
400.389	68.94
400.613	91.94
400.837	77.94
401.062	85.94
401.286	84.94
401.51	78.94
401.734	85.94
401.958	71.94
402.182	88.94
402.406	73.94
402.63	80.94
402.854	83.94
403.078	63.94
403.302	68.94
403.526	75.94
403.75	94.94
403.974	85.94
404.198	82.94
404.422	81.94
404.645	90.94
404.869	78.94
405.093	76.94
405.317	81.94
405.541	81.94
405.765	85.94
405.988	79.94
406.212	89.94
406.436	70.94
406.66	74.94
406.883	74.94
407.107	78.94
407.331	79.94
407.555	93.94
407.778	89.94
408.002	79.94
408.226	82.94
408.449	87.94
408.673	86.94
408.896	80.94
409.12	90.94
409.344	75.94
409.567	59.94
409.791	78.94
410.014	89.94
410.238	89.94
410.461	79.94
410.685	81.94
410.908	84.94
411.132	78.94
411.355	74.94
411.578	74.94
411.802	82.94
412.025	70.94
412.249	73.94
412.472	84.94
412.695	94.94
412.919	78.94
413.142	82.94
413.365	81.94
413.589	78.94
413.812	85.94
414.035	97.94
414.258	82.94
414.482	90.94
414.705	79.94
414.928	82.94
415.151	89.94
415.374	79.94
415.597	79.94
415.821	82.94
416.044	80.94
416.267	88.94
416.49	85.94
416.713	88.94
416.936	67.94
417.159	84.94
417.382	74.94
417.605	74.94
417.828	75.94
418.051	71.94
418.274	74.94
418.497	85.94
418.72	74.94
418.943	84.94
419.166	89.94
419.389	74.94
419.611	86.94
419.834	94.94
420.057	85.94
420.28	80.94
420.503	76.94
420.726	68.94
420.948	77.94
421.171	75.94
421.394	76.94
421.617	79.94
421.839	76.94
422.062	90.94
422.285	88.94
422.507	83.94
422.73	74.94
422.953	81.94
423.175	76.94
423.398	78.94
423.621	85.94
423.843	78.94
424.066	77.94
424.288	86.94
424.511	66.94
424.733	82.94
424.956	75.94
425.178	78.94
425.401	85.94
425.623	80.94
425.846	70.94
426.068	82.94
426.291	103.94
426.513	94.94
426.735	81.94
426.958	89.94
427.18	65.94
427.402	72.94
427.625	67.94
427.847	65.94
428.069	81.94
428.292	77.94
428.514	77.94
428.736	96.94
428.958	89.94
429.181	82.94
429.403	87.94
429.625	66.94
429.847	79.94
430.069	77.94
430.292	80.94
430.514	87.94
430.736	79.94
430.958	74.94
431.18	84.94
431.402	89.94
431.624	90.94
431.846	85.94
432.068	67.94
432.29	77.94
432.512	82.94
432.734	75.94
432.956	93.94
433.178	97.94
433.4	90.94
433.622	74.94
433.844	64.94
434.066	90.94
434.287	84.94
434.509	78.94
434.731	90.94
434.953	85.94
435.175	77.94
435.397	81.94
435.618	73.94
435.84	90.94
436.062	67.94
436.284	74.94
436.505	71.94
436.727	89.94
436.949	85.94
437.17	73.94
437.392	85.94
437.614	76.94
437.835	77.94
438.057	75.94
438.278	71.94
438.5	74.94
438.721	88.94
438.943	67.94
439.165	76.94
439.386	73.94
439.608	80.94
439.829	80.94
440.05	84.94
440.272	95.94
440.493	79.94
440.715	87.94
440.936	74.94
441.158	80.94
441.379	85.94
441.6	78.94
441.822	61.94
442.043	77.94
442.264	96.94
442.486	65.94
442.707	83.94
442.928	83.94
443.149	74.94
443.371	87.94
443.592	78.94
443.813	79.94
444.034	76.94
444.255	71.94
444.476	90.94
444.698	72.94
444.919	78.94
445.14	136.94
445.361	124.94
445.582	92.94
445.803	87.94
446.024	77.94
446.245	66.94
446.466	73.94
446.687	74.94
446.908	65.94
447.129	91.94
447.35	76.94
447.571	76.94
447.792	77.94
448.013	86.94
448.234	78.94
448.455	75.94
448.675	74.94
448.896	76.94
449.117	79.94
449.338	78.94
449.559	89.94
449.779	75.94
450	58.94
450.221	74.94
450.442	78.94
450.662	78.94
450.883	74.94
451.104	79.94
451.324	92.94
451.545	93.94
451.766	85.94
451.986	78.94
452.207	93.94
452.428	86.94
452.648	86.94
452.869	72.94
453.089	97.94
453.31	86.94
453.53	80.94
453.751	73.94
453.971	70.94
454.192	75.94
454.412	94.94
454.633	77.94
454.853	78.94
455.073	88.94
455.294	81.94
455.514	74.94
455.734	78.94
455.955	77.94
456.175	85.94
456.395	70.94
456.616	73.94
456.836	89.94
457.056	71.94
457.276	77.94
457.497	86.94
457.717	85.94
457.937	73.94
458.157	92.94
458.377	76.94
458.598	73.94
458.818	69.94
459.038	84.94
459.258	82.94
459.478	81.94
459.698	89.94
459.918	74.94
460.138	71.94
460.358	75.94
460.578	94.94
460.798	91.94
461.018	82.94
461.238	101.94
461.458	90.94
461.678	91.94
461.898	77.94
462.118	78.94
462.338	81.94
462.558	77.94
462.777	88.94
462.997	94.94
463.217	80.94
463.437	79.94
463.657	83.94
463.876	75.94
464.096	86.94
464.316	76.94
464.536	93.94
464.755	89.94
464.975	73.94
465.195	86.94
465.414	89.94
465.634	73.94
465.854	84.94
466.073	85.94
466.293	82.94
466.512	83.94
466.732	88.94
466.951	71.94
467.171	68.94
467.391	77.94
467.61	71.94
467.829	78.94
468.049	79.94
468.268	87.94
468.488	92.94
468.707	75.94
468.927	89.94
469.146	89.94
469.365	83.94
469.585	75.94
469.804	79.94
470.023	88.94
470.243	89.94
470.462	75.94
470.681	80.94
470.901	84.94
471.12	82.94
471.339	71.94
471.558	89.94
471.777	79.94
471.997	82.94
472.216	89.94
472.435	80.94
472.654	83.94
472.873	96.94
473.092	73.94
473.311	79.94
473.53	82.94
473.749	80.94
473.968	91.94
474.187	92.94
474.406	88.94
474.625	85.94
474.844	89.94
475.063	85.94
475.282	89.94
475.501	82.94
475.72	82.94
475.939	75.94
476.158	83.94
476.377	96.94
476.596	90.94
476.814	86.94
477.033	90.94
477.252	90.94
477.471	89.94
477.69	77.94
477.908	71.94
478.127	78.94
478.346	72.94
478.564	83.94
478.783	79.94
479.002	77.94
479.22	86.94
479.439	85.94
479.658	86.94
479.876	81.94
480.095	73.94
480.313	92.94
480.532	86.94
480.751	91.94
480.969	71.94
481.188	74.94
481.406	88.94
481.624	68.94
481.843	73.94
482.061	71.94
482.28	77.94
482.498	75.94
482.717	88.94
482.935	78.94
483.153	90.94
483.372	89.94
483.59	80.94
483.808	81.94
484.027	83.94
484.245	73.94
484.463	93.94
484.681	74.94
484.9	80.94
485.118	95.94
485.336	77.94
485.554	84.94
485.772	71.94
485.99	82.94
486.209	81.94
486.427	81.94
486.645	87.94
486.863	93.94
487.081	64.94
487.299	67.94
487.517	81.94
487.735	89.94
487.953	76.94
488.171	89.94
488.389	79.94
488.607	81.94
488.825	80.94
489.043	87.94
489.261	79.94
489.479	71.94
489.696	90.94
489.914	94.94
490.132	93.94
490.35	90.94
490.568	75.94
490.786	79.94
491.003	78.94
491.221	81.94
491.439	79.94
491.657	92.94
491.874	89.94
492.092	68.94
492.31	90.94
492.527	82.94
492.745	69.94
492.963	90.94
493.18	72.94
493.398	70.94
493.615	75.94
493.833	83.94
494.05	73.94
494.268	81.94
494.485	77.94
494.703	72.94
494.92	76.94
495.138	61.94
495.355	74.94
495.573	93.94
495.79	79.94
496.008	79.94
496.225	81.94
496.442	75.94
496.66	74.94
496.877	78.94
497.094	77.94
497.312	67.94
497.529	71.94
497.746	74.94
497.963	80.94
498.181	83.94
498.398	79.94
498.615	85.94
498.832	90.94
499.049	95.94
499.267	81.94
499.484	77.94
499.701	95.94
499.918	73.94
500.135	74.94
500.352	81.94
500.569	89.94
500.786	92.94
501.003	87.94
501.22	88.94
501.437	79.94
501.654	94.94
501.871	81.94
502.088	82.94
502.305	81.94
502.522	81.94
502.739	93.94
502.956	89.94
503.172	70.94
503.389	78.94
503.606	91.94
503.823	92.94
504.04	79.94
504.256	97.94
504.473	85.94
504.69	75.94
504.907	94.94
505.123	87.94
505.34	79.94
505.557	92.94
505.773	92.94
505.99	79.94
506.207	86.94
506.423	75.94
506.64	83.94
506.856	76.94
507.073	79.94
507.289	80.94
507.506	84.94
507.722	87.94
507.939	89.94
508.155	97.94
508.372	82.94
508.588	82.94
508.805	78.94
509.021	74.94
509.238	79.94
509.454	82.94
509.67	55.94
509.887	78.94
510.103	71.94
510.319	73.94
510.536	79.94
510.752	74.94
510.968	73.94
511.184	91.94
511.401	92.94
511.617	74.94
511.833	72.94
512.049	84.94
512.265	92.94
512.481	86.94
512.698	93.94
512.914	83.94
513.13	89.94
513.346	72.94
513.562	75.94
513.778	82.94
513.994	80.94
514.21	91.94
514.426	79.94
514.642	89.94
514.858	73.94
515.074	78.94
515.29	80.94
515.506	76.94
515.721	76.94
515.937	92.94
516.153	82.94
516.369	76.94
516.585	75.94
516.801	75.94
517.016	86.94
517.232	57.94
517.448	77.94
517.664	96.94
517.879	77.94
518.095	91.94
518.311	75.94
518.527	81.94
518.742	75.94
518.958	94.94
519.173	89.94
519.389	89.94
519.605	82.94
519.82	81.94
520.036	82.94
520.251	84.94
