Data from BG_HRD10591_092.txt Node
Date: Fri May 16 15:27:33 EDT 2025
User: Yrep
Spectrometer: HR+D1059
Trigger mode: 1
Integration Time (sec): 1.000000E-1
Scans to average: 1
Electric dark correction enabled: true
Nonlinearity correction enabled: false
Boxcar width: 0
XAxis mode: Wavelengths
Number of Pixels in Spectrum: 2048
>>>>>Begin Spectral Data<<<<<
223.165	-21.75
223.4	-21.75
223.635	-21.75
223.869	-20.75
224.104	-15.75
224.338	-11.75
224.573	-1.75
224.808	-10.75
225.042	-7.75
225.277	-14.75
225.511	-8.75
225.746	3.25
225.98	3.25
226.215	10.25
226.449	27.25
226.683	12.25
226.918	28.25
227.152	29.25
227.387	34.25
227.621	29.25
227.856	40.25
228.09	43.25
228.324	38.25
228.559	55.25
228.793	53.25
229.027	75.25
229.262	61.25
229.496	77.25
229.73	70.25
229.964	71.25
230.199	60.25
230.433	75.25
230.667	64.25
230.901	69.25
231.136	90.25
231.37	70.25
231.604	74.25
231.838	83.25
232.072	77.25
232.306	95.25
232.541	89.25
232.775	77.25
233.009	76.25
233.243	80.25
233.477	78.25
233.711	82.25
233.945	77.25
234.179	79.25
234.413	97.25
234.647	66.25
234.881	81.25
235.115	88.25
235.349	79.25
235.583	77.25
235.817	67.25
236.051	79.25
236.285	74.25
236.519	78.25
236.753	76.25
236.987	79.25
237.221	85.25
237.455	70.25
237.689	77.25
237.922	62.25
238.156	78.25
238.39	77.25
238.624	81.25
238.858	71.25
239.091	74.25
239.325	66.25
239.559	80.25
239.793	62.25
240.027	85.25
240.26	75.25
240.494	98.25
240.728	79.25
240.961	80.25
241.195	88.25
241.429	83.25
241.662	87.25
241.896	72.25
242.13	70.25
242.363	78.25
242.597	73.25
242.83	63.25
243.064	66.25
243.298	86.25
243.531	86.25
243.765	73.25
243.998	79.25
244.232	80.25
244.465	80.25
244.699	70.25
244.932	80.25
245.166	83.25
245.399	72.25
245.633	68.25
245.866	79.25
246.099	86.25
246.333	59.25
246.566	87.25
246.8	70.25
247.033	82.25
247.266	77.25
247.5	77.25
247.733	67.25
247.966	85.25
248.2	83.25
248.433	87.25
248.666	82.25
248.899	76.25
249.133	86.25
249.366	89.25
249.599	90.25
249.832	76.25
250.066	81.25
250.299	91.25
250.532	84.25
250.765	62.25
250.998	76.25
251.231	90.25
251.465	77.25
251.698	82.25
251.931	102.25
252.164	86.25
252.397	74.25
252.63	67.25
252.863	71.25
253.096	76.25
253.329	83.25
253.562	94.25
253.795	76.25
254.028	99.25
254.261	72.25
254.494	77.25
254.727	74.25
254.96	77.25
255.193	73.25
255.426	86.25
255.659	73.25
255.892	88.25
256.124	69.25
256.357	80.25
256.59	87.25
256.823	66.25
257.056	82.25
257.289	78.25
257.521	73.25
257.754	73.25
257.987	75.25
258.22	79.25
258.452	82.25
258.685	79.25
258.918	86.25
259.151	81.25
259.383	93.25
259.616	88.25
259.849	80.25
260.081	77.25
260.314	88.25
260.547	57.25
260.779	76.25
261.012	87.25
261.244	69.25
261.477	85.25
261.71	94.25
261.942	92.25
262.175	93.25
262.407	76.25
262.64	98.25
262.872	94.25
263.105	79.25
263.337	85.25
263.57	69.25
263.802	81.25
264.035	82.25
264.267	83.25
264.499	85.25
264.732	72.25
264.964	86.25
265.197	89.25
265.429	83.25
265.661	87.25
265.894	80.25
266.126	88.25
266.358	94.25
266.591	73.25
266.823	57.25
267.055	62.25
267.287	84.25
267.52	68.25
267.752	88.25
267.984	94.25
268.216	77.25
268.448	78.25
268.681	88.25
268.913	78.25
269.145	87.25
269.377	89.25
269.609	83.25
269.841	71.25
270.073	65.25
270.306	84.25
270.538	87.25
270.77	78.25
271.002	82.25
271.234	80.25
271.466	85.25
271.698	98.25
271.93	85.25
272.162	85.25
272.394	85.25
272.626	82.25
272.858	71.25
273.09	85.25
273.322	76.25
273.553	76.25
273.785	81.25
274.017	79.25
274.249	85.25
274.481	80.25
274.713	78.25
274.945	96.25
275.176	81.25
275.408	86.25
275.64	75.25
275.872	87.25
276.104	90.25
276.335	71.25
276.567	75.25
276.799	73.25
277.031	76.25
277.262	71.25
277.494	82.25
277.726	79.25
277.957	94.25
278.189	75.25
278.421	81.25
278.652	94.25
278.884	83.25
279.115	89.25
279.347	82.25
279.579	77.25
279.81	78.25
280.042	78.25
280.273	94.25
280.505	95.25
280.736	72.25
280.968	81.25
281.199	78.25
281.431	64.25
281.662	76.25
281.894	89.25
282.125	88.25
282.356	89.25
282.588	82.25
282.819	86.25
283.051	91.25
283.282	86.25
283.513	91.25
283.745	69.25
283.976	85.25
284.207	102.25
284.439	85.25
284.67	98.25
284.901	83.25
285.132	81.25
285.364	84.25
285.595	86.25
285.826	100.25
286.057	83.25
286.288	85.25
286.52	70.25
286.751	77.25
286.982	79.25
287.213	90.25
287.444	90.25
287.675	85.25
287.906	79.25
288.138	66.25
288.369	85.25
288.6	88.25
288.831	74.25
289.062	83.25
289.293	80.25
289.524	84.25
289.755	94.25
289.986	77.25
290.217	77.25
290.448	70.25
290.679	75.25
290.91	81.25
291.141	86.25
291.371	68.25
291.602	79.25
291.833	81.25
292.064	81.25
292.295	82.25
292.526	90.25
292.757	85.25
292.987	78.25
293.218	96.25
293.449	77.25
293.68	89.25
293.91	72.25
294.141	87.25
294.372	77.25
294.603	72.25
294.833	81.25
295.064	85.25
295.295	69.25
295.525	93.25
295.756	92.25
295.987	83.25
296.217	78.25
296.448	83.25
296.679	80.25
296.909	83.25
297.14	95.25
297.37	91.25
297.601	96.25
297.831	70.25
298.062	79.25
298.292	92.25
298.523	74.25
298.753	87.25
298.984	73.25
299.214	80.25
299.445	76.25
299.675	72.25
299.905	82.25
300.136	83.25
300.366	77.25
300.597	79.25
300.827	79.25
301.057	76.25
301.288	82.25
301.518	89.25
301.748	102.25
301.979	88.25
302.209	82.25
302.439	75.25
302.669	88.25
302.9	93.25
303.13	83.25
303.36	102.25
303.59	82.25
303.82	79.25
304.051	73.25
304.281	94.25
304.511	85.25
304.741	101.25
304.971	87.25
305.201	90.25
305.431	73.25
305.661	83.25
305.891	87.25
306.121	89.25
306.352	73.25
306.582	80.25
306.812	84.25
307.042	78.25
307.272	78.25
307.502	89.25
307.731	96.25
307.961	85.25
308.191	81.25
308.421	81.25
308.651	84.25
308.881	88.25
309.111	72.25
309.341	73.25
309.571	78.25
309.8	101.25
310.03	75.25
310.26	96.25
310.49	88.25
310.72	93.25
310.949	83.25
311.179	74.25
311.409	75.25
311.639	94.25
311.868	85.25
312.098	95.25
312.328	82.25
312.557	87.25
312.787	82.25
313.017	98.25
313.246	80.25
313.476	90.25
313.706	99.25
313.935	86.25
314.165	83.25
314.394	92.25
314.624	88.25
314.853	69.25
315.083	79.25
315.312	75.25
315.542	92.25
315.771	96.25
316.001	89.25
316.23	93.25
316.46	78.25
316.689	71.25
316.919	68.25
317.148	93.25
317.377	88.25
317.607	96.25
317.836	86.25
318.065	76.25
318.295	81.25
318.524	92.25
318.753	76.25
318.983	85.25
319.212	85.25
319.441	78.25
319.67	89.25
319.9	85.25
320.129	80.25
320.358	82.25
320.587	93.25
320.816	80.25
321.046	87.25
321.275	86.25
321.504	95.25
321.733	79.25
321.962	88.25
322.191	74.25
322.42	78.25
322.649	84.25
322.878	85.25
323.108	83.25
323.337	86.25
323.566	90.25
323.795	89.25
324.024	82.25
324.253	73.25
324.482	80.25
324.71	77.25
324.939	91.25
325.168	85.25
325.397	78.25
325.626	87.25
325.855	86.25
326.084	85.25
326.313	101.25
326.542	74.25
326.77	85.25
326.999	73.25
327.228	81.25
327.457	73.25
327.686	96.25
327.914	88.25
328.143	85.25
328.372	89.25
328.6	83.25
328.829	86.25
329.058	77.25
329.287	97.25
329.515	75.25
329.744	76.25
329.972	87.25
330.201	91.25
330.43	102.25
330.658	91.25
330.887	87.25
331.115	88.25
331.344	83.25
331.572	96.25
331.801	77.25
332.03	83.25
332.258	86.25
332.486	71.25
332.715	80.25
332.943	79.25
333.172	73.25
333.4	72.25
333.629	79.25
333.857	92.25
334.085	74.25
334.314	83.25
334.542	77.25
334.771	88.25
334.999	80.25
335.227	81.25
335.455	87.25
335.684	88.25
335.912	80.25
336.14	81.25
336.369	94.25
336.597	92.25
336.825	85.25
337.053	75.25
337.281	105.25
337.51	87.25
337.738	75.25
337.966	76.25
338.194	86.25
338.422	88.25
338.65	76.25
338.878	101.25
339.106	90.25
339.334	94.25
339.562	78.25
339.79	82.25
340.018	90.25
340.246	88.25
340.474	82.25
340.702	78.25
340.93	78.25
341.158	94.25
341.386	76.25
341.614	86.25
341.842	79.25
342.07	86.25
342.298	91.25
342.526	79.25
342.754	75.25
342.981	85.25
343.209	82.25
343.437	93.25
343.665	81.25
343.893	85.25
344.12	73.25
344.348	75.25
344.576	85.25
344.804	79.25
345.031	68.25
345.259	75.25
345.487	89.25
345.714	75.25
345.942	78.25
346.17	79.25
346.397	73.25
346.625	91.25
346.853	84.25
347.08	79.25
347.308	99.25
347.535	76.25
347.763	81.25
347.99	76.25
348.218	103.25
348.445	78.25
348.673	80.25
348.9	87.25
349.128	85.25
349.355	91.25
349.583	94.25
349.81	107.25
350.037	82.25
350.265	79.25
350.492	78.25
350.72	89.25
350.947	81.25
351.174	76.25
351.402	73.25
351.629	81.25
351.856	81.25
352.083	77.25
352.311	83.25
352.538	83.25
352.765	86.25
352.992	79.25
353.22	88.25
353.447	81.25
353.674	86.25
353.901	80.25
354.128	80.25
354.355	83.25
354.583	76.25
354.81	82.25
355.037	88.25
355.264	78.25
355.491	91.25
355.718	81.25
355.945	86.25
356.172	79.25
356.399	93.25
356.626	82.25
356.853	87.25
357.08	99.25
357.307	71.25
357.534	82.25
357.761	90.25
357.988	95.25
358.215	78.25
358.441	85.25
358.668	77.25
358.895	74.25
359.122	78.25
359.349	91.25
359.576	97.25
359.802	79.25
360.029	75.25
360.256	85.25
360.483	89.25
360.709	77.25
360.936	59.25
361.163	79.25
361.39	77.25
361.616	80.25
361.843	87.25
362.07	75.25
362.296	74.25
362.523	79.25
362.749	90.25
362.976	93.25
363.203	75.25
363.429	90.25
363.656	81.25
363.882	93.25
364.109	89.25
364.335	96.25
364.562	82.25
364.788	77.25
365.015	70.25
365.241	95.25
365.468	75.25
365.694	79.25
365.92	99.25
366.147	75.25
366.373	68.25
366.599	92.25
366.826	65.25
367.052	89.25
367.278	75.25
367.505	73.25
367.731	82.25
367.957	85.25
368.184	89.25
368.41	86.25
368.636	73.25
368.862	79.25
369.089	69.25
369.315	74.25
369.541	86.25
369.767	86.25
369.993	84.25
370.219	92.25
370.445	72.25
370.672	85.25
370.898	81.25
371.124	86.25
371.35	82.25
371.576	79.25
371.802	96.25
372.028	76.25
372.254	93.25
372.48	84.25
372.706	85.25
372.932	86.25
373.158	85.25
373.384	82.25
373.61	86.25
373.835	69.25
374.061	89.25
374.287	86.25
374.513	77.25
374.739	73.25
374.965	77.25
375.191	89.25
375.416	86.25
375.642	86.25
375.868	71.25
376.094	79.25
376.319	88.25
376.545	85.25
376.771	86.25
376.997	77.25
377.222	75.25
377.448	78.25
377.674	74.25
377.899	85.25
378.125	87.25
378.35	78.25
378.576	73.25
378.802	86.25
379.027	82.25
379.253	89.25
379.478	88.25
379.704	81.25
379.929	101.25
380.155	85.25
380.38	77.25
380.606	90.25
380.831	63.25
381.057	83.25
381.282	93.25
381.507	89.25
381.733	84.25
381.958	87.25
382.184	80.25
382.409	86.25
382.634	79.25
382.86	79.25
383.085	90.25
383.31	85.25
383.535	88.25
383.761	89.25
383.986	87.25
384.211	91.25
384.436	91.25
384.662	78.25
384.887	68.25
385.112	74.25
385.337	82.25
385.562	71.25
385.787	77.25
386.013	82.25
386.238	95.25
386.463	73.25
386.688	92.25
386.913	82.25
387.138	76.25
387.363	81.25
387.588	94.25
387.813	71.25
388.038	78.25
388.263	85.25
388.488	82.25
388.713	74.25
388.938	79.25
389.163	87.25
389.387	70.25
389.612	82.25
389.837	83.25
390.062	101.25
390.287	82.25
390.512	91.25
390.736	84.25
390.961	65.25
391.186	76.25
391.411	82.25
391.636	66.25
391.86	88.25
392.085	80.25
392.31	81.25
392.534	87.25
392.759	85.25
392.984	91.25
393.208	95.25
393.433	76.25
393.658	71.25
393.882	81.25
394.107	86.25
394.331	88.25
394.556	75.25
394.78	87.25
395.005	84.25
395.229	79.25
395.454	80.25
395.678	73.25
395.903	81.25
396.127	78.25
396.352	77.25
396.576	82.25
396.801	67.25
397.025	74.25
397.249	86.25
397.474	96.25
397.698	93.25
397.922	83.25
398.147	80.25
398.371	88.25
398.595	90.25
398.82	74.25
399.044	101.25
399.268	75.25
399.492	74.25
399.717	97.25
399.941	82.25
400.165	90.25
400.389	80.25
400.613	84.25
400.837	63.25
401.062	92.25
401.286	97.25
401.51	91.25
401.734	69.25
401.958	90.25
402.182	81.25
402.406	81.25
402.63	94.25
402.854	81.25
403.078	80.25
403.302	71.25
403.526	75.25
403.75	70.25
403.974	93.25
404.198	70.25
404.422	77.25
404.645	85.25
404.869	79.25
405.093	93.25
405.317	85.25
405.541	86.25
405.765	72.25
405.988	79.25
406.212	89.25
406.436	75.25
406.66	82.25
406.883	77.25
407.107	67.25
407.331	73.25
407.555	93.25
407.778	74.25
408.002	86.25
408.226	75.25
408.449	72.25
408.673	80.25
408.896	68.25
409.12	90.25
409.344	64.25
409.567	81.25
409.791	75.25
410.014	79.25
410.238	78.25
410.461	68.25
410.685	85.25
410.908	80.25
411.132	65.25
411.355	90.25
411.578	92.25
411.802	71.25
412.025	91.25
412.249	82.25
412.472	77.25
412.695	92.25
412.919	86.25
413.142	73.25
413.365	96.25
413.589	89.25
413.812	77.25
414.035	89.25
414.258	90.25
414.482	85.25
414.705	76.25
414.928	88.25
415.151	61.25
415.374	87.25
415.597	77.25
415.821	81.25
416.044	81.25
416.267	88.25
416.49	84.25
416.713	94.25
416.936	88.25
417.159	76.25
417.382	85.25
417.605	73.25
417.828	79.25
418.051	79.25
418.274	82.25
418.497	83.25
418.72	99.25
418.943	89.25
419.166	81.25
419.389	78.25
419.611	65.25
419.834	94.25
420.057	107.25
420.28	78.25
420.503	80.25
420.726	79.25
420.948	83.25
421.171	80.25
421.394	79.25
421.617	92.25
421.839	80.25
422.062	73.25
422.285	83.25
422.507	63.25
422.73	81.25
422.953	89.25
423.175	67.25
423.398	81.25
423.621	82.25
423.843	94.25
424.066	80.25
424.288	77.25
424.511	79.25
424.733	85.25
424.956	77.25
425.178	69.25
425.401	81.25
425.623	92.25
425.846	77.25
426.068	94.25
426.291	95.25
426.513	88.25
426.735	87.25
426.958	81.25
427.18	98.25
427.402	85.25
427.625	79.25
427.847	79.25
428.069	83.25
428.292	86.25
428.514	78.25
428.736	90.25
428.958	71.25
429.181	72.25
429.403	85.25
429.625	69.25
429.847	87.25
430.069	75.25
430.292	81.25
430.514	90.25
430.736	75.25
430.958	79.25
431.18	83.25
431.402	90.25
431.624	74.25
431.846	71.25
432.068	71.25
432.29	92.25
432.512	73.25
432.734	83.25
432.956	91.25
433.178	87.25
433.4	90.25
433.622	74.25
433.844	77.25
434.066	81.25
434.287	80.25
434.509	70.25
434.731	71.25
434.953	95.25
435.175	79.25
435.397	86.25
435.618	65.25
435.84	84.25
436.062	96.25
436.284	73.25
436.505	75.25
436.727	77.25
436.949	80.25
437.17	71.25
437.392	81.25
437.614	81.25
437.835	98.25
438.057	71.25
438.278	91.25
438.5	89.25
438.721	93.25
438.943	93.25
439.165	76.25
439.386	78.25
439.608	76.25
439.829	75.25
440.05	74.25
440.272	78.25
440.493	89.25
440.715	71.25
440.936	78.25
441.158	92.25
441.379	77.25
441.6	93.25
441.822	77.25
442.043	89.25
442.264	88.25
442.486	87.25
442.707	72.25
442.928	75.25
443.149	74.25
443.371	72.25
443.592	93.25
443.813	63.25
444.034	76.25
444.255	72.25
444.476	77.25
444.698	74.25
444.919	83.25
445.14	151.25
445.361	125.25
445.582	77.25
445.803	78.25
446.024	89.25
446.245	86.25
446.466	86.25
446.687	74.25
446.908	79.25
447.129	96.25
447.35	79.25
447.571	92.25
447.792	82.25
448.013	76.25
448.234	70.25
448.455	89.25
448.675	79.25
448.896	83.25
449.117	74.25
449.338	77.25
449.559	87.25
449.779	90.25
450	85.25
450.221	73.25
450.442	81.25
450.662	61.25
450.883	80.25
451.104	80.25
451.324	76.25
451.545	83.25
451.766	80.25
451.986	73.25
452.207	87.25
452.428	78.25
452.648	80.25
452.869	73.25
453.089	82.25
453.31	88.25
453.53	82.25
453.751	72.25
453.971	77.25
454.192	76.25
454.412	88.25
454.633	87.25
454.853	90.25
455.073	85.25
455.294	73.25
455.514	102.25
455.734	82.25
455.955	91.25
456.175	78.25
456.395	73.25
456.616	75.25
456.836	91.25
457.056	79.25
457.276	82.25
457.497	77.25
457.717	88.25
457.937	70.25
458.157	83.25
458.377	67.25
458.598	79.25
458.818	79.25
459.038	86.25
459.258	87.25
459.478	71.25
459.698	85.25
459.918	82.25
460.138	89.25
460.358	79.25
460.578	78.25
460.798	87.25
461.018	95.25
461.238	76.25
461.458	85.25
461.678	81.25
461.898	83.25
462.118	89.25
462.338	81.25
462.558	77.25
462.777	83.25
462.997	75.25
463.217	80.25
463.437	85.25
463.657	79.25
463.876	93.25
464.096	76.25
464.316	84.25
464.536	71.25
464.755	76.25
464.975	67.25
465.195	81.25
465.414	90.25
465.634	76.25
465.854	78.25
466.073	77.25
466.293	81.25
466.512	82.25
466.732	69.25
466.951	77.25
467.171	81.25
467.391	77.25
467.61	84.25
467.829	84.25
468.049	68.25
468.268	71.25
468.488	70.25
468.707	90.25
468.927	92.25
469.146	84.25
469.365	81.25
469.585	80.25
469.804	78.25
470.023	76.25
470.243	90.25
470.462	85.25
470.681	79.25
470.901	86.25
471.12	88.25
471.339	82.25
471.558	70.25
471.777	92.25
471.997	82.25
472.216	89.25
472.435	80.25
472.654	85.25
472.873	74.25
473.092	79.25
473.311	101.25
473.53	89.25
473.749	94.25
473.968	80.25
474.187	84.25
474.406	69.25
474.625	76.25
474.844	102.25
475.063	87.25
475.282	74.25
475.501	81.25
475.72	86.25
475.939	92.25
476.158	81.25
476.377	87.25
476.596	94.25
476.814	97.25
477.033	89.25
477.252	90.25
477.471	80.25
477.69	71.25
477.908	85.25
478.127	80.25
478.346	81.25
478.564	79.25
478.783	92.25
479.002	85.25
479.22	79.25
479.439	77.25
479.658	75.25
479.876	71.25
480.095	74.25
480.313	91.25
480.532	90.25
480.751	95.25
480.969	89.25
481.188	87.25
481.406	88.25
481.624	79.25
481.843	71.25
482.061	84.25
482.28	88.25
482.498	89.25
482.717	80.25
482.935	86.25
483.153	77.25
483.372	89.25
483.59	96.25
483.808	85.25
484.027	72.25
484.245	71.25
484.463	80.25
484.681	75.25
484.9	81.25
485.118	91.25
485.336	84.25
485.554	83.25
485.772	82.25
485.99	74.25
486.209	72.25
486.427	75.25
486.645	89.25
486.863	85.25
487.081	75.25
487.299	71.25
487.517	86.25
487.735	80.25
487.953	101.25
488.171	77.25
488.389	79.25
488.607	104.25
488.825	85.25
489.043	88.25
489.261	91.25
489.479	80.25
489.696	63.25
489.914	82.25
490.132	87.25
490.35	87.25
490.568	79.25
490.786	80.25
491.003	76.25
491.221	84.25
491.439	76.25
491.657	67.25
491.874	82.25
492.092	86.25
492.31	81.25
492.527	74.25
492.745	93.25
492.963	77.25
493.18	87.25
493.398	76.25
493.615	87.25
493.833	84.25
494.05	78.25
494.268	90.25
494.485	89.25
494.703	83.25
494.92	89.25
495.138	86.25
495.355	80.25
495.573	91.25
495.79	79.25
496.008	92.25
496.225	87.25
496.442	81.25
496.66	85.25
496.877	89.25
497.094	93.25
497.312	85.25
497.529	67.25
497.746	79.25
497.963	97.25
498.181	81.25
498.398	83.25
498.615	86.25
498.832	80.25
499.049	86.25
499.267	58.25
499.484	81.25
499.701	90.25
499.918	86.25
500.135	81.25
500.352	74.25
500.569	82.25
500.786	89.25
501.003	82.25
501.22	83.25
501.437	75.25
501.654	86.25
501.871	78.25
502.088	80.25
502.305	80.25
502.522	97.25
502.739	87.25
502.956	89.25
503.172	88.25
503.389	110.25
503.606	98.25
503.823	85.25
504.04	93.25
504.256	82.25
504.473	85.25
504.69	88.25
504.907	81.25
505.123	66.25
505.34	74.25
505.557	82.25
505.773	82.25
505.99	66.25
506.207	74.25
506.423	81.25
506.64	70.25
506.856	77.25
507.073	81.25
507.289	79.25
507.506	72.25
507.722	86.25
507.939	85.25
508.155	75.25
508.372	73.25
508.588	74.25
508.805	89.25
509.021	89.25
509.238	86.25
509.454	76.25
509.67	75.25
509.887	84.25
510.103	72.25
510.319	83.25
510.536	95.25
510.752	81.25
510.968	78.25
511.184	86.25
511.401	80.25
511.617	91.25
511.833	89.25
512.049	86.25
512.265	65.25
512.481	89.25
512.698	70.25
512.914	85.25
513.13	77.25
513.346	80.25
513.562	81.25
513.778	86.25
513.994	83.25
514.21	82.25
514.426	83.25
514.642	81.25
514.858	87.25
515.074	89.25
515.29	84.25
515.506	89.25
515.721	73.25
515.937	74.25
516.153	81.25
516.369	84.25
516.585	98.25
516.801	95.25
517.016	87.25
517.232	81.25
517.448	84.25
517.664	90.25
517.879	61.25
518.095	91.25
518.311	83.25
518.527	74.25
518.742	74.25
518.958	81.25
519.173	80.25
519.389	84.25
519.605	82.25
519.82	91.25
520.036	83.25
