Data from BG_HRD10591_033.txt Node
Date: Fri May 16 15:27:03 EDT 2025
User: Yrep
Spectrometer: HR+D1059
Trigger mode: 1
Integration Time (sec): 1.000000E-1
Scans to average: 1
Electric dark correction enabled: true
Nonlinearity correction enabled: false
Boxcar width: 0
XAxis mode: Wavelengths
Number of Pixels in Spectrum: 2048
>>>>>Begin Spectral Data<<<<<
223.165	-10.69
223.4	-10.69
223.635	-10.69
223.869	-14.69
224.104	-15.69
224.338	-15.69
224.573	-7.69
224.808	-20.69
225.042	-21.69
225.277	4.31
225.511	1.31
225.746	-3.69
225.98	13.31
226.215	10.31
226.449	11.31
226.683	21.31
226.918	19.31
227.152	29.31
227.387	32.31
227.621	49.31
227.856	46.31
228.09	49.31
228.324	58.31
228.559	45.31
228.793	49.31
229.027	52.31
229.262	69.31
229.496	67.31
229.73	70.31
229.964	76.31
230.199	75.31
230.433	84.31
230.667	75.31
230.901	93.31
231.136	72.31
231.37	90.31
231.604	64.31
231.838	78.31
232.072	79.31
232.306	79.31
232.541	71.31
232.775	88.31
233.009	79.31
233.243	87.31
233.477	93.31
233.711	76.31
233.945	79.31
234.179	77.31
234.413	93.31
234.647	93.31
234.881	78.31
235.115	90.31
235.349	65.31
235.583	82.31
235.817	75.31
236.051	89.31
236.285	75.31
236.519	79.31
236.753	82.31
236.987	74.31
237.221	97.31
237.455	80.31
237.689	77.31
237.922	77.31
238.156	74.31
238.39	64.31
238.624	74.31
238.858	87.31
239.091	79.31
239.325	61.31
239.559	73.31
239.793	84.31
240.027	77.31
240.26	89.31
240.494	95.31
240.728	69.31
240.961	85.31
241.195	81.31
241.429	74.31
241.662	68.31
241.896	81.31
242.13	80.31
242.363	66.31
242.597	72.31
242.83	88.31
243.064	83.31
243.298	83.31
243.531	95.31
243.765	70.31
243.998	89.31
244.232	81.31
244.465	73.31
244.699	86.31
244.932	88.31
245.166	74.31
245.399	81.31
245.633	84.31
245.866	56.31
246.099	72.31
246.333	72.31
246.566	84.31
246.8	77.31
247.033	81.31
247.266	67.31
247.5	83.31
247.733	85.31
247.966	76.31
248.2	65.31
248.433	64.31
248.666	89.31
248.899	88.31
249.133	88.31
249.366	92.31
249.599	77.31
249.832	76.31
250.066	88.31
250.299	84.31
250.532	91.31
250.765	75.31
250.998	70.31
251.231	80.31
251.465	81.31
251.698	74.31
251.931	84.31
252.164	81.31
252.397	75.31
252.63	79.31
252.863	63.31
253.096	91.31
253.329	81.31
253.562	79.31
253.795	89.31
254.028	83.31
254.261	71.31
254.494	86.31
254.727	89.31
254.96	80.31
255.193	81.31
255.426	73.31
255.659	77.31
255.892	75.31
256.124	79.31
256.357	88.31
256.59	90.31
256.823	79.31
257.056	73.31
257.289	72.31
257.521	66.31
257.754	74.31
257.987	74.31
258.22	76.31
258.452	79.31
258.685	87.31
258.918	86.31
259.151	88.31
259.383	77.31
259.616	66.31
259.849	83.31
260.081	87.31
260.314	83.31
260.547	90.31
260.779	83.31
261.012	81.31
261.244	80.31
261.477	84.31
261.71	76.31
261.942	86.31
262.175	73.31
262.407	74.31
262.64	80.31
262.872	91.31
263.105	79.31
263.337	92.31
263.57	75.31
263.802	87.31
264.035	93.31
264.267	91.31
264.499	72.31
264.732	81.31
264.964	85.31
265.197	84.31
265.429	82.31
265.661	93.31
265.894	85.31
266.126	82.31
266.358	91.31
266.591	75.31
266.823	89.31
267.055	83.31
267.287	86.31
267.52	78.31
267.752	84.31
267.984	80.31
268.216	87.31
268.448	83.31
268.681	74.31
268.913	81.31
269.145	84.31
269.377	89.31
269.609	87.31
269.841	79.31
270.073	79.31
270.306	95.31
270.538	84.31
270.77	79.31
271.002	87.31
271.234	85.31
271.466	87.31
271.698	87.31
271.93	82.31
272.162	87.31
272.394	78.31
272.626	89.31
272.858	85.31
273.09	83.31
273.322	86.31
273.553	77.31
273.785	88.31
274.017	103.31
274.249	99.31
274.481	78.31
274.713	84.31
274.945	91.31
275.176	87.31
275.408	98.31
275.64	97.31
275.872	68.31
276.104	87.31
276.335	88.31
276.567	79.31
276.799	89.31
277.031	86.31
277.262	84.31
277.494	93.31
277.726	90.31
277.957	76.31
278.189	74.31
278.421	79.31
278.652	70.31
278.884	70.31
279.115	77.31
279.347	89.31
279.579	85.31
279.81	79.31
280.042	84.31
280.273	77.31
280.505	71.31
280.736	93.31
280.968	92.31
281.199	98.31
281.431	94.31
281.662	72.31
281.894	85.31
282.125	79.31
282.356	87.31
282.588	83.31
282.819	88.31
283.051	84.31
283.282	80.31
283.513	88.31
283.745	71.31
283.976	91.31
284.207	98.31
284.439	87.31
284.67	78.31
284.901	93.31
285.132	103.31
285.364	88.31
285.595	76.31
285.826	84.31
286.057	89.31
286.288	75.31
286.52	84.31
286.751	78.31
286.982	79.31
287.213	67.31
287.444	65.31
287.675	81.31
287.906	83.31
288.138	78.31
288.369	84.31
288.6	75.31
288.831	83.31
289.062	91.31
289.293	69.31
289.524	75.31
289.755	89.31
289.986	92.31
290.217	104.31
290.448	92.31
290.679	90.31
290.91	73.31
291.141	91.31
291.371	79.31
291.602	76.31
291.833	77.31
292.064	89.31
292.295	83.31
292.526	94.31
292.757	83.31
292.987	89.31
293.218	84.31
293.449	80.31
293.68	85.31
293.91	82.31
294.141	83.31
294.372	71.31
294.603	83.31
294.833	75.31
295.064	82.31
295.295	87.31
295.525	88.31
295.756	91.31
295.987	68.31
296.217	84.31
296.448	93.31
296.679	81.31
296.909	83.31
297.14	80.31
297.37	90.31
297.601	76.31
297.831	81.31
298.062	92.31
298.292	92.31
298.523	89.31
298.753	85.31
298.984	73.31
299.214	76.31
299.445	91.31
299.675	77.31
299.905	102.31
300.136	82.31
300.366	78.31
300.597	76.31
300.827	85.31
301.057	89.31
301.288	97.31
301.518	79.31
301.748	89.31
301.979	101.31
302.209	83.31
302.439	94.31
302.669	69.31
302.9	82.31
303.13	75.31
303.36	72.31
303.59	93.31
303.82	91.31
304.051	84.31
304.281	88.31
304.511	85.31
304.741	81.31
304.971	81.31
305.201	88.31
305.431	96.31
305.661	92.31
305.891	90.31
306.121	75.31
306.352	63.31
306.582	79.31
306.812	82.31
307.042	84.31
307.272	94.31
307.502	97.31
307.731	91.31
307.961	87.31
308.191	93.31
308.421	92.31
308.651	88.31
308.881	91.31
309.111	94.31
309.341	90.31
309.571	80.31
309.8	85.31
310.03	88.31
310.26	96.31
310.49	77.31
310.72	87.31
310.949	70.31
311.179	91.31
311.409	81.31
311.639	83.31
311.868	79.31
312.098	80.31
312.328	76.31
312.557	99.31
312.787	83.31
313.017	87.31
313.246	97.31
313.476	96.31
313.706	75.31
313.935	79.31
314.165	82.31
314.394	96.31
314.624	87.31
314.853	93.31
315.083	80.31
315.312	76.31
315.542	76.31
315.771	74.31
316.001	87.31
316.23	76.31
316.46	91.31
316.689	83.31
316.919	88.31
317.148	88.31
317.377	89.31
317.607	89.31
317.836	67.31
318.065	73.31
318.295	79.31
318.524	77.31
318.753	84.31
318.983	77.31
319.212	90.31
319.441	89.31
319.67	113.31
319.9	77.31
320.129	97.31
320.358	89.31
320.587	86.31
320.816	88.31
321.046	97.31
321.275	88.31
321.504	91.31
321.733	87.31
321.962	69.31
322.191	81.31
322.42	87.31
322.649	83.31
322.878	75.31
323.108	84.31
323.337	82.31
323.566	83.31
323.795	76.31
324.024	77.31
324.253	92.31
324.482	99.31
324.71	99.31
324.939	76.31
325.168	89.31
325.397	86.31
325.626	91.31
325.855	83.31
326.084	64.31
326.313	91.31
326.542	88.31
326.77	85.31
326.999	72.31
327.228	81.31
327.457	89.31
327.686	73.31
327.914	75.31
328.143	99.31
328.372	91.31
328.6	65.31
328.829	77.31
329.058	84.31
329.287	94.31
329.515	76.31
329.744	80.31
329.972	83.31
330.201	90.31
330.43	82.31
330.658	83.31
330.887	82.31
331.115	80.31
331.344	90.31
331.572	92.31
331.801	98.31
332.03	83.31
332.258	81.31
332.486	93.31
332.715	89.31
332.943	75.31
333.172	73.31
333.4	92.31
333.629	91.31
333.857	83.31
334.085	84.31
334.314	91.31
334.542	66.31
334.771	93.31
334.999	96.31
335.227	80.31
335.455	82.31
335.684	87.31
335.912	93.31
336.14	81.31
336.369	76.31
336.597	93.31
336.825	96.31
337.053	79.31
337.281	81.31
337.51	96.31
337.738	95.31
337.966	91.31
338.194	90.31
338.422	82.31
338.65	93.31
338.878	97.31
339.106	83.31
339.334	93.31
339.562	85.31
339.79	85.31
340.018	88.31
340.246	86.31
340.474	90.31
340.702	82.31
340.93	88.31
341.158	89.31
341.386	81.31
341.614	81.31
341.842	90.31
342.07	81.31
342.298	94.31
342.526	81.31
342.754	83.31
342.981	99.31
343.209	89.31
343.437	91.31
343.665	93.31
343.893	85.31
344.12	96.31
344.348	89.31
344.576	79.31
344.804	92.31
345.031	89.31
345.259	81.31
345.487	100.31
345.714	78.31
345.942	75.31
346.17	77.31
346.397	93.31
346.625	81.31
346.853	84.31
347.08	84.31
347.308	83.31
347.535	88.31
347.763	79.31
347.99	80.31
348.218	79.31
348.445	67.31
348.673	74.31
348.9	91.31
349.128	82.31
349.355	74.31
349.583	84.31
349.81	82.31
350.037	99.31
350.265	83.31
350.492	93.31
350.72	80.31
350.947	77.31
351.174	82.31
351.402	94.31
351.629	97.31
351.856	88.31
352.083	89.31
352.311	84.31
352.538	77.31
352.765	96.31
352.992	87.31
353.22	81.31
353.447	101.31
353.674	69.31
353.901	88.31
354.128	83.31
354.355	75.31
354.583	84.31
354.81	79.31
355.037	80.31
355.264	93.31
355.491	83.31
355.718	77.31
355.945	93.31
356.172	83.31
356.399	91.31
356.626	79.31
356.853	87.31
357.08	88.31
357.307	91.31
357.534	87.31
357.761	91.31
357.988	83.31
358.215	77.31
358.441	85.31
358.668	90.31
358.895	82.31
359.122	96.31
359.349	82.31
359.576	87.31
359.802	80.31
360.029	95.31
360.256	71.31
360.483	84.31
360.709	84.31
360.936	83.31
361.163	72.31
361.39	86.31
361.616	78.31
361.843	72.31
362.07	107.31
362.296	69.31
362.523	83.31
362.749	87.31
362.976	82.31
363.203	75.31
363.429	83.31
363.656	88.31
363.882	90.31
364.109	88.31
364.335	93.31
364.562	83.31
364.788	80.31
365.015	89.31
365.241	77.31
365.468	79.31
365.694	84.31
365.92	77.31
366.147	100.31
366.373	88.31
366.599	91.31
366.826	81.31
367.052	85.31
367.278	82.31
367.505	92.31
367.731	104.31
367.957	84.31
368.184	91.31
368.41	79.31
368.636	80.31
368.862	78.31
369.089	91.31
369.315	89.31
369.541	81.31
369.767	83.31
369.993	85.31
370.219	87.31
370.445	84.31
370.672	87.31
370.898	87.31
371.124	88.31
371.35	88.31
371.576	83.31
371.802	81.31
372.028	81.31
372.254	71.31
372.48	85.31
372.706	91.31
372.932	88.31
373.158	85.31
373.384	96.31
373.61	96.31
373.835	95.31
374.061	66.31
374.287	89.31
374.513	84.31
374.739	77.31
374.965	90.31
375.191	93.31
375.416	77.31
375.642	96.31
375.868	99.31
376.094	87.31
376.319	76.31
376.545	82.31
376.771	81.31
376.997	75.31
377.222	78.31
377.448	85.31
377.674	83.31
377.899	96.31
378.125	89.31
378.35	85.31
378.576	79.31
378.802	80.31
379.027	79.31
379.253	84.31
379.478	76.31
379.704	88.31
379.929	85.31
380.155	73.31
380.38	83.31
380.606	85.31
380.831	94.31
381.057	91.31
381.282	101.31
381.507	89.31
381.733	90.31
381.958	76.31
382.184	81.31
382.409	92.31
382.634	90.31
382.86	90.31
383.085	88.31
383.31	70.31
383.535	78.31
383.761	77.31
383.986	92.31
384.211	77.31
384.436	95.31
384.662	80.31
384.887	61.31
385.112	93.31
385.337	90.31
385.562	86.31
385.787	93.31
386.013	107.31
386.238	77.31
386.463	78.31
386.688	96.31
386.913	88.31
387.138	89.31
387.363	103.31
387.588	78.31
387.813	71.31
388.038	85.31
388.263	83.31
388.488	72.31
388.713	85.31
388.938	80.31
389.163	87.31
389.387	78.31
389.612	82.31
389.837	84.31
390.062	90.31
390.287	74.31
390.512	91.31
390.736	73.31
390.961	72.31
391.186	84.31
391.411	92.31
391.636	72.31
391.86	78.31
392.085	87.31
392.31	92.31
392.534	96.31
392.759	95.31
392.984	87.31
393.208	82.31
393.433	87.31
393.658	81.31
393.882	78.31
394.107	87.31
394.331	83.31
394.556	63.31
394.78	84.31
395.005	88.31
395.229	93.31
395.454	100.31
395.678	77.31
395.903	84.31
396.127	104.31
396.352	81.31
396.576	80.31
396.801	92.31
397.025	82.31
397.249	73.31
397.474	84.31
397.698	92.31
397.922	88.31
398.147	81.31
398.371	88.31
398.595	82.31
398.82	84.31
399.044	87.31
399.268	76.31
399.492	72.31
399.717	83.31
399.941	77.31
400.165	72.31
400.389	77.31
400.613	88.31
400.837	82.31
401.062	75.31
401.286	82.31
401.51	84.31
401.734	76.31
401.958	87.31
402.182	87.31
402.406	68.31
402.63	89.31
402.854	81.31
403.078	91.31
403.302	76.31
403.526	82.31
403.75	87.31
403.974	85.31
404.198	92.31
404.422	88.31
404.645	75.31
404.869	93.31
405.093	86.31
405.317	75.31
405.541	89.31
405.765	72.31
405.988	77.31
406.212	93.31
406.436	80.31
406.66	82.31
406.883	63.31
407.107	79.31
407.331	86.31
407.555	84.31
407.778	70.31
408.002	68.31
408.226	89.31
408.449	84.31
408.673	71.31
408.896	64.31
409.12	64.31
409.344	81.31
409.567	83.31
409.791	85.31
410.014	84.31
410.238	86.31
410.461	82.31
410.685	75.31
410.908	83.31
411.132	91.31
411.355	81.31
411.578	80.31
411.802	82.31
412.025	86.31
412.249	81.31
412.472	94.31
412.695	72.31
412.919	73.31
413.142	85.31
413.365	80.31
413.589	63.31
413.812	98.31
414.035	97.31
414.258	74.31
414.482	84.31
414.705	72.31
414.928	89.31
415.151	82.31
415.374	93.31
415.597	81.31
415.821	75.31
416.044	87.31
416.267	94.31
416.49	88.31
416.713	90.31
416.936	88.31
417.159	77.31
417.382	71.31
417.605	77.31
417.828	94.31
418.051	92.31
418.274	91.31
418.497	87.31
418.72	73.31
418.943	91.31
419.166	87.31
419.389	85.31
419.611	73.31
419.834	87.31
420.057	79.31
420.28	82.31
420.503	89.31
420.726	80.31
420.948	87.31
421.171	86.31
421.394	64.31
421.617	81.31
421.839	85.31
422.062	84.31
422.285	93.31
422.507	82.31
422.73	76.31
422.953	75.31
423.175	82.31
423.398	81.31
423.621	78.31
423.843	82.31
424.066	81.31
424.288	88.31
424.511	76.31
424.733	77.31
424.956	88.31
425.178	82.31
425.401	72.31
425.623	82.31
425.846	82.31
426.068	76.31
426.291	67.31
426.513	93.31
426.735	82.31
426.958	82.31
427.18	76.31
427.402	90.31
427.625	92.31
427.847	89.31
428.069	72.31
428.292	91.31
428.514	89.31
428.736	91.31
428.958	76.31
429.181	79.31
429.403	80.31
429.625	73.31
429.847	92.31
430.069	87.31
430.292	78.31
430.514	75.31
430.736	87.31
430.958	90.31
431.18	83.31
431.402	81.31
431.624	76.31
431.846	84.31
432.068	88.31
432.29	83.31
432.512	90.31
432.734	88.31
432.956	96.31
433.178	80.31
433.4	78.31
433.622	80.31
433.844	78.31
434.066	89.31
434.287	93.31
434.509	72.31
434.731	92.31
434.953	94.31
435.175	78.31
435.397	83.31
435.618	69.31
435.84	81.31
436.062	84.31
436.284	88.31
436.505	90.31
436.727	99.31
436.949	85.31
437.17	91.31
437.392	81.31
437.614	68.31
437.835	80.31
438.057	82.31
438.278	77.31
438.5	83.31
438.721	89.31
438.943	92.31
439.165	77.31
439.386	80.31
439.608	100.31
439.829	87.31
440.05	89.31
440.272	101.31
440.493	83.31
440.715	79.31
440.936	73.31
441.158	75.31
441.379	81.31
441.6	75.31
441.822	73.31
442.043	79.31
442.264	70.31
442.486	84.31
442.707	84.31
442.928	80.31
443.149	86.31
443.371	84.31
443.592	91.31
443.813	89.31
444.034	83.31
444.255	90.31
444.476	76.31
444.698	78.31
444.919	73.31
445.14	170.31
445.361	114.31
445.582	78.31
445.803	90.31
446.024	74.31
446.245	79.31
446.466	98.31
446.687	73.31
446.908	91.31
447.129	82.31
447.35	65.31
447.571	85.31
447.792	90.31
448.013	95.31
448.234	80.31
448.455	86.31
448.675	92.31
448.896	89.31
449.117	90.31
449.338	72.31
449.559	83.31
449.779	77.31
450	82.31
450.221	92.31
450.442	99.31
450.662	91.31
450.883	76.31
451.104	96.31
451.324	84.31
451.545	90.31
451.766	97.31
451.986	85.31
452.207	64.31
452.428	77.31
452.648	78.31
452.869	85.31
453.089	93.31
453.31	66.31
453.53	74.31
453.751	91.31
453.971	70.31
454.192	85.31
454.412	76.31
454.633	83.31
454.853	76.31
455.073	76.31
455.294	86.31
455.514	67.31
455.734	91.31
455.955	78.31
456.175	53.31
456.395	76.31
456.616	75.31
456.836	70.31
457.056	92.31
457.276	90.31
457.497	80.31
457.717	86.31
457.937	83.31
458.157	84.31
458.377	74.31
458.598	82.31
458.818	89.31
459.038	74.31
459.258	79.31
459.478	87.31
459.698	75.31
459.918	75.31
460.138	92.31
460.358	79.31
460.578	71.31
460.798	92.31
461.018	89.31
461.238	97.31
461.458	93.31
461.678	84.31
461.898	89.31
462.118	85.31
462.338	86.31
462.558	79.31
462.777	82.31
462.997	85.31
463.217	77.31
463.437	98.31
463.657	81.31
463.876	99.31
464.096	83.31
464.316	78.31
464.536	79.31
464.755	86.31
464.975	80.31
465.195	89.31
465.414	75.31
465.634	89.31
465.854	84.31
466.073	68.31
466.293	89.31
466.512	96.31
466.732	75.31
466.951	73.31
467.171	80.31
467.391	88.31
467.61	80.31
467.829	82.31
468.049	84.31
468.268	93.31
468.488	69.31
468.707	95.31
468.927	77.31
469.146	83.31
469.365	93.31
469.585	69.31
469.804	97.31
470.023	75.31
470.243	79.31
470.462	76.31
470.681	80.31
470.901	78.31
471.12	84.31
471.339	65.31
471.558	84.31
471.777	81.31
471.997	82.31
472.216	71.31
472.435	85.31
472.654	74.31
472.873	97.31
473.092	88.31
473.311	82.31
473.53	84.31
473.749	79.31
473.968	84.31
474.187	82.31
474.406	79.31
474.625	98.31
474.844	87.31
475.063	92.31
475.282	87.31
475.501	91.31
475.72	74.31
475.939	95.31
476.158	64.31
476.377	87.31
476.596	80.31
476.814	93.31
477.033	84.31
477.252	87.31
477.471	79.31
477.69	95.31
477.908	76.31
478.127	83.31
478.346	93.31
478.564	82.31
478.783	73.31
479.002	77.31
479.22	74.31
479.439	78.31
479.658	87.31
479.876	80.31
480.095	74.31
480.313	71.31
480.532	85.31
480.751	75.31
480.969	84.31
481.188	82.31
481.406	83.31
481.624	76.31
481.843	80.31
482.061	91.31
482.28	84.31
482.498	85.31
482.717	79.31
482.935	87.31
483.153	96.31
483.372	85.31
483.59	80.31
483.808	74.31
484.027	92.31
484.245	93.31
484.463	78.31
484.681	80.31
484.9	85.31
485.118	64.31
485.336	77.31
485.554	76.31
485.772	72.31
485.99	81.31
486.209	88.31
486.427	91.31
486.645	76.31
486.863	96.31
487.081	90.31
487.299	92.31
487.517	84.31
487.735	72.31
487.953	81.31
488.171	80.31
488.389	95.31
488.607	88.31
488.825	84.31
489.043	91.31
489.261	86.31
489.479	79.31
489.696	75.31
489.914	89.31
490.132	91.31
490.35	78.31
490.568	89.31
490.786	87.31
491.003	76.31
491.221	83.31
491.439	89.31
491.657	81.31
491.874	85.31
492.092	90.31
492.31	83.31
492.527	76.31
492.745	89.31
492.963	87.31
493.18	78.31
493.398	83.31
493.615	78.31
493.833	83.31
494.05	90.31
494.268	85.31
494.485	83.31
494.703	90.31
494.92	80.31
495.138	79.31
495.355	80.31
495.573	81.31
495.79	88.31
496.008	88.31
496.225	76.31
496.442	79.31
496.66	91.31
496.877	75.31
497.094	88.31
497.312	84.31
497.529	80.31
497.746	76.31
497.963	79.31
498.181	79.31
498.398	80.31
498.615	93.31
498.832	87.31
499.049	83.31
499.267	100.31
499.484	80.31
499.701	91.31
499.918	88.31
500.135	93.31
500.352	91.31
500.569	81.31
500.786	85.31
501.003	66.31
501.22	91.31
501.437	74.31
501.654	96.31
501.871	77.31
502.088	79.31
502.305	81.31
502.522	75.31
502.739	76.31
502.956	90.31
503.172	95.31
503.389	89.31
503.606	73.31
503.823	84.31
504.04	85.31
504.256	88.31
504.473	90.31
504.69	81.31
504.907	77.31
505.123	90.31
505.34	88.31
505.557	85.31
505.773	87.31
505.99	69.31
506.207	104.31
506.423	80.31
506.64	84.31
506.856	67.31
507.073	84.31
507.289	78.31
507.506	87.31
507.722	97.31
507.939	98.31
508.155	83.31
508.372	84.31
508.588	91.31
508.805	93.31
509.021	99.31
509.238	88.31
509.454	75.31
509.67	89.31
509.887	94.31
510.103	83.31
510.319	85.31
510.536	85.31
510.752	87.31
510.968	87.31
511.184	80.31
511.401	81.31
511.617	91.31
511.833	85.31
512.049	99.31
512.265	81.31
512.481	71.31
512.698	74.31
512.914	80.31
513.13	84.31
513.346	87.31
513.562	73.31
513.778	93.31
513.994	80.31
514.21	83.31
514.426	75.31
514.642	83.31
514.858	85.31
515.074	94.31
515.29	79.31
515.506	88.31
515.721	94.31
515.937	89.31
516.153	88.31
516.369	73.31
516.585	65.31
516.801	80.31
517.016	83.31
517.232	82.31
517.448	88.31
517.664	80.31
517.879	93.31
518.095	85.31
518.311	84.31
518.527	75.31
518.742	73.31
518.958	88.31
519.173	73.31
519.389	82.31
519.605	99.31
519.82	82.31
520.036	89.31
