Data from BG_HRD10591_098.txt Node
Date: Fri May 16 15:27:36 EDT 2025
User: Yrep
Spectrometer: HR+D1059
Trigger mode: 1
Integration Time (sec): 1.000000E-1
Scans to average: 1
Electric dark correction enabled: true
Nonlinearity correction enabled: false
Boxcar width: 0
XAxis mode: Wavelengths
Number of Pixels in Spectrum: 2048
>>>>>Begin Spectral Data<<<<<
223.165	-4.06
223.4	-4.06
223.635	-4.06
223.869	-5.06
224.104	-12.06
224.338	-17.06
224.573	-2.06
224.808	-11.06
225.042	-10.06
225.277	-18.06
225.511	-2.06
225.746	1.94
225.98	-6.06
226.215	-3.06
226.449	18.94
226.683	10.94
226.918	18.94
227.152	39.94
227.387	24.94
227.621	46.94
227.856	48.94
228.09	52.94
228.324	51.94
228.559	60.94
228.793	52.94
229.027	65.94
229.262	54.94
229.496	64.94
229.73	68.94
229.964	74.94
230.199	59.94
230.433	70.94
230.667	77.94
230.901	62.94
231.136	76.94
231.37	89.94
231.604	76.94
231.838	74.94
232.072	79.94
232.306	72.94
232.541	77.94
232.775	90.94
233.009	82.94
233.243	79.94
233.477	70.94
233.711	73.94
233.945	92.94
234.179	77.94
234.413	69.94
234.647	74.94
234.881	81.94
235.115	77.94
235.349	84.94
235.583	75.94
235.817	77.94
236.051	74.94
236.285	65.94
236.519	75.94
236.753	73.94
236.987	73.94
237.221	73.94
237.455	83.94
237.689	84.94
237.922	70.94
238.156	76.94
238.39	70.94
238.624	75.94
238.858	74.94
239.091	63.94
239.325	68.94
239.559	73.94
239.793	80.94
240.027	66.94
240.26	76.94
240.494	74.94
240.728	76.94
240.961	65.94
241.195	87.94
241.429	54.94
241.662	66.94
241.896	69.94
242.13	85.94
242.363	69.94
242.597	76.94
242.83	70.94
243.064	74.94
243.298	80.94
243.531	73.94
243.765	76.94
243.998	73.94
244.232	77.94
244.465	65.94
244.699	69.94
244.932	73.94
245.166	70.94
245.399	68.94
245.633	69.94
245.866	85.94
246.099	76.94
246.333	75.94
246.566	71.94
246.8	71.94
247.033	70.94
247.266	62.94
247.5	72.94
247.733	82.94
247.966	69.94
248.2	69.94
248.433	79.94
248.666	80.94
248.899	73.94
249.133	72.94
249.366	76.94
249.599	74.94
249.832	82.94
250.066	78.94
250.299	72.94
250.532	79.94
250.765	78.94
250.998	65.94
251.231	80.94
251.465	80.94
251.698	69.94
251.931	62.94
252.164	77.94
252.397	75.94
252.63	72.94
252.863	92.94
253.096	70.94
253.329	75.94
253.562	57.94
253.795	75.94
254.028	66.94
254.261	79.94
254.494	70.94
254.727	81.94
254.96	82.94
255.193	83.94
255.426	84.94
255.659	75.94
255.892	66.94
256.124	78.94
256.357	85.94
256.59	84.94
256.823	74.94
257.056	81.94
257.289	72.94
257.521	69.94
257.754	74.94
257.987	84.94
258.22	73.94
258.452	63.94
258.685	78.94
258.918	78.94
259.151	76.94
259.383	68.94
259.616	80.94
259.849	88.94
260.081	82.94
260.314	74.94
260.547	62.94
260.779	70.94
261.012	76.94
261.244	74.94
261.477	78.94
261.71	74.94
261.942	72.94
262.175	77.94
262.407	67.94
262.64	70.94
262.872	73.94
263.105	93.94
263.337	81.94
263.57	71.94
263.802	90.94
264.035	81.94
264.267	76.94
264.499	71.94
264.732	81.94
264.964	67.94
265.197	71.94
265.429	83.94
265.661	81.94
265.894	84.94
266.126	90.94
266.358	83.94
266.591	91.94
266.823	78.94
267.055	72.94
267.287	73.94
267.52	62.94
267.752	73.94
267.984	83.94
268.216	90.94
268.448	69.94
268.681	96.94
268.913	92.94
269.145	82.94
269.377	72.94
269.609	78.94
269.841	80.94
270.073	84.94
270.306	80.94
270.538	76.94
270.77	73.94
271.002	91.94
271.234	92.94
271.466	83.94
271.698	77.94
271.93	77.94
272.162	79.94
272.394	82.94
272.626	61.94
272.858	85.94
273.09	70.94
273.322	75.94
273.553	80.94
273.785	81.94
274.017	76.94
274.249	75.94
274.481	80.94
274.713	63.94
274.945	77.94
275.176	84.94
275.408	81.94
275.64	85.94
275.872	84.94
276.104	74.94
276.335	92.94
276.567	77.94
276.799	78.94
277.031	92.94
277.262	70.94
277.494	82.94
277.726	84.94
277.957	79.94
278.189	89.94
278.421	76.94
278.652	82.94
278.884	95.94
279.115	96.94
279.347	86.94
279.579	88.94
279.81	62.94
280.042	82.94
280.273	79.94
280.505	80.94
280.736	81.94
280.968	68.94
281.199	76.94
281.431	67.94
281.662	82.94
281.894	80.94
282.125	83.94
282.356	81.94
282.588	88.94
282.819	78.94
283.051	73.94
283.282	84.94
283.513	84.94
283.745	85.94
283.976	77.94
284.207	85.94
284.439	88.94
284.67	89.94
284.901	78.94
285.132	56.94
285.364	63.94
285.595	76.94
285.826	91.94
286.057	92.94
286.288	83.94
286.52	75.94
286.751	87.94
286.982	84.94
287.213	59.94
287.444	99.94
287.675	92.94
287.906	72.94
288.138	89.94
288.369	75.94
288.6	82.94
288.831	80.94
289.062	88.94
289.293	65.94
289.524	82.94
289.755	77.94
289.986	82.94
290.217	86.94
290.448	87.94
290.679	67.94
290.91	76.94
291.141	83.94
291.371	87.94
291.602	100.94
291.833	77.94
292.064	66.94
292.295	71.94
292.526	74.94
292.757	78.94
292.987	83.94
293.218	88.94
293.449	102.94
293.68	70.94
293.91	69.94
294.141	77.94
294.372	85.94
294.603	68.94
294.833	71.94
295.064	81.94
295.295	76.94
295.525	78.94
295.756	75.94
295.987	82.94
296.217	83.94
296.448	85.94
296.679	84.94
296.909	80.94
297.14	78.94
297.37	76.94
297.601	78.94
297.831	82.94
298.062	78.94
298.292	79.94
298.523	90.94
298.753	104.94
298.984	87.94
299.214	74.94
299.445	85.94
299.675	84.94
299.905	91.94
300.136	90.94
300.366	63.94
300.597	86.94
300.827	75.94
301.057	77.94
301.288	80.94
301.518	88.94
301.748	94.94
301.979	99.94
302.209	99.94
302.439	82.94
302.669	88.94
302.9	108.94
303.13	89.94
303.36	83.94
303.59	74.94
303.82	77.94
304.051	84.94
304.281	80.94
304.511	83.94
304.741	73.94
304.971	87.94
305.201	92.94
305.431	73.94
305.661	76.94
305.891	78.94
306.121	85.94
306.352	91.94
306.582	80.94
306.812	70.94
307.042	78.94
307.272	75.94
307.502	85.94
307.731	75.94
307.961	86.94
308.191	86.94
308.421	88.94
308.651	68.94
308.881	85.94
309.111	88.94
309.341	78.94
309.571	83.94
309.8	73.94
310.03	82.94
310.26	96.94
310.49	92.94
310.72	85.94
310.949	76.94
311.179	83.94
311.409	88.94
311.639	74.94
311.868	79.94
312.098	72.94
312.328	66.94
312.557	78.94
312.787	76.94
313.017	96.94
313.246	79.94
313.476	90.94
313.706	78.94
313.935	82.94
314.165	84.94
314.394	90.94
314.624	79.94
314.853	82.94
315.083	61.94
315.312	100.94
315.542	80.94
315.771	84.94
316.001	81.94
316.23	82.94
316.46	69.94
316.689	86.94
316.919	72.94
317.148	86.94
317.377	72.94
317.607	74.94
317.836	87.94
318.065	100.94
318.295	88.94
318.524	84.94
318.753	83.94
318.983	65.94
319.212	88.94
319.441	67.94
319.67	68.94
319.9	66.94
320.129	83.94
320.358	90.94
320.587	89.94
320.816	85.94
321.046	75.94
321.275	82.94
321.504	80.94
321.733	72.94
321.962	73.94
322.191	79.94
322.42	81.94
322.649	85.94
322.878	74.94
323.108	82.94
323.337	75.94
323.566	74.94
323.795	71.94
324.024	75.94
324.253	74.94
324.482	85.94
324.71	79.94
324.939	73.94
325.168	78.94
325.397	80.94
325.626	87.94
325.855	86.94
326.084	86.94
326.313	75.94
326.542	76.94
326.77	88.94
326.999	70.94
327.228	77.94
327.457	73.94
327.686	77.94
327.914	98.94
328.143	83.94
328.372	86.94
328.6	79.94
328.829	81.94
329.058	93.94
329.287	91.94
329.515	76.94
329.744	87.94
329.972	86.94
330.201	83.94
330.43	84.94
330.658	90.94
330.887	91.94
331.115	80.94
331.344	78.94
331.572	81.94
331.801	74.94
332.03	85.94
332.258	87.94
332.486	86.94
332.715	90.94
332.943	82.94
333.172	89.94
333.4	85.94
333.629	88.94
333.857	86.94
334.085	78.94
334.314	80.94
334.542	78.94
334.771	72.94
334.999	86.94
335.227	72.94
335.455	88.94
335.684	77.94
335.912	74.94
336.14	73.94
336.369	91.94
336.597	69.94
336.825	79.94
337.053	86.94
337.281	76.94
337.51	93.94
337.738	79.94
337.966	73.94
338.194	96.94
338.422	67.94
338.65	74.94
338.878	91.94
339.106	66.94
339.334	82.94
339.562	87.94
339.79	83.94
340.018	76.94
340.246	84.94
340.474	88.94
340.702	91.94
340.93	77.94
341.158	77.94
341.386	85.94
341.614	75.94
341.842	82.94
342.07	85.94
342.298	79.94
342.526	78.94
342.754	88.94
342.981	76.94
343.209	77.94
343.437	87.94
343.665	74.94
343.893	83.94
344.12	92.94
344.348	86.94
344.576	79.94
344.804	60.94
345.031	81.94
345.259	74.94
345.487	77.94
345.714	76.94
345.942	62.94
346.17	71.94
346.397	75.94
346.625	71.94
346.853	77.94
347.08	77.94
347.308	83.94
347.535	78.94
347.763	68.94
347.99	79.94
348.218	90.94
348.445	84.94
348.673	77.94
348.9	79.94
349.128	98.94
349.355	90.94
349.583	78.94
349.81	74.94
350.037	73.94
350.265	62.94
350.492	73.94
350.72	84.94
350.947	78.94
351.174	79.94
351.402	78.94
351.629	63.94
351.856	86.94
352.083	85.94
352.311	76.94
352.538	87.94
352.765	94.94
352.992	87.94
353.22	87.94
353.447	89.94
353.674	90.94
353.901	91.94
354.128	74.94
354.355	51.94
354.583	72.94
354.81	91.94
355.037	68.94
355.264	82.94
355.491	82.94
355.718	86.94
355.945	64.94
356.172	79.94
356.399	84.94
356.626	77.94
356.853	85.94
357.08	81.94
357.307	84.94
357.534	85.94
357.761	76.94
357.988	84.94
358.215	70.94
358.441	85.94
358.668	68.94
358.895	74.94
359.122	82.94
359.349	68.94
359.576	70.94
359.802	71.94
360.029	70.94
360.256	81.94
360.483	77.94
360.709	73.94
360.936	81.94
361.163	86.94
361.39	89.94
361.616	89.94
361.843	82.94
362.07	82.94
362.296	81.94
362.523	86.94
362.749	84.94
362.976	76.94
363.203	84.94
363.429	72.94
363.656	82.94
363.882	84.94
364.109	88.94
364.335	74.94
364.562	75.94
364.788	82.94
365.015	80.94
365.241	79.94
365.468	86.94
365.694	80.94
365.92	82.94
366.147	79.94
366.373	88.94
366.599	90.94
366.826	86.94
367.052	90.94
367.278	85.94
367.505	76.94
367.731	84.94
367.957	77.94
368.184	80.94
368.41	80.94
368.636	75.94
368.862	73.94
369.089	86.94
369.315	74.94
369.541	63.94
369.767	86.94
369.993	72.94
370.219	70.94
370.445	90.94
370.672	73.94
370.898	80.94
371.124	84.94
371.35	80.94
371.576	80.94
371.802	62.94
372.028	86.94
372.254	72.94
372.48	79.94
372.706	76.94
372.932	71.94
373.158	86.94
373.384	83.94
373.61	87.94
373.835	75.94
374.061	76.94
374.287	89.94
374.513	73.94
374.739	68.94
374.965	86.94
375.191	83.94
375.416	72.94
375.642	88.94
375.868	85.94
376.094	72.94
376.319	85.94
376.545	75.94
376.771	72.94
376.997	71.94
377.222	84.94
377.448	78.94
377.674	78.94
377.899	78.94
378.125	72.94
378.35	63.94
378.576	67.94
378.802	77.94
379.027	70.94
379.253	85.94
379.478	73.94
379.704	68.94
379.929	83.94
380.155	81.94
380.38	81.94
380.606	81.94
380.831	81.94
381.057	96.94
381.282	81.94
381.507	75.94
381.733	95.94
381.958	85.94
382.184	85.94
382.409	83.94
382.634	73.94
382.86	73.94
383.085	74.94
383.31	74.94
383.535	85.94
383.761	80.94
383.986	69.94
384.211	88.94
384.436	74.94
384.662	76.94
384.887	83.94
385.112	85.94
385.337	75.94
385.562	74.94
385.787	83.94
386.013	83.94
386.238	59.94
386.463	76.94
386.688	83.94
386.913	76.94
387.138	76.94
387.363	73.94
387.588	83.94
387.813	91.94
388.038	94.94
388.263	72.94
388.488	81.94
388.713	75.94
388.938	72.94
389.163	80.94
389.387	83.94
389.612	76.94
389.837	76.94
390.062	68.94
390.287	72.94
390.512	91.94
390.736	83.94
390.961	73.94
391.186	88.94
391.411	79.94
391.636	72.94
391.86	89.94
392.085	81.94
392.31	78.94
392.534	83.94
392.759	86.94
392.984	74.94
393.208	83.94
393.433	78.94
393.658	77.94
393.882	69.94
394.107	82.94
394.331	74.94
394.556	88.94
394.78	80.94
395.005	84.94
395.229	78.94
395.454	86.94
395.678	73.94
395.903	83.94
396.127	85.94
396.352	94.94
396.576	73.94
396.801	80.94
397.025	74.94
397.249	84.94
397.474	84.94
397.698	91.94
397.922	68.94
398.147	88.94
398.371	78.94
398.595	86.94
398.82	76.94
399.044	71.94
399.268	65.94
399.492	92.94
399.717	72.94
399.941	81.94
400.165	78.94
400.389	78.94
400.613	64.94
400.837	75.94
401.062	67.94
401.286	77.94
401.51	79.94
401.734	91.94
401.958	80.94
402.182	82.94
402.406	83.94
402.63	76.94
402.854	74.94
403.078	84.94
403.302	80.94
403.526	79.94
403.75	67.94
403.974	56.94
404.198	77.94
404.422	74.94
404.645	63.94
404.869	74.94
405.093	72.94
405.317	79.94
405.541	89.94
405.765	78.94
405.988	89.94
406.212	89.94
406.436	102.94
406.66	73.94
406.883	84.94
407.107	81.94
407.331	100.94
407.555	76.94
407.778	78.94
408.002	88.94
408.226	76.94
408.449	86.94
408.673	68.94
408.896	64.94
409.12	76.94
409.344	75.94
409.567	77.94
409.791	74.94
410.014	74.94
410.238	81.94
410.461	74.94
410.685	68.94
410.908	73.94
411.132	71.94
411.355	84.94
411.578	70.94
411.802	86.94
412.025	69.94
412.249	75.94
412.472	62.94
412.695	80.94
412.919	72.94
413.142	83.94
413.365	86.94
413.589	79.94
413.812	83.94
414.035	86.94
414.258	72.94
414.482	78.94
414.705	77.94
414.928	86.94
415.151	71.94
415.374	78.94
415.597	66.94
415.821	69.94
416.044	83.94
416.267	84.94
416.49	77.94
416.713	78.94
416.936	72.94
417.159	74.94
417.382	85.94
417.605	75.94
417.828	94.94
418.051	78.94
418.274	85.94
418.497	81.94
418.72	86.94
418.943	78.94
419.166	78.94
419.389	85.94
419.611	77.94
419.834	74.94
420.057	80.94
420.28	74.94
420.503	75.94
420.726	72.94
420.948	76.94
421.171	78.94
421.394	78.94
421.617	73.94
421.839	78.94
422.062	76.94
422.285	70.94
422.507	73.94
422.73	79.94
422.953	89.94
423.175	82.94
423.398	85.94
423.621	70.94
423.843	86.94
424.066	84.94
424.288	76.94
424.511	85.94
424.733	76.94
424.956	83.94
425.178	77.94
425.401	78.94
425.623	89.94
425.846	77.94
426.068	58.94
426.291	64.94
426.513	75.94
426.735	88.94
426.958	83.94
427.18	77.94
427.402	78.94
427.625	84.94
427.847	79.94
428.069	80.94
428.292	72.94
428.514	93.94
428.736	76.94
428.958	71.94
429.181	87.94
429.403	69.94
429.625	80.94
429.847	83.94
430.069	82.94
430.292	79.94
430.514	78.94
430.736	61.94
430.958	70.94
431.18	67.94
431.402	60.94
431.624	78.94
431.846	90.94
432.068	81.94
432.29	67.94
432.512	90.94
432.734	88.94
432.956	87.94
433.178	89.94
433.4	91.94
433.622	78.94
433.844	78.94
434.066	86.94
434.287	79.94
434.509	82.94
434.731	75.94
434.953	87.94
435.175	69.94
435.397	85.94
435.618	89.94
435.84	86.94
436.062	78.94
436.284	82.94
436.505	72.94
436.727	67.94
436.949	75.94
437.17	93.94
437.392	74.94
437.614	82.94
437.835	73.94
438.057	70.94
438.278	86.94
438.5	74.94
438.721	78.94
438.943	77.94
439.165	74.94
439.386	94.94
439.608	82.94
439.829	75.94
440.05	81.94
440.272	76.94
440.493	72.94
440.715	78.94
440.936	74.94
441.158	75.94
441.379	84.94
441.6	76.94
441.822	85.94
442.043	73.94
442.264	69.94
442.486	78.94
442.707	62.94
442.928	76.94
443.149	73.94
443.371	90.94
443.592	80.94
443.813	77.94
444.034	74.94
444.255	70.94
444.476	73.94
444.698	92.94
444.919	76.94
445.14	144.94
445.361	110.94
445.582	80.94
445.803	73.94
446.024	73.94
446.245	66.94
446.466	57.94
446.687	58.94
446.908	75.94
447.129	65.94
447.35	76.94
447.571	78.94
447.792	77.94
448.013	80.94
448.234	71.94
448.455	81.94
448.675	72.94
448.896	75.94
449.117	73.94
449.338	63.94
449.559	82.94
449.779	81.94
450	71.94
450.221	58.94
450.442	89.94
450.662	75.94
450.883	65.94
451.104	78.94
451.324	70.94
451.545	76.94
451.766	72.94
451.986	71.94
452.207	69.94
452.428	86.94
452.648	81.94
452.869	85.94
453.089	92.94
453.31	70.94
453.53	81.94
453.751	83.94
453.971	78.94
454.192	69.94
454.412	84.94
454.633	74.94
454.853	89.94
455.073	62.94
455.294	92.94
455.514	77.94
455.734	80.94
455.955	82.94
456.175	84.94
456.395	65.94
456.616	78.94
456.836	80.94
457.056	76.94
457.276	72.94
457.497	75.94
457.717	68.94
457.937	72.94
458.157	72.94
458.377	77.94
458.598	78.94
458.818	77.94
459.038	80.94
459.258	77.94
459.478	86.94
459.698	82.94
459.918	62.94
460.138	78.94
460.358	72.94
460.578	74.94
460.798	85.94
461.018	80.94
461.238	66.94
461.458	81.94
461.678	74.94
461.898	68.94
462.118	88.94
462.338	74.94
462.558	73.94
462.777	73.94
462.997	76.94
463.217	78.94
463.437	67.94
463.657	76.94
463.876	68.94
464.096	63.94
464.316	77.94
464.536	97.94
464.755	81.94
464.975	79.94
465.195	73.94
465.414	79.94
465.634	77.94
465.854	85.94
466.073	86.94
466.293	84.94
466.512	81.94
466.732	80.94
466.951	64.94
467.171	100.94
467.391	75.94
467.61	72.94
467.829	72.94
468.049	80.94
468.268	84.94
468.488	85.94
468.707	74.94
468.927	68.94
469.146	78.94
469.365	66.94
469.585	82.94
469.804	70.94
470.023	100.94
470.243	82.94
470.462	84.94
470.681	82.94
470.901	93.94
471.12	80.94
471.339	88.94
471.558	72.94
471.777	82.94
471.997	80.94
472.216	80.94
472.435	70.94
472.654	87.94
472.873	84.94
473.092	68.94
473.311	62.94
473.53	84.94
473.749	72.94
473.968	74.94
474.187	74.94
474.406	85.94
474.625	85.94
474.844	81.94
475.063	75.94
475.282	77.94
475.501	69.94
475.72	73.94
475.939	69.94
476.158	89.94
476.377	81.94
476.596	76.94
476.814	83.94
477.033	82.94
477.252	92.94
477.471	70.94
477.69	80.94
477.908	75.94
478.127	82.94
478.346	78.94
478.564	81.94
478.783	77.94
479.002	88.94
479.22	85.94
479.439	72.94
479.658	71.94
479.876	68.94
480.095	64.94
480.313	84.94
480.532	78.94
480.751	72.94
480.969	80.94
481.188	86.94
481.406	79.94
481.624	82.94
481.843	80.94
482.061	90.94
482.28	88.94
482.498	84.94
482.717	86.94
482.935	79.94
483.153	68.94
483.372	77.94
483.59	78.94
483.808	74.94
484.027	73.94
484.245	77.94
484.463	77.94
484.681	63.94
484.9	78.94
485.118	88.94
485.336	82.94
485.554	75.94
485.772	85.94
485.99	70.94
486.209	79.94
486.427	85.94
486.645	68.94
486.863	77.94
487.081	83.94
487.299	60.94
487.517	102.94
487.735	67.94
487.953	66.94
488.171	85.94
488.389	76.94
488.607	71.94
488.825	69.94
489.043	75.94
489.261	82.94
489.479	68.94
489.696	69.94
489.914	80.94
490.132	73.94
490.35	80.94
490.568	88.94
490.786	77.94
491.003	82.94
491.221	67.94
491.439	80.94
491.657	69.94
491.874	78.94
492.092	90.94
492.31	83.94
492.527	74.94
492.745	82.94
492.963	78.94
493.18	74.94
493.398	73.94
493.615	77.94
493.833	77.94
494.05	77.94
494.268	88.94
494.485	82.94
494.703	78.94
494.92	74.94
495.138	68.94
495.355	89.94
495.573	69.94
495.79	81.94
496.008	94.94
496.225	73.94
496.442	76.94
496.66	101.94
496.877	83.94
497.094	81.94
497.312	83.94
497.529	77.94
497.746	82.94
497.963	82.94
498.181	91.94
498.398	72.94
498.615	74.94
498.832	75.94
499.049	70.94
499.267	86.94
499.484	67.94
499.701	85.94
499.918	83.94
500.135	80.94
500.352	77.94
500.569	77.94
500.786	82.94
501.003	85.94
501.22	81.94
501.437	81.94
501.654	72.94
501.871	74.94
502.088	77.94
502.305	90.94
502.522	69.94
502.739	76.94
502.956	70.94
503.172	92.94
503.389	80.94
503.606	66.94
503.823	78.94
504.04	84.94
504.256	93.94
504.473	78.94
504.69	78.94
504.907	81.94
505.123	78.94
505.34	76.94
505.557	92.94
505.773	75.94
505.99	68.94
506.207	76.94
506.423	86.94
506.64	68.94
506.856	88.94
507.073	72.94
507.289	69.94
507.506	90.94
507.722	71.94
507.939	97.94
508.155	82.94
508.372	71.94
508.588	80.94
508.805	89.94
509.021	80.94
509.238	77.94
509.454	75.94
509.67	77.94
509.887	81.94
510.103	69.94
510.319	76.94
510.536	75.94
510.752	74.94
510.968	76.94
511.184	84.94
511.401	68.94
511.617	75.94
511.833	86.94
512.049	82.94
512.265	68.94
512.481	84.94
512.698	94.94
512.914	82.94
513.13	83.94
513.346	87.94
513.562	81.94
513.778	73.94
513.994	95.94
514.21	70.94
514.426	72.94
514.642	66.94
514.858	83.94
515.074	94.94
515.29	84.94
515.506	73.94
515.721	81.94
515.937	69.94
516.153	78.94
516.369	75.94
516.585	74.94
516.801	73.94
517.016	82.94
517.232	75.94
517.448	69.94
517.664	75.94
517.879	69.94
518.095	74.94
518.311	74.94
518.527	73.94
518.742	78.94
518.958	84.94
519.173	67.94
519.389	90.94
519.605	88.94
519.82	73.94
520.036	76.94
520.251	96.94
