Data from BG_HRD10591_031.txt Node
Date: Fri May 16 15:27:02 EDT 2025
User: Yrep
Spectrometer: HR+D1059
Trigger mode: 1
Integration Time (sec): 1.000000E-1
Scans to average: 1
Electric dark correction enabled: true
Nonlinearity correction enabled: false
Boxcar width: 0
XAxis mode: Wavelengths
Number of Pixels in Spectrum: 2048
>>>>>Begin Spectral Data<<<<<
223.165	-9.19
223.4	-9.19
223.635	-9.19
223.869	-9.19
224.104	-15.19
224.338	-11.19
224.573	-33.19
224.808	-25.19
225.042	-8.19
225.277	-14.19
225.511	5.81
225.746	2.81
225.98	14.81
226.215	22.81
226.449	8.81
226.683	11.81
226.918	22.81
227.152	35.81
227.387	31.81
227.621	49.81
227.856	36.81
228.09	50.81
228.324	48.81
228.559	54.81
228.793	52.81
229.027	73.81
229.262	61.81
229.496	55.81
229.73	66.81
229.964	82.81
230.199	74.81
230.433	71.81
230.667	73.81
230.901	75.81
231.136	69.81
231.37	75.81
231.604	78.81
231.838	72.81
232.072	76.81
232.306	72.81
232.541	83.81
232.775	88.81
233.009	90.81
233.243	70.81
233.477	82.81
233.711	70.81
233.945	78.81
234.179	89.81
234.413	83.81
234.647	72.81
234.881	76.81
235.115	86.81
235.349	77.81
235.583	71.81
235.817	68.81
236.051	74.81
236.285	73.81
236.519	88.81
236.753	72.81
236.987	68.81
237.221	69.81
237.455	68.81
237.689	76.81
237.922	68.81
238.156	73.81
238.39	73.81
238.624	70.81
238.858	77.81
239.091	65.81
239.325	61.81
239.559	74.81
239.793	78.81
240.027	76.81
240.26	63.81
240.494	82.81
240.728	72.81
240.961	67.81
241.195	74.81
241.429	76.81
241.662	72.81
241.896	91.81
242.13	80.81
242.363	74.81
242.597	81.81
242.83	84.81
243.064	82.81
243.298	91.81
243.531	77.81
243.765	77.81
243.998	72.81
244.232	86.81
244.465	76.81
244.699	75.81
244.932	72.81
245.166	92.81
245.399	68.81
245.633	77.81
245.866	80.81
246.099	74.81
246.333	82.81
246.566	85.81
246.8	72.81
247.033	90.81
247.266	62.81
247.5	74.81
247.733	78.81
247.966	70.81
248.2	73.81
248.433	76.81
248.666	69.81
248.899	88.81
249.133	74.81
249.366	65.81
249.599	82.81
249.832	75.81
250.066	78.81
250.299	79.81
250.532	90.81
250.765	86.81
250.998	73.81
251.231	78.81
251.465	73.81
251.698	63.81
251.931	86.81
252.164	82.81
252.397	83.81
252.63	75.81
252.863	72.81
253.096	75.81
253.329	74.81
253.562	63.81
253.795	76.81
254.028	75.81
254.261	77.81
254.494	70.81
254.727	76.81
254.96	74.81
255.193	89.81
255.426	92.81
255.659	76.81
255.892	84.81
256.124	81.81
256.357	82.81
256.59	69.81
256.823	77.81
257.056	71.81
257.289	87.81
257.521	76.81
257.754	74.81
257.987	78.81
258.22	91.81
258.452	76.81
258.685	82.81
258.918	69.81
259.151	69.81
259.383	82.81
259.616	86.81
259.849	76.81
260.081	72.81
260.314	82.81
260.547	79.81
260.779	64.81
261.012	81.81
261.244	93.81
261.477	79.81
261.71	74.81
261.942	88.81
262.175	90.81
262.407	82.81
262.64	77.81
262.872	80.81
263.105	74.81
263.337	78.81
263.57	82.81
263.802	80.81
264.035	85.81
264.267	78.81
264.499	77.81
264.732	84.81
264.964	76.81
265.197	71.81
265.429	60.81
265.661	85.81
265.894	79.81
266.126	80.81
266.358	84.81
266.591	82.81
266.823	90.81
267.055	81.81
267.287	75.81
267.52	71.81
267.752	78.81
267.984	94.81
268.216	98.81
268.448	80.81
268.681	72.81
268.913	83.81
269.145	70.81
269.377	87.81
269.609	70.81
269.841	80.81
270.073	77.81
270.306	80.81
270.538	83.81
270.77	77.81
271.002	82.81
271.234	64.81
271.466	80.81
271.698	87.81
271.93	70.81
272.162	85.81
272.394	83.81
272.626	79.81
272.858	74.81
273.09	88.81
273.322	86.81
273.553	69.81
273.785	88.81
274.017	85.81
274.249	79.81
274.481	89.81
274.713	73.81
274.945	82.81
275.176	79.81
275.408	85.81
275.64	80.81
275.872	68.81
276.104	90.81
276.335	84.81
276.567	83.81
276.799	86.81
277.031	92.81
277.262	88.81
277.494	88.81
277.726	86.81
277.957	71.81
278.189	88.81
278.421	67.81
278.652	69.81
278.884	87.81
279.115	93.81
279.347	86.81
279.579	93.81
279.81	84.81
280.042	83.81
280.273	77.81
280.505	85.81
280.736	72.81
280.968	90.81
281.199	90.81
281.431	83.81
281.662	75.81
281.894	77.81
282.125	91.81
282.356	80.81
282.588	84.81
282.819	89.81
283.051	71.81
283.282	92.81
283.513	93.81
283.745	80.81
283.976	76.81
284.207	84.81
284.439	94.81
284.67	92.81
284.901	86.81
285.132	78.81
285.364	85.81
285.595	82.81
285.826	74.81
286.057	86.81
286.288	64.81
286.52	88.81
286.751	89.81
286.982	73.81
287.213	81.81
287.444	76.81
287.675	83.81
287.906	84.81
288.138	87.81
288.369	73.81
288.6	84.81
288.831	80.81
289.062	82.81
289.293	72.81
289.524	86.81
289.755	82.81
289.986	90.81
290.217	92.81
290.448	91.81
290.679	80.81
290.91	90.81
291.141	87.81
291.371	80.81
291.602	77.81
291.833	74.81
292.064	82.81
292.295	88.81
292.526	103.81
292.757	79.81
292.987	82.81
293.218	90.81
293.449	79.81
293.68	65.81
293.91	76.81
294.141	76.81
294.372	78.81
294.603	85.81
294.833	78.81
295.064	83.81
295.295	95.81
295.525	80.81
295.756	89.81
295.987	74.81
296.217	87.81
296.448	78.81
296.679	85.81
296.909	74.81
297.14	87.81
297.37	86.81
297.601	79.81
297.831	93.81
298.062	88.81
298.292	74.81
298.523	90.81
298.753	82.81
298.984	87.81
299.214	89.81
299.445	85.81
299.675	95.81
299.905	83.81
300.136	79.81
300.366	98.81
300.597	72.81
300.827	74.81
301.057	71.81
301.288	83.81
301.518	77.81
301.748	86.81
301.979	96.81
302.209	74.81
302.439	95.81
302.669	84.81
302.9	78.81
303.13	77.81
303.36	82.81
303.59	91.81
303.82	86.81
304.051	98.81
304.281	90.81
304.511	94.81
304.741	75.81
304.971	79.81
305.201	92.81
305.431	78.81
305.661	85.81
305.891	87.81
306.121	96.81
306.352	76.81
306.582	74.81
306.812	81.81
307.042	86.81
307.272	82.81
307.502	87.81
307.731	86.81
307.961	78.81
308.191	83.81
308.421	98.81
308.651	78.81
308.881	93.81
309.111	85.81
309.341	65.81
309.571	78.81
309.8	90.81
310.03	89.81
310.26	91.81
310.49	90.81
310.72	76.81
310.949	75.81
311.179	84.81
311.409	81.81
311.639	81.81
311.868	89.81
312.098	95.81
312.328	84.81
312.557	87.81
312.787	85.81
313.017	73.81
313.246	71.81
313.476	83.81
313.706	72.81
313.935	84.81
314.165	91.81
314.394	75.81
314.624	83.81
314.853	86.81
315.083	91.81
315.312	73.81
315.542	88.81
315.771	84.81
316.001	75.81
316.23	78.81
316.46	83.81
316.689	84.81
316.919	88.81
317.148	85.81
317.377	77.81
317.607	79.81
317.836	83.81
318.065	77.81
318.295	84.81
318.524	94.81
318.753	70.81
318.983	83.81
319.212	91.81
319.441	100.81
319.67	76.81
319.9	85.81
320.129	86.81
320.358	85.81
320.587	87.81
320.816	92.81
321.046	79.81
321.275	86.81
321.504	81.81
321.733	79.81
321.962	84.81
322.191	78.81
322.42	79.81
322.649	85.81
322.878	86.81
323.108	78.81
323.337	75.81
323.566	79.81
323.795	89.81
324.024	88.81
324.253	86.81
324.482	95.81
324.71	78.81
324.939	83.81
325.168	77.81
325.397	70.81
325.626	86.81
325.855	91.81
326.084	86.81
326.313	89.81
326.542	80.81
326.77	69.81
326.999	75.81
327.228	83.81
327.457	82.81
327.686	78.81
327.914	85.81
328.143	84.81
328.372	94.81
328.6	77.81
328.829	105.81
329.058	89.81
329.287	86.81
329.515	78.81
329.744	75.81
329.972	88.81
330.201	115.81
330.43	95.81
330.658	90.81
330.887	92.81
331.115	89.81
331.344	86.81
331.572	95.81
331.801	88.81
332.03	84.81
332.258	94.81
332.486	84.81
332.715	75.81
332.943	78.81
333.172	84.81
333.4	84.81
333.629	80.81
333.857	87.81
334.085	83.81
334.314	87.81
334.542	86.81
334.771	84.81
334.999	83.81
335.227	86.81
335.455	85.81
335.684	86.81
335.912	84.81
336.14	87.81
336.369	72.81
336.597	87.81
336.825	88.81
337.053	81.81
337.281	89.81
337.51	71.81
337.738	63.81
337.966	78.81
338.194	98.81
338.422	69.81
338.65	102.81
338.878	95.81
339.106	79.81
339.334	84.81
339.562	88.81
339.79	100.81
340.018	79.81
340.246	76.81
340.474	88.81
340.702	93.81
340.93	83.81
341.158	97.81
341.386	87.81
341.614	86.81
341.842	66.81
342.07	91.81
342.298	79.81
342.526	94.81
342.754	94.81
342.981	87.81
343.209	76.81
343.437	90.81
343.665	83.81
343.893	72.81
344.12	82.81
344.348	91.81
344.576	81.81
344.804	86.81
345.031	84.81
345.259	79.81
345.487	90.81
345.714	74.81
345.942	95.81
346.17	84.81
346.397	77.81
346.625	86.81
346.853	84.81
347.08	75.81
347.308	71.81
347.535	73.81
347.763	92.81
347.99	81.81
348.218	81.81
348.445	86.81
348.673	78.81
348.9	83.81
349.128	95.81
349.355	91.81
349.583	83.81
349.81	77.81
350.037	98.81
350.265	84.81
350.492	78.81
350.72	84.81
350.947	84.81
351.174	79.81
351.402	91.81
351.629	94.81
351.856	83.81
352.083	81.81
352.311	89.81
352.538	98.81
352.765	83.81
352.992	71.81
353.22	88.81
353.447	79.81
353.674	88.81
353.901	88.81
354.128	79.81
354.355	83.81
354.583	88.81
354.81	94.81
355.037	82.81
355.264	75.81
355.491	84.81
355.718	78.81
355.945	81.81
356.172	82.81
356.399	101.81
356.626	87.81
356.853	98.81
357.08	96.81
357.307	90.81
357.534	86.81
357.761	79.81
357.988	91.81
358.215	92.81
358.441	80.81
358.668	89.81
358.895	81.81
359.122	79.81
359.349	83.81
359.576	74.81
359.802	77.81
360.029	77.81
360.256	94.81
360.483	83.81
360.709	78.81
360.936	78.81
361.163	98.81
361.39	78.81
361.616	80.81
361.843	95.81
362.07	81.81
362.296	77.81
362.523	77.81
362.749	83.81
362.976	86.81
363.203	86.81
363.429	84.81
363.656	64.81
363.882	82.81
364.109	84.81
364.335	93.81
364.562	94.81
364.788	86.81
365.015	65.81
365.241	78.81
365.468	84.81
365.694	84.81
365.92	78.81
366.147	94.81
366.373	82.81
366.599	95.81
366.826	85.81
367.052	79.81
367.278	67.81
367.505	79.81
367.731	83.81
367.957	88.81
368.184	75.81
368.41	70.81
368.636	89.81
368.862	93.81
369.089	82.81
369.315	94.81
369.541	77.81
369.767	64.81
369.993	88.81
370.219	93.81
370.445	60.81
370.672	86.81
370.898	82.81
371.124	85.81
371.35	72.81
371.576	87.81
371.802	75.81
372.028	78.81
372.254	91.81
372.48	95.81
372.706	77.81
372.932	84.81
373.158	89.81
373.384	83.81
373.61	76.81
373.835	80.81
374.061	88.81
374.287	93.81
374.513	83.81
374.739	72.81
374.965	90.81
375.191	64.81
375.416	80.81
375.642	79.81
375.868	87.81
376.094	66.81
376.319	79.81
376.545	98.81
376.771	87.81
376.997	93.81
377.222	72.81
377.448	91.81
377.674	73.81
377.899	83.81
378.125	64.81
378.35	69.81
378.576	83.81
378.802	91.81
379.027	83.81
379.253	91.81
379.478	90.81
379.704	82.81
379.929	85.81
380.155	90.81
380.38	89.81
380.606	86.81
380.831	76.81
381.057	87.81
381.282	93.81
381.507	93.81
381.733	102.81
381.958	77.81
382.184	70.81
382.409	87.81
382.634	92.81
382.86	84.81
383.085	92.81
383.31	75.81
383.535	81.81
383.761	88.81
383.986	70.81
384.211	84.81
384.436	86.81
384.662	97.81
384.887	90.81
385.112	92.81
385.337	80.81
385.562	92.81
385.787	71.81
386.013	86.81
386.238	64.81
386.463	90.81
386.688	80.81
386.913	71.81
387.138	73.81
387.363	86.81
387.588	87.81
387.813	84.81
388.038	95.81
388.263	91.81
388.488	90.81
388.713	83.81
388.938	77.81
389.163	76.81
389.387	78.81
389.612	75.81
389.837	92.81
390.062	78.81
390.287	92.81
390.512	91.81
390.736	90.81
390.961	81.81
391.186	81.81
391.411	82.81
391.636	75.81
391.86	72.81
392.085	79.81
392.31	71.81
392.534	83.81
392.759	92.81
392.984	73.81
393.208	77.81
393.433	66.81
393.658	76.81
393.882	90.81
394.107	93.81
394.331	78.81
394.556	91.81
394.78	76.81
395.005	67.81
395.229	76.81
395.454	84.81
395.678	78.81
395.903	100.81
396.127	85.81
396.352	81.81
396.576	89.81
396.801	82.81
397.025	85.81
397.249	84.81
397.474	89.81
397.698	84.81
397.922	98.81
398.147	76.81
398.371	90.81
398.595	90.81
398.82	84.81
399.044	82.81
399.268	89.81
399.492	93.81
399.717	92.81
399.941	87.81
400.165	77.81
400.389	88.81
400.613	92.81
400.837	85.81
401.062	86.81
401.286	98.81
401.51	87.81
401.734	82.81
401.958	81.81
402.182	91.81
402.406	91.81
402.63	84.81
402.854	97.81
403.078	76.81
403.302	83.81
403.526	86.81
403.75	82.81
403.974	86.81
404.198	102.81
404.422	96.81
404.645	82.81
404.869	94.81
405.093	84.81
405.317	76.81
405.541	72.81
405.765	80.81
405.988	95.81
406.212	82.81
406.436	66.81
406.66	97.81
406.883	78.81
407.107	89.81
407.331	71.81
407.555	92.81
407.778	98.81
408.002	88.81
408.226	74.81
408.449	76.81
408.673	74.81
408.896	83.81
409.12	77.81
409.344	93.81
409.567	70.81
409.791	82.81
410.014	84.81
410.238	87.81
410.461	82.81
410.685	74.81
410.908	85.81
411.132	93.81
411.355	83.81
411.578	92.81
411.802	86.81
412.025	87.81
412.249	76.81
412.472	91.81
412.695	82.81
412.919	78.81
413.142	82.81
413.365	72.81
413.589	86.81
413.812	76.81
414.035	95.81
414.258	82.81
414.482	74.81
414.705	79.81
414.928	85.81
415.151	85.81
415.374	91.81
415.597	83.81
415.821	87.81
416.044	84.81
416.267	98.81
416.49	79.81
416.713	81.81
416.936	83.81
417.159	77.81
417.382	82.81
417.605	91.81
417.828	90.81
418.051	78.81
418.274	78.81
418.497	96.81
418.72	85.81
418.943	90.81
419.166	101.81
419.389	94.81
419.611	95.81
419.834	79.81
420.057	88.81
420.28	77.81
420.503	87.81
420.726	83.81
420.948	90.81
421.171	86.81
421.394	76.81
421.617	84.81
421.839	77.81
422.062	82.81
422.285	74.81
422.507	69.81
422.73	94.81
422.953	77.81
423.175	82.81
423.398	77.81
423.621	99.81
423.843	88.81
424.066	85.81
424.288	82.81
424.511	79.81
424.733	86.81
424.956	86.81
425.178	75.81
425.401	80.81
425.623	79.81
425.846	84.81
426.068	94.81
426.291	91.81
426.513	74.81
426.735	86.81
426.958	98.81
427.18	83.81
427.402	78.81
427.625	82.81
427.847	71.81
428.069	81.81
428.292	95.81
428.514	95.81
428.736	67.81
428.958	89.81
429.181	83.81
429.403	88.81
429.625	87.81
429.847	72.81
430.069	76.81
430.292	89.81
430.514	88.81
430.736	79.81
430.958	95.81
431.18	88.81
431.402	85.81
431.624	90.81
431.846	85.81
432.068	84.81
432.29	94.81
432.512	89.81
432.734	89.81
432.956	79.81
433.178	104.81
433.4	90.81
433.622	93.81
433.844	89.81
434.066	77.81
434.287	79.81
434.509	77.81
434.731	88.81
434.953	85.81
435.175	102.81
435.397	104.81
435.618	75.81
435.84	82.81
436.062	80.81
436.284	89.81
436.505	84.81
436.727	85.81
436.949	91.81
437.17	71.81
437.392	94.81
437.614	86.81
437.835	81.81
438.057	76.81
438.278	76.81
438.5	87.81
438.721	92.81
438.943	87.81
439.165	81.81
439.386	72.81
439.608	70.81
439.829	92.81
440.05	80.81
440.272	95.81
440.493	77.81
440.715	88.81
440.936	94.81
441.158	75.81
441.379	82.81
441.6	86.81
441.822	84.81
442.043	88.81
442.264	102.81
442.486	98.81
442.707	94.81
442.928	81.81
443.149	90.81
443.371	78.81
443.592	83.81
443.813	78.81
444.034	90.81
444.255	80.81
444.476	93.81
444.698	95.81
444.919	94.81
445.14	166.81
445.361	100.81
445.582	89.81
445.803	87.81
446.024	80.81
446.245	90.81
446.466	88.81
446.687	93.81
446.908	88.81
447.129	87.81
447.35	63.81
447.571	92.81
447.792	82.81
448.013	91.81
448.234	86.81
448.455	89.81
448.675	73.81
448.896	79.81
449.117	91.81
449.338	83.81
449.559	92.81
449.779	74.81
450	76.81
450.221	89.81
450.442	86.81
450.662	83.81
450.883	79.81
451.104	77.81
451.324	74.81
451.545	90.81
451.766	84.81
451.986	91.81
452.207	92.81
452.428	101.81
452.648	87.81
452.869	75.81
453.089	80.81
453.31	65.81
453.53	84.81
453.751	82.81
453.971	86.81
454.192	79.81
454.412	83.81
454.633	89.81
454.853	72.81
455.073	74.81
455.294	76.81
455.514	90.81
455.734	79.81
455.955	84.81
456.175	86.81
456.395	84.81
456.616	80.81
456.836	76.81
457.056	88.81
457.276	71.81
457.497	99.81
457.717	88.81
457.937	85.81
458.157	75.81
458.377	91.81
458.598	68.81
458.818	82.81
459.038	79.81
459.258	76.81
459.478	88.81
459.698	70.81
459.918	65.81
460.138	87.81
460.358	77.81
460.578	73.81
460.798	85.81
461.018	85.81
461.238	71.81
461.458	89.81
461.678	83.81
461.898	76.81
462.118	87.81
462.338	93.81
462.558	85.81
462.777	82.81
462.997	83.81
463.217	78.81
463.437	85.81
463.657	86.81
463.876	91.81
464.096	95.81
464.316	80.81
464.536	79.81
464.755	87.81
464.975	75.81
465.195	82.81
465.414	77.81
465.634	88.81
465.854	78.81
466.073	95.81
466.293	89.81
466.512	97.81
466.732	89.81
466.951	85.81
467.171	82.81
467.391	93.81
467.61	70.81
467.829	86.81
468.049	84.81
468.268	84.81
468.488	98.81
468.707	85.81
468.927	79.81
469.146	82.81
469.365	82.81
469.585	85.81
469.804	80.81
470.023	70.81
470.243	81.81
470.462	86.81
470.681	72.81
470.901	86.81
471.12	74.81
471.339	100.81
471.558	76.81
471.777	91.81
471.997	84.81
472.216	81.81
472.435	84.81
472.654	85.81
472.873	95.81
473.092	67.81
473.311	76.81
473.53	78.81
473.749	77.81
473.968	68.81
474.187	90.81
474.406	81.81
474.625	86.81
474.844	89.81
475.063	76.81
475.282	90.81
475.501	79.81
475.72	87.81
475.939	98.81
476.158	86.81
476.377	84.81
476.596	103.81
476.814	88.81
477.033	91.81
477.252	90.81
477.471	96.81
477.69	94.81
477.908	82.81
478.127	88.81
478.346	73.81
478.564	77.81
478.783	88.81
479.002	91.81
479.22	84.81
479.439	84.81
479.658	86.81
479.876	79.81
480.095	88.81
480.313	90.81
480.532	95.81
480.751	95.81
480.969	78.81
481.188	88.81
481.406	90.81
481.624	87.81
481.843	84.81
482.061	84.81
482.28	79.81
482.498	85.81
482.717	82.81
482.935	77.81
483.153	95.81
483.372	105.81
483.59	91.81
483.808	89.81
484.027	94.81
484.245	86.81
484.463	93.81
484.681	92.81
484.9	85.81
485.118	86.81
485.336	94.81
485.554	81.81
485.772	82.81
485.99	98.81
486.209	90.81
486.427	74.81
486.645	88.81
486.863	88.81
487.081	86.81
487.299	83.81
487.517	86.81
487.735	91.81
487.953	89.81
488.171	84.81
488.389	84.81
488.607	67.81
488.825	70.81
489.043	72.81
489.261	86.81
489.479	94.81
489.696	90.81
489.914	85.81
490.132	75.81
490.35	77.81
490.568	91.81
490.786	86.81
491.003	72.81
491.221	82.81
491.439	83.81
491.657	77.81
491.874	101.81
492.092	95.81
492.31	85.81
492.527	88.81
492.745	88.81
492.963	85.81
493.18	82.81
493.398	94.81
493.615	89.81
493.833	70.81
494.05	93.81
494.268	103.81
494.485	94.81
494.703	76.81
494.92	82.81
495.138	90.81
495.355	87.81
495.573	92.81
495.79	84.81
496.008	90.81
496.225	86.81
496.442	96.81
496.66	93.81
496.877	85.81
497.094	76.81
497.312	86.81
497.529	82.81
497.746	94.81
497.963	93.81
498.181	79.81
498.398	91.81
498.615	87.81
498.832	83.81
499.049	98.81
499.267	92.81
499.484	84.81
499.701	101.81
499.918	107.81
500.135	95.81
500.352	116.81
500.569	100.81
500.786	104.81
501.003	90.81
501.22	106.81
501.437	88.81
501.654	110.81
501.871	93.81
502.088	84.81
502.305	99.81
502.522	104.81
502.739	100.81
502.956	90.81
503.172	87.81
503.389	100.81
503.606	102.81
503.823	92.81
504.04	78.81
504.256	74.81
504.473	94.81
504.69	101.81
504.907	102.81
505.123	80.81
505.34	98.81
505.557	84.81
505.773	79.81
505.99	105.81
506.207	98.81
506.423	84.81
506.64	89.81
506.856	80.81
507.073	84.81
507.289	87.81
507.506	83.81
507.722	75.81
507.939	73.81
508.155	92.81
508.372	79.81
508.588	83.81
508.805	87.81
509.021	86.81
509.238	90.81
509.454	86.81
509.67	84.81
509.887	81.81
510.103	86.81
510.319	81.81
510.536	77.81
510.752	76.81
510.968	93.81
511.184	88.81
511.401	82.81
511.617	74.81
511.833	79.81
512.049	89.81
512.265	91.81
512.481	83.81
512.698	87.81
512.914	94.81
513.13	98.81
513.346	84.81
513.562	95.81
513.778	84.81
513.994	80.81
514.21	86.81
514.426	72.81
514.642	83.81
514.858	74.81
515.074	91.81
515.29	100.81
515.506	83.81
515.721	92.81
515.937	95.81
516.153	86.81
516.369	84.81
516.585	91.81
516.801	87.81
517.016	86.81
517.232	86.81
517.448	85.81
517.664	97.81
517.879	82.81
518.095	85.81
518.311	85.81
518.527	91.81
518.742	86.81
518.958	84.81
519.173	87.81
519.389	89.81
519.605	91.81
519.82	86.81
