Data from BG_HRD10591_071.txt Node
Date: Fri May 16 15:27:22 EDT 2025
User: Yrep
Spectrometer: HR+D1059
Trigger mode: 1
Integration Time (sec): 1.000000E-1
Scans to average: 1
Electric dark correction enabled: true
Nonlinearity correction enabled: false
Boxcar width: 0
XAxis mode: Wavelengths
Number of Pixels in Spectrum: 2048
>>>>>Begin Spectral Data<<<<<
223.165	-15.75
223.4	-15.75
223.635	-15.75
223.869	-20.75
224.104	-16.75
224.338	-0.75
224.573	-27.75
224.808	-4.75
225.042	-12.75
225.277	-8.75
225.511	-2.75
225.746	4.25
225.98	3.25
226.215	-1.75
226.449	25.25
226.683	13.25
226.918	32.25
227.152	34.25
227.387	45.25
227.621	43.25
227.856	48.25
228.09	49.25
228.324	58.25
228.559	69.25
228.793	55.25
229.027	60.25
229.262	65.25
229.496	64.25
229.73	68.25
229.964	71.25
230.199	77.25
230.433	74.25
230.667	81.25
230.901	75.25
231.136	87.25
231.37	66.25
231.604	88.25
231.838	72.25
232.072	88.25
232.306	81.25
232.541	88.25
232.775	87.25
233.009	83.25
233.243	88.25
233.477	78.25
233.711	82.25
233.945	90.25
234.179	87.25
234.413	94.25
234.647	86.25
234.881	82.25
235.115	73.25
235.349	89.25
235.583	76.25
235.817	74.25
236.051	85.25
236.285	90.25
236.519	85.25
236.753	81.25
236.987	79.25
237.221	85.25
237.455	74.25
237.689	73.25
237.922	91.25
238.156	77.25
238.39	87.25
238.624	80.25
238.858	88.25
239.091	75.25
239.325	62.25
239.559	64.25
239.793	71.25
240.027	84.25
240.26	81.25
240.494	81.25
240.728	82.25
240.961	82.25
241.195	89.25
241.429	85.25
241.662	77.25
241.896	73.25
242.13	81.25
242.363	90.25
242.597	80.25
242.83	84.25
243.064	85.25
243.298	86.25
243.531	74.25
243.765	80.25
243.998	77.25
244.232	83.25
244.465	77.25
244.699	81.25
244.932	90.25
245.166	75.25
245.399	88.25
245.633	83.25
245.866	79.25
246.099	83.25
246.333	89.25
246.566	93.25
246.8	79.25
247.033	78.25
247.266	67.25
247.5	81.25
247.733	84.25
247.966	90.25
248.2	78.25
248.433	80.25
248.666	86.25
248.899	85.25
249.133	84.25
249.366	104.25
249.599	80.25
249.832	87.25
250.066	88.25
250.299	88.25
250.532	89.25
250.765	89.25
250.998	89.25
251.231	89.25
251.465	88.25
251.698	96.25
251.931	81.25
252.164	83.25
252.397	75.25
252.63	88.25
252.863	84.25
253.096	84.25
253.329	72.25
253.562	71.25
253.795	89.25
254.028	84.25
254.261	80.25
254.494	74.25
254.727	79.25
254.96	77.25
255.193	94.25
255.426	95.25
255.659	87.25
255.892	69.25
256.124	84.25
256.357	76.25
256.59	85.25
256.823	76.25
257.056	78.25
257.289	79.25
257.521	73.25
257.754	86.25
257.987	93.25
258.22	77.25
258.452	77.25
258.685	92.25
258.918	87.25
259.151	78.25
259.383	89.25
259.616	82.25
259.849	89.25
260.081	73.25
260.314	94.25
260.547	71.25
260.779	76.25
261.012	67.25
261.244	84.25
261.477	89.25
261.71	77.25
261.942	71.25
262.175	80.25
262.407	88.25
262.64	89.25
262.872	79.25
263.105	90.25
263.337	81.25
263.57	92.25
263.802	98.25
264.035	75.25
264.267	86.25
264.499	68.25
264.732	77.25
264.964	89.25
265.197	91.25
265.429	84.25
265.661	81.25
265.894	91.25
266.126	93.25
266.358	80.25
266.591	90.25
266.823	75.25
267.055	95.25
267.287	80.25
267.52	81.25
267.752	83.25
267.984	75.25
268.216	90.25
268.448	85.25
268.681	87.25
268.913	95.25
269.145	77.25
269.377	88.25
269.609	100.25
269.841	85.25
270.073	79.25
270.306	86.25
270.538	79.25
270.77	78.25
271.002	89.25
271.234	86.25
271.466	81.25
271.698	82.25
271.93	107.25
272.162	95.25
272.394	83.25
272.626	80.25
272.858	81.25
273.09	97.25
273.322	91.25
273.553	80.25
273.785	77.25
274.017	91.25
274.249	93.25
274.481	86.25
274.713	79.25
274.945	90.25
275.176	81.25
275.408	80.25
275.64	80.25
275.872	93.25
276.104	92.25
276.335	85.25
276.567	91.25
276.799	83.25
277.031	98.25
277.262	81.25
277.494	93.25
277.726	89.25
277.957	81.25
278.189	84.25
278.421	75.25
278.652	78.25
278.884	87.25
279.115	83.25
279.347	98.25
279.579	85.25
279.81	87.25
280.042	96.25
280.273	77.25
280.505	100.25
280.736	92.25
280.968	82.25
281.199	92.25
281.431	88.25
281.662	75.25
281.894	86.25
282.125	89.25
282.356	90.25
282.588	89.25
282.819	89.25
283.051	95.25
283.282	92.25
283.513	83.25
283.745	96.25
283.976	89.25
284.207	84.25
284.439	86.25
284.67	105.25
284.901	89.25
285.132	83.25
285.364	87.25
285.595	91.25
285.826	86.25
286.057	76.25
286.288	84.25
286.52	89.25
286.751	83.25
286.982	89.25
287.213	92.25
287.444	95.25
287.675	87.25
287.906	72.25
288.138	84.25
288.369	93.25
288.6	96.25
288.831	85.25
289.062	93.25
289.293	95.25
289.524	93.25
289.755	94.25
289.986	92.25
290.217	84.25
290.448	80.25
290.679	86.25
290.91	79.25
291.141	85.25
291.371	82.25
291.602	97.25
291.833	89.25
292.064	75.25
292.295	90.25
292.526	84.25
292.757	91.25
292.987	93.25
293.218	85.25
293.449	75.25
293.68	87.25
293.91	84.25
294.141	107.25
294.372	93.25
294.603	88.25
294.833	91.25
295.064	83.25
295.295	85.25
295.525	81.25
295.756	85.25
295.987	78.25
296.217	89.25
296.448	92.25
296.679	89.25
296.909	82.25
297.14	90.25
297.37	101.25
297.601	91.25
297.831	88.25
298.062	95.25
298.292	83.25
298.523	93.25
298.753	98.25
298.984	78.25
299.214	91.25
299.445	87.25
299.675	97.25
299.905	85.25
300.136	109.25
300.366	87.25
300.597	92.25
300.827	89.25
301.057	88.25
301.288	93.25
301.518	92.25
301.748	65.25
301.979	107.25
302.209	88.25
302.439	96.25
302.669	94.25
302.9	85.25
303.13	77.25
303.36	100.25
303.59	75.25
303.82	97.25
304.051	95.25
304.281	85.25
304.511	87.25
304.741	84.25
304.971	90.25
305.201	88.25
305.431	85.25
305.661	91.25
305.891	63.25
306.121	76.25
306.352	73.25
306.582	79.25
306.812	91.25
307.042	91.25
307.272	91.25
307.502	92.25
307.731	74.25
307.961	75.25
308.191	80.25
308.421	88.25
308.651	83.25
308.881	87.25
309.111	88.25
309.341	105.25
309.571	87.25
309.8	90.25
310.03	78.25
310.26	83.25
310.49	95.25
310.72	82.25
310.949	88.25
311.179	97.25
311.409	93.25
311.639	93.25
311.868	95.25
312.098	96.25
312.328	88.25
312.557	107.25
312.787	95.25
313.017	86.25
313.246	95.25
313.476	69.25
313.706	75.25
313.935	84.25
314.165	86.25
314.394	80.25
314.624	96.25
314.853	85.25
315.083	86.25
315.312	89.25
315.542	85.25
315.771	89.25
316.001	88.25
316.23	71.25
316.46	79.25
316.689	91.25
316.919	87.25
317.148	85.25
317.377	85.25
317.607	92.25
317.836	91.25
318.065	79.25
318.295	91.25
318.524	96.25
318.753	89.25
318.983	96.25
319.212	105.25
319.441	89.25
319.67	83.25
319.9	91.25
320.129	84.25
320.358	77.25
320.587	90.25
320.816	93.25
321.046	97.25
321.275	95.25
321.504	87.25
321.733	83.25
321.962	110.25
322.191	85.25
322.42	86.25
322.649	87.25
322.878	96.25
323.108	94.25
323.337	80.25
323.566	84.25
323.795	93.25
324.024	74.25
324.253	90.25
324.482	87.25
324.71	91.25
324.939	95.25
325.168	87.25
325.397	82.25
325.626	85.25
325.855	77.25
326.084	80.25
326.313	85.25
326.542	86.25
326.77	77.25
326.999	83.25
327.228	73.25
327.457	92.25
327.686	92.25
327.914	95.25
328.143	91.25
328.372	90.25
328.6	85.25
328.829	82.25
329.058	98.25
329.287	81.25
329.515	91.25
329.744	91.25
329.972	82.25
330.201	86.25
330.43	93.25
330.658	71.25
330.887	92.25
331.115	95.25
331.344	83.25
331.572	89.25
331.801	97.25
332.03	84.25
332.258	72.25
332.486	80.25
332.715	94.25
332.943	73.25
333.172	78.25
333.4	77.25
333.629	82.25
333.857	80.25
334.085	91.25
334.314	92.25
334.542	90.25
334.771	86.25
334.999	80.25
335.227	70.25
335.455	84.25
335.684	75.25
335.912	82.25
336.14	83.25
336.369	79.25
336.597	88.25
336.825	85.25
337.053	93.25
337.281	91.25
337.51	96.25
337.738	93.25
337.966	89.25
338.194	84.25
338.422	82.25
338.65	98.25
338.878	88.25
339.106	79.25
339.334	95.25
339.562	81.25
339.79	83.25
340.018	87.25
340.246	88.25
340.474	81.25
340.702	87.25
340.93	88.25
341.158	89.25
341.386	80.25
341.614	89.25
341.842	78.25
342.07	103.25
342.298	78.25
342.526	92.25
342.754	94.25
342.981	94.25
343.209	96.25
343.437	99.25
343.665	79.25
343.893	87.25
344.12	97.25
344.348	85.25
344.576	92.25
344.804	93.25
345.031	99.25
345.259	84.25
345.487	101.25
345.714	81.25
345.942	59.25
346.17	80.25
346.397	83.25
346.625	84.25
346.853	103.25
347.08	93.25
347.308	90.25
347.535	107.25
347.763	85.25
347.99	77.25
348.218	84.25
348.445	87.25
348.673	72.25
348.9	92.25
349.128	95.25
349.355	97.25
349.583	84.25
349.81	93.25
350.037	85.25
350.265	81.25
350.492	89.25
350.72	84.25
350.947	77.25
351.174	101.25
351.402	83.25
351.629	96.25
351.856	89.25
352.083	85.25
352.311	87.25
352.538	90.25
352.765	69.25
352.992	83.25
353.22	71.25
353.447	83.25
353.674	68.25
353.901	85.25
354.128	92.25
354.355	95.25
354.583	76.25
354.81	85.25
355.037	103.25
355.264	94.25
355.491	85.25
355.718	75.25
355.945	89.25
356.172	84.25
356.399	84.25
356.626	88.25
356.853	85.25
357.08	85.25
357.307	79.25
357.534	82.25
357.761	91.25
357.988	97.25
358.215	81.25
358.441	96.25
358.668	92.25
358.895	84.25
359.122	105.25
359.349	81.25
359.576	91.25
359.802	82.25
360.029	95.25
360.256	70.25
360.483	81.25
360.709	84.25
360.936	96.25
361.163	88.25
361.39	91.25
361.616	81.25
361.843	89.25
362.07	97.25
362.296	96.25
362.523	87.25
362.749	103.25
362.976	85.25
363.203	91.25
363.429	85.25
363.656	95.25
363.882	88.25
364.109	81.25
364.335	99.25
364.562	81.25
364.788	90.25
365.015	83.25
365.241	83.25
365.468	81.25
365.694	83.25
365.92	81.25
366.147	90.25
366.373	90.25
366.599	83.25
366.826	95.25
367.052	87.25
367.278	92.25
367.505	79.25
367.731	91.25
367.957	91.25
368.184	91.25
368.41	78.25
368.636	86.25
368.862	95.25
369.089	75.25
369.315	81.25
369.541	82.25
369.767	81.25
369.993	85.25
370.219	94.25
370.445	79.25
370.672	79.25
370.898	93.25
371.124	90.25
371.35	91.25
371.576	87.25
371.802	83.25
372.028	69.25
372.254	88.25
372.48	77.25
372.706	86.25
372.932	83.25
373.158	83.25
373.384	84.25
373.61	94.25
373.835	79.25
374.061	90.25
374.287	64.25
374.513	60.25
374.739	63.25
374.965	87.25
375.191	83.25
375.416	83.25
375.642	87.25
375.868	81.25
376.094	75.25
376.319	82.25
376.545	81.25
376.771	79.25
376.997	94.25
377.222	87.25
377.448	84.25
377.674	83.25
377.899	91.25
378.125	93.25
378.35	87.25
378.576	76.25
378.802	75.25
379.027	99.25
379.253	80.25
379.478	89.25
379.704	91.25
379.929	89.25
380.155	89.25
380.38	94.25
380.606	84.25
380.831	79.25
381.057	92.25
381.282	89.25
381.507	87.25
381.733	85.25
381.958	104.25
382.184	99.25
382.409	80.25
382.634	78.25
382.86	86.25
383.085	82.25
383.31	89.25
383.535	99.25
383.761	97.25
383.986	76.25
384.211	82.25
384.436	89.25
384.662	84.25
384.887	95.25
385.112	83.25
385.337	81.25
385.562	76.25
385.787	101.25
386.013	77.25
386.238	73.25
386.463	89.25
386.688	92.25
386.913	76.25
387.138	85.25
387.363	89.25
387.588	80.25
387.813	79.25
388.038	93.25
388.263	77.25
388.488	80.25
388.713	68.25
388.938	65.25
389.163	83.25
389.387	77.25
389.612	84.25
389.837	89.25
390.062	91.25
390.287	79.25
390.512	89.25
390.736	84.25
390.961	87.25
391.186	82.25
391.411	71.25
391.636	82.25
391.86	92.25
392.085	88.25
392.31	105.25
392.534	87.25
392.759	90.25
392.984	82.25
393.208	88.25
393.433	89.25
393.658	87.25
393.882	78.25
394.107	93.25
394.331	103.25
394.556	85.25
394.78	88.25
395.005	65.25
395.229	81.25
395.454	84.25
395.678	70.25
395.903	76.25
396.127	77.25
396.352	91.25
396.576	72.25
396.801	82.25
397.025	103.25
397.249	99.25
397.474	99.25
397.698	104.25
397.922	80.25
398.147	79.25
398.371	85.25
398.595	91.25
398.82	86.25
399.044	64.25
399.268	84.25
399.492	85.25
399.717	87.25
399.941	83.25
400.165	70.25
400.389	70.25
400.613	81.25
400.837	77.25
401.062	96.25
401.286	97.25
401.51	89.25
401.734	83.25
401.958	72.25
402.182	82.25
402.406	85.25
402.63	89.25
402.854	79.25
403.078	83.25
403.302	80.25
403.526	75.25
403.75	82.25
403.974	87.25
404.198	83.25
404.422	96.25
404.645	82.25
404.869	70.25
405.093	79.25
405.317	83.25
405.541	85.25
405.765	86.25
405.988	82.25
406.212	81.25
406.436	89.25
406.66	91.25
406.883	80.25
407.107	69.25
407.331	77.25
407.555	87.25
407.778	89.25
408.002	81.25
408.226	75.25
408.449	80.25
408.673	91.25
408.896	91.25
409.12	92.25
409.344	90.25
409.567	85.25
409.791	84.25
410.014	84.25
410.238	80.25
410.461	87.25
410.685	77.25
410.908	78.25
411.132	75.25
411.355	92.25
411.578	90.25
411.802	84.25
412.025	73.25
412.249	79.25
412.472	93.25
412.695	79.25
412.919	89.25
413.142	80.25
413.365	85.25
413.589	74.25
413.812	76.25
414.035	92.25
414.258	82.25
414.482	78.25
414.705	80.25
414.928	80.25
415.151	93.25
415.374	84.25
415.597	97.25
415.821	89.25
416.044	89.25
416.267	80.25
416.49	92.25
416.713	79.25
416.936	84.25
417.159	83.25
417.382	81.25
417.605	66.25
417.828	89.25
418.051	76.25
418.274	91.25
418.497	87.25
418.72	99.25
418.943	80.25
419.166	81.25
419.389	72.25
419.611	78.25
419.834	82.25
420.057	91.25
420.28	77.25
420.503	80.25
420.726	78.25
420.948	81.25
421.171	88.25
421.394	79.25
421.617	76.25
421.839	81.25
422.062	92.25
422.285	95.25
422.507	84.25
422.73	75.25
422.953	74.25
423.175	84.25
423.398	85.25
423.621	87.25
423.843	89.25
424.066	83.25
424.288	85.25
424.511	76.25
424.733	82.25
424.956	97.25
425.178	75.25
425.401	72.25
425.623	86.25
425.846	83.25
426.068	81.25
426.291	89.25
426.513	83.25
426.735	74.25
426.958	79.25
427.18	79.25
427.402	93.25
427.625	81.25
427.847	86.25
428.069	89.25
428.292	89.25
428.514	87.25
428.736	81.25
428.958	80.25
429.181	89.25
429.403	96.25
429.625	88.25
429.847	85.25
430.069	89.25
430.292	84.25
430.514	89.25
430.736	95.25
430.958	104.25
431.18	83.25
431.402	85.25
431.624	81.25
431.846	84.25
432.068	85.25
432.29	88.25
432.512	76.25
432.734	85.25
432.956	79.25
433.178	79.25
433.4	89.25
433.622	91.25
433.844	85.25
434.066	79.25
434.287	91.25
434.509	77.25
434.731	79.25
434.953	72.25
435.175	81.25
435.397	99.25
435.618	72.25
435.84	85.25
436.062	88.25
436.284	84.25
436.505	81.25
436.727	63.25
436.949	72.25
437.17	81.25
437.392	66.25
437.614	82.25
437.835	92.25
438.057	82.25
438.278	86.25
438.5	92.25
438.721	82.25
438.943	92.25
439.165	85.25
439.386	83.25
439.608	91.25
439.829	85.25
440.05	91.25
440.272	87.25
440.493	82.25
440.715	76.25
440.936	85.25
441.158	84.25
441.379	94.25
441.6	71.25
441.822	81.25
442.043	67.25
442.264	74.25
442.486	87.25
442.707	89.25
442.928	74.25
443.149	89.25
443.371	85.25
443.592	87.25
443.813	81.25
444.034	73.25
444.255	93.25
444.476	87.25
444.698	71.25
444.919	84.25
445.14	141.25
445.361	117.25
445.582	91.25
445.803	79.25
446.024	72.25
446.245	88.25
446.466	100.25
446.687	87.25
446.908	83.25
447.129	88.25
447.35	79.25
447.571	95.25
447.792	83.25
448.013	105.25
448.234	86.25
448.455	84.25
448.675	79.25
448.896	90.25
449.117	87.25
449.338	67.25
449.559	91.25
449.779	91.25
450	70.25
450.221	91.25
450.442	84.25
450.662	83.25
450.883	80.25
451.104	86.25
451.324	87.25
451.545	92.25
451.766	101.25
451.986	79.25
452.207	78.25
452.428	90.25
452.648	83.25
452.869	71.25
453.089	94.25
453.31	83.25
453.53	92.25
453.751	98.25
453.971	83.25
454.192	81.25
454.412	73.25
454.633	73.25
454.853	91.25
455.073	93.25
455.294	93.25
455.514	94.25
455.734	95.25
455.955	94.25
456.175	72.25
456.395	78.25
456.616	91.25
456.836	85.25
457.056	74.25
457.276	80.25
457.497	92.25
457.717	79.25
457.937	80.25
458.157	79.25
458.377	90.25
458.598	92.25
458.818	89.25
459.038	87.25
459.258	95.25
459.478	73.25
459.698	85.25
459.918	93.25
460.138	89.25
460.358	82.25
460.578	86.25
460.798	74.25
461.018	83.25
461.238	71.25
461.458	80.25
461.678	94.25
461.898	88.25
462.118	86.25
462.338	83.25
462.558	82.25
462.777	75.25
462.997	77.25
463.217	78.25
463.437	75.25
463.657	83.25
463.876	92.25
464.096	93.25
464.316	71.25
464.536	78.25
464.755	92.25
464.975	69.25
465.195	76.25
465.414	73.25
465.634	81.25
465.854	89.25
466.073	85.25
466.293	84.25
466.512	77.25
466.732	82.25
466.951	89.25
467.171	79.25
467.391	73.25
467.61	82.25
467.829	79.25
468.049	92.25
468.268	87.25
468.488	86.25
468.707	80.25
468.927	87.25
469.146	79.25
469.365	88.25
469.585	85.25
469.804	76.25
470.023	85.25
470.243	94.25
470.462	77.25
470.681	70.25
470.901	74.25
471.12	81.25
471.339	92.25
471.558	90.25
471.777	87.25
471.997	74.25
472.216	93.25
472.435	76.25
472.654	65.25
472.873	90.25
473.092	75.25
473.311	93.25
473.53	88.25
473.749	93.25
473.968	71.25
474.187	83.25
474.406	81.25
474.625	88.25
474.844	83.25
475.063	95.25
475.282	68.25
475.501	76.25
475.72	95.25
475.939	85.25
476.158	91.25
476.377	92.25
476.596	76.25
476.814	99.25
477.033	91.25
477.252	83.25
477.471	93.25
477.69	91.25
477.908	87.25
478.127	92.25
478.346	88.25
478.564	89.25
478.783	94.25
479.002	79.25
479.22	80.25
479.439	99.25
479.658	99.25
479.876	82.25
480.095	91.25
480.313	93.25
480.532	95.25
480.751	91.25
480.969	86.25
481.188	88.25
481.406	85.25
481.624	75.25
481.843	87.25
482.061	83.25
482.28	77.25
482.498	69.25
482.717	75.25
482.935	89.25
483.153	89.25
483.372	96.25
483.59	85.25
483.808	67.25
484.027	79.25
484.245	84.25
484.463	82.25
484.681	85.25
484.9	91.25
485.118	71.25
485.336	83.25
485.554	79.25
485.772	72.25
485.99	75.25
486.209	73.25
486.427	93.25
486.645	98.25
486.863	98.25
487.081	80.25
487.299	84.25
487.517	90.25
487.735	69.25
487.953	89.25
488.171	83.25
488.389	74.25
488.607	93.25
488.825	75.25
489.043	90.25
489.261	99.25
489.479	88.25
489.696	80.25
489.914	81.25
490.132	90.25
490.35	84.25
490.568	67.25
490.786	91.25
491.003	83.25
491.221	95.25
491.439	75.25
491.657	87.25
491.874	91.25
492.092	96.25
492.31	77.25
492.527	93.25
492.745	90.25
492.963	90.25
493.18	82.25
493.398	100.25
493.615	87.25
493.833	97.25
494.05	82.25
494.268	87.25
494.485	89.25
494.703	77.25
494.92	91.25
495.138	80.25
495.355	96.25
495.573	92.25
495.79	74.25
496.008	90.25
496.225	77.25
496.442	84.25
496.66	84.25
496.877	81.25
497.094	92.25
497.312	106.25
497.529	73.25
497.746	74.25
497.963	85.25
498.181	93.25
498.398	90.25
498.615	106.25
498.832	84.25
499.049	81.25
499.267	88.25
499.484	80.25
499.701	72.25
499.918	81.25
500.135	95.25
500.352	84.25
500.569	79.25
500.786	94.25
501.003	83.25
501.22	100.25
501.437	94.25
501.654	91.25
501.871	78.25
502.088	91.25
502.305	69.25
502.522	83.25
502.739	85.25
502.956	83.25
503.172	77.25
503.389	77.25
503.606	86.25
503.823	82.25
504.04	84.25
504.256	96.25
504.473	92.25
504.69	95.25
504.907	83.25
505.123	95.25
505.34	91.25
505.557	91.25
505.773	93.25
505.99	90.25
506.207	85.25
506.423	81.25
506.64	92.25
506.856	83.25
507.073	79.25
507.289	83.25
507.506	81.25
507.722	104.25
507.939	83.25
508.155	87.25
508.372	88.25
508.588	84.25
508.805	92.25
509.021	92.25
509.238	80.25
509.454	88.25
509.67	80.25
509.887	92.25
510.103	89.25
510.319	90.25
510.536	93.25
510.752	76.25
510.968	84.25
511.184	86.25
511.401	77.25
511.617	81.25
511.833	75.25
512.049	86.25
512.265	85.25
512.481	88.25
512.698	87.25
512.914	79.25
513.13	81.25
513.346	81.25
513.562	93.25
513.778	95.25
513.994	76.25
514.21	91.25
514.426	79.25
514.642	76.25
514.858	89.25
515.074	75.25
515.29	85.25
515.506	74.25
515.721	102.25
515.937	89.25
516.153	85.25
516.369	79.25
516.585	82.25
516.801	80.25
517.016	93.25
517.232	85.25
517.448	76.25
517.664	91.25
517.879	84.25
518.095	79.25
518.311	82.25
518.527	89.25
518.742	92.25
518.958	81.25
519.173	95.25
519.389	86.25
519.605	87.25
519.82	81.25
