Data from BG_HRD10591_021.txt Node
Date: Fri May 16 15:26:57 EDT 2025
User: Yrep
Spectrometer: HR+D1059
Trigger mode: 1
Integration Time (sec): 1.000000E-1
Scans to average: 1
Electric dark correction enabled: true
Nonlinearity correction enabled: false
Boxcar width: 0
XAxis mode: Wavelengths
Number of Pixels in Spectrum: 2048
>>>>>Begin Spectral Data<<<<<
223.165	-21.19
223.4	-21.19
223.635	-21.19
223.869	-18.19
224.104	-12.19
224.338	-5.19
224.573	-7.19
224.808	-10.19
225.042	-8.19
225.277	-5.19
225.511	-0.19
225.746	-6.19
225.98	9.81
226.215	27.81
226.449	-3.19
226.683	12.81
226.918	23.81
227.152	22.81
227.387	44.81
227.621	40.81
227.856	43.81
228.09	45.81
228.324	49.81
228.559	62.81
228.793	49.81
229.027	59.81
229.262	54.81
229.496	50.81
229.73	54.81
229.964	63.81
230.199	84.81
230.433	74.81
230.667	83.81
230.901	80.81
231.136	83.81
231.37	77.81
231.604	69.81
231.838	76.81
232.072	74.81
232.306	64.81
232.541	68.81
232.775	74.81
233.009	71.81
233.243	72.81
233.477	83.81
233.711	89.81
233.945	77.81
234.179	74.81
234.413	82.81
234.647	81.81
234.881	89.81
235.115	77.81
235.349	82.81
235.583	75.81
235.817	75.81
236.051	80.81
236.285	67.81
236.519	75.81
236.753	70.81
236.987	64.81
237.221	75.81
237.455	69.81
237.689	72.81
237.922	79.81
238.156	86.81
238.39	77.81
238.624	73.81
238.858	71.81
239.091	75.81
239.325	75.81
239.559	78.81
239.793	86.81
240.027	79.81
240.26	77.81
240.494	82.81
240.728	77.81
240.961	75.81
241.195	75.81
241.429	71.81
241.662	70.81
241.896	60.81
242.13	72.81
242.363	81.81
242.597	77.81
242.83	80.81
243.064	62.81
243.298	69.81
243.531	69.81
243.765	83.81
243.998	74.81
244.232	82.81
244.465	63.81
244.699	76.81
244.932	79.81
245.166	68.81
245.399	83.81
245.633	77.81
245.866	81.81
246.099	76.81
246.333	67.81
246.566	87.81
246.8	79.81
247.033	74.81
247.266	73.81
247.5	62.81
247.733	77.81
247.966	79.81
248.2	63.81
248.433	71.81
248.666	81.81
248.899	69.81
249.133	65.81
249.366	91.81
249.599	79.81
249.832	78.81
250.066	93.81
250.299	67.81
250.532	75.81
250.765	80.81
250.998	67.81
251.231	77.81
251.465	100.81
251.698	81.81
251.931	69.81
252.164	75.81
252.397	90.81
252.63	73.81
252.863	83.81
253.096	85.81
253.329	74.81
253.562	69.81
253.795	83.81
254.028	74.81
254.261	83.81
254.494	81.81
254.727	84.81
254.96	69.81
255.193	73.81
255.426	84.81
255.659	77.81
255.892	91.81
256.124	67.81
256.357	74.81
256.59	73.81
256.823	83.81
257.056	85.81
257.289	92.81
257.521	60.81
257.754	85.81
257.987	85.81
258.22	77.81
258.452	79.81
258.685	81.81
258.918	66.81
259.151	75.81
259.383	84.81
259.616	78.81
259.849	81.81
260.081	81.81
260.314	63.81
260.547	81.81
260.779	80.81
261.012	84.81
261.244	78.81
261.477	78.81
261.71	78.81
261.942	89.81
262.175	85.81
262.407	87.81
262.64	93.81
262.872	85.81
263.105	86.81
263.337	74.81
263.57	65.81
263.802	86.81
264.035	69.81
264.267	78.81
264.499	70.81
264.732	72.81
264.964	75.81
265.197	75.81
265.429	81.81
265.661	79.81
265.894	82.81
266.126	85.81
266.358	79.81
266.591	83.81
266.823	83.81
267.055	84.81
267.287	74.81
267.52	81.81
267.752	98.81
267.984	85.81
268.216	68.81
268.448	75.81
268.681	85.81
268.913	70.81
269.145	81.81
269.377	92.81
269.609	84.81
269.841	75.81
270.073	90.81
270.306	74.81
270.538	75.81
270.77	73.81
271.002	85.81
271.234	78.81
271.466	101.81
271.698	69.81
271.93	85.81
272.162	77.81
272.394	82.81
272.626	77.81
272.858	79.81
273.09	81.81
273.322	63.81
273.553	68.81
273.785	87.81
274.017	85.81
274.249	78.81
274.481	87.81
274.713	75.81
274.945	82.81
275.176	73.81
275.408	82.81
275.64	91.81
275.872	83.81
276.104	100.81
276.335	89.81
276.567	80.81
276.799	78.81
277.031	78.81
277.262	93.81
277.494	86.81
277.726	88.81
277.957	74.81
278.189	91.81
278.421	85.81
278.652	84.81
278.884	75.81
279.115	83.81
279.347	78.81
279.579	101.81
279.81	81.81
280.042	79.81
280.273	85.81
280.505	86.81
280.736	81.81
280.968	83.81
281.199	70.81
281.431	89.81
281.662	77.81
281.894	92.81
282.125	93.81
282.356	85.81
282.588	90.81
282.819	78.81
283.051	84.81
283.282	77.81
283.513	67.81
283.745	92.81
283.976	87.81
284.207	77.81
284.439	73.81
284.67	90.81
284.901	84.81
285.132	81.81
285.364	86.81
285.595	68.81
285.826	81.81
286.057	86.81
286.288	87.81
286.52	86.81
286.751	70.81
286.982	88.81
287.213	84.81
287.444	87.81
287.675	89.81
287.906	86.81
288.138	99.81
288.369	85.81
288.6	86.81
288.831	77.81
289.062	93.81
289.293	69.81
289.524	66.81
289.755	70.81
289.986	87.81
290.217	74.81
290.448	73.81
290.679	80.81
290.91	83.81
291.141	81.81
291.371	94.81
291.602	86.81
291.833	91.81
292.064	77.81
292.295	92.81
292.526	89.81
292.757	79.81
292.987	84.81
293.218	82.81
293.449	83.81
293.68	86.81
293.91	86.81
294.141	80.81
294.372	83.81
294.603	88.81
294.833	85.81
295.064	90.81
295.295	80.81
295.525	88.81
295.756	70.81
295.987	87.81
296.217	78.81
296.448	84.81
296.679	81.81
296.909	85.81
297.14	80.81
297.37	79.81
297.601	84.81
297.831	67.81
298.062	89.81
298.292	94.81
298.523	88.81
298.753	78.81
298.984	100.81
299.214	85.81
299.445	69.81
299.675	94.81
299.905	77.81
300.136	82.81
300.366	79.81
300.597	78.81
300.827	85.81
301.057	93.81
301.288	75.81
301.518	90.81
301.748	82.81
301.979	91.81
302.209	87.81
302.439	82.81
302.669	80.81
302.9	86.81
303.13	82.81
303.36	84.81
303.59	84.81
303.82	92.81
304.051	84.81
304.281	105.81
304.511	96.81
304.741	88.81
304.971	77.81
305.201	87.81
305.431	86.81
305.661	90.81
305.891	94.81
306.121	70.81
306.352	79.81
306.582	98.81
306.812	84.81
307.042	103.81
307.272	85.81
307.502	73.81
307.731	83.81
307.961	77.81
308.191	83.81
308.421	78.81
308.651	84.81
308.881	93.81
309.111	86.81
309.341	79.81
309.571	81.81
309.8	78.81
310.03	73.81
310.26	86.81
310.49	79.81
310.72	85.81
310.949	93.81
311.179	86.81
311.409	86.81
311.639	77.81
311.868	92.81
312.098	85.81
312.328	81.81
312.557	77.81
312.787	83.81
313.017	88.81
313.246	80.81
313.476	87.81
313.706	75.81
313.935	80.81
314.165	80.81
314.394	95.81
314.624	94.81
314.853	109.81
315.083	89.81
315.312	93.81
315.542	100.81
315.771	86.81
316.001	75.81
316.23	90.81
316.46	80.81
316.689	82.81
316.919	90.81
317.148	91.81
317.377	90.81
317.607	96.81
317.836	81.81
318.065	78.81
318.295	107.81
318.524	82.81
318.753	87.81
318.983	93.81
319.212	88.81
319.441	92.81
319.67	87.81
319.9	89.81
320.129	78.81
320.358	69.81
320.587	90.81
320.816	80.81
321.046	83.81
321.275	88.81
321.504	81.81
321.733	87.81
321.962	93.81
322.191	87.81
322.42	90.81
322.649	86.81
322.878	78.81
323.108	94.81
323.337	84.81
323.566	77.81
323.795	91.81
324.024	90.81
324.253	74.81
324.482	84.81
324.71	76.81
324.939	90.81
325.168	87.81
325.397	82.81
325.626	93.81
325.855	85.81
326.084	68.81
326.313	83.81
326.542	81.81
326.77	90.81
326.999	82.81
327.228	75.81
327.457	97.81
327.686	76.81
327.914	91.81
328.143	87.81
328.372	82.81
328.6	89.81
328.829	84.81
329.058	89.81
329.287	109.81
329.515	72.81
329.744	84.81
329.972	94.81
330.201	80.81
330.43	78.81
330.658	82.81
330.887	92.81
331.115	77.81
331.344	79.81
331.572	94.81
331.801	90.81
332.03	94.81
332.258	86.81
332.486	76.81
332.715	82.81
332.943	79.81
333.172	88.81
333.4	87.81
333.629	87.81
333.857	62.81
334.085	78.81
334.314	88.81
334.542	77.81
334.771	84.81
334.999	83.81
335.227	77.81
335.455	79.81
335.684	74.81
335.912	89.81
336.14	100.81
336.369	81.81
336.597	87.81
336.825	89.81
337.053	69.81
337.281	86.81
337.51	89.81
337.738	90.81
337.966	94.81
338.194	83.81
338.422	93.81
338.65	94.81
338.878	104.81
339.106	105.81
339.334	77.81
339.562	78.81
339.79	84.81
340.018	94.81
340.246	80.81
340.474	91.81
340.702	73.81
340.93	89.81
341.158	82.81
341.386	93.81
341.614	87.81
341.842	95.81
342.07	75.81
342.298	70.81
342.526	75.81
342.754	87.81
342.981	88.81
343.209	91.81
343.437	91.81
343.665	78.81
343.893	93.81
344.12	77.81
344.348	89.81
344.576	93.81
344.804	75.81
345.031	80.81
345.259	103.81
345.487	100.81
345.714	97.81
345.942	84.81
346.17	90.81
346.397	85.81
346.625	84.81
346.853	81.81
347.08	83.81
347.308	83.81
347.535	94.81
347.763	70.81
347.99	94.81
348.218	85.81
348.445	84.81
348.673	84.81
348.9	92.81
349.128	93.81
349.355	76.81
349.583	91.81
349.81	82.81
350.037	85.81
350.265	98.81
350.492	81.81
350.72	95.81
350.947	79.81
351.174	85.81
351.402	76.81
351.629	97.81
351.856	79.81
352.083	71.81
352.311	90.81
352.538	87.81
352.765	94.81
352.992	86.81
353.22	71.81
353.447	91.81
353.674	74.81
353.901	86.81
354.128	83.81
354.355	97.81
354.583	77.81
354.81	92.81
355.037	76.81
355.264	100.81
355.491	87.81
355.718	86.81
355.945	77.81
356.172	89.81
356.399	90.81
356.626	85.81
356.853	77.81
357.08	83.81
357.307	89.81
357.534	77.81
357.761	85.81
357.988	61.81
358.215	80.81
358.441	85.81
358.668	102.81
358.895	76.81
359.122	81.81
359.349	70.81
359.576	76.81
359.802	74.81
360.029	87.81
360.256	101.81
360.483	83.81
360.709	75.81
360.936	83.81
361.163	88.81
361.39	83.81
361.616	86.81
361.843	84.81
362.07	77.81
362.296	83.81
362.523	81.81
362.749	77.81
362.976	63.81
363.203	84.81
363.429	80.81
363.656	85.81
363.882	76.81
364.109	78.81
364.335	84.81
364.562	74.81
364.788	86.81
365.015	97.81
365.241	87.81
365.468	89.81
365.694	79.81
365.92	94.81
366.147	86.81
366.373	82.81
366.599	84.81
366.826	79.81
367.052	85.81
367.278	85.81
367.505	99.81
367.731	90.81
367.957	82.81
368.184	92.81
368.41	77.81
368.636	93.81
368.862	90.81
369.089	93.81
369.315	80.81
369.541	102.81
369.767	83.81
369.993	92.81
370.219	81.81
370.445	87.81
370.672	86.81
370.898	88.81
371.124	91.81
371.35	90.81
371.576	81.81
371.802	77.81
372.028	92.81
372.254	96.81
372.48	83.81
372.706	89.81
372.932	79.81
373.158	85.81
373.384	85.81
373.61	86.81
373.835	83.81
374.061	89.81
374.287	81.81
374.513	90.81
374.739	90.81
374.965	80.81
375.191	88.81
375.416	93.81
375.642	87.81
375.868	78.81
376.094	82.81
376.319	89.81
376.545	81.81
376.771	100.81
376.997	84.81
377.222	82.81
377.448	84.81
377.674	74.81
377.899	79.81
378.125	86.81
378.35	89.81
378.576	88.81
378.802	93.81
379.027	84.81
379.253	74.81
379.478	86.81
379.704	87.81
379.929	90.81
380.155	84.81
380.38	79.81
380.606	64.81
380.831	93.81
381.057	74.81
381.282	83.81
381.507	84.81
381.733	59.81
381.958	81.81
382.184	88.81
382.409	84.81
382.634	81.81
382.86	91.81
383.085	81.81
383.31	81.81
383.535	84.81
383.761	103.81
383.986	93.81
384.211	81.81
384.436	82.81
384.662	74.81
384.887	74.81
385.112	71.81
385.337	82.81
385.562	78.81
385.787	85.81
386.013	93.81
386.238	83.81
386.463	93.81
386.688	87.81
386.913	83.81
387.138	90.81
387.363	90.81
387.588	82.81
387.813	83.81
388.038	77.81
388.263	98.81
388.488	88.81
388.713	64.81
388.938	90.81
389.163	89.81
389.387	81.81
389.612	85.81
389.837	70.81
390.062	80.81
390.287	89.81
390.512	97.81
390.736	91.81
390.961	83.81
391.186	87.81
391.411	87.81
391.636	85.81
391.86	87.81
392.085	91.81
392.31	89.81
392.534	91.81
392.759	82.81
392.984	84.81
393.208	89.81
393.433	93.81
393.658	95.81
393.882	87.81
394.107	81.81
394.331	87.81
394.556	86.81
394.78	91.81
395.005	84.81
395.229	74.81
395.454	81.81
395.678	99.81
395.903	89.81
396.127	80.81
396.352	93.81
396.576	82.81
396.801	89.81
397.025	73.81
397.249	77.81
397.474	80.81
397.698	91.81
397.922	82.81
398.147	80.81
398.371	88.81
398.595	86.81
398.82	84.81
399.044	87.81
399.268	93.81
399.492	81.81
399.717	92.81
399.941	92.81
400.165	99.81
400.389	88.81
400.613	81.81
400.837	98.81
401.062	89.81
401.286	79.81
401.51	91.81
401.734	94.81
401.958	77.81
402.182	83.81
402.406	87.81
402.63	91.81
402.854	83.81
403.078	91.81
403.302	100.81
403.526	83.81
403.75	97.81
403.974	74.81
404.198	91.81
404.422	74.81
404.645	85.81
404.869	77.81
405.093	84.81
405.317	79.81
405.541	87.81
405.765	77.81
405.988	85.81
406.212	68.81
406.436	83.81
406.66	77.81
406.883	84.81
407.107	88.81
407.331	85.81
407.555	90.81
407.778	83.81
408.002	99.81
408.226	92.81
408.449	81.81
408.673	94.81
408.896	79.81
409.12	83.81
409.344	90.81
409.567	103.81
409.791	80.81
410.014	94.81
410.238	78.81
410.461	68.81
410.685	79.81
410.908	85.81
411.132	79.81
411.355	83.81
411.578	88.81
411.802	91.81
412.025	89.81
412.249	79.81
412.472	83.81
412.695	85.81
412.919	85.81
413.142	75.81
413.365	97.81
413.589	86.81
413.812	84.81
414.035	93.81
414.258	90.81
414.482	83.81
414.705	83.81
414.928	78.81
415.151	91.81
415.374	95.81
415.597	73.81
415.821	93.81
416.044	82.81
416.267	68.81
416.49	87.81
416.713	76.81
416.936	76.81
417.159	84.81
417.382	89.81
417.605	87.81
417.828	78.81
418.051	83.81
418.274	70.81
418.497	83.81
418.72	98.81
418.943	77.81
419.166	91.81
419.389	83.81
419.611	88.81
419.834	90.81
420.057	89.81
420.28	80.81
420.503	90.81
420.726	99.81
420.948	86.81
421.171	79.81
421.394	87.81
421.617	92.81
421.839	82.81
422.062	93.81
422.285	82.81
422.507	83.81
422.73	97.81
422.953	83.81
423.175	99.81
423.398	93.81
423.621	98.81
423.843	83.81
424.066	71.81
424.288	95.81
424.511	90.81
424.733	92.81
424.956	92.81
425.178	78.81
425.401	90.81
425.623	87.81
425.846	77.81
426.068	87.81
426.291	80.81
426.513	86.81
426.735	66.81
426.958	63.81
427.18	93.81
427.402	88.81
427.625	93.81
427.847	74.81
428.069	79.81
428.292	77.81
428.514	75.81
428.736	97.81
428.958	99.81
429.181	92.81
429.403	95.81
429.625	85.81
429.847	87.81
430.069	79.81
430.292	101.81
430.514	75.81
430.736	66.81
430.958	81.81
431.18	76.81
431.402	86.81
431.624	81.81
431.846	82.81
432.068	90.81
432.29	90.81
432.512	82.81
432.734	71.81
432.956	73.81
433.178	89.81
433.4	85.81
433.622	91.81
433.844	79.81
434.066	90.81
434.287	83.81
434.509	88.81
434.731	78.81
434.953	80.81
435.175	88.81
435.397	78.81
435.618	72.81
435.84	95.81
436.062	92.81
436.284	100.81
436.505	83.81
436.727	81.81
436.949	77.81
437.17	75.81
437.392	81.81
437.614	89.81
437.835	86.81
438.057	81.81
438.278	83.81
438.5	88.81
438.721	91.81
438.943	100.81
439.165	76.81
439.386	78.81
439.608	83.81
439.829	79.81
440.05	90.81
440.272	76.81
440.493	86.81
440.715	81.81
440.936	90.81
441.158	96.81
441.379	87.81
441.6	86.81
441.822	91.81
442.043	87.81
442.264	82.81
442.486	83.81
442.707	84.81
442.928	79.81
443.149	77.81
443.371	87.81
443.592	93.81
443.813	85.81
444.034	83.81
444.255	88.81
444.476	79.81
444.698	83.81
444.919	88.81
445.14	167.81
445.361	123.81
445.582	77.81
445.803	71.81
446.024	67.81
446.245	85.81
446.466	104.81
446.687	89.81
446.908	91.81
447.129	74.81
447.35	83.81
447.571	84.81
447.792	89.81
448.013	71.81
448.234	85.81
448.455	82.81
448.675	99.81
448.896	74.81
449.117	77.81
449.338	77.81
449.559	70.81
449.779	77.81
450	77.81
450.221	90.81
450.442	73.81
450.662	89.81
450.883	94.81
451.104	79.81
451.324	85.81
451.545	95.81
451.766	67.81
451.986	85.81
452.207	84.81
452.428	99.81
452.648	92.81
452.869	77.81
453.089	74.81
453.31	75.81
453.53	71.81
453.751	85.81
453.971	84.81
454.192	81.81
454.412	64.81
454.633	78.81
454.853	79.81
455.073	70.81
455.294	78.81
455.514	94.81
455.734	85.81
455.955	90.81
456.175	81.81
456.395	80.81
456.616	93.81
456.836	90.81
457.056	88.81
457.276	93.81
457.497	79.81
457.717	85.81
457.937	84.81
458.157	107.81
458.377	78.81
458.598	81.81
458.818	76.81
459.038	69.81
459.258	82.81
459.478	91.81
459.698	88.81
459.918	86.81
460.138	90.81
460.358	91.81
460.578	82.81
460.798	85.81
461.018	90.81
461.238	86.81
461.458	73.81
461.678	105.81
461.898	93.81
462.118	89.81
462.338	88.81
462.558	70.81
462.777	77.81
462.997	75.81
463.217	99.81
463.437	88.81
463.657	81.81
463.876	92.81
464.096	92.81
464.316	77.81
464.536	83.81
464.755	88.81
464.975	98.81
465.195	99.81
465.414	89.81
465.634	71.81
465.854	74.81
466.073	85.81
466.293	76.81
466.512	87.81
466.732	95.81
466.951	87.81
467.171	81.81
467.391	93.81
467.61	95.81
467.829	87.81
468.049	89.81
468.268	82.81
468.488	74.81
468.707	75.81
468.927	77.81
469.146	73.81
469.365	81.81
469.585	65.81
469.804	97.81
470.023	82.81
470.243	77.81
470.462	86.81
470.681	75.81
470.901	83.81
471.12	77.81
471.339	87.81
471.558	81.81
471.777	92.81
471.997	83.81
472.216	92.81
472.435	81.81
472.654	84.81
472.873	82.81
473.092	76.81
473.311	82.81
473.53	89.81
473.749	96.81
473.968	107.81
474.187	92.81
474.406	79.81
474.625	81.81
474.844	78.81
475.063	70.81
475.282	109.81
475.501	94.81
475.72	76.81
475.939	80.81
476.158	64.81
476.377	89.81
476.596	95.81
476.814	77.81
477.033	77.81
477.252	78.81
477.471	86.81
477.69	90.81
477.908	68.81
478.127	100.81
478.346	98.81
478.564	93.81
478.783	89.81
479.002	96.81
479.22	75.81
479.439	85.81
479.658	87.81
479.876	86.81
480.095	87.81
480.313	80.81
480.532	78.81
480.751	85.81
480.969	77.81
481.188	79.81
481.406	85.81
481.624	82.81
481.843	94.81
482.061	85.81
482.28	84.81
482.498	100.81
482.717	82.81
482.935	77.81
483.153	86.81
483.372	75.81
483.59	83.81
483.808	89.81
484.027	78.81
484.245	83.81
484.463	79.81
484.681	85.81
484.9	84.81
485.118	92.81
485.336	99.81
485.554	85.81
485.772	93.81
485.99	83.81
486.209	74.81
486.427	81.81
486.645	81.81
486.863	95.81
487.081	90.81
487.299	86.81
487.517	82.81
487.735	81.81
487.953	81.81
488.171	95.81
488.389	85.81
488.607	80.81
488.825	86.81
489.043	85.81
489.261	78.81
489.479	97.81
489.696	69.81
489.914	83.81
490.132	83.81
490.35	92.81
490.568	74.81
490.786	90.81
491.003	81.81
491.221	97.81
491.439	83.81
491.657	77.81
491.874	73.81
492.092	90.81
492.31	73.81
492.527	87.81
492.745	86.81
492.963	79.81
493.18	94.81
493.398	104.81
493.615	97.81
493.833	90.81
494.05	65.81
494.268	91.81
494.485	90.81
494.703	95.81
494.92	80.81
495.138	76.81
495.355	92.81
495.573	87.81
495.79	94.81
496.008	103.81
496.225	78.81
496.442	79.81
496.66	86.81
496.877	90.81
497.094	88.81
497.312	81.81
497.529	87.81
497.746	69.81
497.963	78.81
498.181	77.81
498.398	94.81
498.615	88.81
498.832	92.81
499.049	110.81
499.267	76.81
499.484	98.81
499.701	113.81
499.918	107.81
500.135	115.81
500.352	109.81
500.569	98.81
500.786	117.81
501.003	109.81
501.22	93.81
501.437	97.81
501.654	101.81
501.871	89.81
502.088	107.81
502.305	93.81
502.522	86.81
502.739	93.81
502.956	109.81
503.172	91.81
503.389	93.81
503.606	94.81
503.823	71.81
504.04	88.81
504.256	99.81
504.473	85.81
504.69	91.81
504.907	81.81
505.123	89.81
505.34	90.81
505.557	98.81
505.773	83.81
505.99	83.81
506.207	84.81
506.423	92.81
506.64	84.81
506.856	97.81
507.073	76.81
507.289	79.81
507.506	90.81
507.722	77.81
507.939	92.81
508.155	71.81
508.372	79.81
508.588	89.81
508.805	73.81
509.021	80.81
509.238	84.81
509.454	77.81
509.67	73.81
509.887	67.81
510.103	99.81
510.319	94.81
510.536	92.81
510.752	89.81
510.968	88.81
511.184	90.81
511.401	93.81
511.617	99.81
511.833	76.81
512.049	95.81
512.265	92.81
512.481	77.81
512.698	89.81
512.914	87.81
513.13	92.81
513.346	90.81
513.562	86.81
513.778	77.81
513.994	89.81
514.21	82.81
514.426	94.81
514.642	85.81
514.858	73.81
515.074	77.81
515.29	91.81
515.506	77.81
515.721	77.81
515.937	80.81
516.153	100.81
516.369	90.81
516.585	73.81
516.801	86.81
517.016	81.81
517.232	83.81
517.448	85.81
517.664	85.81
517.879	93.81
518.095	93.81
518.311	95.81
518.527	107.81
518.742	90.81
518.958	78.81
519.173	91.81
519.389	86.81
519.605	89.81
