Data from BG_HRD10591_020.txt Node
Date: Fri May 16 15:26:57 EDT 2025
User: Yrep
Spectrometer: HR+D1059
Trigger mode: 1
Integration Time (sec): 1.000000E-1
Scans to average: 1
Electric dark correction enabled: true
Nonlinearity correction enabled: false
Boxcar width: 0
XAxis mode: Wavelengths
Number of Pixels in Spectrum: 2048
>>>>>Begin Spectral Data<<<<<
223.165	-14.38
223.4	-14.38
223.635	-14.38
223.869	-17.38
224.104	-3.38
224.338	-12.38
224.573	-15.38
224.808	-10.38
225.042	-14.38
225.277	-4.38
225.511	-5.38
225.746	3.62
225.98	3.62
226.215	9.62
226.449	15.62
226.683	19.62
226.918	20.62
227.152	24.62
227.387	35.62
227.621	44.62
227.856	43.62
228.09	43.62
228.324	40.62
228.559	60.62
228.793	55.62
229.027	72.62
229.262	68.62
229.496	70.62
229.73	71.62
229.964	76.62
230.199	75.62
230.433	71.62
230.667	67.62
230.901	77.62
231.136	74.62
231.37	77.62
231.604	95.62
231.838	89.62
232.072	75.62
232.306	86.62
232.541	83.62
232.775	83.62
233.009	87.62
233.243	88.62
233.477	89.62
233.711	87.62
233.945	79.62
234.179	78.62
234.413	75.62
234.647	77.62
234.881	86.62
235.115	82.62
235.349	92.62
235.583	80.62
235.817	77.62
236.051	80.62
236.285	81.62
236.519	84.62
236.753	83.62
236.987	87.62
237.221	76.62
237.455	73.62
237.689	83.62
237.922	87.62
238.156	94.62
238.39	77.62
238.624	83.62
238.858	76.62
239.091	82.62
239.325	80.62
239.559	76.62
239.793	77.62
240.027	79.62
240.26	72.62
240.494	81.62
240.728	84.62
240.961	88.62
241.195	75.62
241.429	81.62
241.662	86.62
241.896	77.62
242.13	80.62
242.363	83.62
242.597	81.62
242.83	73.62
243.064	82.62
243.298	79.62
243.531	88.62
243.765	87.62
243.998	89.62
244.232	78.62
244.465	93.62
244.699	85.62
244.932	77.62
245.166	74.62
245.399	89.62
245.633	75.62
245.866	86.62
246.099	81.62
246.333	82.62
246.566	80.62
246.8	107.62
247.033	91.62
247.266	80.62
247.5	68.62
247.733	79.62
247.966	83.62
248.2	85.62
248.433	72.62
248.666	79.62
248.899	81.62
249.133	76.62
249.366	66.62
249.599	99.62
249.832	79.62
250.066	88.62
250.299	95.62
250.532	85.62
250.765	88.62
250.998	86.62
251.231	69.62
251.465	77.62
251.698	95.62
251.931	79.62
252.164	77.62
252.397	88.62
252.63	73.62
252.863	82.62
253.096	78.62
253.329	81.62
253.562	84.62
253.795	83.62
254.028	91.62
254.261	89.62
254.494	87.62
254.727	73.62
254.96	76.62
255.193	81.62
255.426	77.62
255.659	91.62
255.892	75.62
256.124	75.62
256.357	91.62
256.59	92.62
256.823	97.62
257.056	90.62
257.289	76.62
257.521	88.62
257.754	90.62
257.987	85.62
258.22	83.62
258.452	86.62
258.685	81.62
258.918	75.62
259.151	83.62
259.383	75.62
259.616	89.62
259.849	80.62
260.081	98.62
260.314	83.62
260.547	80.62
260.779	93.62
261.012	83.62
261.244	81.62
261.477	81.62
261.71	93.62
261.942	82.62
262.175	82.62
262.407	76.62
262.64	80.62
262.872	86.62
263.105	87.62
263.337	89.62
263.57	73.62
263.802	70.62
264.035	73.62
264.267	81.62
264.499	93.62
264.732	91.62
264.964	91.62
265.197	88.62
265.429	90.62
265.661	94.62
265.894	87.62
266.126	94.62
266.358	77.62
266.591	91.62
266.823	67.62
267.055	78.62
267.287	76.62
267.52	84.62
267.752	71.62
267.984	69.62
268.216	65.62
268.448	82.62
268.681	91.62
268.913	93.62
269.145	72.62
269.377	86.62
269.609	84.62
269.841	88.62
270.073	92.62
270.306	88.62
270.538	83.62
270.77	90.62
271.002	76.62
271.234	78.62
271.466	71.62
271.698	84.62
271.93	80.62
272.162	92.62
272.394	84.62
272.626	88.62
272.858	75.62
273.09	95.62
273.322	79.62
273.553	75.62
273.785	91.62
274.017	82.62
274.249	87.62
274.481	87.62
274.713	89.62
274.945	85.62
275.176	92.62
275.408	88.62
275.64	63.62
275.872	87.62
276.104	92.62
276.335	95.62
276.567	85.62
276.799	88.62
277.031	78.62
277.262	82.62
277.494	93.62
277.726	80.62
277.957	87.62
278.189	91.62
278.421	83.62
278.652	91.62
278.884	89.62
279.115	92.62
279.347	89.62
279.579	98.62
279.81	85.62
280.042	84.62
280.273	86.62
280.505	83.62
280.736	83.62
280.968	88.62
281.199	81.62
281.431	80.62
281.662	85.62
281.894	93.62
282.125	77.62
282.356	84.62
282.588	84.62
282.819	83.62
283.051	83.62
283.282	89.62
283.513	101.62
283.745	93.62
283.976	92.62
284.207	80.62
284.439	95.62
284.67	83.62
284.901	75.62
285.132	76.62
285.364	82.62
285.595	90.62
285.826	90.62
286.057	90.62
286.288	88.62
286.52	91.62
286.751	92.62
286.982	84.62
287.213	89.62
287.444	87.62
287.675	84.62
287.906	88.62
288.138	84.62
288.369	88.62
288.6	82.62
288.831	79.62
289.062	90.62
289.293	85.62
289.524	91.62
289.755	92.62
289.986	87.62
290.217	92.62
290.448	92.62
290.679	90.62
290.91	67.62
291.141	83.62
291.371	88.62
291.602	99.62
291.833	82.62
292.064	92.62
292.295	81.62
292.526	84.62
292.757	94.62
292.987	98.62
293.218	92.62
293.449	87.62
293.68	80.62
293.91	99.62
294.141	87.62
294.372	81.62
294.603	70.62
294.833	94.62
295.064	85.62
295.295	87.62
295.525	92.62
295.756	92.62
295.987	87.62
296.217	89.62
296.448	90.62
296.679	92.62
296.909	92.62
297.14	87.62
297.37	74.62
297.601	96.62
297.831	81.62
298.062	90.62
298.292	84.62
298.523	95.62
298.753	84.62
298.984	97.62
299.214	89.62
299.445	89.62
299.675	103.62
299.905	89.62
300.136	85.62
300.366	93.62
300.597	87.62
300.827	95.62
301.057	95.62
301.288	91.62
301.518	100.62
301.748	88.62
301.979	112.62
302.209	94.62
302.439	93.62
302.669	105.62
302.9	91.62
303.13	107.62
303.36	83.62
303.59	80.62
303.82	91.62
304.051	105.62
304.281	83.62
304.511	113.62
304.741	87.62
304.971	89.62
305.201	94.62
305.431	91.62
305.661	102.62
305.891	96.62
306.121	98.62
306.352	79.62
306.582	99.62
306.812	90.62
307.042	96.62
307.272	103.62
307.502	84.62
307.731	100.62
307.961	91.62
308.191	88.62
308.421	91.62
308.651	87.62
308.881	83.62
309.111	74.62
309.341	93.62
309.571	87.62
309.8	85.62
310.03	89.62
310.26	94.62
310.49	85.62
310.72	83.62
310.949	91.62
311.179	90.62
311.409	89.62
311.639	94.62
311.868	80.62
312.098	107.62
312.328	98.62
312.557	87.62
312.787	85.62
313.017	82.62
313.246	94.62
313.476	98.62
313.706	93.62
313.935	95.62
314.165	86.62
314.394	81.62
314.624	87.62
314.853	93.62
315.083	91.62
315.312	81.62
315.542	79.62
315.771	87.62
316.001	91.62
316.23	97.62
316.46	93.62
316.689	78.62
316.919	84.62
317.148	89.62
317.377	94.62
317.607	82.62
317.836	96.62
318.065	101.62
318.295	95.62
318.524	77.62
318.753	80.62
318.983	90.62
319.212	84.62
319.441	97.62
319.67	84.62
319.9	80.62
320.129	96.62
320.358	109.62
320.587	95.62
320.816	79.62
321.046	81.62
321.275	93.62
321.504	94.62
321.733	91.62
321.962	87.62
322.191	92.62
322.42	75.62
322.649	105.62
322.878	74.62
323.108	99.62
323.337	98.62
323.566	99.62
323.795	80.62
324.024	82.62
324.253	74.62
324.482	99.62
324.71	99.62
324.939	91.62
325.168	91.62
325.397	91.62
325.626	81.62
325.855	89.62
326.084	92.62
326.313	84.62
326.542	82.62
326.77	104.62
326.999	83.62
327.228	86.62
327.457	87.62
327.686	88.62
327.914	88.62
328.143	98.62
328.372	92.62
328.6	97.62
328.829	87.62
329.058	88.62
329.287	94.62
329.515	97.62
329.744	97.62
329.972	87.62
330.201	84.62
330.43	93.62
330.658	71.62
330.887	90.62
331.115	76.62
331.344	88.62
331.572	87.62
331.801	88.62
332.03	84.62
332.258	90.62
332.486	100.62
332.715	88.62
332.943	84.62
333.172	98.62
333.4	101.62
333.629	96.62
333.857	80.62
334.085	88.62
334.314	77.62
334.542	91.62
334.771	91.62
334.999	93.62
335.227	89.62
335.455	100.62
335.684	91.62
335.912	104.62
336.14	95.62
336.369	86.62
336.597	80.62
336.825	89.62
337.053	72.62
337.281	84.62
337.51	98.62
337.738	103.62
337.966	92.62
338.194	91.62
338.422	92.62
338.65	93.62
338.878	95.62
339.106	92.62
339.334	87.62
339.562	95.62
339.79	80.62
340.018	96.62
340.246	90.62
340.474	86.62
340.702	76.62
340.93	81.62
341.158	87.62
341.386	96.62
341.614	89.62
341.842	84.62
342.07	93.62
342.298	92.62
342.526	97.62
342.754	93.62
342.981	88.62
343.209	97.62
343.437	93.62
343.665	84.62
343.893	91.62
344.12	95.62
344.348	85.62
344.576	85.62
344.804	86.62
345.031	99.62
345.259	77.62
345.487	95.62
345.714	91.62
345.942	94.62
346.17	104.62
346.397	91.62
346.625	99.62
346.853	79.62
347.08	89.62
347.308	94.62
347.535	78.62
347.763	85.62
347.99	103.62
348.218	90.62
348.445	92.62
348.673	90.62
348.9	88.62
349.128	87.62
349.355	89.62
349.583	70.62
349.81	98.62
350.037	96.62
350.265	96.62
350.492	87.62
350.72	98.62
350.947	91.62
351.174	101.62
351.402	110.62
351.629	81.62
351.856	84.62
352.083	90.62
352.311	79.62
352.538	83.62
352.765	91.62
352.992	87.62
353.22	83.62
353.447	96.62
353.674	85.62
353.901	91.62
354.128	87.62
354.355	86.62
354.583	78.62
354.81	84.62
355.037	91.62
355.264	93.62
355.491	90.62
355.718	92.62
355.945	93.62
356.172	85.62
356.399	90.62
356.626	100.62
356.853	80.62
357.08	94.62
357.307	87.62
357.534	75.62
357.761	107.62
357.988	66.62
358.215	90.62
358.441	101.62
358.668	79.62
358.895	70.62
359.122	84.62
359.349	83.62
359.576	83.62
359.802	89.62
360.029	101.62
360.256	101.62
360.483	93.62
360.709	89.62
360.936	95.62
361.163	88.62
361.39	80.62
361.616	94.62
361.843	95.62
362.07	84.62
362.296	103.62
362.523	91.62
362.749	78.62
362.976	98.62
363.203	88.62
363.429	86.62
363.656	89.62
363.882	91.62
364.109	88.62
364.335	92.62
364.562	90.62
364.788	95.62
365.015	81.62
365.241	80.62
365.468	80.62
365.694	78.62
365.92	103.62
366.147	90.62
366.373	96.62
366.599	115.62
366.826	80.62
367.052	77.62
367.278	83.62
367.505	78.62
367.731	75.62
367.957	98.62
368.184	97.62
368.41	95.62
368.636	91.62
368.862	86.62
369.089	79.62
369.315	71.62
369.541	87.62
369.767	94.62
369.993	82.62
370.219	97.62
370.445	83.62
370.672	91.62
370.898	100.62
371.124	83.62
371.35	77.62
371.576	92.62
371.802	83.62
372.028	90.62
372.254	85.62
372.48	80.62
372.706	79.62
372.932	87.62
373.158	88.62
373.384	84.62
373.61	73.62
373.835	87.62
374.061	79.62
374.287	89.62
374.513	90.62
374.739	93.62
374.965	92.62
375.191	91.62
375.416	70.62
375.642	70.62
375.868	100.62
376.094	94.62
376.319	96.62
376.545	89.62
376.771	93.62
376.997	96.62
377.222	81.62
377.448	90.62
377.674	87.62
377.899	91.62
378.125	79.62
378.35	81.62
378.576	77.62
378.802	78.62
379.027	87.62
379.253	109.62
379.478	87.62
379.704	91.62
379.929	85.62
380.155	92.62
380.38	90.62
380.606	82.62
380.831	80.62
381.057	87.62
381.282	83.62
381.507	87.62
381.733	91.62
381.958	88.62
382.184	75.62
382.409	103.62
382.634	83.62
382.86	83.62
383.085	77.62
383.31	92.62
383.535	86.62
383.761	89.62
383.986	107.62
384.211	88.62
384.436	90.62
384.662	93.62
384.887	94.62
385.112	93.62
385.337	110.62
385.562	84.62
385.787	100.62
386.013	95.62
386.238	79.62
386.463	89.62
386.688	84.62
386.913	87.62
387.138	92.62
387.363	86.62
387.588	94.62
387.813	97.62
388.038	72.62
388.263	84.62
388.488	98.62
388.713	84.62
388.938	82.62
389.163	91.62
389.387	72.62
389.612	77.62
389.837	92.62
390.062	85.62
390.287	95.62
390.512	91.62
390.736	93.62
390.961	81.62
391.186	84.62
391.411	99.62
391.636	87.62
391.86	87.62
392.085	86.62
392.31	91.62
392.534	86.62
392.759	89.62
392.984	92.62
393.208	99.62
393.433	85.62
393.658	84.62
393.882	81.62
394.107	92.62
394.331	85.62
394.556	90.62
394.78	101.62
395.005	103.62
395.229	75.62
395.454	76.62
395.678	89.62
395.903	80.62
396.127	79.62
396.352	100.62
396.576	85.62
396.801	86.62
397.025	87.62
397.249	93.62
397.474	86.62
397.698	91.62
397.922	87.62
398.147	91.62
398.371	90.62
398.595	85.62
398.82	96.62
399.044	93.62
399.268	89.62
399.492	94.62
399.717	106.62
399.941	95.62
400.165	97.62
400.389	106.62
400.613	95.62
400.837	88.62
401.062	93.62
401.286	92.62
401.51	98.62
401.734	90.62
401.958	97.62
402.182	93.62
402.406	101.62
402.63	88.62
402.854	91.62
403.078	85.62
403.302	89.62
403.526	74.62
403.75	88.62
403.974	90.62
404.198	83.62
404.422	104.62
404.645	89.62
404.869	89.62
405.093	98.62
405.317	91.62
405.541	95.62
405.765	98.62
405.988	95.62
406.212	87.62
406.436	101.62
406.66	97.62
406.883	86.62
407.107	95.62
407.331	90.62
407.555	85.62
407.778	95.62
408.002	91.62
408.226	91.62
408.449	108.62
408.673	83.62
408.896	74.62
409.12	79.62
409.344	79.62
409.567	88.62
409.791	81.62
410.014	95.62
410.238	102.62
410.461	83.62
410.685	103.62
410.908	105.62
411.132	105.62
411.355	92.62
411.578	67.62
411.802	105.62
412.025	85.62
412.249	92.62
412.472	102.62
412.695	88.62
412.919	88.62
413.142	90.62
413.365	82.62
413.589	61.62
413.812	92.62
414.035	91.62
414.258	88.62
414.482	87.62
414.705	83.62
414.928	94.62
415.151	98.62
415.374	93.62
415.597	67.62
415.821	95.62
416.044	80.62
416.267	97.62
416.49	90.62
416.713	97.62
416.936	101.62
417.159	89.62
417.382	105.62
417.605	94.62
417.828	99.62
418.051	91.62
418.274	92.62
418.497	95.62
418.72	95.62
418.943	100.62
419.166	91.62
419.389	95.62
419.611	79.62
419.834	101.62
420.057	93.62
420.28	92.62
420.503	96.62
420.726	91.62
420.948	83.62
421.171	92.62
421.394	92.62
421.617	103.62
421.839	75.62
422.062	96.62
422.285	85.62
422.507	83.62
422.73	96.62
422.953	107.62
423.175	81.62
423.398	83.62
423.621	91.62
423.843	83.62
424.066	87.62
424.288	103.62
424.511	98.62
424.733	91.62
424.956	95.62
425.178	96.62
425.401	91.62
425.623	94.62
425.846	93.62
426.068	84.62
426.291	83.62
426.513	93.62
426.735	95.62
426.958	100.62
427.18	89.62
427.402	87.62
427.625	65.62
427.847	93.62
428.069	88.62
428.292	82.62
428.514	102.62
428.736	84.62
428.958	87.62
429.181	81.62
429.403	81.62
429.625	81.62
429.847	96.62
430.069	82.62
430.292	77.62
430.514	92.62
430.736	82.62
430.958	87.62
431.18	75.62
431.402	96.62
431.624	75.62
431.846	70.62
432.068	81.62
432.29	83.62
432.512	86.62
432.734	88.62
432.956	95.62
433.178	76.62
433.4	89.62
433.622	89.62
433.844	84.62
434.066	95.62
434.287	83.62
434.509	88.62
434.731	91.62
434.953	89.62
435.175	89.62
435.397	80.62
435.618	90.62
435.84	99.62
436.062	84.62
436.284	78.62
436.505	93.62
436.727	103.62
436.949	93.62
437.17	97.62
437.392	107.62
437.614	83.62
437.835	85.62
438.057	90.62
438.278	68.62
438.5	84.62
438.721	90.62
438.943	97.62
439.165	91.62
439.386	99.62
439.608	101.62
439.829	99.62
440.05	99.62
440.272	82.62
440.493	75.62
440.715	85.62
440.936	94.62
441.158	83.62
441.379	82.62
441.6	86.62
441.822	90.62
442.043	96.62
442.264	87.62
442.486	79.62
442.707	103.62
442.928	94.62
443.149	77.62
443.371	91.62
443.592	93.62
443.813	98.62
444.034	88.62
444.255	97.62
444.476	96.62
444.698	97.62
444.919	96.62
445.14	147.62
445.361	128.62
445.582	97.62
445.803	87.62
446.024	85.62
446.245	93.62
446.466	82.62
446.687	98.62
446.908	93.62
447.129	93.62
447.35	80.62
447.571	83.62
447.792	80.62
448.013	92.62
448.234	87.62
448.455	87.62
448.675	84.62
448.896	91.62
449.117	79.62
449.338	81.62
449.559	98.62
449.779	91.62
450	91.62
450.221	99.62
450.442	88.62
450.662	91.62
450.883	100.62
451.104	94.62
451.324	90.62
451.545	90.62
451.766	91.62
451.986	100.62
452.207	84.62
452.428	91.62
452.648	90.62
452.869	77.62
453.089	78.62
453.31	75.62
453.53	87.62
453.751	99.62
453.971	105.62
454.192	83.62
454.412	90.62
454.633	96.62
454.853	81.62
455.073	87.62
455.294	80.62
455.514	87.62
455.734	97.62
455.955	83.62
456.175	88.62
456.395	78.62
456.616	91.62
456.836	87.62
457.056	79.62
457.276	88.62
457.497	87.62
457.717	104.62
457.937	100.62
458.157	83.62
458.377	84.62
458.598	90.62
458.818	92.62
459.038	89.62
459.258	96.62
459.478	92.62
459.698	91.62
459.918	91.62
460.138	94.62
460.358	98.62
460.578	99.62
460.798	89.62
461.018	72.62
461.238	85.62
461.458	103.62
461.678	89.62
461.898	87.62
462.118	95.62
462.338	87.62
462.558	105.62
462.777	89.62
462.997	95.62
463.217	105.62
463.437	82.62
463.657	90.62
463.876	103.62
464.096	96.62
464.316	95.62
464.536	96.62
464.755	93.62
464.975	82.62
465.195	87.62
465.414	95.62
465.634	97.62
465.854	99.62
466.073	93.62
466.293	97.62
466.512	87.62
466.732	87.62
466.951	86.62
467.171	77.62
467.391	101.62
467.61	94.62
467.829	94.62
468.049	73.62
468.268	93.62
468.488	90.62
468.707	80.62
468.927	72.62
469.146	85.62
469.365	113.62
469.585	95.62
469.804	81.62
470.023	76.62
470.243	96.62
470.462	91.62
470.681	93.62
470.901	87.62
471.12	82.62
471.339	89.62
471.558	89.62
471.777	83.62
471.997	73.62
472.216	70.62
472.435	72.62
472.654	92.62
472.873	87.62
473.092	97.62
473.311	98.62
473.53	92.62
473.749	81.62
473.968	94.62
474.187	101.62
474.406	101.62
474.625	105.62
474.844	69.62
475.063	98.62
475.282	85.62
475.501	99.62
475.72	95.62
475.939	102.62
476.158	98.62
476.377	91.62
476.596	100.62
476.814	95.62
477.033	87.62
477.252	87.62
477.471	88.62
477.69	99.62
477.908	90.62
478.127	95.62
478.346	83.62
478.564	88.62
478.783	84.62
479.002	96.62
479.22	97.62
479.439	80.62
479.658	83.62
479.876	81.62
480.095	95.62
480.313	106.62
480.532	92.62
480.751	102.62
480.969	79.62
481.188	83.62
481.406	112.62
481.624	94.62
481.843	97.62
482.061	68.62
482.28	81.62
482.498	93.62
482.717	105.62
482.935	92.62
483.153	90.62
483.372	82.62
483.59	91.62
483.808	79.62
484.027	96.62
484.245	75.62
484.463	97.62
484.681	89.62
484.9	97.62
485.118	104.62
485.336	79.62
485.554	85.62
485.772	75.62
485.99	88.62
486.209	90.62
486.427	89.62
486.645	101.62
486.863	95.62
487.081	97.62
487.299	76.62
487.517	77.62
487.735	107.62
487.953	83.62
488.171	88.62
488.389	90.62
488.607	98.62
488.825	101.62
489.043	94.62
489.261	94.62
489.479	100.62
489.696	101.62
489.914	84.62
490.132	97.62
490.35	91.62
490.568	81.62
490.786	98.62
491.003	93.62
491.221	91.62
491.439	104.62
491.657	86.62
491.874	90.62
492.092	85.62
492.31	96.62
492.527	91.62
492.745	89.62
492.963	99.62
493.18	91.62
493.398	100.62
493.615	81.62
493.833	92.62
494.05	83.62
494.268	102.62
494.485	95.62
494.703	91.62
494.92	84.62
495.138	88.62
495.355	92.62
495.573	102.62
495.79	108.62
496.008	98.62
496.225	96.62
496.442	80.62
496.66	76.62
496.877	93.62
497.094	104.62
497.312	81.62
497.529	107.62
497.746	87.62
497.963	79.62
498.181	90.62
498.398	82.62
498.615	97.62
498.832	93.62
499.049	81.62
499.267	92.62
499.484	99.62
499.701	96.62
499.918	99.62
500.135	100.62
500.352	114.62
500.569	99.62
500.786	99.62
501.003	110.62
501.22	105.62
501.437	83.62
501.654	100.62
501.871	95.62
502.088	100.62
502.305	93.62
502.522	85.62
502.739	103.62
502.956	94.62
503.172	82.62
503.389	96.62
503.606	91.62
503.823	89.62
504.04	102.62
504.256	87.62
504.473	96.62
504.69	88.62
504.907	97.62
505.123	109.62
505.34	90.62
505.557	84.62
505.773	76.62
505.99	99.62
506.207	79.62
506.423	84.62
506.64	88.62
506.856	96.62
507.073	101.62
507.289	88.62
507.506	100.62
507.722	98.62
507.939	87.62
508.155	85.62
508.372	91.62
508.588	89.62
508.805	84.62
509.021	93.62
509.238	79.62
509.454	85.62
509.67	84.62
509.887	102.62
510.103	73.62
510.319	83.62
510.536	79.62
510.752	96.62
510.968	95.62
511.184	93.62
511.401	87.62
511.617	88.62
511.833	92.62
512.049	80.62
512.265	92.62
512.481	82.62
512.698	89.62
512.914	107.62
513.13	87.62
513.346	97.62
513.562	83.62
513.778	97.62
513.994	99.62
514.21	85.62
514.426	90.62
514.642	93.62
514.858	95.62
515.074	95.62
515.29	97.62
515.506	97.62
515.721	94.62
515.937	81.62
516.153	85.62
516.369	88.62
516.585	82.62
516.801	76.62
517.016	92.62
517.232	87.62
517.448	91.62
517.664	100.62
517.879	92.62
518.095	104.62
518.311	106.62
518.527	105.62
518.742	93.62
