Data from BG_HRD10591_046.txt Node
Date: Fri May 16 15:27:10 EDT 2025
User: Yrep
Spectrometer: HR+D1059
Trigger mode: 1
Integration Time (sec): 1.000000E-1
Scans to average: 1
Electric dark correction enabled: true
Nonlinearity correction enabled: false
Boxcar width: 0
XAxis mode: Wavelengths
Number of Pixels in Spectrum: 2048
>>>>>Begin Spectral Data<<<<<
223.165	-20.25
223.4	-20.25
223.635	-20.25
223.869	-13.25
224.104	-6.25
224.338	-7.25
224.573	-5.25
224.808	-20.25
225.042	-10.25
225.277	-9.25
225.511	-15.25
225.746	11.75
225.98	-4.25
226.215	2.75
226.449	8.75
226.683	25.75
226.918	22.75
227.152	39.75
227.387	48.75
227.621	49.75
227.856	58.75
228.09	49.75
228.324	44.75
228.559	65.75
228.793	56.75
229.027	57.75
229.262	65.75
229.496	68.75
229.73	34.75
229.964	71.75
230.199	82.75
230.433	86.75
230.667	77.75
230.901	77.75
231.136	80.75
231.37	87.75
231.604	78.75
231.838	76.75
232.072	87.75
232.306	89.75
232.541	84.75
232.775	77.75
233.009	78.75
233.243	75.75
233.477	83.75
233.711	85.75
233.945	91.75
234.179	81.75
234.413	93.75
234.647	89.75
234.881	80.75
235.115	72.75
235.349	76.75
235.583	90.75
235.817	85.75
236.051	80.75
236.285	79.75
236.519	82.75
236.753	91.75
236.987	84.75
237.221	75.75
237.455	82.75
237.689	74.75
237.922	82.75
238.156	78.75
238.39	79.75
238.624	75.75
238.858	69.75
239.091	85.75
239.325	76.75
239.559	76.75
239.793	70.75
240.027	66.75
240.26	75.75
240.494	80.75
240.728	68.75
240.961	63.75
241.195	80.75
241.429	78.75
241.662	88.75
241.896	71.75
242.13	67.75
242.363	74.75
242.597	69.75
242.83	90.75
243.064	69.75
243.298	85.75
243.531	73.75
243.765	69.75
243.998	90.75
244.232	77.75
244.465	86.75
244.699	85.75
244.932	81.75
245.166	92.75
245.399	75.75
245.633	89.75
245.866	74.75
246.099	81.75
246.333	91.75
246.566	77.75
246.8	89.75
247.033	87.75
247.266	80.75
247.5	73.75
247.733	80.75
247.966	94.75
248.2	75.75
248.433	71.75
248.666	77.75
248.899	85.75
249.133	86.75
249.366	76.75
249.599	80.75
249.832	87.75
250.066	71.75
250.299	59.75
250.532	80.75
250.765	78.75
250.998	68.75
251.231	80.75
251.465	90.75
251.698	87.75
251.931	90.75
252.164	74.75
252.397	77.75
252.63	85.75
252.863	74.75
253.096	71.75
253.329	68.75
253.562	78.75
253.795	90.75
254.028	74.75
254.261	95.75
254.494	93.75
254.727	102.75
254.96	101.75
255.193	87.75
255.426	82.75
255.659	81.75
255.892	72.75
256.124	86.75
256.357	78.75
256.59	66.75
256.823	74.75
257.056	69.75
257.289	80.75
257.521	75.75
257.754	91.75
257.987	78.75
258.22	89.75
258.452	73.75
258.685	87.75
258.918	83.75
259.151	77.75
259.383	86.75
259.616	72.75
259.849	77.75
260.081	89.75
260.314	89.75
260.547	88.75
260.779	75.75
261.012	105.75
261.244	80.75
261.477	87.75
261.71	82.75
261.942	82.75
262.175	74.75
262.407	88.75
262.64	80.75
262.872	80.75
263.105	92.75
263.337	81.75
263.57	64.75
263.802	75.75
264.035	90.75
264.267	81.75
264.499	74.75
264.732	87.75
264.964	76.75
265.197	85.75
265.429	68.75
265.661	88.75
265.894	96.75
266.126	91.75
266.358	81.75
266.591	78.75
266.823	85.75
267.055	75.75
267.287	97.75
267.52	76.75
267.752	84.75
267.984	83.75
268.216	77.75
268.448	88.75
268.681	93.75
268.913	95.75
269.145	91.75
269.377	92.75
269.609	85.75
269.841	80.75
270.073	83.75
270.306	82.75
270.538	80.75
270.77	83.75
271.002	82.75
271.234	93.75
271.466	93.75
271.698	89.75
271.93	85.75
272.162	93.75
272.394	98.75
272.626	89.75
272.858	81.75
273.09	80.75
273.322	75.75
273.553	80.75
273.785	96.75
274.017	87.75
274.249	86.75
274.481	86.75
274.713	87.75
274.945	83.75
275.176	87.75
275.408	89.75
275.64	85.75
275.872	99.75
276.104	95.75
276.335	84.75
276.567	89.75
276.799	82.75
277.031	79.75
277.262	84.75
277.494	81.75
277.726	97.75
277.957	98.75
278.189	83.75
278.421	105.75
278.652	89.75
278.884	77.75
279.115	65.75
279.347	78.75
279.579	82.75
279.81	78.75
280.042	77.75
280.273	68.75
280.505	89.75
280.736	71.75
280.968	97.75
281.199	79.75
281.431	96.75
281.662	104.75
281.894	83.75
282.125	82.75
282.356	89.75
282.588	101.75
282.819	89.75
283.051	92.75
283.282	75.75
283.513	95.75
283.745	85.75
283.976	79.75
284.207	93.75
284.439	85.75
284.67	94.75
284.901	80.75
285.132	77.75
285.364	86.75
285.595	94.75
285.826	89.75
286.057	93.75
286.288	93.75
286.52	77.75
286.751	84.75
286.982	81.75
287.213	79.75
287.444	74.75
287.675	82.75
287.906	84.75
288.138	81.75
288.369	93.75
288.6	73.75
288.831	87.75
289.062	90.75
289.293	85.75
289.524	91.75
289.755	98.75
289.986	82.75
290.217	80.75
290.448	77.75
290.679	77.75
290.91	86.75
291.141	99.75
291.371	105.75
291.602	79.75
291.833	89.75
292.064	81.75
292.295	81.75
292.526	82.75
292.757	81.75
292.987	101.75
293.218	94.75
293.449	94.75
293.68	90.75
293.91	90.75
294.141	93.75
294.372	93.75
294.603	90.75
294.833	81.75
295.064	89.75
295.295	99.75
295.525	82.75
295.756	83.75
295.987	91.75
296.217	83.75
296.448	78.75
296.679	92.75
296.909	81.75
297.14	82.75
297.37	87.75
297.601	91.75
297.831	87.75
298.062	92.75
298.292	81.75
298.523	88.75
298.753	92.75
298.984	80.75
299.214	96.75
299.445	81.75
299.675	93.75
299.905	87.75
300.136	95.75
300.366	72.75
300.597	84.75
300.827	90.75
301.057	96.75
301.288	90.75
301.518	99.75
301.748	89.75
301.979	94.75
302.209	76.75
302.439	89.75
302.669	90.75
302.9	95.75
303.13	80.75
303.36	85.75
303.59	83.75
303.82	85.75
304.051	80.75
304.281	90.75
304.511	90.75
304.741	74.75
304.971	85.75
305.201	93.75
305.431	79.75
305.661	86.75
305.891	80.75
306.121	93.75
306.352	85.75
306.582	83.75
306.812	86.75
307.042	82.75
307.272	91.75
307.502	82.75
307.731	81.75
307.961	86.75
308.191	71.75
308.421	92.75
308.651	92.75
308.881	93.75
309.111	89.75
309.341	83.75
309.571	94.75
309.8	93.75
310.03	77.75
310.26	74.75
310.49	101.75
310.72	83.75
310.949	80.75
311.179	88.75
311.409	94.75
311.639	100.75
311.868	97.75
312.098	88.75
312.328	72.75
312.557	93.75
312.787	81.75
313.017	94.75
313.246	91.75
313.476	83.75
313.706	90.75
313.935	87.75
314.165	114.75
314.394	84.75
314.624	95.75
314.853	97.75
315.083	87.75
315.312	86.75
315.542	89.75
315.771	93.75
316.001	94.75
316.23	94.75
316.46	79.75
316.689	88.75
316.919	88.75
317.148	86.75
317.377	78.75
317.607	95.75
317.836	81.75
318.065	87.75
318.295	82.75
318.524	82.75
318.753	82.75
318.983	104.75
319.212	102.75
319.441	99.75
319.67	83.75
319.9	90.75
320.129	97.75
320.358	87.75
320.587	88.75
320.816	93.75
321.046	101.75
321.275	99.75
321.504	81.75
321.733	90.75
321.962	82.75
322.191	83.75
322.42	83.75
322.649	82.75
322.878	86.75
323.108	79.75
323.337	84.75
323.566	96.75
323.795	106.75
324.024	101.75
324.253	83.75
324.482	79.75
324.71	96.75
324.939	72.75
325.168	80.75
325.397	83.75
325.626	93.75
325.855	92.75
326.084	96.75
326.313	84.75
326.542	82.75
326.77	104.75
326.999	93.75
327.228	81.75
327.457	92.75
327.686	81.75
327.914	105.75
328.143	93.75
328.372	86.75
328.6	81.75
328.829	86.75
329.058	89.75
329.287	97.75
329.515	92.75
329.744	98.75
329.972	91.75
330.201	83.75
330.43	87.75
330.658	90.75
330.887	78.75
331.115	78.75
331.344	92.75
331.572	98.75
331.801	81.75
332.03	103.75
332.258	93.75
332.486	91.75
332.715	93.75
332.943	102.75
333.172	88.75
333.4	98.75
333.629	105.75
333.857	97.75
334.085	89.75
334.314	92.75
334.542	88.75
334.771	95.75
334.999	86.75
335.227	82.75
335.455	85.75
335.684	95.75
335.912	89.75
336.14	98.75
336.369	89.75
336.597	83.75
336.825	80.75
337.053	98.75
337.281	84.75
337.51	84.75
337.738	84.75
337.966	78.75
338.194	97.75
338.422	89.75
338.65	73.75
338.878	85.75
339.106	74.75
339.334	93.75
339.562	85.75
339.79	82.75
340.018	78.75
340.246	85.75
340.474	93.75
340.702	80.75
340.93	83.75
341.158	87.75
341.386	94.75
341.614	97.75
341.842	93.75
342.07	78.75
342.298	87.75
342.526	88.75
342.754	80.75
342.981	84.75
343.209	85.75
343.437	105.75
343.665	83.75
343.893	98.75
344.12	82.75
344.348	91.75
344.576	89.75
344.804	91.75
345.031	89.75
345.259	83.75
345.487	82.75
345.714	94.75
345.942	82.75
346.17	92.75
346.397	80.75
346.625	91.75
346.853	81.75
347.08	80.75
347.308	89.75
347.535	87.75
347.763	95.75
347.99	82.75
348.218	95.75
348.445	94.75
348.673	94.75
348.9	99.75
349.128	112.75
349.355	87.75
349.583	65.75
349.81	95.75
350.037	98.75
350.265	83.75
350.492	96.75
350.72	95.75
350.947	85.75
351.174	88.75
351.402	102.75
351.629	85.75
351.856	78.75
352.083	87.75
352.311	99.75
352.538	83.75
352.765	81.75
352.992	86.75
353.22	98.75
353.447	87.75
353.674	85.75
353.901	85.75
354.128	96.75
354.355	91.75
354.583	97.75
354.81	95.75
355.037	54.75
355.264	92.75
355.491	71.75
355.718	94.75
355.945	97.75
356.172	81.75
356.399	87.75
356.626	91.75
356.853	101.75
357.08	86.75
357.307	90.75
357.534	86.75
357.761	98.75
357.988	87.75
358.215	102.75
358.441	85.75
358.668	86.75
358.895	90.75
359.122	97.75
359.349	88.75
359.576	101.75
359.802	85.75
360.029	89.75
360.256	70.75
360.483	90.75
360.709	87.75
360.936	88.75
361.163	80.75
361.39	92.75
361.616	96.75
361.843	86.75
362.07	79.75
362.296	87.75
362.523	82.75
362.749	87.75
362.976	92.75
363.203	83.75
363.429	93.75
363.656	101.75
363.882	85.75
364.109	87.75
364.335	86.75
364.562	79.75
364.788	77.75
365.015	85.75
365.241	90.75
365.468	81.75
365.694	91.75
365.92	88.75
366.147	79.75
366.373	103.75
366.599	81.75
366.826	93.75
367.052	87.75
367.278	101.75
367.505	98.75
367.731	95.75
367.957	85.75
368.184	94.75
368.41	83.75
368.636	87.75
368.862	93.75
369.089	82.75
369.315	91.75
369.541	93.75
369.767	94.75
369.993	90.75
370.219	86.75
370.445	98.75
370.672	91.75
370.898	82.75
371.124	81.75
371.35	69.75
371.576	68.75
371.802	92.75
372.028	77.75
372.254	91.75
372.48	97.75
372.706	87.75
372.932	83.75
373.158	88.75
373.384	88.75
373.61	104.75
373.835	96.75
374.061	80.75
374.287	94.75
374.513	82.75
374.739	86.75
374.965	83.75
375.191	92.75
375.416	87.75
375.642	92.75
375.868	95.75
376.094	99.75
376.319	99.75
376.545	93.75
376.771	101.75
376.997	94.75
377.222	91.75
377.448	86.75
377.674	99.75
377.899	97.75
378.125	83.75
378.35	90.75
378.576	87.75
378.802	87.75
379.027	90.75
379.253	91.75
379.478	85.75
379.704	86.75
379.929	77.75
380.155	90.75
380.38	89.75
380.606	86.75
380.831	83.75
381.057	93.75
381.282	84.75
381.507	88.75
381.733	94.75
381.958	93.75
382.184	91.75
382.409	81.75
382.634	86.75
382.86	96.75
383.085	94.75
383.31	82.75
383.535	85.75
383.761	93.75
383.986	86.75
384.211	86.75
384.436	85.75
384.662	90.75
384.887	93.75
385.112	80.75
385.337	97.75
385.562	85.75
385.787	105.75
386.013	95.75
386.238	80.75
386.463	93.75
386.688	99.75
386.913	73.75
387.138	77.75
387.363	84.75
387.588	87.75
387.813	88.75
388.038	92.75
388.263	96.75
388.488	94.75
388.713	92.75
388.938	92.75
389.163	95.75
389.387	101.75
389.612	85.75
389.837	100.75
390.062	98.75
390.287	90.75
390.512	93.75
390.736	85.75
390.961	80.75
391.186	103.75
391.411	88.75
391.636	90.75
391.86	79.75
392.085	96.75
392.31	83.75
392.534	77.75
392.759	80.75
392.984	93.75
393.208	85.75
393.433	94.75
393.658	87.75
393.882	103.75
394.107	95.75
394.331	98.75
394.556	95.75
394.78	89.75
395.005	83.75
395.229	91.75
395.454	104.75
395.678	87.75
395.903	88.75
396.127	89.75
396.352	86.75
396.576	86.75
396.801	88.75
397.025	84.75
397.249	73.75
397.474	96.75
397.698	105.75
397.922	77.75
398.147	93.75
398.371	94.75
398.595	84.75
398.82	85.75
399.044	81.75
399.268	90.75
399.492	90.75
399.717	86.75
399.941	87.75
400.165	93.75
400.389	82.75
400.613	98.75
400.837	87.75
401.062	87.75
401.286	70.75
401.51	87.75
401.734	98.75
401.958	98.75
402.182	88.75
402.406	86.75
402.63	78.75
402.854	102.75
403.078	89.75
403.302	93.75
403.526	101.75
403.75	106.75
403.974	95.75
404.198	82.75
404.422	93.75
404.645	93.75
404.869	84.75
405.093	103.75
405.317	87.75
405.541	87.75
405.765	95.75
405.988	81.75
406.212	88.75
406.436	94.75
406.66	94.75
406.883	81.75
407.107	85.75
407.331	101.75
407.555	86.75
407.778	92.75
408.002	92.75
408.226	95.75
408.449	94.75
408.673	74.75
408.896	97.75
409.12	93.75
409.344	105.75
409.567	91.75
409.791	95.75
410.014	87.75
410.238	81.75
410.461	93.75
410.685	87.75
410.908	81.75
411.132	90.75
411.355	89.75
411.578	78.75
411.802	95.75
412.025	82.75
412.249	86.75
412.472	97.75
412.695	80.75
412.919	88.75
413.142	76.75
413.365	99.75
413.589	77.75
413.812	93.75
414.035	80.75
414.258	91.75
414.482	87.75
414.705	101.75
414.928	95.75
415.151	98.75
415.374	86.75
415.597	84.75
415.821	93.75
416.044	95.75
416.267	100.75
416.49	87.75
416.713	91.75
416.936	85.75
417.159	79.75
417.382	86.75
417.605	92.75
417.828	104.75
418.051	87.75
418.274	82.75
418.497	95.75
418.72	78.75
418.943	81.75
419.166	101.75
419.389	94.75
419.611	91.75
419.834	81.75
420.057	91.75
420.28	86.75
420.503	95.75
420.726	101.75
420.948	86.75
421.171	96.75
421.394	86.75
421.617	84.75
421.839	98.75
422.062	93.75
422.285	101.75
422.507	88.75
422.73	77.75
422.953	86.75
423.175	98.75
423.398	93.75
423.621	91.75
423.843	97.75
424.066	84.75
424.288	96.75
424.511	91.75
424.733	89.75
424.956	85.75
425.178	95.75
425.401	94.75
425.623	94.75
425.846	94.75
426.068	91.75
426.291	84.75
426.513	87.75
426.735	87.75
426.958	89.75
427.18	95.75
427.402	82.75
427.625	85.75
427.847	77.75
428.069	81.75
428.292	74.75
428.514	89.75
428.736	92.75
428.958	99.75
429.181	90.75
429.403	86.75
429.625	87.75
429.847	86.75
430.069	93.75
430.292	94.75
430.514	77.75
430.736	89.75
430.958	95.75
431.18	99.75
431.402	89.75
431.624	103.75
431.846	86.75
432.068	83.75
432.29	89.75
432.512	106.75
432.734	91.75
432.956	98.75
433.178	96.75
433.4	86.75
433.622	96.75
433.844	90.75
434.066	83.75
434.287	87.75
434.509	96.75
434.731	82.75
434.953	65.75
435.175	83.75
435.397	92.75
435.618	82.75
435.84	83.75
436.062	94.75
436.284	85.75
436.505	92.75
436.727	105.75
436.949	81.75
437.17	86.75
437.392	86.75
437.614	102.75
437.835	97.75
438.057	107.75
438.278	88.75
438.5	85.75
438.721	97.75
438.943	76.75
439.165	89.75
439.386	75.75
439.608	83.75
439.829	87.75
440.05	92.75
440.272	91.75
440.493	96.75
440.715	90.75
440.936	82.75
441.158	84.75
441.379	85.75
441.6	94.75
441.822	109.75
442.043	97.75
442.264	91.75
442.486	98.75
442.707	82.75
442.928	86.75
443.149	85.75
443.371	87.75
443.592	94.75
443.813	92.75
444.034	97.75
444.255	81.75
444.476	80.75
444.698	95.75
444.919	95.75
445.14	152.75
445.361	119.75
445.582	76.75
445.803	85.75
446.024	85.75
446.245	97.75
446.466	77.75
446.687	93.75
446.908	83.75
447.129	77.75
447.35	89.75
447.571	93.75
447.792	85.75
448.013	85.75
448.234	99.75
448.455	83.75
448.675	86.75
448.896	88.75
449.117	86.75
449.338	93.75
449.559	101.75
449.779	81.75
450	86.75
450.221	93.75
450.442	82.75
450.662	93.75
450.883	71.75
451.104	91.75
451.324	103.75
451.545	85.75
451.766	75.75
451.986	92.75
452.207	92.75
452.428	81.75
452.648	93.75
452.869	92.75
453.089	95.75
453.31	95.75
453.53	88.75
453.751	94.75
453.971	77.75
454.192	89.75
454.412	95.75
454.633	83.75
454.853	90.75
455.073	92.75
455.294	90.75
455.514	81.75
455.734	91.75
455.955	75.75
456.175	92.75
456.395	99.75
456.616	97.75
456.836	87.75
457.056	103.75
457.276	104.75
457.497	83.75
457.717	94.75
457.937	78.75
458.157	91.75
458.377	84.75
458.598	84.75
458.818	84.75
459.038	82.75
459.258	99.75
459.478	84.75
459.698	82.75
459.918	86.75
460.138	87.75
460.358	97.75
460.578	91.75
460.798	109.75
461.018	94.75
461.238	101.75
461.458	87.75
461.678	83.75
461.898	89.75
462.118	88.75
462.338	98.75
462.558	91.75
462.777	92.75
462.997	89.75
463.217	92.75
463.437	90.75
463.657	87.75
463.876	99.75
464.096	94.75
464.316	90.75
464.536	95.75
464.755	90.75
464.975	93.75
465.195	99.75
465.414	90.75
465.634	79.75
465.854	86.75
466.073	77.75
466.293	93.75
466.512	89.75
466.732	91.75
466.951	90.75
467.171	94.75
467.391	76.75
467.61	90.75
467.829	97.75
468.049	88.75
468.268	94.75
468.488	98.75
468.707	85.75
468.927	71.75
469.146	82.75
469.365	74.75
469.585	90.75
469.804	83.75
470.023	85.75
470.243	91.75
470.462	105.75
470.681	89.75
470.901	89.75
471.12	74.75
471.339	106.75
471.558	105.75
471.777	84.75
471.997	89.75
472.216	93.75
472.435	88.75
472.654	94.75
472.873	89.75
473.092	92.75
473.311	97.75
473.53	92.75
473.749	70.75
473.968	91.75
474.187	79.75
474.406	91.75
474.625	102.75
474.844	95.75
475.063	98.75
475.282	87.75
475.501	93.75
475.72	90.75
475.939	87.75
476.158	62.75
476.377	80.75
476.596	77.75
476.814	79.75
477.033	93.75
477.252	89.75
477.471	66.75
477.69	92.75
477.908	97.75
478.127	98.75
478.346	95.75
478.564	102.75
478.783	85.75
479.002	79.75
479.22	105.75
479.439	101.75
479.658	93.75
479.876	84.75
480.095	77.75
480.313	96.75
480.532	80.75
480.751	95.75
480.969	89.75
481.188	85.75
481.406	98.75
481.624	100.75
481.843	93.75
482.061	85.75
482.28	85.75
482.498	91.75
482.717	71.75
482.935	93.75
483.153	93.75
483.372	89.75
483.59	79.75
483.808	84.75
484.027	83.75
484.245	98.75
484.463	85.75
484.681	91.75
484.9	87.75
485.118	92.75
485.336	90.75
485.554	110.75
485.772	89.75
485.99	103.75
486.209	82.75
486.427	93.75
486.645	94.75
486.863	93.75
487.081	85.75
487.299	91.75
487.517	99.75
487.735	80.75
487.953	81.75
488.171	98.75
488.389	90.75
488.607	90.75
488.825	94.75
489.043	95.75
489.261	82.75
489.479	96.75
489.696	89.75
489.914	83.75
490.132	96.75
490.35	89.75
490.568	97.75
490.786	81.75
491.003	108.75
491.221	78.75
491.439	90.75
491.657	94.75
491.874	90.75
492.092	80.75
492.31	93.75
492.527	71.75
492.745	76.75
492.963	94.75
493.18	87.75
493.398	93.75
493.615	103.75
493.833	96.75
494.05	91.75
494.268	95.75
494.485	104.75
494.703	85.75
494.92	97.75
495.138	97.75
495.355	81.75
495.573	85.75
495.79	83.75
496.008	81.75
496.225	96.75
496.442	96.75
496.66	98.75
496.877	97.75
497.094	97.75
497.312	92.75
497.529	79.75
497.746	96.75
497.963	91.75
498.181	95.75
498.398	89.75
498.615	84.75
498.832	85.75
499.049	92.75
499.267	111.75
499.484	95.75
499.701	98.75
499.918	108.75
500.135	110.75
500.352	114.75
500.569	122.75
500.786	108.75
501.003	103.75
501.22	106.75
501.437	103.75
501.654	92.75
501.871	82.75
502.088	82.75
502.305	106.75
502.522	91.75
502.739	99.75
502.956	92.75
503.172	97.75
503.389	92.75
503.606	87.75
503.823	105.75
504.04	101.75
504.256	91.75
504.473	92.75
504.69	108.75
504.907	96.75
505.123	99.75
505.34	95.75
505.557	91.75
505.773	95.75
505.99	87.75
506.207	80.75
506.423	86.75
506.64	100.75
506.856	81.75
507.073	91.75
507.289	92.75
507.506	97.75
507.722	95.75
507.939	83.75
508.155	91.75
508.372	101.75
508.588	91.75
508.805	89.75
509.021	83.75
509.238	96.75
509.454	94.75
509.67	84.75
509.887	92.75
510.103	85.75
510.319	88.75
510.536	87.75
510.752	78.75
510.968	84.75
511.184	97.75
511.401	75.75
511.617	92.75
511.833	92.75
512.049	95.75
512.265	105.75
512.481	86.75
512.698	85.75
512.914	95.75
513.13	89.75
513.346	87.75
513.562	87.75
513.778	73.75
513.994	75.75
514.21	85.75
514.426	89.75
514.642	93.75
514.858	97.75
515.074	96.75
515.29	102.75
515.506	90.75
515.721	92.75
515.937	99.75
516.153	82.75
516.369	96.75
516.585	93.75
516.801	97.75
517.016	85.75
517.232	101.75
517.448	85.75
517.664	105.75
517.879	88.75
518.095	85.75
518.311	86.75
518.527	86.75
518.742	71.75
518.958	112.75
