Data from BG_HRD10591_089.txt Node
Date: Fri May 16 15:27:31 EDT 2025
User: Yrep
Spectrometer: HR+D1059
Trigger mode: 1
Integration Time (sec): 1.000000E-1
Scans to average: 1
Electric dark correction enabled: true
Nonlinearity correction enabled: false
Boxcar width: 0
XAxis mode: Wavelengths
Number of Pixels in Spectrum: 2048
>>>>>Begin Spectral Data<<<<<
223.165	-25.44
223.4	-25.44
223.635	-25.44
223.869	-21.44
224.104	-20.44
224.338	2.56
224.573	-23.44
224.808	-10.44
225.042	-0.44
225.277	-9.44
225.511	-3.44
225.746	2.56
225.98	10.56
226.215	10.56
226.449	16.56
226.683	18.56
226.918	21.56
227.152	31.56
227.387	42.56
227.621	54.56
227.856	42.56
228.09	44.56
228.324	56.56
228.559	54.56
228.793	59.56
229.027	62.56
229.262	70.56
229.496	60.56
229.73	69.56
229.964	65.56
230.199	65.56
230.433	68.56
230.667	75.56
230.901	86.56
231.136	74.56
231.37	78.56
231.604	81.56
231.838	82.56
232.072	87.56
232.306	74.56
232.541	82.56
232.775	70.56
233.009	69.56
233.243	84.56
233.477	79.56
233.711	60.56
233.945	76.56
234.179	93.56
234.413	74.56
234.647	82.56
234.881	77.56
235.115	82.56
235.349	71.56
235.583	90.56
235.817	59.56
236.051	60.56
236.285	82.56
236.519	76.56
236.753	65.56
236.987	70.56
237.221	78.56
237.455	85.56
237.689	72.56
237.922	77.56
238.156	83.56
238.39	85.56
238.624	74.56
238.858	71.56
239.091	59.56
239.325	72.56
239.559	66.56
239.793	78.56
240.027	81.56
240.26	79.56
240.494	86.56
240.728	72.56
240.961	72.56
241.195	76.56
241.429	62.56
241.662	68.56
241.896	76.56
242.13	67.56
242.363	73.56
242.597	80.56
242.83	93.56
243.064	80.56
243.298	68.56
243.531	65.56
243.765	72.56
243.998	76.56
244.232	72.56
244.465	88.56
244.699	80.56
244.932	61.56
245.166	79.56
245.399	93.56
245.633	90.56
245.866	86.56
246.099	80.56
246.333	78.56
246.566	68.56
246.8	90.56
247.033	89.56
247.266	80.56
247.5	80.56
247.733	69.56
247.966	73.56
248.2	80.56
248.433	66.56
248.666	76.56
248.899	73.56
249.133	70.56
249.366	81.56
249.599	82.56
249.832	95.56
250.066	79.56
250.299	87.56
250.532	76.56
250.765	79.56
250.998	78.56
251.231	74.56
251.465	71.56
251.698	65.56
251.931	93.56
252.164	56.56
252.397	72.56
252.63	82.56
252.863	71.56
253.096	84.56
253.329	82.56
253.562	70.56
253.795	83.56
254.028	72.56
254.261	86.56
254.494	79.56
254.727	87.56
254.96	71.56
255.193	73.56
255.426	78.56
255.659	82.56
255.892	86.56
256.124	64.56
256.357	75.56
256.59	84.56
256.823	74.56
257.056	78.56
257.289	85.56
257.521	80.56
257.754	70.56
257.987	94.56
258.22	84.56
258.452	90.56
258.685	89.56
258.918	80.56
259.151	83.56
259.383	69.56
259.616	78.56
259.849	74.56
260.081	78.56
260.314	84.56
260.547	71.56
260.779	84.56
261.012	94.56
261.244	68.56
261.477	88.56
261.71	76.56
261.942	76.56
262.175	74.56
262.407	91.56
262.64	72.56
262.872	62.56
263.105	82.56
263.337	71.56
263.57	84.56
263.802	78.56
264.035	78.56
264.267	81.56
264.499	75.56
264.732	86.56
264.964	85.56
265.197	64.56
265.429	95.56
265.661	78.56
265.894	77.56
266.126	73.56
266.358	75.56
266.591	80.56
266.823	80.56
267.055	86.56
267.287	77.56
267.52	92.56
267.752	75.56
267.984	93.56
268.216	86.56
268.448	77.56
268.681	92.56
268.913	84.56
269.145	86.56
269.377	74.56
269.609	75.56
269.841	79.56
270.073	89.56
270.306	72.56
270.538	80.56
270.77	78.56
271.002	75.56
271.234	64.56
271.466	88.56
271.698	66.56
271.93	78.56
272.162	99.56
272.394	82.56
272.626	86.56
272.858	82.56
273.09	80.56
273.322	83.56
273.553	83.56
273.785	83.56
274.017	89.56
274.249	81.56
274.481	85.56
274.713	78.56
274.945	84.56
275.176	78.56
275.408	94.56
275.64	88.56
275.872	87.56
276.104	74.56
276.335	89.56
276.567	87.56
276.799	92.56
277.031	79.56
277.262	89.56
277.494	78.56
277.726	73.56
277.957	91.56
278.189	86.56
278.421	89.56
278.652	69.56
278.884	73.56
279.115	90.56
279.347	70.56
279.579	82.56
279.81	80.56
280.042	92.56
280.273	91.56
280.505	80.56
280.736	80.56
280.968	72.56
281.199	80.56
281.431	79.56
281.662	85.56
281.894	88.56
282.125	82.56
282.356	72.56
282.588	89.56
282.819	78.56
283.051	92.56
283.282	72.56
283.513	82.56
283.745	79.56
283.976	82.56
284.207	83.56
284.439	82.56
284.67	88.56
284.901	87.56
285.132	79.56
285.364	79.56
285.595	93.56
285.826	90.56
286.057	82.56
286.288	74.56
286.52	71.56
286.751	81.56
286.982	95.56
287.213	82.56
287.444	86.56
287.675	58.56
287.906	95.56
288.138	79.56
288.369	76.56
288.6	69.56
288.831	79.56
289.062	81.56
289.293	100.56
289.524	76.56
289.755	89.56
289.986	69.56
290.217	76.56
290.448	83.56
290.679	87.56
290.91	86.56
291.141	85.56
291.371	79.56
291.602	68.56
291.833	80.56
292.064	71.56
292.295	79.56
292.526	65.56
292.757	90.56
292.987	84.56
293.218	75.56
293.449	65.56
293.68	79.56
293.91	76.56
294.141	93.56
294.372	79.56
294.603	88.56
294.833	71.56
295.064	88.56
295.295	75.56
295.525	77.56
295.756	81.56
295.987	79.56
296.217	80.56
296.448	80.56
296.679	80.56
296.909	88.56
297.14	90.56
297.37	94.56
297.601	82.56
297.831	84.56
298.062	84.56
298.292	84.56
298.523	84.56
298.753	87.56
298.984	87.56
299.214	84.56
299.445	80.56
299.675	73.56
299.905	84.56
300.136	82.56
300.366	79.56
300.597	84.56
300.827	88.56
301.057	76.56
301.288	76.56
301.518	91.56
301.748	79.56
301.979	83.56
302.209	79.56
302.439	86.56
302.669	70.56
302.9	85.56
303.13	85.56
303.36	83.56
303.59	93.56
303.82	72.56
304.051	70.56
304.281	80.56
304.511	90.56
304.741	87.56
304.971	95.56
305.201	71.56
305.431	87.56
305.661	74.56
305.891	71.56
306.121	72.56
306.352	83.56
306.582	92.56
306.812	86.56
307.042	70.56
307.272	88.56
307.502	81.56
307.731	78.56
307.961	83.56
308.191	68.56
308.421	79.56
308.651	85.56
308.881	76.56
309.111	94.56
309.341	82.56
309.571	77.56
309.8	80.56
310.03	85.56
310.26	81.56
310.49	83.56
310.72	93.56
310.949	85.56
311.179	91.56
311.409	77.56
311.639	80.56
311.868	76.56
312.098	79.56
312.328	86.56
312.557	94.56
312.787	84.56
313.017	99.56
313.246	72.56
313.476	86.56
313.706	78.56
313.935	90.56
314.165	88.56
314.394	71.56
314.624	73.56
314.853	78.56
315.083	67.56
315.312	78.56
315.542	76.56
315.771	89.56
316.001	79.56
316.23	73.56
316.46	90.56
316.689	92.56
316.919	86.56
317.148	76.56
317.377	82.56
317.607	69.56
317.836	83.56
318.065	74.56
318.295	78.56
318.524	84.56
318.753	70.56
318.983	65.56
319.212	82.56
319.441	79.56
319.67	78.56
319.9	88.56
320.129	79.56
320.358	64.56
320.587	82.56
320.816	75.56
321.046	79.56
321.275	84.56
321.504	100.56
321.733	68.56
321.962	87.56
322.191	72.56
322.42	68.56
322.649	84.56
322.878	89.56
323.108	85.56
323.337	77.56
323.566	82.56
323.795	92.56
324.024	77.56
324.253	70.56
324.482	78.56
324.71	62.56
324.939	94.56
325.168	78.56
325.397	92.56
325.626	78.56
325.855	60.56
326.084	79.56
326.313	88.56
326.542	78.56
326.77	87.56
326.999	77.56
327.228	72.56
327.457	86.56
327.686	71.56
327.914	81.56
328.143	86.56
328.372	77.56
328.6	85.56
328.829	87.56
329.058	87.56
329.287	77.56
329.515	73.56
329.744	79.56
329.972	80.56
330.201	77.56
330.43	73.56
330.658	79.56
330.887	81.56
331.115	71.56
331.344	69.56
331.572	86.56
331.801	76.56
332.03	76.56
332.258	88.56
332.486	77.56
332.715	79.56
332.943	78.56
333.172	82.56
333.4	81.56
333.629	82.56
333.857	84.56
334.085	82.56
334.314	67.56
334.542	73.56
334.771	80.56
334.999	90.56
335.227	89.56
335.455	85.56
335.684	79.56
335.912	88.56
336.14	88.56
336.369	63.56
336.597	78.56
336.825	100.56
337.053	83.56
337.281	88.56
337.51	79.56
337.738	84.56
337.966	74.56
338.194	74.56
338.422	72.56
338.65	85.56
338.878	78.56
339.106	70.56
339.334	90.56
339.562	73.56
339.79	64.56
340.018	70.56
340.246	68.56
340.474	74.56
340.702	79.56
340.93	74.56
341.158	76.56
341.386	76.56
341.614	72.56
341.842	78.56
342.07	78.56
342.298	84.56
342.526	68.56
342.754	78.56
342.981	86.56
343.209	86.56
343.437	98.56
343.665	76.56
343.893	78.56
344.12	75.56
344.348	78.56
344.576	88.56
344.804	77.56
345.031	76.56
345.259	83.56
345.487	91.56
345.714	99.56
345.942	96.56
346.17	90.56
346.397	80.56
346.625	85.56
346.853	84.56
347.08	86.56
347.308	90.56
347.535	62.56
347.763	61.56
347.99	89.56
348.218	90.56
348.445	67.56
348.673	72.56
348.9	87.56
349.128	84.56
349.355	79.56
349.583	80.56
349.81	90.56
350.037	79.56
350.265	72.56
350.492	83.56
350.72	82.56
350.947	95.56
351.174	87.56
351.402	82.56
351.629	63.56
351.856	89.56
352.083	65.56
352.311	80.56
352.538	79.56
352.765	75.56
352.992	74.56
353.22	81.56
353.447	105.56
353.674	76.56
353.901	89.56
354.128	76.56
354.355	85.56
354.583	76.56
354.81	78.56
355.037	78.56
355.264	89.56
355.491	82.56
355.718	73.56
355.945	70.56
356.172	84.56
356.399	82.56
356.626	81.56
356.853	76.56
357.08	81.56
357.307	82.56
357.534	75.56
357.761	83.56
357.988	70.56
358.215	83.56
358.441	85.56
358.668	75.56
358.895	96.56
359.122	80.56
359.349	72.56
359.576	70.56
359.802	76.56
360.029	70.56
360.256	90.56
360.483	82.56
360.709	75.56
360.936	81.56
361.163	75.56
361.39	80.56
361.616	81.56
361.843	71.56
362.07	79.56
362.296	77.56
362.523	71.56
362.749	78.56
362.976	90.56
363.203	72.56
363.429	74.56
363.656	75.56
363.882	67.56
364.109	80.56
364.335	81.56
364.562	73.56
364.788	88.56
365.015	74.56
365.241	83.56
365.468	79.56
365.694	90.56
365.92	86.56
366.147	83.56
366.373	72.56
366.599	82.56
366.826	82.56
367.052	79.56
367.278	78.56
367.505	86.56
367.731	94.56
367.957	69.56
368.184	92.56
368.41	87.56
368.636	81.56
368.862	89.56
369.089	84.56
369.315	71.56
369.541	87.56
369.767	65.56
369.993	80.56
370.219	83.56
370.445	79.56
370.672	93.56
370.898	74.56
371.124	70.56
371.35	69.56
371.576	78.56
371.802	77.56
372.028	70.56
372.254	78.56
372.48	72.56
372.706	82.56
372.932	85.56
373.158	81.56
373.384	90.56
373.61	77.56
373.835	79.56
374.061	70.56
374.287	74.56
374.513	74.56
374.739	70.56
374.965	82.56
375.191	60.56
375.416	68.56
375.642	89.56
375.868	92.56
376.094	81.56
376.319	78.56
376.545	85.56
376.771	74.56
376.997	66.56
377.222	78.56
377.448	86.56
377.674	82.56
377.899	80.56
378.125	71.56
378.35	68.56
378.576	85.56
378.802	75.56
379.027	77.56
379.253	82.56
379.478	80.56
379.704	79.56
379.929	79.56
380.155	86.56
380.38	82.56
380.606	93.56
380.831	90.56
381.057	73.56
381.282	84.56
381.507	73.56
381.733	87.56
381.958	72.56
382.184	83.56
382.409	87.56
382.634	76.56
382.86	86.56
383.085	85.56
383.31	77.56
383.535	82.56
383.761	88.56
383.986	82.56
384.211	72.56
384.436	82.56
384.662	97.56
384.887	77.56
385.112	74.56
385.337	86.56
385.562	74.56
385.787	78.56
386.013	77.56
386.238	74.56
386.463	81.56
386.688	85.56
386.913	69.56
387.138	71.56
387.363	88.56
387.588	86.56
387.813	80.56
388.038	70.56
388.263	75.56
388.488	77.56
388.713	83.56
388.938	85.56
389.163	83.56
389.387	89.56
389.612	74.56
389.837	77.56
390.062	74.56
390.287	86.56
390.512	88.56
390.736	77.56
390.961	76.56
391.186	77.56
391.411	88.56
391.636	58.56
391.86	75.56
392.085	73.56
392.31	84.56
392.534	77.56
392.759	78.56
392.984	74.56
393.208	88.56
393.433	78.56
393.658	85.56
393.882	96.56
394.107	81.56
394.331	75.56
394.556	75.56
394.78	83.56
395.005	61.56
395.229	70.56
395.454	73.56
395.678	91.56
395.903	83.56
396.127	92.56
396.352	85.56
396.576	86.56
396.801	82.56
397.025	69.56
397.249	83.56
397.474	74.56
397.698	84.56
397.922	91.56
398.147	76.56
398.371	92.56
398.595	81.56
398.82	75.56
399.044	85.56
399.268	62.56
399.492	68.56
399.717	76.56
399.941	86.56
400.165	79.56
400.389	77.56
400.613	76.56
400.837	76.56
401.062	80.56
401.286	85.56
401.51	82.56
401.734	90.56
401.958	78.56
402.182	78.56
402.406	71.56
402.63	77.56
402.854	70.56
403.078	62.56
403.302	62.56
403.526	75.56
403.75	65.56
403.974	75.56
404.198	70.56
404.422	69.56
404.645	75.56
404.869	82.56
405.093	77.56
405.317	79.56
405.541	92.56
405.765	78.56
405.988	86.56
406.212	76.56
406.436	82.56
406.66	88.56
406.883	74.56
407.107	69.56
407.331	81.56
407.555	92.56
407.778	71.56
408.002	87.56
408.226	87.56
408.449	83.56
408.673	79.56
408.896	79.56
409.12	82.56
409.344	56.56
409.567	70.56
409.791	76.56
410.014	76.56
410.238	73.56
410.461	84.56
410.685	84.56
410.908	74.56
411.132	82.56
411.355	74.56
411.578	75.56
411.802	70.56
412.025	89.56
412.249	71.56
412.472	81.56
412.695	75.56
412.919	85.56
413.142	77.56
413.365	84.56
413.589	74.56
413.812	79.56
414.035	85.56
414.258	86.56
414.482	83.56
414.705	82.56
414.928	93.56
415.151	74.56
415.374	82.56
415.597	80.56
415.821	75.56
416.044	76.56
416.267	70.56
416.49	64.56
416.713	91.56
416.936	77.56
417.159	75.56
417.382	82.56
417.605	86.56
417.828	85.56
418.051	74.56
418.274	80.56
418.497	80.56
418.72	78.56
418.943	71.56
419.166	83.56
419.389	74.56
419.611	70.56
419.834	76.56
420.057	75.56
420.28	82.56
420.503	79.56
420.726	78.56
420.948	80.56
421.171	89.56
421.394	60.56
421.617	99.56
421.839	80.56
422.062	78.56
422.285	84.56
422.507	80.56
422.73	70.56
422.953	74.56
423.175	61.56
423.398	61.56
423.621	82.56
423.843	80.56
424.066	65.56
424.288	92.56
424.511	80.56
424.733	76.56
424.956	91.56
425.178	88.56
425.401	75.56
425.623	74.56
425.846	86.56
426.068	92.56
426.291	80.56
426.513	88.56
426.735	66.56
426.958	70.56
427.18	76.56
427.402	82.56
427.625	82.56
427.847	81.56
428.069	71.56
428.292	74.56
428.514	81.56
428.736	91.56
428.958	81.56
429.181	82.56
429.403	83.56
429.625	95.56
429.847	93.56
430.069	91.56
430.292	78.56
430.514	76.56
430.736	70.56
430.958	88.56
431.18	64.56
431.402	87.56
431.624	79.56
431.846	85.56
432.068	74.56
432.29	86.56
432.512	84.56
432.734	85.56
432.956	84.56
433.178	85.56
433.4	78.56
433.622	84.56
433.844	87.56
434.066	83.56
434.287	68.56
434.509	75.56
434.731	85.56
434.953	94.56
435.175	89.56
435.397	83.56
435.618	76.56
435.84	82.56
436.062	87.56
436.284	68.56
436.505	76.56
436.727	77.56
436.949	77.56
437.17	77.56
437.392	63.56
437.614	74.56
437.835	78.56
438.057	79.56
438.278	81.56
438.5	74.56
438.721	79.56
438.943	83.56
439.165	91.56
439.386	88.56
439.608	78.56
439.829	81.56
440.05	70.56
440.272	76.56
440.493	78.56
440.715	73.56
440.936	73.56
441.158	87.56
441.379	69.56
441.6	72.56
441.822	83.56
442.043	77.56
442.264	78.56
442.486	71.56
442.707	77.56
442.928	72.56
443.149	83.56
443.371	84.56
443.592	73.56
443.813	66.56
444.034	87.56
444.255	73.56
444.476	72.56
444.698	76.56
444.919	79.56
445.14	154.56
445.361	108.56
445.582	94.56
445.803	78.56
446.024	72.56
446.245	82.56
446.466	78.56
446.687	81.56
446.908	81.56
447.129	78.56
447.35	70.56
447.571	78.56
447.792	91.56
448.013	88.56
448.234	61.56
448.455	82.56
448.675	88.56
448.896	75.56
449.117	68.56
449.338	92.56
449.559	95.56
449.779	82.56
450	68.56
450.221	71.56
450.442	70.56
450.662	67.56
450.883	77.56
451.104	76.56
451.324	68.56
451.545	78.56
451.766	80.56
451.986	87.56
452.207	74.56
452.428	95.56
452.648	74.56
452.869	86.56
453.089	76.56
453.31	78.56
453.53	84.56
453.751	87.56
453.971	86.56
454.192	88.56
454.412	80.56
454.633	71.56
454.853	85.56
455.073	77.56
455.294	83.56
455.514	84.56
455.734	77.56
455.955	85.56
456.175	76.56
456.395	80.56
456.616	62.56
456.836	77.56
457.056	79.56
457.276	84.56
457.497	70.56
457.717	84.56
457.937	78.56
458.157	74.56
458.377	74.56
458.598	77.56
458.818	79.56
459.038	90.56
459.258	73.56
459.478	70.56
459.698	93.56
459.918	74.56
460.138	66.56
460.358	83.56
460.578	83.56
460.798	83.56
461.018	75.56
461.238	85.56
461.458	88.56
461.678	82.56
461.898	85.56
462.118	78.56
462.338	70.56
462.558	76.56
462.777	78.56
462.997	75.56
463.217	82.56
463.437	78.56
463.657	75.56
463.876	85.56
464.096	71.56
464.316	84.56
464.536	85.56
464.755	76.56
464.975	79.56
465.195	85.56
465.414	72.56
465.634	80.56
465.854	79.56
466.073	70.56
466.293	79.56
466.512	89.56
466.732	78.56
466.951	91.56
467.171	88.56
467.391	79.56
467.61	81.56
467.829	69.56
468.049	82.56
468.268	83.56
468.488	75.56
468.707	77.56
468.927	87.56
469.146	80.56
469.365	89.56
469.585	82.56
469.804	86.56
470.023	78.56
470.243	56.56
470.462	91.56
470.681	74.56
470.901	82.56
471.12	88.56
471.339	84.56
471.558	66.56
471.777	70.56
471.997	73.56
472.216	78.56
472.435	61.56
472.654	68.56
472.873	91.56
473.092	86.56
473.311	68.56
473.53	77.56
473.749	90.56
473.968	79.56
474.187	95.56
474.406	68.56
474.625	86.56
474.844	79.56
475.063	82.56
475.282	74.56
475.501	80.56
475.72	111.56
475.939	72.56
476.158	82.56
476.377	87.56
476.596	61.56
476.814	102.56
477.033	86.56
477.252	80.56
477.471	77.56
477.69	75.56
477.908	78.56
478.127	86.56
478.346	72.56
478.564	79.56
478.783	91.56
479.002	90.56
479.22	76.56
479.439	76.56
479.658	83.56
479.876	77.56
480.095	81.56
480.313	85.56
480.532	77.56
480.751	80.56
480.969	81.56
481.188	74.56
481.406	91.56
481.624	72.56
481.843	70.56
482.061	87.56
482.28	75.56
482.498	86.56
482.717	96.56
482.935	80.56
483.153	83.56
483.372	86.56
483.59	82.56
483.808	74.56
484.027	86.56
484.245	81.56
484.463	76.56
484.681	93.56
484.9	77.56
485.118	74.56
485.336	80.56
485.554	92.56
485.772	85.56
485.99	105.56
486.209	73.56
486.427	76.56
486.645	76.56
486.863	53.56
487.081	64.56
487.299	81.56
487.517	80.56
487.735	64.56
487.953	70.56
488.171	77.56
488.389	70.56
488.607	85.56
488.825	73.56
489.043	82.56
489.261	86.56
489.479	84.56
489.696	83.56
489.914	90.56
490.132	86.56
490.35	76.56
490.568	83.56
490.786	82.56
491.003	94.56
491.221	86.56
491.439	85.56
491.657	63.56
491.874	70.56
492.092	74.56
492.31	85.56
492.527	92.56
492.745	75.56
492.963	79.56
493.18	84.56
493.398	70.56
493.615	78.56
493.833	79.56
494.05	83.56
494.268	82.56
494.485	81.56
494.703	84.56
494.92	73.56
495.138	85.56
495.355	81.56
495.573	77.56
495.79	74.56
496.008	86.56
496.225	100.56
496.442	86.56
496.66	78.56
496.877	73.56
497.094	85.56
497.312	91.56
497.529	72.56
497.746	79.56
497.963	88.56
498.181	68.56
498.398	86.56
498.615	76.56
498.832	76.56
499.049	84.56
499.267	86.56
499.484	75.56
499.701	76.56
499.918	83.56
500.135	68.56
500.352	74.56
500.569	72.56
500.786	88.56
501.003	75.56
501.22	84.56
501.437	82.56
501.654	76.56
501.871	88.56
502.088	91.56
502.305	87.56
502.522	91.56
502.739	84.56
502.956	86.56
503.172	76.56
503.389	88.56
503.606	87.56
503.823	74.56
504.04	90.56
504.256	70.56
504.473	89.56
504.69	70.56
504.907	90.56
505.123	81.56
505.34	80.56
505.557	83.56
505.773	86.56
505.99	75.56
506.207	72.56
506.423	83.56
506.64	89.56
506.856	87.56
507.073	72.56
507.289	80.56
507.506	87.56
507.722	93.56
507.939	78.56
508.155	75.56
508.372	82.56
508.588	68.56
508.805	87.56
509.021	86.56
509.238	77.56
509.454	83.56
509.67	82.56
509.887	84.56
510.103	66.56
510.319	79.56
510.536	82.56
510.752	87.56
510.968	62.56
511.184	65.56
511.401	82.56
511.617	81.56
511.833	78.56
512.049	88.56
512.265	82.56
512.481	91.56
512.698	96.56
512.914	71.56
513.13	83.56
513.346	85.56
513.562	87.56
513.778	92.56
513.994	80.56
514.21	86.56
514.426	72.56
514.642	94.56
514.858	76.56
515.074	82.56
515.29	88.56
515.506	67.56
515.721	101.56
515.937	80.56
516.153	78.56
516.369	78.56
516.585	59.56
516.801	85.56
517.016	88.56
517.232	82.56
517.448	79.56
517.664	82.56
517.879	73.56
518.095	85.56
518.311	82.56
518.527	76.56
518.742	86.56
518.958	78.56
519.173	75.56
519.389	82.56
519.605	81.56
519.82	92.56
520.036	87.56
520.251	82.56
