Data from BG_HRD10591_047.txt Node
Date: Fri May 16 15:27:10 EDT 2025
User: Yrep
Spectrometer: HR+D1059
Trigger mode: 1
Integration Time (sec): 1.000000E-1
Scans to average: 1
Electric dark correction enabled: true
Nonlinearity correction enabled: false
Boxcar width: 0
XAxis mode: Wavelengths
Number of Pixels in Spectrum: 2048
>>>>>Begin Spectral Data<<<<<
223.165	-25.75
223.4	-25.75
223.635	-25.75
223.869	-14.75
224.104	-14.75
224.338	-11.75
224.573	-22.75
224.808	-8.75
225.042	-4.75
225.277	-10.75
225.511	-7.75
225.746	10.25
225.98	23.25
226.215	8.25
226.449	22.25
226.683	18.25
226.918	24.25
227.152	15.25
227.387	29.25
227.621	36.25
227.856	51.25
228.09	50.25
228.324	53.25
228.559	56.25
228.793	63.25
229.027	52.25
229.262	76.25
229.496	62.25
229.73	75.25
229.964	63.25
230.199	79.25
230.433	78.25
230.667	77.25
230.901	73.25
231.136	68.25
231.37	75.25
231.604	75.25
231.838	76.25
232.072	79.25
232.306	78.25
232.541	87.25
232.775	87.25
233.009	79.25
233.243	76.25
233.477	71.25
233.711	75.25
233.945	71.25
234.179	79.25
234.413	88.25
234.647	79.25
234.881	75.25
235.115	74.25
235.349	75.25
235.583	68.25
235.817	97.25
236.051	81.25
236.285	65.25
236.519	85.25
236.753	84.25
236.987	79.25
237.221	83.25
237.455	64.25
237.689	87.25
237.922	79.25
238.156	72.25
238.39	66.25
238.624	76.25
238.858	55.25
239.091	74.25
239.325	53.25
239.559	71.25
239.793	81.25
240.027	79.25
240.26	72.25
240.494	54.25
240.728	69.25
240.961	66.25
241.195	66.25
241.429	71.25
241.662	61.25
241.896	67.25
242.13	70.25
242.363	65.25
242.597	81.25
242.83	70.25
243.064	79.25
243.298	63.25
243.531	78.25
243.765	73.25
243.998	49.25
244.232	96.25
244.465	88.25
244.699	60.25
244.932	96.25
245.166	76.25
245.399	66.25
245.633	75.25
245.866	70.25
246.099	71.25
246.333	83.25
246.566	78.25
246.8	79.25
247.033	85.25
247.266	82.25
247.5	81.25
247.733	76.25
247.966	69.25
248.2	69.25
248.433	75.25
248.666	71.25
248.899	75.25
249.133	78.25
249.366	70.25
249.599	85.25
249.832	77.25
250.066	79.25
250.299	89.25
250.532	65.25
250.765	75.25
250.998	81.25
251.231	79.25
251.465	88.25
251.698	78.25
251.931	89.25
252.164	76.25
252.397	71.25
252.63	70.25
252.863	64.25
253.096	81.25
253.329	96.25
253.562	87.25
253.795	81.25
254.028	80.25
254.261	85.25
254.494	70.25
254.727	82.25
254.96	84.25
255.193	92.25
255.426	84.25
255.659	86.25
255.892	90.25
256.124	86.25
256.357	72.25
256.59	81.25
256.823	91.25
257.056	86.25
257.289	76.25
257.521	69.25
257.754	77.25
257.987	71.25
258.22	82.25
258.452	90.25
258.685	90.25
258.918	86.25
259.151	77.25
259.383	79.25
259.616	87.25
259.849	66.25
260.081	93.25
260.314	82.25
260.547	84.25
260.779	76.25
261.012	73.25
261.244	76.25
261.477	80.25
261.71	75.25
261.942	73.25
262.175	78.25
262.407	83.25
262.64	69.25
262.872	83.25
263.105	90.25
263.337	95.25
263.57	83.25
263.802	86.25
264.035	79.25
264.267	85.25
264.499	86.25
264.732	79.25
264.964	91.25
265.197	73.25
265.429	71.25
265.661	80.25
265.894	80.25
266.126	73.25
266.358	72.25
266.591	103.25
266.823	88.25
267.055	88.25
267.287	84.25
267.52	77.25
267.752	96.25
267.984	75.25
268.216	83.25
268.448	87.25
268.681	86.25
268.913	85.25
269.145	85.25
269.377	73.25
269.609	77.25
269.841	75.25
270.073	83.25
270.306	78.25
270.538	72.25
270.77	73.25
271.002	75.25
271.234	65.25
271.466	82.25
271.698	93.25
271.93	79.25
272.162	83.25
272.394	96.25
272.626	71.25
272.858	85.25
273.09	83.25
273.322	86.25
273.553	80.25
273.785	72.25
274.017	70.25
274.249	79.25
274.481	86.25
274.713	87.25
274.945	85.25
275.176	86.25
275.408	75.25
275.64	71.25
275.872	95.25
276.104	91.25
276.335	84.25
276.567	69.25
276.799	69.25
277.031	60.25
277.262	73.25
277.494	89.25
277.726	75.25
277.957	83.25
278.189	76.25
278.421	86.25
278.652	80.25
278.884	72.25
279.115	84.25
279.347	79.25
279.579	74.25
279.81	79.25
280.042	89.25
280.273	70.25
280.505	79.25
280.736	77.25
280.968	72.25
281.199	95.25
281.431	81.25
281.662	83.25
281.894	88.25
282.125	65.25
282.356	73.25
282.588	79.25
282.819	84.25
283.051	78.25
283.282	65.25
283.513	78.25
283.745	87.25
283.976	69.25
284.207	83.25
284.439	95.25
284.67	77.25
284.901	90.25
285.132	84.25
285.364	72.25
285.595	89.25
285.826	98.25
286.057	85.25
286.288	74.25
286.52	86.25
286.751	86.25
286.982	77.25
287.213	80.25
287.444	85.25
287.675	83.25
287.906	84.25
288.138	85.25
288.369	79.25
288.6	79.25
288.831	79.25
289.062	83.25
289.293	64.25
289.524	79.25
289.755	72.25
289.986	85.25
290.217	84.25
290.448	83.25
290.679	81.25
290.91	80.25
291.141	85.25
291.371	84.25
291.602	89.25
291.833	94.25
292.064	84.25
292.295	84.25
292.526	87.25
292.757	80.25
292.987	83.25
293.218	73.25
293.449	72.25
293.68	89.25
293.91	101.25
294.141	85.25
294.372	83.25
294.603	84.25
294.833	84.25
295.064	75.25
295.295	74.25
295.525	75.25
295.756	76.25
295.987	80.25
296.217	78.25
296.448	92.25
296.679	86.25
296.909	76.25
297.14	75.25
297.37	87.25
297.601	81.25
297.831	81.25
298.062	78.25
298.292	73.25
298.523	88.25
298.753	91.25
298.984	72.25
299.214	93.25
299.445	83.25
299.675	71.25
299.905	80.25
300.136	69.25
300.366	78.25
300.597	83.25
300.827	91.25
301.057	84.25
301.288	88.25
301.518	87.25
301.748	82.25
301.979	90.25
302.209	83.25
302.439	97.25
302.669	88.25
302.9	69.25
303.13	88.25
303.36	93.25
303.59	83.25
303.82	78.25
304.051	106.25
304.281	79.25
304.511	80.25
304.741	65.25
304.971	70.25
305.201	77.25
305.431	87.25
305.661	76.25
305.891	92.25
306.121	91.25
306.352	95.25
306.582	85.25
306.812	78.25
307.042	83.25
307.272	83.25
307.502	87.25
307.731	76.25
307.961	88.25
308.191	63.25
308.421	71.25
308.651	72.25
308.881	74.25
309.111	73.25
309.341	74.25
309.571	79.25
309.8	64.25
310.03	77.25
310.26	79.25
310.49	95.25
310.72	78.25
310.949	83.25
311.179	91.25
311.409	73.25
311.639	82.25
311.868	65.25
312.098	87.25
312.328	91.25
312.557	81.25
312.787	96.25
313.017	98.25
313.246	77.25
313.476	90.25
313.706	91.25
313.935	92.25
314.165	80.25
314.394	84.25
314.624	88.25
314.853	80.25
315.083	85.25
315.312	83.25
315.542	65.25
315.771	88.25
316.001	78.25
316.23	79.25
316.46	83.25
316.689	83.25
316.919	74.25
317.148	84.25
317.377	80.25
317.607	103.25
317.836	69.25
318.065	87.25
318.295	88.25
318.524	70.25
318.753	85.25
318.983	83.25
319.212	73.25
319.441	83.25
319.67	101.25
319.9	60.25
320.129	80.25
320.358	91.25
320.587	87.25
320.816	77.25
321.046	95.25
321.275	90.25
321.504	87.25
321.733	73.25
321.962	79.25
322.191	82.25
322.42	75.25
322.649	94.25
322.878	99.25
323.108	91.25
323.337	83.25
323.566	76.25
323.795	84.25
324.024	71.25
324.253	73.25
324.482	84.25
324.71	100.25
324.939	84.25
325.168	74.25
325.397	81.25
325.626	93.25
325.855	83.25
326.084	91.25
326.313	86.25
326.542	89.25
326.77	80.25
326.999	97.25
327.228	89.25
327.457	90.25
327.686	83.25
327.914	78.25
328.143	79.25
328.372	65.25
328.6	78.25
328.829	69.25
329.058	74.25
329.287	78.25
329.515	81.25
329.744	80.25
329.972	87.25
330.201	85.25
330.43	78.25
330.658	95.25
330.887	80.25
331.115	95.25
331.344	88.25
331.572	93.25
331.801	83.25
332.03	73.25
332.258	75.25
332.486	76.25
332.715	83.25
332.943	85.25
333.172	92.25
333.4	93.25
333.629	72.25
333.857	88.25
334.085	75.25
334.314	87.25
334.542	71.25
334.771	81.25
334.999	88.25
335.227	86.25
335.455	83.25
335.684	79.25
335.912	87.25
336.14	79.25
336.369	81.25
336.597	72.25
336.825	79.25
337.053	78.25
337.281	87.25
337.51	80.25
337.738	83.25
337.966	66.25
338.194	74.25
338.422	76.25
338.65	86.25
338.878	67.25
339.106	73.25
339.334	85.25
339.562	81.25
339.79	90.25
340.018	74.25
340.246	66.25
340.474	86.25
340.702	101.25
340.93	94.25
341.158	91.25
341.386	105.25
341.614	81.25
341.842	80.25
342.07	71.25
342.298	74.25
342.526	85.25
342.754	68.25
342.981	68.25
343.209	74.25
343.437	94.25
343.665	95.25
343.893	85.25
344.12	92.25
344.348	81.25
344.576	78.25
344.804	92.25
345.031	73.25
345.259	92.25
345.487	85.25
345.714	80.25
345.942	76.25
346.17	80.25
346.397	71.25
346.625	74.25
346.853	86.25
347.08	97.25
347.308	89.25
347.535	79.25
347.763	67.25
347.99	87.25
348.218	88.25
348.445	81.25
348.673	87.25
348.9	90.25
349.128	94.25
349.355	100.25
349.583	84.25
349.81	74.25
350.037	83.25
350.265	79.25
350.492	79.25
350.72	85.25
350.947	95.25
351.174	99.25
351.402	84.25
351.629	84.25
351.856	80.25
352.083	77.25
352.311	74.25
352.538	84.25
352.765	75.25
352.992	91.25
353.22	101.25
353.447	89.25
353.674	85.25
353.901	85.25
354.128	80.25
354.355	79.25
354.583	76.25
354.81	87.25
355.037	90.25
355.264	91.25
355.491	80.25
355.718	91.25
355.945	70.25
356.172	87.25
356.399	87.25
356.626	79.25
356.853	75.25
357.08	87.25
357.307	101.25
357.534	88.25
357.761	87.25
357.988	87.25
358.215	88.25
358.441	81.25
358.668	80.25
358.895	83.25
359.122	71.25
359.349	91.25
359.576	92.25
359.802	59.25
360.029	96.25
360.256	82.25
360.483	85.25
360.709	74.25
360.936	86.25
361.163	95.25
361.39	75.25
361.616	79.25
361.843	72.25
362.07	89.25
362.296	76.25
362.523	67.25
362.749	60.25
362.976	80.25
363.203	75.25
363.429	69.25
363.656	95.25
363.882	78.25
364.109	76.25
364.335	80.25
364.562	75.25
364.788	65.25
365.015	80.25
365.241	89.25
365.468	76.25
365.694	71.25
365.92	94.25
366.147	82.25
366.373	79.25
366.599	72.25
366.826	83.25
367.052	89.25
367.278	83.25
367.505	86.25
367.731	83.25
367.957	90.25
368.184	68.25
368.41	76.25
368.636	73.25
368.862	91.25
369.089	96.25
369.315	71.25
369.541	77.25
369.767	87.25
369.993	85.25
370.219	77.25
370.445	91.25
370.672	78.25
370.898	77.25
371.124	90.25
371.35	77.25
371.576	84.25
371.802	77.25
372.028	87.25
372.254	79.25
372.48	75.25
372.706	78.25
372.932	69.25
373.158	71.25
373.384	81.25
373.61	85.25
373.835	83.25
374.061	97.25
374.287	82.25
374.513	88.25
374.739	78.25
374.965	74.25
375.191	80.25
375.416	85.25
375.642	76.25
375.868	88.25
376.094	78.25
376.319	84.25
376.545	83.25
376.771	103.25
376.997	84.25
377.222	83.25
377.448	73.25
377.674	77.25
377.899	82.25
378.125	74.25
378.35	83.25
378.576	76.25
378.802	82.25
379.027	74.25
379.253	94.25
379.478	75.25
379.704	91.25
379.929	94.25
380.155	75.25
380.38	96.25
380.606	85.25
380.831	72.25
381.057	95.25
381.282	93.25
381.507	71.25
381.733	76.25
381.958	74.25
382.184	81.25
382.409	96.25
382.634	64.25
382.86	84.25
383.085	77.25
383.31	85.25
383.535	101.25
383.761	88.25
383.986	83.25
384.211	71.25
384.436	92.25
384.662	85.25
384.887	73.25
385.112	79.25
385.337	77.25
385.562	85.25
385.787	76.25
386.013	76.25
386.238	72.25
386.463	91.25
386.688	104.25
386.913	81.25
387.138	61.25
387.363	81.25
387.588	75.25
387.813	84.25
388.038	88.25
388.263	63.25
388.488	81.25
388.713	86.25
388.938	85.25
389.163	82.25
389.387	85.25
389.612	83.25
389.837	82.25
390.062	82.25
390.287	84.25
390.512	89.25
390.736	89.25
390.961	81.25
391.186	93.25
391.411	77.25
391.636	77.25
391.86	78.25
392.085	79.25
392.31	80.25
392.534	76.25
392.759	86.25
392.984	83.25
393.208	80.25
393.433	79.25
393.658	78.25
393.882	71.25
394.107	73.25
394.331	84.25
394.556	75.25
394.78	87.25
395.005	89.25
395.229	80.25
395.454	76.25
395.678	101.25
395.903	99.25
396.127	91.25
396.352	92.25
396.576	86.25
396.801	83.25
397.025	84.25
397.249	76.25
397.474	74.25
397.698	73.25
397.922	81.25
398.147	93.25
398.371	75.25
398.595	93.25
398.82	80.25
399.044	56.25
399.268	75.25
399.492	81.25
399.717	94.25
399.941	83.25
400.165	75.25
400.389	80.25
400.613	80.25
400.837	71.25
401.062	73.25
401.286	95.25
401.51	95.25
401.734	75.25
401.958	74.25
402.182	73.25
402.406	81.25
402.63	81.25
402.854	74.25
403.078	83.25
403.302	79.25
403.526	80.25
403.75	83.25
403.974	73.25
404.198	77.25
404.422	77.25
404.645	64.25
404.869	67.25
405.093	83.25
405.317	74.25
405.541	83.25
405.765	69.25
405.988	84.25
406.212	81.25
406.436	69.25
406.66	87.25
406.883	88.25
407.107	80.25
407.331	79.25
407.555	70.25
407.778	77.25
408.002	79.25
408.226	74.25
408.449	79.25
408.673	61.25
408.896	83.25
409.12	68.25
409.344	84.25
409.567	86.25
409.791	75.25
410.014	72.25
410.238	72.25
410.461	86.25
410.685	69.25
410.908	75.25
411.132	83.25
411.355	80.25
411.578	95.25
411.802	79.25
412.025	84.25
412.249	90.25
412.472	88.25
412.695	58.25
412.919	79.25
413.142	80.25
413.365	79.25
413.589	74.25
413.812	77.25
414.035	83.25
414.258	80.25
414.482	71.25
414.705	70.25
414.928	97.25
415.151	80.25
415.374	81.25
415.597	76.25
415.821	80.25
416.044	75.25
416.267	87.25
416.49	79.25
416.713	90.25
416.936	71.25
417.159	71.25
417.382	66.25
417.605	81.25
417.828	85.25
418.051	73.25
418.274	85.25
418.497	91.25
418.72	79.25
418.943	84.25
419.166	78.25
419.389	73.25
419.611	75.25
419.834	79.25
420.057	87.25
420.28	79.25
420.503	74.25
420.726	80.25
420.948	75.25
421.171	87.25
421.394	81.25
421.617	74.25
421.839	79.25
422.062	75.25
422.285	70.25
422.507	80.25
422.73	72.25
422.953	78.25
423.175	71.25
423.398	84.25
423.621	97.25
423.843	88.25
424.066	79.25
424.288	79.25
424.511	91.25
424.733	79.25
424.956	85.25
425.178	73.25
425.401	92.25
425.623	76.25
425.846	82.25
426.068	76.25
426.291	74.25
426.513	91.25
426.735	65.25
426.958	75.25
427.18	87.25
427.402	75.25
427.625	64.25
427.847	67.25
428.069	80.25
428.292	76.25
428.514	76.25
428.736	75.25
428.958	76.25
429.181	81.25
429.403	70.25
429.625	68.25
429.847	83.25
430.069	80.25
430.292	75.25
430.514	63.25
430.736	74.25
430.958	89.25
431.18	99.25
431.402	77.25
431.624	79.25
431.846	81.25
432.068	100.25
432.29	86.25
432.512	93.25
432.734	85.25
432.956	73.25
433.178	73.25
433.4	97.25
433.622	91.25
433.844	79.25
434.066	80.25
434.287	83.25
434.509	73.25
434.731	78.25
434.953	87.25
435.175	77.25
435.397	76.25
435.618	76.25
435.84	74.25
436.062	80.25
436.284	92.25
436.505	86.25
436.727	93.25
436.949	82.25
437.17	99.25
437.392	72.25
437.614	79.25
437.835	71.25
438.057	63.25
438.278	77.25
438.5	67.25
438.721	82.25
438.943	86.25
439.165	64.25
439.386	72.25
439.608	77.25
439.829	89.25
440.05	69.25
440.272	63.25
440.493	74.25
440.715	88.25
440.936	83.25
441.158	89.25
441.379	79.25
441.6	86.25
441.822	72.25
442.043	76.25
442.264	83.25
442.486	70.25
442.707	75.25
442.928	80.25
443.149	78.25
443.371	72.25
443.592	75.25
443.813	85.25
444.034	79.25
444.255	53.25
444.476	83.25
444.698	65.25
444.919	80.25
445.14	147.25
445.361	119.25
445.582	91.25
445.803	75.25
446.024	74.25
446.245	69.25
446.466	83.25
446.687	76.25
446.908	74.25
447.129	94.25
447.35	80.25
447.571	71.25
447.792	87.25
448.013	84.25
448.234	95.25
448.455	85.25
448.675	77.25
448.896	73.25
449.117	65.25
449.338	70.25
449.559	88.25
449.779	76.25
450	79.25
450.221	60.25
450.442	74.25
450.662	76.25
450.883	77.25
451.104	88.25
451.324	88.25
451.545	84.25
451.766	80.25
451.986	80.25
452.207	76.25
452.428	91.25
452.648	60.25
452.869	76.25
453.089	96.25
453.31	81.25
453.53	75.25
453.751	83.25
453.971	76.25
454.192	79.25
454.412	76.25
454.633	71.25
454.853	71.25
455.073	88.25
455.294	87.25
455.514	77.25
455.734	57.25
455.955	83.25
456.175	85.25
456.395	83.25
456.616	77.25
456.836	92.25
457.056	75.25
457.276	71.25
457.497	80.25
457.717	88.25
457.937	79.25
458.157	77.25
458.377	89.25
458.598	69.25
458.818	92.25
459.038	86.25
459.258	81.25
459.478	87.25
459.698	77.25
459.918	75.25
460.138	71.25
460.358	74.25
460.578	75.25
460.798	74.25
461.018	72.25
461.238	83.25
461.458	79.25
461.678	79.25
461.898	71.25
462.118	87.25
462.338	81.25
462.558	76.25
462.777	80.25
462.997	82.25
463.217	72.25
463.437	79.25
463.657	67.25
463.876	103.25
464.096	75.25
464.316	76.25
464.536	81.25
464.755	76.25
464.975	78.25
465.195	87.25
465.414	79.25
465.634	88.25
465.854	85.25
466.073	74.25
466.293	94.25
466.512	89.25
466.732	83.25
466.951	87.25
467.171	95.25
467.391	74.25
467.61	79.25
467.829	84.25
468.049	85.25
468.268	78.25
468.488	86.25
468.707	80.25
468.927	78.25
469.146	82.25
469.365	73.25
469.585	83.25
469.804	86.25
470.023	77.25
470.243	78.25
470.462	83.25
470.681	67.25
470.901	81.25
471.12	94.25
471.339	79.25
471.558	73.25
471.777	80.25
471.997	85.25
472.216	86.25
472.435	90.25
472.654	75.25
472.873	82.25
473.092	93.25
473.311	84.25
473.53	95.25
473.749	90.25
473.968	80.25
474.187	75.25
474.406	85.25
474.625	93.25
474.844	92.25
475.063	96.25
475.282	79.25
475.501	73.25
475.72	80.25
475.939	76.25
476.158	83.25
476.377	72.25
476.596	71.25
476.814	81.25
477.033	76.25
477.252	69.25
477.471	71.25
477.69	70.25
477.908	59.25
478.127	93.25
478.346	85.25
478.564	78.25
478.783	87.25
479.002	83.25
479.22	71.25
479.439	80.25
479.658	72.25
479.876	79.25
480.095	91.25
480.313	90.25
480.532	76.25
480.751	87.25
480.969	91.25
481.188	102.25
481.406	91.25
481.624	71.25
481.843	83.25
482.061	72.25
482.28	93.25
482.498	91.25
482.717	83.25
482.935	83.25
483.153	103.25
483.372	69.25
483.59	78.25
483.808	63.25
484.027	85.25
484.245	82.25
484.463	77.25
484.681	79.25
484.9	73.25
485.118	87.25
485.336	71.25
485.554	80.25
485.772	80.25
485.99	82.25
486.209	82.25
486.427	78.25
486.645	101.25
486.863	87.25
487.081	77.25
487.299	84.25
487.517	85.25
487.735	85.25
487.953	75.25
488.171	85.25
488.389	75.25
488.607	87.25
488.825	90.25
489.043	94.25
489.261	84.25
489.479	83.25
489.696	68.25
489.914	69.25
490.132	90.25
490.35	92.25
490.568	88.25
490.786	81.25
491.003	79.25
491.221	85.25
491.439	89.25
491.657	85.25
491.874	66.25
492.092	79.25
492.31	95.25
492.527	92.25
492.745	75.25
492.963	65.25
493.18	77.25
493.398	87.25
493.615	89.25
493.833	72.25
494.05	75.25
494.268	85.25
494.485	85.25
494.703	83.25
494.92	88.25
495.138	61.25
495.355	83.25
495.573	78.25
495.79	89.25
496.008	73.25
496.225	88.25
496.442	81.25
496.66	80.25
496.877	80.25
497.094	92.25
497.312	85.25
497.529	90.25
497.746	88.25
497.963	78.25
498.181	75.25
498.398	95.25
498.615	77.25
498.832	73.25
499.049	88.25
499.267	85.25
499.484	86.25
499.701	91.25
499.918	73.25
500.135	72.25
500.352	78.25
500.569	78.25
500.786	84.25
501.003	76.25
501.22	88.25
501.437	69.25
501.654	80.25
501.871	71.25
502.088	91.25
502.305	79.25
502.522	77.25
502.739	83.25
502.956	64.25
503.172	78.25
503.389	100.25
503.606	90.25
503.823	85.25
504.04	76.25
504.256	76.25
504.473	72.25
504.69	86.25
504.907	86.25
505.123	79.25
505.34	72.25
505.557	75.25
505.773	79.25
505.99	92.25
506.207	69.25
506.423	77.25
506.64	87.25
506.856	99.25
507.073	96.25
507.289	89.25
507.506	78.25
507.722	83.25
507.939	79.25
508.155	80.25
508.372	89.25
508.588	75.25
508.805	80.25
509.021	82.25
509.238	86.25
509.454	87.25
509.67	92.25
509.887	86.25
510.103	83.25
510.319	86.25
510.536	94.25
510.752	79.25
510.968	91.25
511.184	90.25
511.401	71.25
511.617	91.25
511.833	86.25
512.049	80.25
512.265	89.25
512.481	76.25
512.698	92.25
512.914	87.25
513.13	93.25
513.346	71.25
513.562	84.25
513.778	91.25
513.994	93.25
514.21	87.25
514.426	74.25
514.642	79.25
514.858	85.25
515.074	75.25
515.29	76.25
515.506	82.25
515.721	89.25
515.937	90.25
516.153	71.25
516.369	88.25
516.585	90.25
516.801	73.25
517.016	80.25
517.232	79.25
517.448	69.25
517.664	85.25
517.879	79.25
518.095	73.25
518.311	88.25
518.527	93.25
518.742	84.25
518.958	78.25
519.173	86.25
519.389	88.25
519.605	84.25
519.82	71.25
520.036	85.25
