Data from Circ_1994_H10_HRD10591_00002.txt Node
Date: Wed Jan 03 11:40:30 EST 2024
User: Yrep
Spectrometer: HR+D1059
Trigger mode: 1
Integration Time (sec): 1.000000E-1
Scans to average: 1
Electric dark correction enabled: true
Nonlinearity correction enabled: false
Boxcar width: 0
XAxis mode: Wavelengths
Number of Pixels in Spectrum: 2048
>>>>>Begin Spectral Data<<<<<
223.165	-25.62
223.4	-25.62
223.635	-25.62
223.869	-20.62
224.104	-14.62
224.338	-17.62
224.573	-14.62
224.808	-23.62
225.042	-5.62
225.277	-11.62
225.511	10.38
225.746	4.38
225.98	17.38
226.215	17.38
226.449	11.38
226.683	13.38
226.918	32.38
227.152	27.38
227.387	28.38
227.621	38.38
227.856	48.38
228.09	51.38
228.324	77.38
228.559	68.38
228.793	61.38
229.027	54.38
229.262	52.38
229.496	45.38
229.73	78.38
229.964	92.38
230.199	89.38
230.433	86.38
230.667	77.38
230.901	84.38
231.136	79.38
231.37	93.38
231.604	80.38
231.838	80.38
232.072	84.38
232.306	66.38
232.541	65.38
232.775	72.38
233.009	88.38
233.243	90.38
233.477	72.38
233.711	82.38
233.945	82.38
234.179	77.38
234.413	97.38
234.647	82.38
234.881	85.38
235.115	76.38
235.349	80.38
235.583	86.38
235.817	82.38
236.051	74.38
236.285	57.38
236.519	81.38
236.753	84.38
236.987	70.38
237.221	85.38
237.455	80.38
237.689	82.38
237.922	68.38
238.156	86.38
238.39	77.38
238.624	81.38
238.858	83.38
239.091	51.38
239.325	66.38
239.559	61.38
239.793	76.38
240.027	67.38
240.26	74.38
240.494	82.38
240.728	77.38
240.961	85.38
241.195	80.38
241.429	79.38
241.662	69.38
241.896	79.38
242.13	83.38
242.363	67.38
242.597	81.38
242.83	91.38
243.064	60.38
243.298	72.38
243.531	72.38
243.765	91.38
243.998	93.38
244.232	86.38
244.465	100.38
244.699	85.38
244.932	60.38
245.166	81.38
245.399	82.38
245.633	93.38
245.866	84.38
246.099	74.38
246.333	69.38
246.566	75.38
246.8	74.38
247.033	83.38
247.266	84.38
247.5	84.38
247.733	66.38
247.966	69.38
248.2	86.38
248.433	84.38
248.666	73.38
248.899	83.38
249.133	82.38
249.366	85.38
249.599	104.38
249.832	88.38
250.066	82.38
250.299	84.38
250.532	72.38
250.765	80.38
250.998	84.38
251.231	84.38
251.465	69.38
251.698	75.38
251.931	82.38
252.164	93.38
252.397	81.38
252.63	78.38
252.863	93.38
253.096	67.38
253.329	73.38
253.562	79.38
253.795	80.38
254.028	77.38
254.261	72.38
254.494	76.38
254.727	74.38
254.96	92.38
255.193	84.38
255.426	91.38
255.659	66.38
255.892	78.38
256.124	92.38
256.357	90.38
256.59	77.38
256.823	67.38
257.056	85.38
257.289	88.38
257.521	83.38
257.754	67.38
257.987	82.38
258.22	83.38
258.452	83.38
258.685	89.38
258.918	73.38
259.151	94.38
259.383	81.38
259.616	70.38
259.849	77.38
260.081	105.38
260.314	95.38
260.547	75.38
260.779	83.38
261.012	81.38
261.244	88.38
261.477	87.38
261.71	86.38
261.942	93.38
262.175	118.38
262.407	81.38
262.64	78.38
262.872	83.38
263.105	87.38
263.337	87.38
263.57	95.38
263.802	84.38
264.035	84.38
264.267	74.38
264.499	76.38
264.732	91.38
264.964	74.38
265.197	76.38
265.429	83.38
265.661	77.38
265.894	82.38
266.126	90.38
266.358	76.38
266.591	90.38
266.823	87.38
267.055	88.38
267.287	90.38
267.52	82.38
267.752	82.38
267.984	82.38
268.216	87.38
268.448	66.38
268.681	84.38
268.913	74.38
269.145	84.38
269.377	84.38
269.609	84.38
269.841	70.38
270.073	88.38
270.306	86.38
270.538	88.38
270.77	78.38
271.002	88.38
271.234	89.38
271.466	100.38
271.698	92.38
271.93	84.38
272.162	89.38
272.394	77.38
272.626	89.38
272.858	103.38
273.09	79.38
273.322	88.38
273.553	88.38
273.785	71.38
274.017	85.38
274.249	76.38
274.481	94.38
274.713	83.38
274.945	85.38
275.176	76.38
275.408	73.38
275.64	77.38
275.872	73.38
276.104	86.38
276.335	97.38
276.567	83.38
276.799	100.38
277.031	106.38
277.262	82.38
277.494	89.38
277.726	82.38
277.957	84.38
278.189	81.38
278.421	73.38
278.652	89.38
278.884	91.38
279.115	88.38
279.347	72.38
279.579	91.38
279.81	96.38
280.042	89.38
280.273	93.38
280.505	95.38
280.736	78.38
280.968	79.38
281.199	81.38
281.431	80.38
281.662	84.38
281.894	93.38
282.125	102.38
282.356	105.38
282.588	117.38
282.819	106.38
283.051	88.38
283.282	81.38
283.513	86.38
283.745	84.38
283.976	85.38
284.207	84.38
284.439	97.38
284.67	103.38
284.901	91.38
285.132	89.38
285.364	80.38
285.595	91.38
285.826	75.38
286.057	74.38
286.288	63.38
286.52	87.38
286.751	95.38
286.982	91.38
287.213	77.38
287.444	96.38
287.675	78.38
287.906	93.38
288.138	92.38
288.369	86.38
288.6	93.38
288.831	87.38
289.062	89.38
289.293	70.38
289.524	96.38
289.755	87.38
289.986	78.38
290.217	91.38
290.448	81.38
290.679	91.38
290.91	98.38
291.141	93.38
291.371	95.38
291.602	96.38
291.833	85.38
292.064	91.38
292.295	84.38
292.526	86.38
292.757	81.38
292.987	81.38
293.218	90.38
293.449	87.38
293.68	101.38
293.91	80.38
294.141	81.38
294.372	87.38
294.603	93.38
294.833	107.38
295.064	98.38
295.295	96.38
295.525	77.38
295.756	96.38
295.987	128.38
296.217	133.38
296.448	110.38
296.679	105.38
296.909	95.38
297.14	84.38
297.37	88.38
297.601	75.38
297.831	87.38
298.062	95.38
298.292	92.38
298.523	95.38
298.753	98.38
298.984	97.38
299.214	95.38
299.445	86.38
299.675	86.38
299.905	81.38
300.136	96.38
300.366	77.38
300.597	99.38
300.827	93.38
301.057	85.38
301.288	102.38
301.518	100.38
301.748	83.38
301.979	88.38
302.209	80.38
302.439	98.38
302.669	85.38
302.9	79.38
303.13	91.38
303.36	92.38
303.59	89.38
303.82	96.38
304.051	77.38
304.281	96.38
304.511	93.38
304.741	90.38
304.971	88.38
305.201	103.38
305.431	96.38
305.661	89.38
305.891	91.38
306.121	92.38
306.352	96.38
306.582	102.38
306.812	91.38
307.042	83.38
307.272	97.38
307.502	95.38
307.731	82.38
307.961	104.38
308.191	86.38
308.421	89.38
308.651	88.38
308.881	94.38
309.111	95.38
309.341	93.38
309.571	91.38
309.8	98.38
310.03	102.38
310.26	92.38
310.49	96.38
310.72	103.38
310.949	104.38
311.179	116.38
311.409	79.38
311.639	83.38
311.868	105.38
312.098	78.38
312.328	92.38
312.557	89.38
312.787	92.38
313.017	113.38
313.246	98.38
313.476	85.38
313.706	103.38
313.935	93.38
314.165	88.38
314.394	85.38
314.624	98.38
314.853	80.38
315.083	80.38
315.312	75.38
315.542	81.38
315.771	104.38
316.001	94.38
316.23	89.38
316.46	91.38
316.689	95.38
316.919	90.38
317.148	97.38
317.377	94.38
317.607	95.38
317.836	86.38
318.065	96.38
318.295	98.38
318.524	91.38
318.753	80.38
318.983	97.38
319.212	88.38
319.441	107.38
319.67	108.38
319.9	92.38
320.129	85.38
320.358	88.38
320.587	103.38
320.816	106.38
321.046	88.38
321.275	92.38
321.504	95.38
321.733	89.38
321.962	94.38
322.191	99.38
322.42	102.38
322.649	100.38
322.878	100.38
323.108	96.38
323.337	112.38
323.566	126.38
323.795	146.38
324.024	187.38
324.253	351.38
324.482	658.38
324.71	1348.38
324.939	1768.38
325.168	681.38
325.397	211.38
325.626	127.38
325.855	133.38
326.084	112.38
326.313	136.38
326.542	141.38
326.77	204.38
326.999	366.38
327.228	752.38
327.457	1371.38
327.686	1074.38
327.914	302.38
328.143	180.38
328.372	130.38
328.6	131.38
328.829	110.38
329.058	121.38
329.287	113.38
329.515	123.38
329.744	111.38
329.972	92.38
330.201	107.38
330.43	113.38
330.658	110.38
330.887	136.38
331.115	113.38
331.344	99.38
331.572	104.38
331.801	101.38
332.03	106.38
332.258	101.38
332.486	99.38
332.715	94.38
332.943	97.38
333.172	94.38
333.4	96.38
333.629	99.38
333.857	101.38
334.085	105.38
334.314	94.38
334.542	89.38
334.771	95.38
334.999	100.38
335.227	95.38
335.455	88.38
335.684	91.38
335.912	99.38
336.14	91.38
336.369	102.38
336.597	94.38
336.825	118.38
337.053	102.38
337.281	92.38
337.51	77.38
337.738	92.38
337.966	83.38
338.194	104.38
338.422	94.38
338.65	87.38
338.878	90.38
339.106	102.38
339.334	98.38
339.562	97.38
339.79	85.38
340.018	77.38
340.246	98.38
340.474	97.38
340.702	89.38
340.93	92.38
341.158	106.38
341.386	95.38
341.614	109.38
341.842	83.38
342.07	89.38
342.298	104.38
342.526	93.38
342.754	77.38
342.981	90.38
343.209	89.38
343.437	99.38
343.665	87.38
343.893	91.38
344.12	94.38
344.348	98.38
344.576	102.38
344.804	104.38
345.031	101.38
345.259	95.38
345.487	94.38
345.714	101.38
345.942	98.38
346.17	105.38
346.397	96.38
346.625	96.38
346.853	92.38
347.08	86.38
347.308	77.38
347.535	80.38
347.763	92.38
347.99	96.38
348.218	105.38
348.445	101.38
348.673	102.38
348.9	105.38
349.128	95.38
349.355	102.38
349.583	96.38
349.81	98.38
350.037	88.38
350.265	77.38
350.492	93.38
350.72	104.38
350.947	101.38
351.174	112.38
351.402	95.38
351.629	113.38
351.856	110.38
352.083	116.38
352.311	101.38
352.538	117.38
352.765	123.38
352.992	117.38
353.22	120.38
353.447	105.38
353.674	108.38
353.901	83.38
354.128	96.38
354.355	95.38
354.583	94.38
354.81	108.38
355.037	95.38
355.264	92.38
355.491	101.38
355.718	101.38
355.945	91.38
356.172	92.38
356.399	104.38
356.626	108.38
356.853	102.38
357.08	94.38
357.307	103.38
357.534	96.38
357.761	92.38
357.988	91.38
358.215	92.38
358.441	97.38
358.668	98.38
358.895	95.38
359.122	96.38
359.349	102.38
359.576	79.38
359.802	98.38
360.029	106.38
360.256	101.38
360.483	97.38
360.709	81.38
360.936	93.38
361.163	90.38
361.39	101.38
361.616	98.38
361.843	99.38
362.07	115.38
362.296	105.38
362.523	93.38
362.749	107.38
362.976	82.38
363.203	98.38
363.429	83.38
363.656	97.38
363.882	83.38
364.109	108.38
364.335	86.38
364.562	84.38
364.788	78.38
365.015	94.38
365.241	92.38
365.468	92.38
365.694	97.38
365.92	77.38
366.147	87.38
366.373	84.38
366.599	91.38
366.826	82.38
367.052	97.38
367.278	99.38
367.505	98.38
367.731	88.38
367.957	89.38
368.184	83.38
368.41	90.38
368.636	111.38
368.862	108.38
369.089	99.38
369.315	100.38
369.541	99.38
369.767	88.38
369.993	94.38
370.219	83.38
370.445	86.38
370.672	82.38
370.898	80.38
371.124	95.38
371.35	91.38
371.576	69.38
371.802	92.38
372.028	82.38
372.254	96.38
372.48	96.38
372.706	76.38
372.932	78.38
373.158	80.38
373.384	81.38
373.61	86.38
373.835	81.38
374.061	85.38
374.287	81.38
374.513	84.38
374.739	77.38
374.965	88.38
375.191	87.38
375.416	99.38
375.642	102.38
375.868	93.38
376.094	82.38
376.319	77.38
376.545	85.38
376.771	94.38
376.997	93.38
377.222	102.38
377.448	105.38
377.674	86.38
377.899	85.38
378.125	87.38
378.35	96.38
378.576	99.38
378.802	89.38
379.027	93.38
379.253	86.38
379.478	94.38
379.704	100.38
379.929	106.38
380.155	91.38
380.38	83.38
380.606	89.38
380.831	94.38
381.057	103.38
381.282	94.38
381.507	99.38
381.733	80.38
381.958	80.38
382.184	90.38
382.409	105.38
382.634	112.38
382.86	100.38
383.085	98.38
383.31	94.38
383.535	105.38
383.761	105.38
383.986	104.38
384.211	100.38
384.436	99.38
384.662	108.38
384.887	97.38
385.112	101.38
385.337	96.38
385.562	116.38
385.787	116.38
386.013	112.38
386.238	119.38
386.463	110.38
386.688	109.38
386.913	117.38
387.138	117.38
387.363	103.38
387.588	86.38
387.813	92.38
388.038	105.38
388.263	114.38
388.488	113.38
388.713	101.38
388.938	113.38
389.163	84.38
389.387	99.38
389.612	98.38
389.837	106.38
390.062	100.38
390.287	107.38
390.512	82.38
390.736	97.38
390.961	93.38
391.186	93.38
391.411	88.38
391.636	80.38
391.86	73.38
392.085	78.38
392.31	88.38
392.534	81.38
392.759	80.38
392.984	99.38
393.208	90.38
393.433	116.38
393.658	96.38
393.882	90.38
394.107	86.38
394.331	88.38
394.556	91.38
394.78	97.38
395.005	93.38
395.229	83.38
395.454	79.38
395.678	82.38
395.903	97.38
396.127	84.38
396.352	80.38
396.576	89.38
396.801	76.38
397.025	99.38
397.249	77.38
397.474	91.38
397.698	85.38
397.922	93.38
398.147	90.38
398.371	81.38
398.595	80.38
398.82	98.38
399.044	81.38
399.268	91.38
399.492	76.38
399.717	86.38
399.941	82.38
400.165	89.38
400.389	85.38
400.613	85.38
400.837	85.38
401.062	90.38
401.286	95.38
401.51	87.38
401.734	88.38
401.958	96.38
402.182	118.38
402.406	133.38
402.63	111.38
402.854	86.38
403.078	83.38
403.302	77.38
403.526	76.38
403.75	95.38
403.974	87.38
404.198	76.38
404.422	96.38
404.645	81.38
404.869	106.38
405.093	84.38
405.317	88.38
405.541	93.38
405.765	101.38
405.988	114.38
406.212	152.38
406.436	196.38
406.66	132.38
406.883	102.38
407.107	78.38
407.331	98.38
407.555	104.38
407.778	99.38
408.002	87.38
408.226	83.38
408.449	90.38
408.673	92.38
408.896	87.38
409.12	108.38
409.344	96.38
409.567	69.38
409.791	92.38
410.014	104.38
410.238	88.38
410.461	89.38
410.685	89.38
410.908	102.38
411.132	99.38
411.355	97.38
411.578	85.38
411.802	84.38
412.025	85.38
412.249	97.38
412.472	89.38
412.695	91.38
412.919	95.38
413.142	92.38
413.365	97.38
413.589	85.38
413.812	96.38
414.035	101.38
414.258	82.38
414.482	92.38
414.705	79.38
414.928	91.38
415.151	90.38
415.374	94.38
415.597	74.38
415.821	104.38
416.044	85.38
416.267	98.38
416.49	102.38
416.713	94.38
416.936	99.38
417.159	98.38
417.382	86.38
417.605	75.38
417.828	84.38
418.051	84.38
418.274	86.38
418.497	96.38
418.72	92.38
418.943	85.38
419.166	66.38
419.389	81.38
419.611	83.38
419.834	97.38
420.057	85.38
420.28	84.38
420.503	94.38
420.726	96.38
420.948	91.38
421.171	89.38
421.394	83.38
421.617	100.38
421.839	73.38
422.062	85.38
422.285	97.38
422.507	102.38
422.73	111.38
422.953	99.38
423.175	87.38
423.398	85.38
423.621	84.38
423.843	98.38
424.066	98.38
424.288	99.38
424.511	80.38
424.733	87.38
424.956	102.38
425.178	89.38
425.401	99.38
425.623	96.38
425.846	101.38
426.068	81.38
426.291	81.38
426.513	84.38
426.735	80.38
426.958	88.38
427.18	90.38
427.402	122.38
427.625	143.38
427.847	120.38
428.069	93.38
428.292	88.38
428.514	87.38
428.736	86.38
428.958	81.38
429.181	77.38
429.403	92.38
429.625	86.38
429.847	85.38
430.069	104.38
430.292	98.38
430.514	85.38
430.736	85.38
430.958	83.38
431.18	65.38
431.402	86.38
431.624	96.38
431.846	85.38
432.068	90.38
432.29	88.38
432.512	83.38
432.734	74.38
432.956	84.38
433.178	107.38
433.4	95.38
433.622	95.38
433.844	106.38
434.066	108.38
434.287	78.38
434.509	89.38
434.731	94.38
434.953	101.38
435.175	92.38
435.397	88.38
435.618	86.38
435.84	101.38
436.062	112.38
436.284	108.38
436.505	98.38
436.727	96.38
436.949	90.38
437.17	88.38
437.392	78.38
437.614	67.38
437.835	109.38
438.057	100.38
438.278	93.38
438.5	93.38
438.721	105.38
438.943	104.38
439.165	84.38
439.386	92.38
439.608	94.38
439.829	102.38
440.05	118.38
440.272	116.38
440.493	80.38
440.715	82.38
440.936	95.38
441.158	85.38
441.379	84.38
441.6	95.38
441.822	102.38
442.043	100.38
442.264	80.38
442.486	100.38
442.707	91.38
442.928	111.38
443.149	115.38
443.371	115.38
443.592	121.38
443.813	103.38
444.034	97.38
444.255	80.38
444.476	81.38
444.698	92.38
444.919	73.38
445.14	113.38
445.361	138.38
445.582	92.38
445.803	112.38
446.024	113.38
446.245	116.38
446.466	106.38
446.687	97.38
446.908	81.38
447.129	89.38
447.35	91.38
447.571	92.38
447.792	94.38
448.013	96.38
448.234	95.38
448.455	102.38
448.675	91.38
448.896	111.38
449.117	102.38
449.338	82.38
449.559	110.38
449.779	126.38
450	86.38
450.221	80.38
450.442	92.38
450.662	99.38
450.883	108.38
451.104	105.38
451.324	98.38
451.545	88.38
451.766	92.38
451.986	93.38
452.207	81.38
452.428	91.38
452.648	112.38
452.869	104.38
453.089	112.38
453.31	118.38
453.53	85.38
453.751	88.38
453.971	96.38
454.192	114.38
454.412	80.38
454.633	82.38
454.853	75.38
455.073	92.38
455.294	94.38
455.514	109.38
455.734	83.38
455.955	82.38
456.175	89.38
456.395	84.38
456.616	84.38
456.836	89.38
457.056	92.38
457.276	88.38
457.497	88.38
457.717	63.38
457.937	96.38
458.157	87.38
458.377	98.38
458.598	111.38
458.818	121.38
459.038	131.38
459.258	109.38
459.478	90.38
459.698	73.38
459.918	85.38
460.138	93.38
460.358	85.38
460.578	93.38
460.798	102.38
461.018	86.38
461.238	90.38
461.458	78.38
461.678	102.38
461.898	91.38
462.118	78.38
462.338	77.38
462.558	84.38
462.777	99.38
462.997	93.38
463.217	72.38
463.437	89.38
463.657	84.38
463.876	85.38
464.096	85.38
464.316	100.38
464.536	91.38
464.755	90.38
464.975	110.38
465.195	144.38
465.414	130.38
465.634	80.38
465.854	80.38
466.073	88.38
466.293	78.38
466.512	79.38
466.732	89.38
466.951	72.38
467.171	87.38
467.391	96.38
467.61	96.38
467.829	105.38
468.049	102.38
468.268	93.38
468.488	87.38
468.707	78.38
468.927	90.38
469.146	99.38
469.365	93.38
469.585	86.38
469.804	96.38
470.023	88.38
470.243	89.38
470.462	97.38
470.681	83.38
470.901	93.38
471.12	74.38
471.339	95.38
471.558	92.38
471.777	89.38
471.997	83.38
472.216	97.38
472.435	98.38
472.654	84.38
472.873	96.38
473.092	91.38
473.311	83.38
473.53	83.38
473.749	78.38
473.968	90.38
474.187	96.38
474.406	102.38
474.625	82.38
474.844	97.38
475.063	83.38
475.282	89.38
475.501	83.38
475.72	93.38
475.939	88.38
476.158	80.38
476.377	82.38
476.596	80.38
476.814	104.38
477.033	95.38
477.252	83.38
477.471	91.38
477.69	104.38
477.908	100.38
478.127	103.38
478.346	81.38
478.564	78.38
478.783	90.38
479.002	88.38
479.22	89.38
479.439	94.38
479.658	103.38
479.876	91.38
480.095	92.38
480.313	88.38
480.532	99.38
480.751	80.38
480.969	110.38
481.188	116.38
481.406	106.38
481.624	91.38
481.843	89.38
482.061	94.38
482.28	93.38
482.498	83.38
482.717	91.38
482.935	98.38
483.153	88.38
483.372	89.38
483.59	74.38
483.808	89.38
484.027	88.38
484.245	92.38
484.463	73.38
484.681	85.38
484.9	92.38
485.118	98.38
485.336	98.38
485.554	107.38
485.772	99.38
485.99	108.38
486.209	121.38
486.427	115.38
486.645	110.38
486.863	108.38
487.081	88.38
487.299	103.38
487.517	99.38
487.735	100.38
487.953	104.38
488.171	97.38
488.389	80.38
488.607	100.38
488.825	97.38
489.043	84.38
489.261	93.38
489.479	98.38
489.696	85.38
489.914	83.38
490.132	87.38
490.35	83.38
490.568	76.38
490.786	87.38
491.003	94.38
491.221	98.38
491.439	99.38
491.657	92.38
491.874	93.38
492.092	102.38
492.31	97.38
492.527	102.38
492.745	86.38
492.963	81.38
493.18	91.38
493.398	84.38
493.615	97.38
493.833	95.38
494.05	88.38
494.268	91.38
494.485	89.38
494.703	86.38
494.92	99.38
495.138	89.38
495.355	86.38
495.573	102.38
495.79	97.38
496.008	82.38
496.225	101.38
496.442	101.38
496.66	100.38
496.877	80.38
497.094	100.38
497.312	104.38
497.529	79.38
497.746	88.38
497.963	82.38
498.181	99.38
498.398	94.38
498.615	108.38
498.832	102.38
499.049	88.38
499.267	93.38
499.484	84.38
499.701	70.38
499.918	102.38
500.135	92.38
500.352	99.38
500.569	78.38
500.786	82.38
501.003	84.38
501.22	82.38
501.437	84.38
501.654	90.38
501.871	105.38
502.088	85.38
502.305	89.38
502.522	96.38
502.739	85.38
502.956	84.38
503.172	97.38
503.389	103.38
503.606	102.38
503.823	104.38
504.04	96.38
504.256	97.38
504.473	84.38
504.69	87.38
504.907	86.38
505.123	94.38
505.34	85.38
505.557	76.38
505.773	72.38
505.99	97.38
506.207	96.38
506.423	102.38
506.64	101.38
506.856	86.38
507.073	91.38
507.289	100.38
507.506	88.38
507.722	104.38
507.939	110.38
508.155	83.38
508.372	82.38
508.588	84.38
508.805	96.38
509.021	88.38
509.238	93.38
509.454	86.38
509.67	91.38
509.887	111.38
510.103	106.38
510.319	198.38
510.536	700.38
510.752	2158.38
510.968	589.38
511.184	161.38
511.401	114.38
511.617	110.38
511.833	89.38
512.049	92.38
512.265	101.38
512.481	104.38
512.698	80.38
512.914	87.38
513.13	90.38
513.346	91.38
513.562	93.38
513.778	90.38
513.994	105.38
514.21	104.38
514.426	116.38
514.642	132.38
514.858	107.38
515.074	138.38
515.29	401.38
515.506	1190.38
515.721	444.38
