Data from Circ_1994_H10_HRD10591_00015.txt Node
Date: Wed Jan 03 11:40:33 EST 2024
User: Yrep
Spectrometer: HR+D1059
Trigger mode: 1
Integration Time (sec): 1.000000E-1
Scans to average: 1
Electric dark correction enabled: true
Nonlinearity correction enabled: false
Boxcar width: 0
XAxis mode: Wavelengths
Number of Pixels in Spectrum: 2048
>>>>>Begin Spectral Data<<<<<
223.165	-12.38
223.4	-12.38
223.635	-12.38
223.869	-21.38
224.104	-30.38
224.338	-30.38
224.573	-7.38
224.808	-11.38
225.042	-4.38
225.277	-14.38
225.511	4.62
225.746	0.62
225.98	18.62
226.215	12.62
226.449	22.62
226.683	18.62
226.918	28.62
227.152	25.62
227.387	21.62
227.621	37.62
227.856	34.62
228.09	41.62
228.324	48.62
228.559	60.62
228.793	66.62
229.027	54.62
229.262	49.62
229.496	73.62
229.73	79.62
229.964	79.62
230.199	79.62
230.433	73.62
230.667	75.62
230.901	77.62
231.136	84.62
231.37	80.62
231.604	82.62
231.838	82.62
232.072	54.62
232.306	80.62
232.541	74.62
232.775	75.62
233.009	88.62
233.243	79.62
233.477	79.62
233.711	87.62
233.945	79.62
234.179	96.62
234.413	83.62
234.647	78.62
234.881	78.62
235.115	80.62
235.349	92.62
235.583	82.62
235.817	67.62
236.051	68.62
236.285	80.62
236.519	67.62
236.753	80.62
236.987	82.62
237.221	74.62
237.455	81.62
237.689	66.62
237.922	65.62
238.156	73.62
238.39	63.62
238.624	72.62
238.858	82.62
239.091	65.62
239.325	73.62
239.559	76.62
239.793	72.62
240.027	74.62
240.26	91.62
240.494	76.62
240.728	76.62
240.961	79.62
241.195	69.62
241.429	67.62
241.662	75.62
241.896	79.62
242.13	74.62
242.363	78.62
242.597	75.62
242.83	82.62
243.064	74.62
243.298	63.62
243.531	76.62
243.765	88.62
243.998	71.62
244.232	84.62
244.465	94.62
244.699	90.62
244.932	75.62
245.166	78.62
245.399	72.62
245.633	74.62
245.866	81.62
246.099	82.62
246.333	67.62
246.566	70.62
246.8	82.62
247.033	84.62
247.266	72.62
247.5	71.62
247.733	73.62
247.966	90.62
248.2	74.62
248.433	72.62
248.666	78.62
248.899	86.62
249.133	74.62
249.366	91.62
249.599	96.62
249.832	78.62
250.066	88.62
250.299	72.62
250.532	62.62
250.765	76.62
250.998	77.62
251.231	80.62
251.465	85.62
251.698	84.62
251.931	78.62
252.164	82.62
252.397	79.62
252.63	70.62
252.863	76.62
253.096	71.62
253.329	71.62
253.562	61.62
253.795	70.62
254.028	76.62
254.261	88.62
254.494	65.62
254.727	81.62
254.96	70.62
255.193	77.62
255.426	84.62
255.659	80.62
255.892	84.62
256.124	73.62
256.357	82.62
256.59	86.62
256.823	89.62
257.056	96.62
257.289	78.62
257.521	78.62
257.754	80.62
257.987	74.62
258.22	83.62
258.452	72.62
258.685	80.62
258.918	70.62
259.151	71.62
259.383	72.62
259.616	66.62
259.849	86.62
260.081	80.62
260.314	67.62
260.547	86.62
260.779	83.62
261.012	72.62
261.244	78.62
261.477	82.62
261.71	90.62
261.942	98.62
262.175	112.62
262.407	90.62
262.64	81.62
262.872	84.62
263.105	81.62
263.337	88.62
263.57	86.62
263.802	85.62
264.035	80.62
264.267	80.62
264.499	72.62
264.732	93.62
264.964	88.62
265.197	82.62
265.429	90.62
265.661	76.62
265.894	84.62
266.126	83.62
266.358	82.62
266.591	83.62
266.823	80.62
267.055	97.62
267.287	79.62
267.52	61.62
267.752	68.62
267.984	74.62
268.216	82.62
268.448	76.62
268.681	71.62
268.913	72.62
269.145	90.62
269.377	85.62
269.609	90.62
269.841	96.62
270.073	84.62
270.306	92.62
270.538	61.62
270.77	74.62
271.002	87.62
271.234	72.62
271.466	87.62
271.698	90.62
271.93	81.62
272.162	84.62
272.394	96.62
272.626	82.62
272.858	89.62
273.09	87.62
273.322	82.62
273.553	74.62
273.785	86.62
274.017	104.62
274.249	87.62
274.481	77.62
274.713	93.62
274.945	86.62
275.176	78.62
275.408	84.62
275.64	91.62
275.872	77.62
276.104	90.62
276.335	78.62
276.567	84.62
276.799	106.62
277.031	102.62
277.262	84.62
277.494	86.62
277.726	82.62
277.957	78.62
278.189	76.62
278.421	95.62
278.652	97.62
278.884	65.62
279.115	91.62
279.347	76.62
279.579	86.62
279.81	82.62
280.042	92.62
280.273	92.62
280.505	94.62
280.736	84.62
280.968	68.62
281.199	93.62
281.431	78.62
281.662	76.62
281.894	98.62
282.125	95.62
282.356	120.62
282.588	139.62
282.819	99.62
283.051	79.62
283.282	82.62
283.513	78.62
283.745	99.62
283.976	86.62
284.207	98.62
284.439	87.62
284.67	81.62
284.901	80.62
285.132	72.62
285.364	94.62
285.595	84.62
285.826	66.62
286.057	80.62
286.288	95.62
286.52	97.62
286.751	88.62
286.982	77.62
287.213	72.62
287.444	74.62
287.675	97.62
287.906	94.62
288.138	83.62
288.369	78.62
288.6	68.62
288.831	95.62
289.062	83.62
289.293	83.62
289.524	89.62
289.755	97.62
289.986	82.62
290.217	89.62
290.448	92.62
290.679	93.62
290.91	87.62
291.141	102.62
291.371	99.62
291.602	90.62
291.833	74.62
292.064	86.62
292.295	82.62
292.526	83.62
292.757	97.62
292.987	83.62
293.218	86.62
293.449	88.62
293.68	95.62
293.91	95.62
294.141	89.62
294.372	82.62
294.603	95.62
294.833	87.62
295.064	89.62
295.295	78.62
295.525	91.62
295.756	111.62
295.987	111.62
296.217	129.62
296.448	117.62
296.679	107.62
296.909	87.62
297.14	86.62
297.37	94.62
297.601	73.62
297.831	78.62
298.062	97.62
298.292	70.62
298.523	80.62
298.753	77.62
298.984	76.62
299.214	90.62
299.445	85.62
299.675	96.62
299.905	104.62
300.136	88.62
300.366	97.62
300.597	95.62
300.827	90.62
301.057	86.62
301.288	98.62
301.518	91.62
301.748	74.62
301.979	80.62
302.209	95.62
302.439	95.62
302.669	91.62
302.9	83.62
303.13	88.62
303.36	79.62
303.59	99.62
303.82	104.62
304.051	108.62
304.281	85.62
304.511	92.62
304.741	90.62
304.971	87.62
305.201	89.62
305.431	90.62
305.661	98.62
305.891	102.62
306.121	93.62
306.352	105.62
306.582	104.62
306.812	97.62
307.042	88.62
307.272	100.62
307.502	86.62
307.731	88.62
307.961	92.62
308.191	91.62
308.421	96.62
308.651	90.62
308.881	80.62
309.111	91.62
309.341	85.62
309.571	89.62
309.8	99.62
310.03	98.62
310.26	95.62
310.49	94.62
310.72	103.62
310.949	100.62
311.179	96.62
311.409	93.62
311.639	105.62
311.868	112.62
312.098	104.62
312.328	89.62
312.557	88.62
312.787	101.62
313.017	95.62
313.246	100.62
313.476	83.62
313.706	88.62
313.935	87.62
314.165	113.62
314.394	97.62
314.624	94.62
314.853	91.62
315.083	88.62
315.312	87.62
315.542	108.62
315.771	96.62
316.001	93.62
316.23	96.62
316.46	89.62
316.689	83.62
316.919	86.62
317.148	82.62
317.377	108.62
317.607	91.62
317.836	98.62
318.065	93.62
318.295	81.62
318.524	91.62
318.753	96.62
318.983	92.62
319.212	89.62
319.441	92.62
319.67	107.62
319.9	81.62
320.129	98.62
320.358	91.62
320.587	97.62
320.816	85.62
321.046	80.62
321.275	82.62
321.504	78.62
321.733	89.62
321.962	82.62
322.191	93.62
322.42	102.62
322.649	92.62
322.878	91.62
323.108	98.62
323.337	121.62
323.566	129.62
323.795	137.62
324.024	174.62
324.253	322.62
324.482	690.62
324.71	1390.62
324.939	1730.62
325.168	670.62
325.397	209.62
325.626	120.62
325.855	123.62
326.084	115.62
326.313	120.62
326.542	139.62
326.77	206.62
326.999	378.62
327.228	762.62
327.457	1378.62
327.686	1060.62
327.914	317.62
328.143	186.62
328.372	131.62
328.6	117.62
328.829	122.62
329.058	116.62
329.287	108.62
329.515	95.62
329.744	86.62
329.972	94.62
330.201	113.62
330.43	116.62
330.658	126.62
330.887	132.62
331.115	115.62
331.344	92.62
331.572	106.62
331.801	103.62
332.03	87.62
332.258	95.62
332.486	103.62
332.715	88.62
332.943	100.62
333.172	99.62
333.4	83.62
333.629	103.62
333.857	100.62
334.085	108.62
334.314	108.62
334.542	110.62
334.771	108.62
334.999	105.62
335.227	102.62
335.455	82.62
335.684	105.62
335.912	95.62
336.14	89.62
336.369	90.62
336.597	94.62
336.825	106.62
337.053	99.62
337.281	82.62
337.51	84.62
337.738	83.62
337.966	105.62
338.194	94.62
338.422	91.62
338.65	94.62
338.878	87.62
339.106	90.62
339.334	94.62
339.562	73.62
339.79	90.62
340.018	81.62
340.246	86.62
340.474	82.62
340.702	76.62
340.93	76.62
341.158	87.62
341.386	100.62
341.614	94.62
341.842	82.62
342.07	96.62
342.298	101.62
342.526	92.62
342.754	78.62
342.981	84.62
343.209	90.62
343.437	109.62
343.665	100.62
343.893	87.62
344.12	96.62
344.348	97.62
344.576	94.62
344.804	84.62
345.031	80.62
345.259	96.62
345.487	90.62
345.714	96.62
345.942	101.62
346.17	108.62
346.397	81.62
346.625	91.62
346.853	88.62
347.08	84.62
347.308	85.62
347.535	88.62
347.763	100.62
347.99	94.62
348.218	98.62
348.445	100.62
348.673	98.62
348.9	102.62
349.128	91.62
349.355	80.62
349.583	94.62
349.81	92.62
350.037	87.62
350.265	98.62
350.492	97.62
350.72	97.62
350.947	102.62
351.174	102.62
351.402	83.62
351.629	82.62
351.856	88.62
352.083	94.62
352.311	105.62
352.538	118.62
352.765	97.62
352.992	92.62
353.22	112.62
353.447	89.62
353.674	104.62
353.901	97.62
354.128	87.62
354.355	88.62
354.583	90.62
354.81	108.62
355.037	84.62
355.264	92.62
355.491	94.62
355.718	93.62
355.945	91.62
356.172	98.62
356.399	106.62
356.626	97.62
356.853	93.62
357.08	92.62
357.307	94.62
357.534	88.62
357.761	93.62
357.988	108.62
358.215	98.62
358.441	95.62
358.668	87.62
358.895	87.62
359.122	88.62
359.349	86.62
359.576	74.62
359.802	88.62
360.029	90.62
360.256	92.62
360.483	94.62
360.709	87.62
360.936	101.62
361.163	89.62
361.39	101.62
361.616	91.62
361.843	89.62
362.07	91.62
362.296	92.62
362.523	85.62
362.749	97.62
362.976	84.62
363.203	93.62
363.429	87.62
363.656	81.62
363.882	82.62
364.109	88.62
364.335	103.62
364.562	100.62
364.788	95.62
365.015	96.62
365.241	67.62
365.468	89.62
365.694	108.62
365.92	78.62
366.147	97.62
366.373	81.62
366.599	93.62
366.826	84.62
367.052	92.62
367.278	101.62
367.505	92.62
367.731	91.62
367.957	90.62
368.184	96.62
368.41	104.62
368.636	120.62
368.862	111.62
369.089	110.62
369.315	71.62
369.541	91.62
369.767	94.62
369.993	95.62
370.219	88.62
370.445	99.62
370.672	78.62
370.898	82.62
371.124	77.62
371.35	77.62
371.576	73.62
371.802	88.62
372.028	94.62
372.254	94.62
372.48	84.62
372.706	93.62
372.932	84.62
373.158	96.62
373.384	96.62
373.61	77.62
373.835	75.62
374.061	95.62
374.287	87.62
374.513	91.62
374.739	77.62
374.965	84.62
375.191	78.62
375.416	92.62
375.642	83.62
375.868	89.62
376.094	85.62
376.319	94.62
376.545	82.62
376.771	82.62
376.997	80.62
377.222	103.62
377.448	91.62
377.674	88.62
377.899	82.62
378.125	79.62
378.35	90.62
378.576	82.62
378.802	86.62
379.027	78.62
379.253	107.62
379.478	89.62
379.704	92.62
379.929	88.62
380.155	75.62
380.38	103.62
380.606	111.62
380.831	96.62
381.057	105.62
381.282	90.62
381.507	98.62
381.733	94.62
381.958	83.62
382.184	92.62
382.409	88.62
382.634	81.62
382.86	103.62
383.085	78.62
383.31	96.62
383.535	99.62
383.761	103.62
383.986	112.62
384.211	98.62
384.436	83.62
384.662	88.62
384.887	102.62
385.112	86.62
385.337	94.62
385.562	90.62
385.787	104.62
386.013	96.62
386.238	115.62
386.463	95.62
386.688	97.62
386.913	107.62
387.138	91.62
387.363	107.62
387.588	99.62
387.813	96.62
388.038	115.62
388.263	113.62
388.488	106.62
388.713	98.62
388.938	90.62
389.163	100.62
389.387	79.62
389.612	91.62
389.837	89.62
390.062	81.62
390.287	87.62
390.512	94.62
390.736	82.62
390.961	89.62
391.186	93.62
391.411	78.62
391.636	103.62
391.86	108.62
392.085	94.62
392.31	82.62
392.534	91.62
392.759	83.62
392.984	71.62
393.208	74.62
393.433	87.62
393.658	83.62
393.882	95.62
394.107	91.62
394.331	90.62
394.556	87.62
394.78	83.62
395.005	84.62
395.229	90.62
395.454	80.62
395.678	90.62
395.903	83.62
396.127	98.62
396.352	90.62
396.576	87.62
396.801	82.62
397.025	84.62
397.249	73.62
397.474	82.62
397.698	93.62
397.922	82.62
398.147	84.62
398.371	91.62
398.595	85.62
398.82	73.62
399.044	86.62
399.268	91.62
399.492	91.62
399.717	89.62
399.941	101.62
400.165	99.62
400.389	85.62
400.613	86.62
400.837	71.62
401.062	97.62
401.286	95.62
401.51	83.62
401.734	85.62
401.958	106.62
402.182	101.62
402.406	147.62
402.63	115.62
402.854	82.62
403.078	86.62
403.302	84.62
403.526	79.62
403.75	89.62
403.974	98.62
404.198	90.62
404.422	78.62
404.645	95.62
404.869	79.62
405.093	88.62
405.317	84.62
405.541	81.62
405.765	100.62
405.988	123.62
406.212	155.62
406.436	188.62
406.66	119.62
406.883	88.62
407.107	83.62
407.331	83.62
407.555	88.62
407.778	83.62
408.002	94.62
408.226	79.62
408.449	83.62
408.673	76.62
408.896	93.62
409.12	100.62
409.344	94.62
409.567	83.62
409.791	88.62
410.014	92.62
410.238	89.62
410.461	102.62
410.685	103.62
410.908	93.62
411.132	115.62
411.355	96.62
411.578	105.62
411.802	100.62
412.025	104.62
412.249	82.62
412.472	97.62
412.695	99.62
412.919	91.62
413.142	84.62
413.365	83.62
413.589	83.62
413.812	87.62
414.035	94.62
414.258	92.62
414.482	72.62
414.705	76.62
414.928	84.62
415.151	105.62
415.374	89.62
415.597	83.62
415.821	81.62
416.044	72.62
416.267	86.62
416.49	88.62
416.713	91.62
416.936	87.62
417.159	91.62
417.382	81.62
417.605	86.62
417.828	80.62
418.051	93.62
418.274	93.62
418.497	78.62
418.72	90.62
418.943	78.62
419.166	77.62
419.389	89.62
419.611	91.62
419.834	103.62
420.057	82.62
420.28	82.62
420.503	85.62
420.726	86.62
420.948	88.62
421.171	97.62
421.394	83.62
421.617	85.62
421.839	97.62
422.062	80.62
422.285	86.62
422.507	102.62
422.73	100.62
422.953	75.62
423.175	80.62
423.398	83.62
423.621	80.62
423.843	72.62
424.066	99.62
424.288	80.62
424.511	78.62
424.733	93.62
424.956	85.62
425.178	87.62
425.401	87.62
425.623	92.62
425.846	85.62
426.068	83.62
426.291	94.62
426.513	80.62
426.735	79.62
426.958	84.62
427.18	99.62
427.402	120.62
427.625	130.62
427.847	108.62
428.069	95.62
428.292	87.62
428.514	74.62
428.736	94.62
428.958	84.62
429.181	97.62
429.403	87.62
429.625	95.62
429.847	80.62
430.069	98.62
430.292	84.62
430.514	85.62
430.736	86.62
430.958	77.62
431.18	71.62
431.402	93.62
431.624	85.62
431.846	86.62
432.068	88.62
432.29	99.62
432.512	88.62
432.734	83.62
432.956	88.62
433.178	106.62
433.4	98.62
433.622	91.62
433.844	91.62
434.066	88.62
434.287	98.62
434.509	95.62
434.731	91.62
434.953	94.62
435.175	78.62
435.397	86.62
435.618	87.62
435.84	104.62
436.062	115.62
436.284	111.62
436.505	91.62
436.727	91.62
436.949	92.62
437.17	98.62
437.392	77.62
437.614	91.62
437.835	116.62
438.057	93.62
438.278	96.62
438.5	104.62
438.721	107.62
438.943	83.62
439.165	106.62
439.386	95.62
439.608	85.62
439.829	98.62
440.05	119.62
440.272	112.62
440.493	92.62
440.715	101.62
440.936	83.62
441.158	87.62
441.379	106.62
441.6	78.62
441.822	82.62
442.043	92.62
442.264	97.62
442.486	96.62
442.707	74.62
442.928	114.62
443.149	107.62
443.371	114.62
443.592	101.62
443.813	97.62
444.034	95.62
444.255	88.62
444.476	99.62
444.698	84.62
444.919	86.62
445.14	130.62
445.361	119.62
445.582	84.62
445.803	121.62
446.024	112.62
446.245	114.62
446.466	116.62
446.687	83.62
446.908	76.62
447.129	94.62
447.35	97.62
447.571	85.62
447.792	83.62
448.013	98.62
448.234	106.62
448.455	98.62
448.675	118.62
448.896	106.62
449.117	96.62
449.338	102.62
449.559	111.62
449.779	102.62
450	88.62
450.221	72.62
450.442	82.62
450.662	96.62
450.883	102.62
451.104	119.62
451.324	92.62
451.545	88.62
451.766	83.62
451.986	83.62
452.207	73.62
452.428	86.62
452.648	86.62
452.869	101.62
453.089	114.62
453.31	119.62
453.53	90.62
453.751	71.62
453.971	99.62
454.192	107.62
454.412	94.62
454.633	86.62
454.853	87.62
455.073	81.62
455.294	90.62
455.514	83.62
455.734	72.62
455.955	88.62
456.175	89.62
456.395	79.62
456.616	76.62
456.836	79.62
457.056	82.62
457.276	89.62
457.497	83.62
457.717	81.62
457.937	82.62
458.157	78.62
458.377	91.62
458.598	90.62
458.818	136.62
459.038	123.62
459.258	114.62
459.478	90.62
459.698	86.62
459.918	91.62
460.138	95.62
460.358	87.62
460.578	93.62
460.798	90.62
461.018	84.62
461.238	73.62
461.458	84.62
461.678	95.62
461.898	86.62
462.118	80.62
462.338	95.62
462.558	95.62
462.777	75.62
462.997	83.62
463.217	84.62
463.437	82.62
463.657	86.62
463.876	90.62
464.096	96.62
464.316	80.62
464.536	86.62
464.755	95.62
464.975	95.62
465.195	148.62
465.414	129.62
465.634	98.62
465.854	89.62
466.073	100.62
466.293	92.62
466.512	89.62
466.732	78.62
466.951	85.62
467.171	99.62
467.391	82.62
467.61	101.62
467.829	99.62
468.049	104.62
468.268	94.62
468.488	84.62
468.707	74.62
468.927	91.62
469.146	81.62
469.365	82.62
469.585	94.62
469.804	98.62
470.023	103.62
470.243	83.62
470.462	94.62
470.681	95.62
470.901	75.62
471.12	73.62
471.339	95.62
471.558	87.62
471.777	87.62
471.997	103.62
472.216	94.62
472.435	113.62
472.654	85.62
472.873	88.62
473.092	90.62
473.311	87.62
473.53	90.62
473.749	83.62
473.968	99.62
474.187	91.62
474.406	80.62
474.625	80.62
474.844	88.62
475.063	80.62
475.282	97.62
475.501	83.62
475.72	85.62
475.939	84.62
476.158	92.62
476.377	86.62
476.596	78.62
476.814	89.62
477.033	97.62
477.252	95.62
477.471	94.62
477.69	87.62
477.908	82.62
478.127	90.62
478.346	75.62
478.564	80.62
478.783	95.62
479.002	93.62
479.22	86.62
479.439	98.62
479.658	97.62
479.876	88.62
480.095	87.62
480.313	93.62
480.532	81.62
480.751	93.62
480.969	107.62
481.188	185.62
481.406	142.62
481.624	90.62
481.843	76.62
482.061	84.62
482.28	77.62
482.498	87.62
482.717	85.62
482.935	91.62
483.153	83.62
483.372	92.62
483.59	87.62
483.808	86.62
484.027	97.62
484.245	100.62
484.463	99.62
484.681	85.62
484.9	74.62
485.118	92.62
485.336	105.62
485.554	90.62
485.772	106.62
485.99	106.62
486.209	82.62
486.427	107.62
486.645	101.62
486.863	106.62
487.081	101.62
487.299	92.62
487.517	84.62
487.735	99.62
487.953	99.62
488.171	88.62
488.389	92.62
488.607	108.62
488.825	90.62
489.043	86.62
489.261	98.62
489.479	87.62
489.696	90.62
489.914	80.62
490.132	75.62
490.35	89.62
490.568	84.62
490.786	89.62
491.003	85.62
491.221	91.62
491.439	94.62
491.657	82.62
491.874	104.62
492.092	90.62
492.31	97.62
492.527	100.62
492.745	77.62
492.963	83.62
493.18	92.62
493.398	84.62
493.615	86.62
493.833	92.62
494.05	83.62
494.268	81.62
494.485	90.62
494.703	94.62
494.92	94.62
495.138	105.62
495.355	102.62
495.573	79.62
495.79	89.62
496.008	98.62
496.225	89.62
496.442	100.62
496.66	90.62
496.877	92.62
497.094	93.62
497.312	96.62
497.529	94.62
497.746	80.62
497.963	103.62
498.181	87.62
498.398	95.62
498.615	104.62
498.832	89.62
499.049	86.62
499.267	98.62
499.484	82.62
499.701	80.62
499.918	87.62
500.135	89.62
500.352	98.62
500.569	98.62
500.786	84.62
501.003	84.62
501.22	84.62
501.437	89.62
501.654	102.62
501.871	88.62
502.088	82.62
502.305	79.62
502.522	92.62
502.739	102.62
502.956	70.62
503.172	90.62
503.389	87.62
503.606	99.62
503.823	100.62
504.04	97.62
504.256	82.62
504.473	91.62
504.69	96.62
504.907	97.62
505.123	88.62
505.34	86.62
505.557	92.62
505.773	83.62
505.99	106.62
506.207	82.62
506.423	87.62
506.64	91.62
506.856	70.62
507.073	70.62
507.289	70.62
507.506	90.62
507.722	105.62
507.939	95.62
508.155	88.62
508.372	91.62
508.588	89.62
508.805	78.62
509.021	88.62
509.238	90.62
509.454	99.62
509.67	93.62
509.887	112.62
510.103	126.62
510.319	192.62
510.536	673.62
510.752	2083.62
510.968	578.62
511.184	138.62
511.401	94.62
511.617	86.62
511.833	95.62
512.049	86.62
512.265	93.62
512.481	94.62
512.698	92.62
512.914	93.62
513.13	104.62
513.346	95.62
513.562	92.62
513.778	96.62
513.994	100.62
514.21	89.62
514.426	95.62
514.642	116.62
514.858	112.62
515.074	135.62
515.29	368.62
515.506	1144.62
515.721	449.62
515.937	137.62
516.153	94.62
516.369	98.62
516.585	98.62
516.801	88.62
