Data from Circ_1994_H10_HRD10591_00093.txt Node
Date: Wed Jan 03 11:40:49 EST 2024
User: Yrep
Spectrometer: HR+D1059
Trigger mode: 1
Integration Time (sec): 1.000000E-1
Scans to average: 1
Electric dark correction enabled: true
Nonlinearity correction enabled: false
Boxcar width: 0
XAxis mode: Wavelengths
Number of Pixels in Spectrum: 2048
>>>>>Begin Spectral Data<<<<<
223.165	-29.25
223.4	-29.25
223.635	-29.25
223.869	-15.25
224.104	-21.25
224.338	-4.25
224.573	-8.25
224.808	-25.25
225.042	0.75
225.277	4.75
225.511	-7.25
225.746	0.75
225.98	14.75
226.215	12.75
226.449	15.75
226.683	28.75
226.918	16.75
227.152	15.75
227.387	40.75
227.621	37.75
227.856	56.75
228.09	56.75
228.324	61.75
228.559	46.75
228.793	62.75
229.027	56.75
229.262	72.75
229.496	81.75
229.73	77.75
229.964	89.75
230.199	88.75
230.433	76.75
230.667	82.75
230.901	78.75
231.136	87.75
231.37	76.75
231.604	86.75
231.838	84.75
232.072	93.75
232.306	85.75
232.541	70.75
232.775	82.75
233.009	76.75
233.243	78.75
233.477	78.75
233.711	81.75
233.945	80.75
234.179	74.75
234.413	96.75
234.647	80.75
234.881	86.75
235.115	80.75
235.349	92.75
235.583	91.75
235.817	81.75
236.051	70.75
236.285	79.75
236.519	88.75
236.753	72.75
236.987	88.75
237.221	87.75
237.455	87.75
237.689	60.75
237.922	86.75
238.156	78.75
238.39	81.75
238.624	84.75
238.858	75.75
239.091	73.75
239.325	75.75
239.559	88.75
239.793	82.75
240.027	78.75
240.26	85.75
240.494	89.75
240.728	76.75
240.961	92.75
241.195	78.75
241.429	81.75
241.662	79.75
241.896	67.75
242.13	82.75
242.363	68.75
242.597	78.75
242.83	82.75
243.064	80.75
243.298	75.75
243.531	77.75
243.765	76.75
243.998	79.75
244.232	86.75
244.465	70.75
244.699	78.75
244.932	68.75
245.166	72.75
245.399	88.75
245.633	81.75
245.866	85.75
246.099	69.75
246.333	68.75
246.566	78.75
246.8	73.75
247.033	86.75
247.266	89.75
247.5	81.75
247.733	78.75
247.966	82.75
248.2	77.75
248.433	83.75
248.666	80.75
248.899	80.75
249.133	82.75
249.366	103.75
249.599	104.75
249.832	89.75
250.066	75.75
250.299	74.75
250.532	77.75
250.765	94.75
250.998	86.75
251.231	85.75
251.465	93.75
251.698	65.75
251.931	89.75
252.164	89.75
252.397	76.75
252.63	76.75
252.863	78.75
253.096	88.75
253.329	78.75
253.562	91.75
253.795	84.75
254.028	92.75
254.261	89.75
254.494	80.75
254.727	80.75
254.96	88.75
255.193	88.75
255.426	81.75
255.659	88.75
255.892	67.75
256.124	74.75
256.357	98.75
256.59	73.75
256.823	78.75
257.056	84.75
257.289	78.75
257.521	78.75
257.754	79.75
257.987	78.75
258.22	86.75
258.452	82.75
258.685	82.75
258.918	86.75
259.151	87.75
259.383	90.75
259.616	87.75
259.849	91.75
260.081	93.75
260.314	78.75
260.547	75.75
260.779	84.75
261.012	83.75
261.244	87.75
261.477	89.75
261.71	104.75
261.942	111.75
262.175	118.75
262.407	95.75
262.64	80.75
262.872	86.75
263.105	92.75
263.337	84.75
263.57	99.75
263.802	64.75
264.035	75.75
264.267	87.75
264.499	86.75
264.732	82.75
264.964	76.75
265.197	85.75
265.429	70.75
265.661	88.75
265.894	93.75
266.126	77.75
266.358	73.75
266.591	89.75
266.823	84.75
267.055	83.75
267.287	81.75
267.52	81.75
267.752	101.75
267.984	89.75
268.216	84.75
268.448	80.75
268.681	84.75
268.913	76.75
269.145	89.75
269.377	90.75
269.609	90.75
269.841	83.75
270.073	89.75
270.306	75.75
270.538	88.75
270.77	84.75
271.002	87.75
271.234	88.75
271.466	80.75
271.698	95.75
271.93	94.75
272.162	97.75
272.394	83.75
272.626	84.75
272.858	81.75
273.09	86.75
273.322	89.75
273.553	96.75
273.785	90.75
274.017	93.75
274.249	96.75
274.481	90.75
274.713	83.75
274.945	94.75
275.176	86.75
275.408	100.75
275.64	83.75
275.872	101.75
276.104	78.75
276.335	93.75
276.567	113.75
276.799	94.75
277.031	96.75
277.262	98.75
277.494	94.75
277.726	99.75
277.957	102.75
278.189	76.75
278.421	78.75
278.652	107.75
278.884	100.75
279.115	82.75
279.347	86.75
279.579	81.75
279.81	91.75
280.042	92.75
280.273	96.75
280.505	101.75
280.736	82.75
280.968	87.75
281.199	89.75
281.431	72.75
281.662	83.75
281.894	88.75
282.125	97.75
282.356	112.75
282.588	142.75
282.819	110.75
283.051	82.75
283.282	100.75
283.513	99.75
283.745	86.75
283.976	83.75
284.207	81.75
284.439	82.75
284.67	90.75
284.901	89.75
285.132	78.75
285.364	92.75
285.595	78.75
285.826	76.75
286.057	90.75
286.288	84.75
286.52	83.75
286.751	91.75
286.982	93.75
287.213	90.75
287.444	77.75
287.675	95.75
287.906	99.75
288.138	99.75
288.369	88.75
288.6	65.75
288.831	102.75
289.062	101.75
289.293	82.75
289.524	85.75
289.755	81.75
289.986	80.75
290.217	91.75
290.448	87.75
290.679	89.75
290.91	88.75
291.141	90.75
291.371	92.75
291.602	82.75
291.833	90.75
292.064	93.75
292.295	97.75
292.526	92.75
292.757	86.75
292.987	93.75
293.218	80.75
293.449	91.75
293.68	89.75
293.91	90.75
294.141	84.75
294.372	99.75
294.603	82.75
294.833	81.75
295.064	101.75
295.295	99.75
295.525	100.75
295.756	102.75
295.987	106.75
296.217	145.75
296.448	117.75
296.679	86.75
296.909	77.75
297.14	99.75
297.37	86.75
297.601	88.75
297.831	88.75
298.062	99.75
298.292	85.75
298.523	91.75
298.753	94.75
298.984	98.75
299.214	95.75
299.445	107.75
299.675	99.75
299.905	96.75
300.136	101.75
300.366	89.75
300.597	91.75
300.827	105.75
301.057	106.75
301.288	109.75
301.518	102.75
301.748	99.75
301.979	112.75
302.209	97.75
302.439	102.75
302.669	78.75
302.9	99.75
303.13	80.75
303.36	100.75
303.59	100.75
303.82	105.75
304.051	97.75
304.281	74.75
304.511	82.75
304.741	88.75
304.971	82.75
305.201	88.75
305.431	78.75
305.661	80.75
305.891	86.75
306.121	107.75
306.352	110.75
306.582	105.75
306.812	99.75
307.042	90.75
307.272	102.75
307.502	105.75
307.731	102.75
307.961	90.75
308.191	99.75
308.421	83.75
308.651	85.75
308.881	74.75
309.111	104.75
309.341	96.75
309.571	94.75
309.8	90.75
310.03	102.75
310.26	104.75
310.49	105.75
310.72	106.75
310.949	97.75
311.179	103.75
311.409	80.75
311.639	93.75
311.868	99.75
312.098	93.75
312.328	89.75
312.557	107.75
312.787	114.75
313.017	102.75
313.246	96.75
313.476	89.75
313.706	89.75
313.935	96.75
314.165	94.75
314.394	108.75
314.624	101.75
314.853	110.75
315.083	94.75
315.312	98.75
315.542	97.75
315.771	96.75
316.001	91.75
316.23	100.75
316.46	79.75
316.689	83.75
316.919	93.75
317.148	98.75
317.377	93.75
317.607	104.75
317.836	96.75
318.065	92.75
318.295	90.75
318.524	84.75
318.753	91.75
318.983	108.75
319.212	103.75
319.441	95.75
319.67	90.75
319.9	84.75
320.129	98.75
320.358	97.75
320.587	99.75
320.816	93.75
321.046	100.75
321.275	101.75
321.504	87.75
321.733	116.75
321.962	84.75
322.191	102.75
322.42	114.75
322.649	93.75
322.878	111.75
323.108	124.75
323.337	122.75
323.566	128.75
323.795	131.75
324.024	194.75
324.253	364.75
324.482	736.75
324.71	1508.75
324.939	1936.75
325.168	747.75
325.397	240.75
325.626	143.75
325.855	134.75
326.084	116.75
326.313	141.75
326.542	129.75
326.77	202.75
326.999	416.75
327.228	828.75
327.457	1496.75
327.686	1203.75
327.914	346.75
328.143	220.75
328.372	175.75
328.6	150.75
328.829	126.75
329.058	118.75
329.287	124.75
329.515	127.75
329.744	114.75
329.972	144.75
330.201	193.75
330.43	232.75
330.658	152.75
330.887	136.75
331.115	120.75
331.344	99.75
331.572	108.75
331.801	102.75
332.03	99.75
332.258	107.75
332.486	106.75
332.715	86.75
332.943	96.75
333.172	109.75
333.4	94.75
333.629	110.75
333.857	112.75
334.085	125.75
334.314	162.75
334.542	259.75
334.771	244.75
334.999	129.75
335.227	104.75
335.455	90.75
335.684	106.75
335.912	93.75
336.14	83.75
336.369	92.75
336.597	102.75
336.825	104.75
337.053	102.75
337.281	89.75
337.51	101.75
337.738	97.75
337.966	106.75
338.194	100.75
338.422	104.75
338.65	98.75
338.878	95.75
339.106	92.75
339.334	92.75
339.562	84.75
339.79	104.75
340.018	97.75
340.246	97.75
340.474	94.75
340.702	97.75
340.93	102.75
341.158	102.75
341.386	111.75
341.614	111.75
341.842	99.75
342.07	96.75
342.298	86.75
342.526	97.75
342.754	92.75
342.981	84.75
343.209	89.75
343.437	104.75
343.665	96.75
343.893	97.75
344.12	86.75
344.348	95.75
344.576	100.75
344.804	83.75
345.031	84.75
345.259	98.75
345.487	89.75
345.714	90.75
345.942	90.75
346.17	97.75
346.397	92.75
346.625	87.75
346.853	100.75
347.08	103.75
347.308	99.75
347.535	110.75
347.763	96.75
347.99	90.75
348.218	104.75
348.445	103.75
348.673	95.75
348.9	99.75
349.128	97.75
349.355	81.75
349.583	95.75
349.81	96.75
350.037	84.75
350.265	102.75
350.492	82.75
350.72	109.75
350.947	102.75
351.174	108.75
351.402	92.75
351.629	105.75
351.856	107.75
352.083	105.75
352.311	122.75
352.538	117.75
352.765	86.75
352.992	103.75
353.22	113.75
353.447	108.75
353.674	91.75
353.901	102.75
354.128	91.75
354.355	103.75
354.583	112.75
354.81	100.75
355.037	89.75
355.264	92.75
355.491	86.75
355.718	84.75
355.945	90.75
356.172	83.75
356.399	93.75
356.626	77.75
356.853	95.75
357.08	91.75
357.307	96.75
357.534	94.75
357.761	89.75
357.988	88.75
358.215	101.75
358.441	92.75
358.668	85.75
358.895	97.75
359.122	76.75
359.349	88.75
359.576	94.75
359.802	92.75
360.029	122.75
360.256	113.75
360.483	96.75
360.709	99.75
360.936	110.75
361.163	96.75
361.39	114.75
361.616	97.75
361.843	83.75
362.07	91.75
362.296	88.75
362.523	82.75
362.749	90.75
362.976	94.75
363.203	90.75
363.429	88.75
363.656	82.75
363.882	85.75
364.109	113.75
364.335	90.75
364.562	105.75
364.788	89.75
365.015	95.75
365.241	100.75
365.468	103.75
365.694	97.75
365.92	88.75
366.147	83.75
366.373	67.75
366.599	74.75
366.826	99.75
367.052	93.75
367.278	84.75
367.505	74.75
367.731	91.75
367.957	101.75
368.184	92.75
368.41	92.75
368.636	94.75
368.862	128.75
369.089	121.75
369.315	95.75
369.541	87.75
369.767	92.75
369.993	85.75
370.219	105.75
370.445	94.75
370.672	89.75
370.898	96.75
371.124	85.75
371.35	83.75
371.576	94.75
371.802	92.75
372.028	84.75
372.254	94.75
372.48	84.75
372.706	86.75
372.932	87.75
373.158	107.75
373.384	94.75
373.61	98.75
373.835	102.75
374.061	72.75
374.287	92.75
374.513	95.75
374.739	78.75
374.965	83.75
375.191	78.75
375.416	94.75
375.642	101.75
375.868	90.75
376.094	78.75
376.319	84.75
376.545	94.75
376.771	80.75
376.997	86.75
377.222	97.75
377.448	92.75
377.674	88.75
377.899	86.75
378.125	88.75
378.35	97.75
378.576	86.75
378.802	84.75
379.027	86.75
379.253	94.75
379.478	102.75
379.704	102.75
379.929	81.75
380.155	87.75
380.38	83.75
380.606	89.75
380.831	93.75
381.057	99.75
381.282	101.75
381.507	91.75
381.733	94.75
381.958	92.75
382.184	105.75
382.409	100.75
382.634	108.75
382.86	97.75
383.085	98.75
383.31	91.75
383.535	90.75
383.761	97.75
383.986	93.75
384.211	80.75
384.436	89.75
384.662	96.75
384.887	98.75
385.112	108.75
385.337	108.75
385.562	107.75
385.787	104.75
386.013	108.75
386.238	99.75
386.463	102.75
386.688	112.75
386.913	106.75
387.138	98.75
387.363	99.75
387.588	97.75
387.813	95.75
388.038	96.75
388.263	112.75
388.488	107.75
388.713	100.75
388.938	84.75
389.163	93.75
389.387	95.75
389.612	96.75
389.837	80.75
390.062	80.75
390.287	81.75
390.512	84.75
390.736	93.75
390.961	79.75
391.186	84.75
391.411	102.75
391.636	96.75
391.86	93.75
392.085	80.75
392.31	84.75
392.534	83.75
392.759	85.75
392.984	90.75
393.208	102.75
393.433	92.75
393.658	94.75
393.882	73.75
394.107	82.75
394.331	86.75
394.556	70.75
394.78	93.75
395.005	92.75
395.229	84.75
395.454	82.75
395.678	88.75
395.903	84.75
396.127	95.75
396.352	83.75
396.576	88.75
396.801	82.75
397.025	96.75
397.249	96.75
397.474	88.75
397.698	87.75
397.922	99.75
398.147	89.75
398.371	89.75
398.595	96.75
398.82	80.75
399.044	90.75
399.268	80.75
399.492	76.75
399.717	83.75
399.941	75.75
400.165	85.75
400.389	98.75
400.613	92.75
400.837	80.75
401.062	78.75
401.286	99.75
401.51	91.75
401.734	90.75
401.958	87.75
402.182	109.75
402.406	141.75
402.63	120.75
402.854	84.75
403.078	110.75
403.302	84.75
403.526	91.75
403.75	82.75
403.974	88.75
404.198	91.75
404.422	82.75
404.645	85.75
404.869	82.75
405.093	94.75
405.317	99.75
405.541	109.75
405.765	88.75
405.988	101.75
406.212	172.75
406.436	205.75
406.66	144.75
406.883	113.75
407.107	104.75
407.331	97.75
407.555	109.75
407.778	100.75
408.002	88.75
408.226	81.75
408.449	99.75
408.673	90.75
408.896	104.75
409.12	96.75
409.344	79.75
409.567	94.75
409.791	91.75
410.014	89.75
410.238	102.75
410.461	87.75
410.685	94.75
410.908	94.75
411.132	91.75
411.355	103.75
411.578	105.75
411.802	93.75
412.025	94.75
412.249	90.75
412.472	92.75
412.695	91.75
412.919	93.75
413.142	81.75
413.365	95.75
413.589	102.75
413.812	78.75
414.035	97.75
414.258	86.75
414.482	76.75
414.705	88.75
414.928	91.75
415.151	91.75
415.374	94.75
415.597	84.75
415.821	83.75
416.044	96.75
416.267	90.75
416.49	88.75
416.713	95.75
416.936	86.75
417.159	76.75
417.382	92.75
417.605	97.75
417.828	96.75
418.051	93.75
418.274	84.75
418.497	80.75
418.72	79.75
418.943	99.75
419.166	88.75
419.389	83.75
419.611	88.75
419.834	91.75
420.057	93.75
420.28	85.75
420.503	86.75
420.726	80.75
420.948	108.75
421.171	76.75
421.394	99.75
421.617	99.75
421.839	98.75
422.062	84.75
422.285	96.75
422.507	101.75
422.73	108.75
422.953	77.75
423.175	91.75
423.398	76.75
423.621	78.75
423.843	90.75
424.066	68.75
424.288	81.75
424.511	97.75
424.733	87.75
424.956	101.75
425.178	87.75
425.401	87.75
425.623	92.75
425.846	79.75
426.068	107.75
426.291	88.75
426.513	92.75
426.735	85.75
426.958	94.75
427.18	100.75
427.402	146.75
427.625	160.75
427.847	133.75
428.069	117.75
428.292	95.75
428.514	80.75
428.736	74.75
428.958	93.75
429.181	88.75
429.403	63.75
429.625	90.75
429.847	76.75
430.069	89.75
430.292	94.75
430.514	91.75
430.736	86.75
430.958	92.75
431.18	97.75
431.402	81.75
431.624	79.75
431.846	78.75
432.068	89.75
432.29	85.75
432.512	95.75
432.734	91.75
432.956	91.75
433.178	93.75
433.4	94.75
433.622	93.75
433.844	94.75
434.066	88.75
434.287	93.75
434.509	81.75
434.731	89.75
434.953	74.75
435.175	78.75
435.397	84.75
435.618	97.75
435.84	103.75
436.062	103.75
436.284	98.75
436.505	94.75
436.727	94.75
436.949	92.75
437.17	87.75
437.392	68.75
437.614	89.75
437.835	96.75
438.057	117.75
438.278	108.75
438.5	97.75
438.721	103.75
438.943	98.75
439.165	101.75
439.386	105.75
439.608	93.75
439.829	110.75
440.05	111.75
440.272	137.75
440.493	104.75
440.715	90.75
440.936	82.75
441.158	77.75
441.379	89.75
441.6	100.75
441.822	92.75
442.043	109.75
442.264	102.75
442.486	98.75
442.707	96.75
442.928	91.75
443.149	123.75
443.371	115.75
443.592	108.75
443.813	101.75
444.034	106.75
444.255	116.75
444.476	90.75
444.698	90.75
444.919	80.75
445.14	130.75
445.361	118.75
445.582	101.75
445.803	120.75
446.024	128.75
446.245	128.75
446.466	112.75
446.687	92.75
446.908	88.75
447.129	88.75
447.35	90.75
447.571	85.75
447.792	105.75
448.013	102.75
448.234	96.75
448.455	97.75
448.675	106.75
448.896	116.75
449.117	100.75
449.338	102.75
449.559	117.75
449.779	121.75
450	101.75
450.221	86.75
450.442	96.75
450.662	90.75
450.883	99.75
451.104	117.75
451.324	94.75
451.545	92.75
451.766	88.75
451.986	75.75
452.207	89.75
452.428	89.75
452.648	104.75
452.869	109.75
453.089	97.75
453.31	103.75
453.53	98.75
453.751	102.75
453.971	99.75
454.192	89.75
454.412	79.75
454.633	90.75
454.853	74.75
455.073	87.75
455.294	88.75
455.514	99.75
455.734	105.75
455.955	86.75
456.175	86.75
456.395	76.75
456.616	83.75
456.836	89.75
457.056	81.75
457.276	79.75
457.497	80.75
457.717	76.75
457.937	97.75
458.157	85.75
458.377	89.75
458.598	118.75
458.818	141.75
459.038	151.75
459.258	115.75
459.478	85.75
459.698	88.75
459.918	88.75
460.138	96.75
460.358	82.75
460.578	88.75
460.798	86.75
461.018	90.75
461.238	94.75
461.458	95.75
461.678	84.75
461.898	99.75
462.118	86.75
462.338	76.75
462.558	98.75
462.777	80.75
462.997	84.75
463.217	81.75
463.437	94.75
463.657	87.75
463.876	96.75
464.096	102.75
464.316	93.75
464.536	89.75
464.755	89.75
464.975	97.75
465.195	152.75
465.414	152.75
465.634	91.75
465.854	76.75
466.073	92.75
466.293	89.75
466.512	90.75
466.732	114.75
466.951	89.75
467.171	90.75
467.391	93.75
467.61	102.75
467.829	102.75
468.049	139.75
468.268	156.75
468.488	113.75
468.707	88.75
468.927	78.75
469.146	72.75
469.365	112.75
469.585	93.75
469.804	91.75
470.023	86.75
470.243	87.75
470.462	107.75
470.681	113.75
470.901	96.75
471.12	89.75
471.339	84.75
471.558	88.75
471.777	92.75
471.997	125.75
472.216	215.75
472.435	323.75
472.654	143.75
472.873	99.75
473.092	92.75
473.311	101.75
473.53	84.75
473.749	84.75
473.968	77.75
474.187	97.75
474.406	84.75
474.625	85.75
474.844	71.75
475.063	84.75
475.282	91.75
475.501	91.75
475.72	83.75
475.939	90.75
476.158	80.75
476.377	80.75
476.596	93.75
476.814	92.75
477.033	96.75
477.252	84.75
477.471	96.75
477.69	81.75
477.908	84.75
478.127	88.75
478.346	90.75
478.564	82.75
478.783	108.75
479.002	99.75
479.22	100.75
479.439	104.75
479.658	104.75
479.876	83.75
480.095	96.75
480.313	86.75
480.532	98.75
480.751	108.75
480.969	200.75
481.188	526.75
481.406	332.75
481.624	111.75
481.843	84.75
482.061	99.75
482.28	81.75
482.498	96.75
482.717	76.75
482.935	90.75
483.153	90.75
483.372	83.75
483.59	92.75
483.808	84.75
484.027	83.75
484.245	91.75
484.463	80.75
484.681	101.75
484.9	109.75
485.118	91.75
485.336	80.75
485.554	120.75
485.772	106.75
485.99	110.75
486.209	111.75
486.427	112.75
486.645	94.75
486.863	116.75
487.081	106.75
487.299	107.75
487.517	103.75
487.735	87.75
487.953	85.75
488.171	101.75
488.389	81.75
488.607	110.75
488.825	101.75
489.043	94.75
489.261	99.75
489.479	86.75
489.696	91.75
489.914	105.75
490.132	76.75
490.35	90.75
490.568	95.75
490.786	86.75
491.003	84.75
491.221	78.75
491.439	81.75
491.657	84.75
491.874	100.75
492.092	94.75
492.31	87.75
492.527	72.75
492.745	92.75
492.963	91.75
493.18	90.75
493.398	91.75
493.615	95.75
493.833	88.75
494.05	97.75
494.268	101.75
494.485	86.75
494.703	84.75
494.92	101.75
495.138	97.75
495.355	81.75
495.573	86.75
495.79	85.75
496.008	101.75
496.225	93.75
496.442	89.75
496.66	90.75
496.877	86.75
497.094	94.75
497.312	92.75
497.529	87.75
497.746	98.75
497.963	84.75
498.181	86.75
498.398	97.75
498.615	120.75
498.832	105.75
499.049	85.75
499.267	90.75
499.484	93.75
499.701	90.75
499.918	100.75
500.135	88.75
500.352	82.75
500.569	88.75
500.786	80.75
501.003	89.75
501.22	89.75
501.437	79.75
501.654	92.75
501.871	95.75
502.088	96.75
502.305	87.75
502.522	97.75
502.739	96.75
502.956	87.75
503.172	99.75
503.389	93.75
503.606	100.75
503.823	96.75
504.04	94.75
504.256	75.75
504.473	84.75
504.69	91.75
504.907	100.75
505.123	89.75
505.34	92.75
505.557	86.75
505.773	98.75
505.99	88.75
506.207	87.75
506.423	91.75
506.64	85.75
506.856	94.75
507.073	98.75
507.289	107.75
507.506	91.75
507.722	116.75
507.939	95.75
508.155	89.75
508.372	84.75
508.588	89.75
508.805	91.75
509.021	98.75
509.238	98.75
509.454	100.75
509.67	102.75
509.887	115.75
510.103	122.75
510.319	219.75
510.536	777.75
510.752	2463.75
510.968	645.75
511.184	154.75
511.401	112.75
511.617	90.75
511.833	103.75
512.049	94.75
512.265	94.75
512.481	83.75
512.698	86.75
512.914	98.75
513.13	106.75
513.346	98.75
513.562	112.75
513.778	99.75
513.994	107.75
514.21	102.75
514.426	109.75
514.642	120.75
514.858	118.75
515.074	165.75
515.29	456.75
515.506	1418.75
