Data from Circ_1994_H10_HRD10591_00033.txt Node
Date: Wed Jan 03 11:40:37 EST 2024
User: Yrep
Spectrometer: HR+D1059
Trigger mode: 1
Integration Time (sec): 1.000000E-1
Scans to average: 1
Electric dark correction enabled: true
Nonlinearity correction enabled: false
Boxcar width: 0
XAxis mode: Wavelengths
Number of Pixels in Spectrum: 2048
>>>>>Begin Spectral Data<<<<<
223.165	-1.5
223.4	-1.5
223.635	-1.5
223.869	-19.5
224.104	-12.5
224.338	-14.5
224.573	-19.5
224.808	-29.5
225.042	-1.5
225.277	-0.5
225.511	1.5
225.746	-1.5
225.98	-7.5
226.215	-1.5
226.449	18.5
226.683	27.5
226.918	21.5
227.152	40.5
227.387	34.5
227.621	38.5
227.856	37.5
228.09	54.5
228.324	38.5
228.559	48.5
228.793	58.5
229.027	58.5
229.262	50.5
229.496	80.5
229.73	81.5
229.964	89.5
230.199	82.5
230.433	76.5
230.667	87.5
230.901	68.5
231.136	79.5
231.37	85.5
231.604	84.5
231.838	84.5
232.072	86.5
232.306	87.5
232.541	88.5
232.775	86.5
233.009	81.5
233.243	80.5
233.477	71.5
233.711	69.5
233.945	76.5
234.179	70.5
234.413	73.5
234.647	101.5
234.881	84.5
235.115	96.5
235.349	85.5
235.583	74.5
235.817	73.5
236.051	91.5
236.285	81.5
236.519	73.5
236.753	71.5
236.987	89.5
237.221	90.5
237.455	79.5
237.689	69.5
237.922	75.5
238.156	83.5
238.39	77.5
238.624	78.5
238.858	84.5
239.091	84.5
239.325	73.5
239.559	79.5
239.793	64.5
240.027	84.5
240.26	93.5
240.494	98.5
240.728	84.5
240.961	80.5
241.195	85.5
241.429	79.5
241.662	85.5
241.896	82.5
242.13	67.5
242.363	81.5
242.597	78.5
242.83	86.5
243.064	78.5
243.298	91.5
243.531	64.5
243.765	94.5
243.998	83.5
244.232	74.5
244.465	81.5
244.699	79.5
244.932	77.5
245.166	88.5
245.399	75.5
245.633	77.5
245.866	65.5
246.099	69.5
246.333	90.5
246.566	81.5
246.8	79.5
247.033	74.5
247.266	74.5
247.5	85.5
247.733	78.5
247.966	86.5
248.2	79.5
248.433	85.5
248.666	90.5
248.899	88.5
249.133	92.5
249.366	113.5
249.599	86.5
249.832	93.5
250.066	89.5
250.299	76.5
250.532	83.5
250.765	80.5
250.998	86.5
251.231	75.5
251.465	75.5
251.698	85.5
251.931	73.5
252.164	71.5
252.397	97.5
252.63	75.5
252.863	68.5
253.096	92.5
253.329	82.5
253.562	77.5
253.795	88.5
254.028	91.5
254.261	85.5
254.494	96.5
254.727	77.5
254.96	68.5
255.193	84.5
255.426	79.5
255.659	83.5
255.892	97.5
256.124	81.5
256.357	78.5
256.59	87.5
256.823	84.5
257.056	81.5
257.289	92.5
257.521	102.5
257.754	71.5
257.987	73.5
258.22	87.5
258.452	87.5
258.685	90.5
258.918	84.5
259.151	66.5
259.383	85.5
259.616	88.5
259.849	87.5
260.081	79.5
260.314	81.5
260.547	76.5
260.779	90.5
261.012	95.5
261.244	94.5
261.477	103.5
261.71	97.5
261.942	106.5
262.175	112.5
262.407	92.5
262.64	85.5
262.872	90.5
263.105	83.5
263.337	81.5
263.57	91.5
263.802	84.5
264.035	80.5
264.267	76.5
264.499	93.5
264.732	85.5
264.964	80.5
265.197	97.5
265.429	75.5
265.661	84.5
265.894	93.5
266.126	79.5
266.358	76.5
266.591	73.5
266.823	83.5
267.055	78.5
267.287	90.5
267.52	70.5
267.752	79.5
267.984	100.5
268.216	89.5
268.448	73.5
268.681	86.5
268.913	79.5
269.145	94.5
269.377	89.5
269.609	78.5
269.841	86.5
270.073	79.5
270.306	66.5
270.538	85.5
270.77	88.5
271.002	82.5
271.234	83.5
271.466	107.5
271.698	87.5
271.93	81.5
272.162	82.5
272.394	94.5
272.626	88.5
272.858	92.5
273.09	92.5
273.322	86.5
273.553	85.5
273.785	80.5
274.017	96.5
274.249	80.5
274.481	91.5
274.713	93.5
274.945	82.5
275.176	92.5
275.408	79.5
275.64	78.5
275.872	90.5
276.104	80.5
276.335	99.5
276.567	97.5
276.799	100.5
277.031	98.5
277.262	93.5
277.494	90.5
277.726	77.5
277.957	89.5
278.189	82.5
278.421	100.5
278.652	84.5
278.884	90.5
279.115	88.5
279.347	83.5
279.579	92.5
279.81	94.5
280.042	96.5
280.273	87.5
280.505	90.5
280.736	87.5
280.968	87.5
281.199	81.5
281.431	103.5
281.662	83.5
281.894	98.5
282.125	107.5
282.356	123.5
282.588	137.5
282.819	112.5
283.051	103.5
283.282	87.5
283.513	80.5
283.745	93.5
283.976	84.5
284.207	81.5
284.439	87.5
284.67	92.5
284.901	84.5
285.132	96.5
285.364	82.5
285.595	88.5
285.826	98.5
286.057	84.5
286.288	71.5
286.52	91.5
286.751	85.5
286.982	83.5
287.213	88.5
287.444	94.5
287.675	77.5
287.906	92.5
288.138	80.5
288.369	89.5
288.6	96.5
288.831	86.5
289.062	90.5
289.293	89.5
289.524	95.5
289.755	89.5
289.986	70.5
290.217	81.5
290.448	85.5
290.679	86.5
290.91	90.5
291.141	87.5
291.371	84.5
291.602	100.5
291.833	88.5
292.064	87.5
292.295	79.5
292.526	93.5
292.757	91.5
292.987	83.5
293.218	88.5
293.449	89.5
293.68	87.5
293.91	90.5
294.141	99.5
294.372	93.5
294.603	91.5
294.833	86.5
295.064	76.5
295.295	87.5
295.525	99.5
295.756	105.5
295.987	125.5
296.217	133.5
296.448	122.5
296.679	106.5
296.909	82.5
297.14	93.5
297.37	93.5
297.601	91.5
297.831	98.5
298.062	106.5
298.292	91.5
298.523	92.5
298.753	80.5
298.984	89.5
299.214	91.5
299.445	90.5
299.675	89.5
299.905	84.5
300.136	81.5
300.366	90.5
300.597	87.5
300.827	96.5
301.057	110.5
301.288	98.5
301.518	97.5
301.748	86.5
301.979	92.5
302.209	93.5
302.439	95.5
302.669	81.5
302.9	77.5
303.13	89.5
303.36	91.5
303.59	100.5
303.82	113.5
304.051	101.5
304.281	98.5
304.511	74.5
304.741	96.5
304.971	86.5
305.201	92.5
305.431	88.5
305.661	89.5
305.891	87.5
306.121	96.5
306.352	98.5
306.582	97.5
306.812	79.5
307.042	105.5
307.272	76.5
307.502	85.5
307.731	92.5
307.961	92.5
308.191	85.5
308.421	84.5
308.651	99.5
308.881	88.5
309.111	101.5
309.341	108.5
309.571	103.5
309.8	88.5
310.03	102.5
310.26	99.5
310.49	97.5
310.72	93.5
310.949	98.5
311.179	103.5
311.409	85.5
311.639	102.5
311.868	96.5
312.098	91.5
312.328	101.5
312.557	111.5
312.787	108.5
313.017	98.5
313.246	98.5
313.476	99.5
313.706	82.5
313.935	97.5
314.165	106.5
314.394	117.5
314.624	93.5
314.853	111.5
315.083	102.5
315.312	102.5
315.542	98.5
315.771	115.5
316.001	94.5
316.23	106.5
316.46	87.5
316.689	81.5
316.919	80.5
317.148	105.5
317.377	95.5
317.607	100.5
317.836	87.5
318.065	99.5
318.295	87.5
318.524	84.5
318.753	88.5
318.983	99.5
319.212	118.5
319.441	106.5
319.67	107.5
319.9	100.5
320.129	97.5
320.358	90.5
320.587	103.5
320.816	99.5
321.046	99.5
321.275	86.5
321.504	87.5
321.733	107.5
321.962	105.5
322.191	81.5
322.42	100.5
322.649	120.5
322.878	107.5
323.108	111.5
323.337	121.5
323.566	118.5
323.795	158.5
324.024	212.5
324.253	377.5
324.482	831.5
324.71	1633.5
324.939	2145.5
325.168	773.5
325.397	248.5
325.626	151.5
325.855	120.5
326.084	132.5
326.313	143.5
326.542	153.5
326.77	215.5
326.999	432.5
327.228	912.5
327.457	1650.5
327.686	1317.5
327.914	352.5
328.143	199.5
328.372	179.5
328.6	140.5
328.829	122.5
329.058	128.5
329.287	131.5
329.515	113.5
329.744	107.5
329.972	103.5
330.201	117.5
330.43	153.5
330.658	135.5
330.887	138.5
331.115	119.5
331.344	106.5
331.572	103.5
331.801	112.5
332.03	96.5
332.258	105.5
332.486	95.5
332.715	103.5
332.943	86.5
333.172	96.5
333.4	95.5
333.629	103.5
333.857	103.5
334.085	112.5
334.314	129.5
334.542	151.5
334.771	142.5
334.999	102.5
335.227	96.5
335.455	96.5
335.684	106.5
335.912	97.5
336.14	109.5
336.369	102.5
336.597	103.5
336.825	103.5
337.053	95.5
337.281	102.5
337.51	108.5
337.738	94.5
337.966	98.5
338.194	93.5
338.422	103.5
338.65	107.5
338.878	89.5
339.106	82.5
339.334	103.5
339.562	92.5
339.79	96.5
340.018	91.5
340.246	89.5
340.474	86.5
340.702	89.5
340.93	87.5
341.158	80.5
341.386	87.5
341.614	100.5
341.842	94.5
342.07	110.5
342.298	110.5
342.526	94.5
342.754	107.5
342.981	108.5
343.209	86.5
343.437	97.5
343.665	106.5
343.893	93.5
344.12	95.5
344.348	85.5
344.576	101.5
344.804	98.5
345.031	93.5
345.259	103.5
345.487	98.5
345.714	93.5
345.942	105.5
346.17	92.5
346.397	97.5
346.625	98.5
346.853	81.5
347.08	100.5
347.308	94.5
347.535	96.5
347.763	97.5
347.99	93.5
348.218	90.5
348.445	108.5
348.673	87.5
348.9	100.5
349.128	101.5
349.355	97.5
349.583	103.5
349.81	91.5
350.037	94.5
350.265	82.5
350.492	99.5
350.72	99.5
350.947	109.5
351.174	114.5
351.402	111.5
351.629	113.5
351.856	103.5
352.083	121.5
352.311	104.5
352.538	105.5
352.765	112.5
352.992	109.5
353.22	104.5
353.447	103.5
353.674	95.5
353.901	101.5
354.128	98.5
354.355	95.5
354.583	86.5
354.81	96.5
355.037	90.5
355.264	110.5
355.491	108.5
355.718	100.5
355.945	103.5
356.172	91.5
356.399	84.5
356.626	102.5
356.853	92.5
357.08	91.5
357.307	110.5
357.534	108.5
357.761	89.5
357.988	89.5
358.215	90.5
358.441	95.5
358.668	100.5
358.895	88.5
359.122	96.5
359.349	87.5
359.576	100.5
359.802	95.5
360.029	106.5
360.256	104.5
360.483	97.5
360.709	95.5
360.936	91.5
361.163	87.5
361.39	102.5
361.616	100.5
361.843	83.5
362.07	87.5
362.296	103.5
362.523	87.5
362.749	86.5
362.976	83.5
363.203	83.5
363.429	73.5
363.656	117.5
363.882	98.5
364.109	91.5
364.335	85.5
364.562	85.5
364.788	91.5
365.015	112.5
365.241	110.5
365.468	109.5
365.694	105.5
365.92	98.5
366.147	85.5
366.373	86.5
366.599	102.5
366.826	95.5
367.052	101.5
367.278	84.5
367.505	105.5
367.731	92.5
367.957	94.5
368.184	99.5
368.41	91.5
368.636	95.5
368.862	129.5
369.089	106.5
369.315	94.5
369.541	85.5
369.767	93.5
369.993	81.5
370.219	100.5
370.445	92.5
370.672	89.5
370.898	74.5
371.124	89.5
371.35	78.5
371.576	98.5
371.802	99.5
372.028	89.5
372.254	86.5
372.48	90.5
372.706	97.5
372.932	89.5
373.158	98.5
373.384	105.5
373.61	82.5
373.835	92.5
374.061	102.5
374.287	91.5
374.513	106.5
374.739	110.5
374.965	91.5
375.191	108.5
375.416	93.5
375.642	108.5
375.868	93.5
376.094	99.5
376.319	83.5
376.545	93.5
376.771	78.5
376.997	94.5
377.222	91.5
377.448	93.5
377.674	87.5
377.899	85.5
378.125	93.5
378.35	87.5
378.576	91.5
378.802	102.5
379.027	98.5
379.253	92.5
379.478	111.5
379.704	95.5
379.929	98.5
380.155	85.5
380.38	91.5
380.606	101.5
380.831	93.5
381.057	96.5
381.282	93.5
381.507	97.5
381.733	107.5
381.958	99.5
382.184	99.5
382.409	103.5
382.634	84.5
382.86	101.5
383.085	93.5
383.31	96.5
383.535	100.5
383.761	103.5
383.986	88.5
384.211	89.5
384.436	85.5
384.662	101.5
384.887	92.5
385.112	102.5
385.337	102.5
385.562	110.5
385.787	93.5
386.013	105.5
386.238	92.5
386.463	105.5
386.688	105.5
386.913	90.5
387.138	99.5
387.363	99.5
387.588	95.5
387.813	100.5
388.038	93.5
388.263	107.5
388.488	111.5
388.713	93.5
388.938	96.5
389.163	86.5
389.387	91.5
389.612	70.5
389.837	98.5
390.062	85.5
390.287	85.5
390.512	85.5
390.736	102.5
390.961	83.5
391.186	108.5
391.411	102.5
391.636	95.5
391.86	76.5
392.085	93.5
392.31	90.5
392.534	75.5
392.759	90.5
392.984	93.5
393.208	106.5
393.433	95.5
393.658	100.5
393.882	103.5
394.107	88.5
394.331	83.5
394.556	94.5
394.78	86.5
395.005	108.5
395.229	90.5
395.454	98.5
395.678	92.5
395.903	97.5
396.127	95.5
396.352	94.5
396.576	95.5
396.801	101.5
397.025	86.5
397.249	97.5
397.474	97.5
397.698	79.5
397.922	81.5
398.147	101.5
398.371	82.5
398.595	98.5
398.82	84.5
399.044	90.5
399.268	89.5
399.492	103.5
399.717	92.5
399.941	93.5
400.165	92.5
400.389	95.5
400.613	79.5
400.837	86.5
401.062	82.5
401.286	79.5
401.51	89.5
401.734	77.5
401.958	97.5
402.182	102.5
402.406	151.5
402.63	124.5
402.854	89.5
403.078	93.5
403.302	84.5
403.526	83.5
403.75	79.5
403.974	87.5
404.198	82.5
404.422	89.5
404.645	98.5
404.869	86.5
405.093	99.5
405.317	102.5
405.541	89.5
405.765	97.5
405.988	118.5
406.212	161.5
406.436	232.5
406.66	139.5
406.883	98.5
407.107	99.5
407.331	91.5
407.555	110.5
407.778	111.5
408.002	105.5
408.226	96.5
408.449	78.5
408.673	91.5
408.896	87.5
409.12	97.5
409.344	86.5
409.567	84.5
409.791	81.5
410.014	109.5
410.238	83.5
410.461	101.5
410.685	99.5
410.908	96.5
411.132	101.5
411.355	99.5
411.578	86.5
411.802	75.5
412.025	105.5
412.249	104.5
412.472	86.5
412.695	104.5
412.919	103.5
413.142	89.5
413.365	85.5
413.589	91.5
413.812	79.5
414.035	94.5
414.258	102.5
414.482	99.5
414.705	83.5
414.928	74.5
415.151	83.5
415.374	100.5
415.597	94.5
415.821	79.5
416.044	85.5
416.267	87.5
416.49	99.5
416.713	93.5
416.936	96.5
417.159	85.5
417.382	101.5
417.605	106.5
417.828	95.5
418.051	96.5
418.274	101.5
418.497	88.5
418.72	83.5
418.943	101.5
419.166	89.5
419.389	90.5
419.611	85.5
419.834	87.5
420.057	91.5
420.28	101.5
420.503	100.5
420.726	77.5
420.948	100.5
421.171	103.5
421.394	86.5
421.617	103.5
421.839	81.5
422.062	86.5
422.285	90.5
422.507	105.5
422.73	106.5
422.953	89.5
423.175	83.5
423.398	88.5
423.621	94.5
423.843	90.5
424.066	89.5
424.288	101.5
424.511	98.5
424.733	115.5
424.956	107.5
425.178	91.5
425.401	83.5
425.623	115.5
425.846	102.5
426.068	109.5
426.291	103.5
426.513	89.5
426.735	99.5
426.958	103.5
427.18	122.5
427.402	129.5
427.625	152.5
427.847	133.5
428.069	110.5
428.292	92.5
428.514	93.5
428.736	92.5
428.958	88.5
429.181	86.5
429.403	86.5
429.625	87.5
429.847	92.5
430.069	93.5
430.292	99.5
430.514	97.5
430.736	86.5
430.958	93.5
431.18	85.5
431.402	85.5
431.624	87.5
431.846	85.5
432.068	84.5
432.29	85.5
432.512	87.5
432.734	80.5
432.956	89.5
433.178	87.5
433.4	101.5
433.622	89.5
433.844	89.5
434.066	86.5
434.287	84.5
434.509	89.5
434.731	97.5
434.953	85.5
435.175	83.5
435.397	99.5
435.618	101.5
435.84	100.5
436.062	119.5
436.284	111.5
436.505	102.5
436.727	101.5
436.949	90.5
437.17	93.5
437.392	100.5
437.614	84.5
437.835	130.5
438.057	117.5
438.278	101.5
438.5	109.5
438.721	99.5
438.943	90.5
439.165	86.5
439.386	88.5
439.608	96.5
439.829	85.5
440.05	127.5
440.272	130.5
440.493	85.5
440.715	102.5
440.936	86.5
441.158	96.5
441.379	95.5
441.6	89.5
441.822	105.5
442.043	85.5
442.264	103.5
442.486	92.5
442.707	98.5
442.928	105.5
443.149	116.5
443.371	124.5
443.592	105.5
443.813	97.5
444.034	107.5
444.255	100.5
444.476	91.5
444.698	89.5
444.919	68.5
445.14	116.5
445.361	124.5
445.582	118.5
445.803	129.5
446.024	119.5
446.245	112.5
446.466	101.5
446.687	91.5
446.908	93.5
447.129	92.5
447.35	89.5
447.571	76.5
447.792	92.5
448.013	102.5
448.234	102.5
448.455	102.5
448.675	94.5
448.896	114.5
449.117	93.5
449.338	84.5
449.559	112.5
449.779	119.5
450	92.5
450.221	83.5
450.442	85.5
450.662	93.5
450.883	106.5
451.104	107.5
451.324	87.5
451.545	85.5
451.766	84.5
451.986	78.5
452.207	81.5
452.428	90.5
452.648	89.5
452.869	118.5
453.089	126.5
453.31	111.5
453.53	90.5
453.751	98.5
453.971	121.5
454.192	111.5
454.412	92.5
454.633	92.5
454.853	90.5
455.073	84.5
455.294	85.5
455.514	103.5
455.734	82.5
455.955	87.5
456.175	107.5
456.395	70.5
456.616	91.5
456.836	86.5
457.056	79.5
457.276	72.5
457.497	79.5
457.717	78.5
457.937	91.5
458.157	102.5
458.377	90.5
458.598	115.5
458.818	143.5
459.038	154.5
459.258	118.5
459.478	88.5
459.698	89.5
459.918	85.5
460.138	83.5
460.358	81.5
460.578	89.5
460.798	93.5
461.018	92.5
461.238	78.5
461.458	97.5
461.678	88.5
461.898	87.5
462.118	76.5
462.338	89.5
462.558	96.5
462.777	88.5
462.997	71.5
463.217	79.5
463.437	83.5
463.657	77.5
463.876	82.5
464.096	80.5
464.316	94.5
464.536	85.5
464.755	90.5
464.975	104.5
465.195	153.5
465.414	144.5
465.634	87.5
465.854	74.5
466.073	92.5
466.293	92.5
466.512	97.5
466.732	97.5
466.951	95.5
467.171	98.5
467.391	115.5
467.61	101.5
467.829	93.5
468.049	108.5
468.268	119.5
468.488	91.5
468.707	92.5
468.927	96.5
469.146	90.5
469.365	90.5
469.585	104.5
469.804	97.5
470.023	96.5
470.243	87.5
470.462	100.5
470.681	101.5
470.901	96.5
471.12	93.5
471.339	95.5
471.558	86.5
471.777	85.5
471.997	89.5
472.216	121.5
472.435	180.5
472.654	97.5
472.873	100.5
473.092	91.5
473.311	89.5
473.53	98.5
473.749	84.5
473.968	92.5
474.187	107.5
474.406	100.5
474.625	90.5
474.844	79.5
475.063	89.5
475.282	100.5
475.501	96.5
475.72	77.5
475.939	93.5
476.158	90.5
476.377	105.5
476.596	102.5
476.814	87.5
477.033	91.5
477.252	91.5
477.471	75.5
477.69	95.5
477.908	97.5
478.127	94.5
478.346	88.5
478.564	83.5
478.783	89.5
479.002	87.5
479.22	86.5
479.439	107.5
479.658	96.5
479.876	89.5
480.095	77.5
480.313	102.5
480.532	83.5
480.751	105.5
480.969	141.5
481.188	238.5
481.406	173.5
481.624	98.5
481.843	97.5
482.061	87.5
482.28	103.5
482.498	96.5
482.717	84.5
482.935	90.5
483.153	81.5
483.372	86.5
483.59	71.5
483.808	94.5
484.027	104.5
484.245	84.5
484.463	81.5
484.681	98.5
484.9	83.5
485.118	86.5
485.336	98.5
485.554	98.5
485.772	95.5
485.99	118.5
486.209	103.5
486.427	105.5
486.645	117.5
486.863	107.5
487.081	99.5
487.299	109.5
487.517	115.5
487.735	93.5
487.953	91.5
488.171	94.5
488.389	104.5
488.607	90.5
488.825	99.5
489.043	90.5
489.261	86.5
489.479	99.5
489.696	86.5
489.914	85.5
490.132	99.5
490.35	102.5
490.568	101.5
490.786	94.5
491.003	93.5
491.221	92.5
491.439	89.5
491.657	84.5
491.874	94.5
492.092	93.5
492.31	84.5
492.527	77.5
492.745	83.5
492.963	91.5
493.18	98.5
493.398	77.5
493.615	105.5
493.833	93.5
494.05	79.5
494.268	92.5
494.485	91.5
494.703	93.5
494.92	89.5
495.138	83.5
495.355	95.5
495.573	81.5
495.79	81.5
496.008	87.5
496.225	95.5
496.442	97.5
496.66	108.5
496.877	95.5
497.094	88.5
497.312	107.5
497.529	83.5
497.746	88.5
497.963	91.5
498.181	94.5
498.398	85.5
498.615	113.5
498.832	113.5
499.049	68.5
499.267	90.5
499.484	94.5
499.701	97.5
499.918	93.5
500.135	85.5
500.352	114.5
500.569	92.5
500.786	90.5
501.003	97.5
501.22	102.5
501.437	102.5
501.654	91.5
501.871	103.5
502.088	97.5
502.305	82.5
502.522	89.5
502.739	100.5
502.956	81.5
503.172	81.5
503.389	95.5
503.606	103.5
503.823	102.5
504.04	92.5
504.256	84.5
504.473	76.5
504.69	77.5
504.907	86.5
505.123	92.5
505.34	96.5
505.557	94.5
505.773	107.5
505.99	92.5
506.207	98.5
506.423	89.5
506.64	81.5
506.856	97.5
507.073	86.5
507.289	104.5
507.506	93.5
507.722	97.5
507.939	119.5
508.155	94.5
508.372	93.5
508.588	95.5
508.805	107.5
509.021	101.5
509.238	101.5
509.454	98.5
509.67	90.5
509.887	92.5
510.103	128.5
510.319	227.5
510.536	825.5
510.752	2612.5
510.968	701.5
511.184	153.5
511.401	117.5
511.617	97.5
511.833	90.5
512.049	89.5
512.265	88.5
512.481	82.5
512.698	85.5
512.914	100.5
513.13	84.5
513.346	91.5
513.562	97.5
513.778	109.5
513.994	99.5
514.21	100.5
514.426	110.5
514.642	128.5
514.858	131.5
515.074	167.5
515.29	451.5
515.506	1501.5
515.721	561.5
515.937	165.5
516.153	114.5
516.369	111.5
516.585	107.5
516.801	98.5
517.016	108.5
517.232	102.5
517.448	87.5
517.664	101.5
517.879	96.5
518.095	87.5
518.311	97.5
518.527	103.5
518.742	85.5
518.958	95.5
519.173	93.5
519.389	87.5
519.605	99.5
519.82	95.5
520.036	92.5
520.251	115.5
520.467	123.5
520.682	103.5
520.898	116.5
521.113	112.5
521.329	131.5
521.544	202.5
521.76	552.5
521.975	2550.5
522.19	1501.5
522.406	314.5
522.621	116.5
522.836	84.5
523.052	93.5
523.267	98.5
523.482	89.5
523.698	99.5
523.913	121.5
524.128	110.5
524.343	86.5
524.559	100.5
524.774	108.5
524.989	108.5
525.204	90.5
525.419	99.5
525.634	103.5
525.849	88.5
526.064	90.5
526.28	90.5
526.495	104.5
526.71	96.5
526.925	95.5
527.14	88.5
527.355	89.5
527.57	83.5
527.785	76.5
527.999	90.5
528.214	98.5
528.429	95.5
528.644	83.5
528.859	93.5
529.074	99.5
529.289	131.5
529.503	173.5
529.718	106.5
529.933	97.5
530.148	92.5
530.363	102.5
530.577	83.5
530.792	84.5
531.007	80.5
531.221	88.5
531.436	105.5
531.651	79.5
531.865	92.5
532.08	92.5
532.295	92.5
532.509	80.5
532.724	94.5
532.938	101.5
533.153	75.5
533.367	87.5
533.582	90.5
533.796	87.5
534.011	87.5
534.225	96.5
534.44	81.5
