Data from Circ_1994_H10_HRD10591_00052.txt Node
Date: Wed Jan 03 11:40:40 EST 2024
User: Yrep
Spectrometer: HR+D1059
Trigger mode: 1
Integration Time (sec): 1.000000E-1
Scans to average: 1
Electric dark correction enabled: true
Nonlinearity correction enabled: false
Boxcar width: 0
XAxis mode: Wavelengths
Number of Pixels in Spectrum: 2048
>>>>>Begin Spectral Data<<<<<
223.165	-10.25
223.4	-10.25
223.635	-10.25
223.869	-28.25
224.104	-22.25
224.338	-3.25
224.573	-21.25
224.808	-23.25
225.042	-12.25
225.277	-8.25
225.511	6.75
225.746	-7.25
225.98	16.75
226.215	14.75
226.449	6.75
226.683	15.75
226.918	40.75
227.152	34.75
227.387	38.75
227.621	35.75
227.856	45.75
228.09	39.75
228.324	27.75
228.559	43.75
228.793	51.75
229.027	57.75
229.262	65.75
229.496	72.75
229.73	88.75
229.964	82.75
230.199	71.75
230.433	77.75
230.667	65.75
230.901	72.75
231.136	77.75
231.37	63.75
231.604	73.75
231.838	78.75
232.072	79.75
232.306	75.75
232.541	86.75
232.775	83.75
233.009	79.75
233.243	78.75
233.477	75.75
233.711	80.75
233.945	71.75
234.179	80.75
234.413	77.75
234.647	81.75
234.881	86.75
235.115	64.75
235.349	81.75
235.583	82.75
235.817	86.75
236.051	75.75
236.285	73.75
236.519	73.75
236.753	88.75
236.987	88.75
237.221	81.75
237.455	92.75
237.689	72.75
237.922	71.75
238.156	74.75
238.39	75.75
238.624	75.75
238.858	82.75
239.091	77.75
239.325	56.75
239.559	56.75
239.793	83.75
240.027	79.75
240.26	57.75
240.494	69.75
240.728	77.75
240.961	75.75
241.195	72.75
241.429	70.75
241.662	73.75
241.896	77.75
242.13	82.75
242.363	85.75
242.597	83.75
242.83	76.75
243.064	69.75
243.298	71.75
243.531	76.75
243.765	87.75
243.998	75.75
244.232	77.75
244.465	79.75
244.699	74.75
244.932	81.75
245.166	80.75
245.399	83.75
245.633	71.75
245.866	74.75
246.099	86.75
246.333	89.75
246.566	75.75
246.8	74.75
247.033	86.75
247.266	78.75
247.5	60.75
247.733	75.75
247.966	78.75
248.2	79.75
248.433	76.75
248.666	91.75
248.899	82.75
249.133	82.75
249.366	80.75
249.599	81.75
249.832	71.75
250.066	86.75
250.299	80.75
250.532	77.75
250.765	73.75
250.998	73.75
251.231	79.75
251.465	75.75
251.698	85.75
251.931	77.75
252.164	75.75
252.397	75.75
252.63	75.75
252.863	76.75
253.096	83.75
253.329	88.75
253.562	67.75
253.795	82.75
254.028	64.75
254.261	70.75
254.494	66.75
254.727	80.75
254.96	82.75
255.193	69.75
255.426	64.75
255.659	65.75
255.892	75.75
256.124	92.75
256.357	80.75
256.59	69.75
256.823	73.75
257.056	85.75
257.289	72.75
257.521	80.75
257.754	72.75
257.987	77.75
258.22	86.75
258.452	77.75
258.685	89.75
258.918	72.75
259.151	79.75
259.383	65.75
259.616	88.75
259.849	77.75
260.081	83.75
260.314	85.75
260.547	77.75
260.779	72.75
261.012	82.75
261.244	76.75
261.477	86.75
261.71	81.75
261.942	82.75
262.175	121.75
262.407	104.75
262.64	78.75
262.872	90.75
263.105	82.75
263.337	94.75
263.57	61.75
263.802	73.75
264.035	78.75
264.267	84.75
264.499	81.75
264.732	78.75
264.964	87.75
265.197	77.75
265.429	84.75
265.661	50.75
265.894	82.75
266.126	96.75
266.358	82.75
266.591	81.75
266.823	90.75
267.055	77.75
267.287	73.75
267.52	88.75
267.752	52.75
267.984	88.75
268.216	78.75
268.448	79.75
268.681	79.75
268.913	85.75
269.145	78.75
269.377	85.75
269.609	78.75
269.841	83.75
270.073	90.75
270.306	73.75
270.538	85.75
270.77	73.75
271.002	82.75
271.234	86.75
271.466	90.75
271.698	86.75
271.93	78.75
272.162	80.75
272.394	69.75
272.626	84.75
272.858	88.75
273.09	83.75
273.322	93.75
273.553	72.75
273.785	86.75
274.017	70.75
274.249	75.75
274.481	85.75
274.713	91.75
274.945	83.75
275.176	79.75
275.408	90.75
275.64	76.75
275.872	91.75
276.104	86.75
276.335	95.75
276.567	102.75
276.799	100.75
277.031	101.75
277.262	91.75
277.494	82.75
277.726	93.75
277.957	87.75
278.189	72.75
278.421	77.75
278.652	83.75
278.884	86.75
279.115	82.75
279.347	87.75
279.579	87.75
279.81	87.75
280.042	81.75
280.273	99.75
280.505	79.75
280.736	93.75
280.968	85.75
281.199	84.75
281.431	75.75
281.662	84.75
281.894	89.75
282.125	88.75
282.356	118.75
282.588	127.75
282.819	96.75
283.051	87.75
283.282	90.75
283.513	83.75
283.745	98.75
283.976	91.75
284.207	90.75
284.439	82.75
284.67	91.75
284.901	88.75
285.132	88.75
285.364	77.75
285.595	82.75
285.826	89.75
286.057	81.75
286.288	81.75
286.52	80.75
286.751	79.75
286.982	79.75
287.213	85.75
287.444	87.75
287.675	72.75
287.906	87.75
288.138	86.75
288.369	108.75
288.6	91.75
288.831	85.75
289.062	95.75
289.293	65.75
289.524	81.75
289.755	79.75
289.986	78.75
290.217	87.75
290.448	80.75
290.679	85.75
290.91	74.75
291.141	78.75
291.371	87.75
291.602	83.75
291.833	87.75
292.064	73.75
292.295	81.75
292.526	89.75
292.757	82.75
292.987	83.75
293.218	83.75
293.449	79.75
293.68	89.75
293.91	87.75
294.141	80.75
294.372	83.75
294.603	79.75
294.833	92.75
295.064	95.75
295.295	95.75
295.525	88.75
295.756	106.75
295.987	107.75
296.217	130.75
296.448	103.75
296.679	89.75
296.909	90.75
297.14	85.75
297.37	96.75
297.601	91.75
297.831	98.75
298.062	92.75
298.292	87.75
298.523	81.75
298.753	79.75
298.984	76.75
299.214	86.75
299.445	94.75
299.675	90.75
299.905	95.75
300.136	81.75
300.366	81.75
300.597	86.75
300.827	86.75
301.057	99.75
301.288	98.75
301.518	82.75
301.748	86.75
301.979	97.75
302.209	86.75
302.439	84.75
302.669	75.75
302.9	71.75
303.13	82.75
303.36	90.75
303.59	82.75
303.82	111.75
304.051	105.75
304.281	97.75
304.511	88.75
304.741	79.75
304.971	77.75
305.201	81.75
305.431	80.75
305.661	72.75
305.891	72.75
306.121	88.75
306.352	98.75
306.582	89.75
306.812	83.75
307.042	102.75
307.272	102.75
307.502	96.75
307.731	87.75
307.961	83.75
308.191	86.75
308.421	94.75
308.651	84.75
308.881	96.75
309.111	98.75
309.341	73.75
309.571	102.75
309.8	98.75
310.03	98.75
310.26	92.75
310.49	98.75
310.72	77.75
310.949	88.75
311.179	94.75
311.409	90.75
311.639	86.75
311.868	99.75
312.098	87.75
312.328	89.75
312.557	87.75
312.787	103.75
313.017	98.75
313.246	94.75
313.476	87.75
313.706	96.75
313.935	101.75
314.165	70.75
314.394	97.75
314.624	85.75
314.853	90.75
315.083	106.75
315.312	87.75
315.542	80.75
315.771	84.75
316.001	87.75
316.23	82.75
316.46	75.75
316.689	94.75
316.919	96.75
317.148	102.75
317.377	87.75
317.607	91.75
317.836	95.75
318.065	87.75
318.295	92.75
318.524	85.75
318.753	85.75
318.983	86.75
319.212	96.75
319.441	99.75
319.67	95.75
319.9	90.75
320.129	94.75
320.358	102.75
320.587	99.75
320.816	91.75
321.046	82.75
321.275	97.75
321.504	94.75
321.733	103.75
321.962	86.75
322.191	98.75
322.42	104.75
322.649	110.75
322.878	90.75
323.108	108.75
323.337	114.75
323.566	97.75
323.795	138.75
324.024	163.75
324.253	333.75
324.482	689.75
324.71	1401.75
324.939	1803.75
325.168	648.75
325.397	228.75
325.626	135.75
325.855	129.75
326.084	122.75
326.313	106.75
326.542	136.75
326.77	214.75
326.999	395.75
327.228	753.75
327.457	1394.75
327.686	1109.75
327.914	313.75
328.143	176.75
328.372	152.75
328.6	105.75
328.829	113.75
329.058	128.75
329.287	111.75
329.515	113.75
329.744	95.75
329.972	115.75
330.201	122.75
330.43	151.75
330.658	136.75
330.887	124.75
331.115	116.75
331.344	91.75
331.572	103.75
331.801	80.75
332.03	89.75
332.258	87.75
332.486	103.75
332.715	104.75
332.943	76.75
333.172	97.75
333.4	99.75
333.629	86.75
333.857	98.75
334.085	108.75
334.314	118.75
334.542	157.75
334.771	140.75
334.999	104.75
335.227	95.75
335.455	98.75
335.684	101.75
335.912	78.75
336.14	90.75
336.369	89.75
336.597	89.75
336.825	81.75
337.053	97.75
337.281	103.75
337.51	96.75
337.738	82.75
337.966	84.75
338.194	89.75
338.422	95.75
338.65	82.75
338.878	81.75
339.106	90.75
339.334	100.75
339.562	79.75
339.79	87.75
340.018	86.75
340.246	93.75
340.474	87.75
340.702	95.75
340.93	99.75
341.158	86.75
341.386	92.75
341.614	93.75
341.842	100.75
342.07	100.75
342.298	93.75
342.526	81.75
342.754	88.75
342.981	86.75
343.209	89.75
343.437	93.75
343.665	83.75
343.893	96.75
344.12	82.75
344.348	96.75
344.576	89.75
344.804	95.75
345.031	86.75
345.259	91.75
345.487	75.75
345.714	93.75
345.942	76.75
346.17	65.75
346.397	98.75
346.625	90.75
346.853	88.75
347.08	94.75
347.308	91.75
347.535	86.75
347.763	102.75
347.99	102.75
348.218	102.75
348.445	90.75
348.673	84.75
348.9	87.75
349.128	89.75
349.355	83.75
349.583	88.75
349.81	93.75
350.037	95.75
350.265	96.75
350.492	98.75
350.72	82.75
350.947	94.75
351.174	110.75
351.402	102.75
351.629	97.75
351.856	109.75
352.083	93.75
352.311	96.75
352.538	114.75
352.765	99.75
352.992	106.75
353.22	97.75
353.447	100.75
353.674	115.75
353.901	83.75
354.128	110.75
354.355	89.75
354.583	89.75
354.81	86.75
355.037	99.75
355.264	97.75
355.491	81.75
355.718	88.75
355.945	77.75
356.172	97.75
356.399	90.75
356.626	99.75
356.853	93.75
357.08	90.75
357.307	85.75
357.534	98.75
357.761	103.75
357.988	95.75
358.215	94.75
358.441	89.75
358.668	91.75
358.895	97.75
359.122	87.75
359.349	85.75
359.576	77.75
359.802	106.75
360.029	85.75
360.256	85.75
360.483	88.75
360.709	85.75
360.936	92.75
361.163	94.75
361.39	88.75
361.616	89.75
361.843	83.75
362.07	82.75
362.296	86.75
362.523	78.75
362.749	77.75
362.976	94.75
363.203	99.75
363.429	102.75
363.656	89.75
363.882	91.75
364.109	93.75
364.335	81.75
364.562	86.75
364.788	86.75
365.015	85.75
365.241	94.75
365.468	92.75
365.694	87.75
365.92	87.75
366.147	90.75
366.373	100.75
366.599	99.75
366.826	90.75
367.052	85.75
367.278	90.75
367.505	97.75
367.731	96.75
367.957	92.75
368.184	73.75
368.41	79.75
368.636	90.75
368.862	105.75
369.089	98.75
369.315	100.75
369.541	85.75
369.767	83.75
369.993	83.75
370.219	95.75
370.445	79.75
370.672	89.75
370.898	90.75
371.124	83.75
371.35	71.75
371.576	79.75
371.802	91.75
372.028	89.75
372.254	84.75
372.48	93.75
372.706	90.75
372.932	83.75
373.158	93.75
373.384	91.75
373.61	86.75
373.835	98.75
374.061	104.75
374.287	89.75
374.513	85.75
374.739	83.75
374.965	89.75
375.191	72.75
375.416	75.75
375.642	100.75
375.868	69.75
376.094	93.75
376.319	77.75
376.545	84.75
376.771	94.75
376.997	78.75
377.222	101.75
377.448	89.75
377.674	79.75
377.899	75.75
378.125	81.75
378.35	98.75
378.576	87.75
378.802	92.75
379.027	91.75
379.253	88.75
379.478	87.75
379.704	92.75
379.929	88.75
380.155	90.75
380.38	93.75
380.606	91.75
380.831	96.75
381.057	99.75
381.282	91.75
381.507	86.75
381.733	82.75
381.958	91.75
382.184	99.75
382.409	94.75
382.634	92.75
382.86	103.75
383.085	109.75
383.31	101.75
383.535	106.75
383.761	90.75
383.986	93.75
384.211	95.75
384.436	97.75
384.662	91.75
384.887	95.75
385.112	102.75
385.337	92.75
385.562	89.75
385.787	99.75
386.013	101.75
386.238	94.75
386.463	95.75
386.688	107.75
386.913	100.75
387.138	110.75
387.363	95.75
387.588	95.75
387.813	94.75
388.038	105.75
388.263	91.75
388.488	95.75
388.713	96.75
388.938	87.75
389.163	94.75
389.387	90.75
389.612	100.75
389.837	98.75
390.062	85.75
390.287	89.75
390.512	94.75
390.736	80.75
390.961	91.75
391.186	95.75
391.411	94.75
391.636	82.75
391.86	86.75
392.085	79.75
392.31	89.75
392.534	88.75
392.759	93.75
392.984	93.75
393.208	83.75
393.433	93.75
393.658	93.75
393.882	90.75
394.107	94.75
394.331	104.75
394.556	90.75
394.78	72.75
395.005	78.75
395.229	81.75
395.454	77.75
395.678	83.75
395.903	86.75
396.127	88.75
396.352	79.75
396.576	71.75
396.801	87.75
397.025	87.75
397.249	82.75
397.474	82.75
397.698	88.75
397.922	96.75
398.147	79.75
398.371	79.75
398.595	81.75
398.82	89.75
399.044	91.75
399.268	70.75
399.492	80.75
399.717	92.75
399.941	73.75
400.165	106.75
400.389	87.75
400.613	91.75
400.837	86.75
401.062	94.75
401.286	82.75
401.51	90.75
401.734	92.75
401.958	109.75
402.182	115.75
402.406	129.75
402.63	108.75
402.854	91.75
403.078	73.75
403.302	82.75
403.526	96.75
403.75	78.75
403.974	90.75
404.198	98.75
404.422	85.75
404.645	84.75
404.869	97.75
405.093	79.75
405.317	97.75
405.541	90.75
405.765	87.75
405.988	109.75
406.212	156.75
406.436	193.75
406.66	139.75
406.883	99.75
407.107	92.75
407.331	85.75
407.555	89.75
407.778	94.75
408.002	92.75
408.226	67.75
408.449	73.75
408.673	83.75
408.896	88.75
409.12	90.75
409.344	80.75
409.567	86.75
409.791	88.75
410.014	82.75
410.238	90.75
410.461	94.75
410.685	84.75
410.908	99.75
411.132	98.75
411.355	89.75
411.578	89.75
411.802	80.75
412.025	94.75
412.249	79.75
412.472	85.75
412.695	95.75
412.919	93.75
413.142	86.75
413.365	88.75
413.589	105.75
413.812	81.75
414.035	105.75
414.258	76.75
414.482	83.75
414.705	85.75
414.928	79.75
415.151	96.75
415.374	102.75
415.597	80.75
415.821	82.75
416.044	77.75
416.267	88.75
416.49	82.75
416.713	100.75
416.936	82.75
417.159	92.75
417.382	88.75
417.605	94.75
417.828	87.75
418.051	89.75
418.274	95.75
418.497	78.75
418.72	75.75
418.943	86.75
419.166	83.75
419.389	87.75
419.611	86.75
419.834	87.75
420.057	86.75
420.28	84.75
420.503	65.75
420.726	79.75
420.948	75.75
421.171	92.75
421.394	75.75
421.617	87.75
421.839	92.75
422.062	99.75
422.285	80.75
422.507	94.75
422.73	88.75
422.953	79.75
423.175	79.75
423.398	88.75
423.621	84.75
423.843	88.75
424.066	93.75
424.288	65.75
424.511	74.75
424.733	87.75
424.956	90.75
425.178	89.75
425.401	88.75
425.623	87.75
425.846	101.75
426.068	98.75
426.291	86.75
426.513	86.75
426.735	89.75
426.958	83.75
427.18	91.75
427.402	133.75
427.625	150.75
427.847	134.75
428.069	97.75
428.292	81.75
428.514	76.75
428.736	88.75
428.958	86.75
429.181	93.75
429.403	88.75
429.625	89.75
429.847	87.75
430.069	90.75
430.292	88.75
430.514	90.75
430.736	78.75
430.958	81.75
431.18	87.75
431.402	91.75
431.624	89.75
431.846	74.75
432.068	79.75
432.29	87.75
432.512	88.75
432.734	89.75
432.956	80.75
433.178	94.75
433.4	88.75
433.622	86.75
433.844	83.75
434.066	89.75
434.287	89.75
434.509	75.75
434.731	93.75
434.953	78.75
435.175	77.75
435.397	89.75
435.618	92.75
435.84	98.75
436.062	113.75
436.284	103.75
436.505	96.75
436.727	92.75
436.949	89.75
437.17	75.75
437.392	93.75
437.614	80.75
437.835	88.75
438.057	112.75
438.278	103.75
438.5	89.75
438.721	104.75
438.943	95.75
439.165	82.75
439.386	88.75
439.608	92.75
439.829	91.75
440.05	95.75
440.272	125.75
440.493	90.75
440.715	82.75
440.936	75.75
441.158	72.75
441.379	72.75
441.6	80.75
441.822	88.75
442.043	92.75
442.264	82.75
442.486	90.75
442.707	88.75
442.928	105.75
443.149	115.75
443.371	125.75
443.592	99.75
443.813	88.75
444.034	82.75
444.255	93.75
444.476	79.75
444.698	81.75
444.919	74.75
445.14	123.75
445.361	124.75
445.582	118.75
445.803	126.75
446.024	114.75
446.245	116.75
446.466	85.75
446.687	67.75
446.908	83.75
447.129	83.75
447.35	84.75
447.571	91.75
447.792	95.75
448.013	80.75
448.234	100.75
448.455	91.75
448.675	98.75
448.896	110.75
449.117	91.75
449.338	97.75
449.559	123.75
449.779	102.75
450	108.75
450.221	96.75
450.442	93.75
450.662	90.75
450.883	91.75
451.104	107.75
451.324	93.75
451.545	99.75
451.766	89.75
451.986	88.75
452.207	93.75
452.428	94.75
452.648	96.75
452.869	107.75
453.089	94.75
453.31	111.75
453.53	83.75
453.751	83.75
453.971	106.75
454.192	83.75
454.412	71.75
454.633	85.75
454.853	89.75
455.073	71.75
455.294	80.75
455.514	85.75
455.734	82.75
455.955	75.75
456.175	92.75
456.395	95.75
456.616	91.75
456.836	94.75
457.056	80.75
457.276	94.75
457.497	96.75
457.717	85.75
457.937	81.75
458.157	86.75
458.377	79.75
458.598	100.75
458.818	155.75
459.038	145.75
459.258	114.75
459.478	85.75
459.698	77.75
459.918	86.75
460.138	94.75
460.358	89.75
460.578	82.75
460.798	82.75
461.018	86.75
461.238	90.75
461.458	84.75
461.678	85.75
461.898	77.75
462.118	82.75
462.338	92.75
462.558	85.75
462.777	82.75
462.997	67.75
463.217	89.75
463.437	69.75
463.657	83.75
463.876	88.75
464.096	89.75
464.316	82.75
464.536	88.75
464.755	94.75
464.975	94.75
465.195	138.75
465.414	143.75
465.634	87.75
465.854	82.75
466.073	87.75
466.293	74.75
466.512	90.75
466.732	90.75
466.951	79.75
467.171	88.75
467.391	86.75
467.61	101.75
467.829	91.75
468.049	90.75
468.268	107.75
468.488	95.75
468.707	89.75
468.927	91.75
469.146	87.75
469.365	81.75
469.585	91.75
469.804	88.75
470.023	91.75
470.243	96.75
470.462	89.75
470.681	96.75
470.901	85.75
471.12	73.75
471.339	86.75
471.558	83.75
471.777	87.75
471.997	101.75
472.216	132.75
472.435	177.75
472.654	111.75
472.873	85.75
473.092	79.75
473.311	94.75
473.53	65.75
473.749	62.75
473.968	93.75
474.187	86.75
474.406	85.75
474.625	80.75
474.844	77.75
475.063	84.75
475.282	64.75
475.501	65.75
475.72	76.75
475.939	71.75
476.158	83.75
476.377	95.75
476.596	75.75
476.814	89.75
477.033	87.75
477.252	87.75
477.471	96.75
477.69	87.75
477.908	87.75
478.127	85.75
478.346	85.75
478.564	91.75
478.783	98.75
479.002	92.75
479.22	78.75
479.439	89.75
479.658	92.75
479.876	88.75
480.095	86.75
480.313	86.75
480.532	93.75
480.751	102.75
480.969	131.75
481.188	264.75
481.406	174.75
481.624	95.75
481.843	71.75
482.061	67.75
482.28	84.75
482.498	73.75
482.717	96.75
482.935	94.75
483.153	80.75
483.372	80.75
483.59	89.75
483.808	77.75
484.027	91.75
484.245	91.75
484.463	93.75
484.681	85.75
484.9	90.75
485.118	94.75
485.336	95.75
485.554	94.75
485.772	89.75
485.99	99.75
486.209	93.75
486.427	99.75
486.645	109.75
486.863	112.75
487.081	98.75
487.299	104.75
487.517	105.75
487.735	93.75
487.953	73.75
488.171	91.75
488.389	90.75
488.607	85.75
488.825	81.75
489.043	73.75
489.261	80.75
489.479	87.75
489.696	88.75
489.914	76.75
490.132	71.75
490.35	79.75
490.568	83.75
490.786	82.75
491.003	91.75
491.221	95.75
491.439	82.75
491.657	90.75
491.874	94.75
492.092	99.75
492.31	78.75
492.527	95.75
492.745	83.75
492.963	98.75
493.18	80.75
493.398	92.75
493.615	95.75
493.833	87.75
494.05	91.75
494.268	74.75
494.485	85.75
494.703	89.75
494.92	90.75
495.138	80.75
495.355	92.75
495.573	84.75
495.79	96.75
496.008	87.75
496.225	70.75
496.442	89.75
496.66	87.75
496.877	82.75
497.094	85.75
497.312	81.75
497.529	88.75
497.746	83.75
497.963	93.75
498.181	78.75
498.398	100.75
498.615	103.75
498.832	94.75
499.049	70.75
499.267	81.75
499.484	85.75
499.701	79.75
499.918	78.75
500.135	89.75
500.352	97.75
500.569	76.75
500.786	98.75
501.003	88.75
501.22	74.75
501.437	80.75
501.654	94.75
501.871	82.75
502.088	82.75
502.305	86.75
502.522	85.75
502.739	100.75
502.956	86.75
503.172	90.75
503.389	75.75
503.606	88.75
503.823	87.75
504.04	91.75
504.256	88.75
504.473	85.75
504.69	77.75
504.907	79.75
505.123	83.75
505.34	73.75
505.557	94.75
505.773	88.75
505.99	79.75
506.207	82.75
506.423	90.75
506.64	98.75
506.856	87.75
507.073	73.75
507.289	98.75
507.506	92.75
507.722	89.75
507.939	103.75
508.155	94.75
508.372	100.75
508.588	77.75
508.805	94.75
509.021	99.75
509.238	98.75
509.454	89.75
509.67	98.75
509.887	95.75
510.103	112.75
510.319	205.75
510.536	679.75
510.752	2123.75
510.968	585.75
511.184	131.75
511.401	103.75
511.617	87.75
511.833	67.75
512.049	87.75
512.265	97.75
512.481	85.75
512.698	73.75
512.914	88.75
513.13	95.75
513.346	82.75
513.562	86.75
513.778	93.75
513.994	88.75
514.21	108.75
514.426	109.75
514.642	106.75
514.858	119.75
515.074	130.75
515.29	371.75
515.506	1200.75
515.721	453.75
515.937	144.75
516.153	110.75
516.369	88.75
516.585	92.75
516.801	88.75
517.016	79.75
517.232	98.75
517.448	99.75
