Data from Circ_1994_H10_HRD10591_00066.txt Node
Date: Wed Jan 03 11:40:43 EST 2024
User: Yrep
Spectrometer: HR+D1059
Trigger mode: 1
Integration Time (sec): 1.000000E-1
Scans to average: 1
Electric dark correction enabled: true
Nonlinearity correction enabled: false
Boxcar width: 0
XAxis mode: Wavelengths
Number of Pixels in Spectrum: 2048
>>>>>Begin Spectral Data<<<<<
223.165	-20.75
223.4	-20.75
223.635	-20.75
223.869	-29.75
224.104	-18.75
224.338	-8.75
224.573	-32.75
224.808	-2.75
225.042	9.25
225.277	3.25
225.511	-13.75
225.746	6.25
225.98	1.25
226.215	18.25
226.449	15.25
226.683	16.25
226.918	28.25
227.152	29.25
227.387	30.25
227.621	34.25
227.856	44.25
228.09	33.25
228.324	50.25
228.559	56.25
228.793	77.25
229.027	61.25
229.262	79.25
229.496	82.25
229.73	73.25
229.964	80.25
230.199	75.25
230.433	82.25
230.667	70.25
230.901	78.25
231.136	84.25
231.37	81.25
231.604	75.25
231.838	87.25
232.072	86.25
232.306	76.25
232.541	69.25
232.775	82.25
233.009	87.25
233.243	81.25
233.477	84.25
233.711	67.25
233.945	77.25
234.179	61.25
234.413	77.25
234.647	92.25
234.881	73.25
235.115	77.25
235.349	90.25
235.583	72.25
235.817	74.25
236.051	79.25
236.285	67.25
236.519	75.25
236.753	87.25
236.987	79.25
237.221	82.25
237.455	84.25
237.689	74.25
237.922	80.25
238.156	80.25
238.39	80.25
238.624	60.25
238.858	76.25
239.091	77.25
239.325	89.25
239.559	76.25
239.793	82.25
240.027	82.25
240.26	78.25
240.494	68.25
240.728	84.25
240.961	80.25
241.195	70.25
241.429	77.25
241.662	78.25
241.896	84.25
242.13	76.25
242.363	91.25
242.597	71.25
242.83	64.25
243.064	73.25
243.298	86.25
243.531	72.25
243.765	71.25
243.998	77.25
244.232	64.25
244.465	81.25
244.699	79.25
244.932	72.25
245.166	61.25
245.399	66.25
245.633	72.25
245.866	81.25
246.099	64.25
246.333	74.25
246.566	83.25
246.8	74.25
247.033	74.25
247.266	82.25
247.5	79.25
247.733	88.25
247.966	80.25
248.2	87.25
248.433	67.25
248.666	80.25
248.899	69.25
249.133	82.25
249.366	89.25
249.599	94.25
249.832	83.25
250.066	79.25
250.299	81.25
250.532	77.25
250.765	77.25
250.998	73.25
251.231	74.25
251.465	77.25
251.698	81.25
251.931	83.25
252.164	80.25
252.397	75.25
252.63	81.25
252.863	60.25
253.096	74.25
253.329	78.25
253.562	87.25
253.795	85.25
254.028	73.25
254.261	74.25
254.494	80.25
254.727	84.25
254.96	67.25
255.193	78.25
255.426	82.25
255.659	78.25
255.892	80.25
256.124	72.25
256.357	95.25
256.59	89.25
256.823	84.25
257.056	77.25
257.289	63.25
257.521	77.25
257.754	84.25
257.987	91.25
258.22	97.25
258.452	79.25
258.685	83.25
258.918	90.25
259.151	87.25
259.383	77.25
259.616	92.25
259.849	71.25
260.081	85.25
260.314	95.25
260.547	78.25
260.779	76.25
261.012	78.25
261.244	81.25
261.477	77.25
261.71	87.25
261.942	103.25
262.175	91.25
262.407	95.25
262.64	75.25
262.872	87.25
263.105	83.25
263.337	75.25
263.57	88.25
263.802	92.25
264.035	84.25
264.267	81.25
264.499	71.25
264.732	79.25
264.964	72.25
265.197	81.25
265.429	90.25
265.661	82.25
265.894	75.25
266.126	92.25
266.358	80.25
266.591	97.25
266.823	83.25
267.055	82.25
267.287	84.25
267.52	89.25
267.752	83.25
267.984	85.25
268.216	100.25
268.448	98.25
268.681	77.25
268.913	87.25
269.145	83.25
269.377	79.25
269.609	77.25
269.841	83.25
270.073	82.25
270.306	78.25
270.538	90.25
270.77	90.25
271.002	74.25
271.234	86.25
271.466	82.25
271.698	81.25
271.93	85.25
272.162	80.25
272.394	105.25
272.626	84.25
272.858	82.25
273.09	97.25
273.322	90.25
273.553	87.25
273.785	85.25
274.017	84.25
274.249	82.25
274.481	95.25
274.713	65.25
274.945	96.25
275.176	79.25
275.408	87.25
275.64	90.25
275.872	102.25
276.104	85.25
276.335	93.25
276.567	100.25
276.799	97.25
277.031	94.25
277.262	79.25
277.494	97.25
277.726	75.25
277.957	83.25
278.189	90.25
278.421	95.25
278.652	87.25
278.884	93.25
279.115	84.25
279.347	99.25
279.579	86.25
279.81	90.25
280.042	90.25
280.273	104.25
280.505	82.25
280.736	77.25
280.968	84.25
281.199	93.25
281.431	92.25
281.662	95.25
281.894	85.25
282.125	89.25
282.356	115.25
282.588	130.25
282.819	112.25
283.051	87.25
283.282	91.25
283.513	99.25
283.745	94.25
283.976	88.25
284.207	97.25
284.439	89.25
284.67	93.25
284.901	90.25
285.132	85.25
285.364	84.25
285.595	82.25
285.826	99.25
286.057	73.25
286.288	97.25
286.52	87.25
286.751	98.25
286.982	93.25
287.213	83.25
287.444	99.25
287.675	87.25
287.906	91.25
288.138	81.25
288.369	84.25
288.6	80.25
288.831	89.25
289.062	86.25
289.293	98.25
289.524	80.25
289.755	93.25
289.986	89.25
290.217	105.25
290.448	108.25
290.679	80.25
290.91	96.25
291.141	99.25
291.371	73.25
291.602	80.25
291.833	90.25
292.064	83.25
292.295	87.25
292.526	95.25
292.757	74.25
292.987	87.25
293.218	96.25
293.449	87.25
293.68	89.25
293.91	84.25
294.141	97.25
294.372	94.25
294.603	90.25
294.833	82.25
295.064	90.25
295.295	87.25
295.525	101.25
295.756	90.25
295.987	120.25
296.217	128.25
296.448	109.25
296.679	90.25
296.909	87.25
297.14	87.25
297.37	83.25
297.601	75.25
297.831	71.25
298.062	92.25
298.292	96.25
298.523	99.25
298.753	93.25
298.984	100.25
299.214	85.25
299.445	83.25
299.675	92.25
299.905	75.25
300.136	92.25
300.366	107.25
300.597	98.25
300.827	99.25
301.057	96.25
301.288	100.25
301.518	95.25
301.748	68.25
301.979	87.25
302.209	91.25
302.439	100.25
302.669	92.25
302.9	106.25
303.13	95.25
303.36	96.25
303.59	94.25
303.82	101.25
304.051	101.25
304.281	81.25
304.511	88.25
304.741	84.25
304.971	79.25
305.201	85.25
305.431	89.25
305.661	77.25
305.891	99.25
306.121	90.25
306.352	84.25
306.582	97.25
306.812	86.25
307.042	100.25
307.272	100.25
307.502	108.25
307.731	89.25
307.961	82.25
308.191	87.25
308.421	102.25
308.651	85.25
308.881	87.25
309.111	100.25
309.341	111.25
309.571	102.25
309.8	94.25
310.03	103.25
310.26	97.25
310.49	94.25
310.72	98.25
310.949	101.25
311.179	95.25
311.409	74.25
311.639	89.25
311.868	83.25
312.098	96.25
312.328	97.25
312.557	93.25
312.787	107.25
313.017	88.25
313.246	89.25
313.476	87.25
313.706	89.25
313.935	87.25
314.165	104.25
314.394	105.25
314.624	95.25
314.853	92.25
315.083	99.25
315.312	90.25
315.542	83.25
315.771	77.25
316.001	80.25
316.23	81.25
316.46	85.25
316.689	101.25
316.919	69.25
317.148	89.25
317.377	99.25
317.607	93.25
317.836	95.25
318.065	82.25
318.295	74.25
318.524	100.25
318.753	97.25
318.983	84.25
319.212	96.25
319.441	103.25
319.67	97.25
319.9	103.25
320.129	79.25
320.358	85.25
320.587	92.25
320.816	101.25
321.046	101.25
321.275	100.25
321.504	88.25
321.733	89.25
321.962	109.25
322.191	105.25
322.42	83.25
322.649	108.25
322.878	113.25
323.108	105.25
323.337	122.25
323.566	135.25
323.795	138.25
324.024	180.25
324.253	353.25
324.482	705.25
324.71	1458.25
324.939	1904.25
325.168	695.25
325.397	211.25
325.626	167.25
325.855	136.25
326.084	124.25
326.313	121.25
326.542	145.25
326.77	223.25
326.999	400.25
327.228	832.25
327.457	1486.25
327.686	1133.25
327.914	329.25
328.143	201.25
328.372	160.25
328.6	139.25
328.829	108.25
329.058	120.25
329.287	105.25
329.515	94.25
329.744	108.25
329.972	109.25
330.201	154.25
330.43	175.25
330.658	137.25
330.887	118.25
331.115	120.25
331.344	92.25
331.572	101.25
331.801	91.25
332.03	101.25
332.258	99.25
332.486	83.25
332.715	92.25
332.943	84.25
333.172	90.25
333.4	107.25
333.629	115.25
333.857	120.25
334.085	115.25
334.314	165.25
334.542	193.25
334.771	177.25
334.999	117.25
335.227	92.25
335.455	85.25
335.684	100.25
335.912	91.25
336.14	100.25
336.369	107.25
336.597	109.25
336.825	96.25
337.053	87.25
337.281	94.25
337.51	92.25
337.738	89.25
337.966	109.25
338.194	92.25
338.422	96.25
338.65	91.25
338.878	96.25
339.106	84.25
339.334	101.25
339.562	87.25
339.79	105.25
340.018	83.25
340.246	80.25
340.474	90.25
340.702	99.25
340.93	80.25
341.158	94.25
341.386	91.25
341.614	94.25
341.842	103.25
342.07	100.25
342.298	83.25
342.526	84.25
342.754	97.25
342.981	87.25
343.209	83.25
343.437	103.25
343.665	97.25
343.893	80.25
344.12	79.25
344.348	95.25
344.576	102.25
344.804	89.25
345.031	95.25
345.259	76.25
345.487	90.25
345.714	87.25
345.942	78.25
346.17	101.25
346.397	87.25
346.625	82.25
346.853	108.25
347.08	83.25
347.308	92.25
347.535	95.25
347.763	89.25
347.99	93.25
348.218	104.25
348.445	96.25
348.673	86.25
348.9	95.25
349.128	104.25
349.355	89.25
349.583	73.25
349.81	90.25
350.037	104.25
350.265	95.25
350.492	89.25
350.72	95.25
350.947	101.25
351.174	118.25
351.402	100.25
351.629	113.25
351.856	105.25
352.083	96.25
352.311	112.25
352.538	105.25
352.765	97.25
352.992	105.25
353.22	115.25
353.447	105.25
353.674	105.25
353.901	100.25
354.128	105.25
354.355	80.25
354.583	95.25
354.81	93.25
355.037	99.25
355.264	86.25
355.491	85.25
355.718	100.25
355.945	99.25
356.172	97.25
356.399	95.25
356.626	87.25
356.853	100.25
357.08	82.25
357.307	94.25
357.534	84.25
357.761	105.25
357.988	87.25
358.215	81.25
358.441	92.25
358.668	97.25
358.895	91.25
359.122	84.25
359.349	93.25
359.576	90.25
359.802	103.25
360.029	107.25
360.256	102.25
360.483	90.25
360.709	94.25
360.936	108.25
361.163	93.25
361.39	88.25
361.616	96.25
361.843	84.25
362.07	100.25
362.296	97.25
362.523	81.25
362.749	84.25
362.976	89.25
363.203	68.25
363.429	90.25
363.656	74.25
363.882	93.25
364.109	84.25
364.335	100.25
364.562	103.25
364.788	94.25
365.015	94.25
365.241	87.25
365.468	101.25
365.694	119.25
365.92	87.25
366.147	91.25
366.373	81.25
366.599	84.25
366.826	87.25
367.052	83.25
367.278	72.25
367.505	98.25
367.731	79.25
367.957	94.25
368.184	93.25
368.41	100.25
368.636	109.25
368.862	105.25
369.089	100.25
369.315	90.25
369.541	85.25
369.767	71.25
369.993	95.25
370.219	92.25
370.445	79.25
370.672	76.25
370.898	71.25
371.124	97.25
371.35	79.25
371.576	87.25
371.802	88.25
372.028	100.25
372.254	75.25
372.48	79.25
372.706	101.25
372.932	93.25
373.158	93.25
373.384	86.25
373.61	90.25
373.835	66.25
374.061	89.25
374.287	89.25
374.513	82.25
374.739	85.25
374.965	92.25
375.191	90.25
375.416	93.25
375.642	96.25
375.868	93.25
376.094	99.25
376.319	69.25
376.545	88.25
376.771	87.25
376.997	105.25
377.222	82.25
377.448	81.25
377.674	99.25
377.899	83.25
378.125	82.25
378.35	97.25
378.576	92.25
378.802	91.25
379.027	91.25
379.253	96.25
379.478	81.25
379.704	79.25
379.929	87.25
380.155	93.25
380.38	75.25
380.606	95.25
380.831	91.25
381.057	90.25
381.282	97.25
381.507	98.25
381.733	91.25
381.958	94.25
382.184	97.25
382.409	90.25
382.634	101.25
382.86	110.25
383.085	95.25
383.31	90.25
383.535	92.25
383.761	90.25
383.986	107.25
384.211	116.25
384.436	91.25
384.662	105.25
384.887	104.25
385.112	101.25
385.337	91.25
385.562	100.25
385.787	94.25
386.013	98.25
386.238	110.25
386.463	104.25
386.688	104.25
386.913	95.25
387.138	99.25
387.363	93.25
387.588	87.25
387.813	96.25
388.038	121.25
388.263	100.25
388.488	104.25
388.713	96.25
388.938	93.25
389.163	93.25
389.387	91.25
389.612	99.25
389.837	98.25
390.062	84.25
390.287	88.25
390.512	92.25
390.736	97.25
390.961	101.25
391.186	77.25
391.411	92.25
391.636	105.25
391.86	82.25
392.085	84.25
392.31	84.25
392.534	75.25
392.759	81.25
392.984	85.25
393.208	84.25
393.433	73.25
393.658	82.25
393.882	93.25
394.107	88.25
394.331	89.25
394.556	93.25
394.78	88.25
395.005	100.25
395.229	78.25
395.454	98.25
395.678	93.25
395.903	85.25
396.127	97.25
396.352	100.25
396.576	73.25
396.801	97.25
397.025	92.25
397.249	87.25
397.474	91.25
397.698	83.25
397.922	82.25
398.147	84.25
398.371	91.25
398.595	89.25
398.82	79.25
399.044	78.25
399.268	78.25
399.492	88.25
399.717	96.25
399.941	98.25
400.165	83.25
400.389	79.25
400.613	73.25
400.837	83.25
401.062	94.25
401.286	75.25
401.51	82.25
401.734	97.25
401.958	105.25
402.182	100.25
402.406	146.25
402.63	113.25
402.854	90.25
403.078	99.25
403.302	91.25
403.526	81.25
403.75	95.25
403.974	100.25
404.198	92.25
404.422	95.25
404.645	93.25
404.869	98.25
405.093	106.25
405.317	91.25
405.541	103.25
405.765	95.25
405.988	132.25
406.212	151.25
406.436	191.25
406.66	138.25
406.883	94.25
407.107	93.25
407.331	93.25
407.555	83.25
407.778	84.25
408.002	91.25
408.226	82.25
408.449	84.25
408.673	85.25
408.896	78.25
409.12	87.25
409.344	89.25
409.567	85.25
409.791	84.25
410.014	86.25
410.238	88.25
410.461	83.25
410.685	88.25
410.908	113.25
411.132	89.25
411.355	92.25
411.578	93.25
411.802	81.25
412.025	88.25
412.249	87.25
412.472	87.25
412.695	101.25
412.919	85.25
413.142	97.25
413.365	85.25
413.589	79.25
413.812	77.25
414.035	95.25
414.258	96.25
414.482	96.25
414.705	81.25
414.928	97.25
415.151	89.25
415.374	85.25
415.597	70.25
415.821	101.25
416.044	88.25
416.267	84.25
416.49	81.25
416.713	88.25
416.936	96.25
417.159	90.25
417.382	90.25
417.605	91.25
417.828	94.25
418.051	84.25
418.274	88.25
418.497	79.25
418.72	92.25
418.943	84.25
419.166	63.25
419.389	74.25
419.611	93.25
419.834	79.25
420.057	98.25
420.28	91.25
420.503	81.25
420.726	79.25
420.948	94.25
421.171	88.25
421.394	90.25
421.617	88.25
421.839	87.25
422.062	91.25
422.285	82.25
422.507	91.25
422.73	88.25
422.953	92.25
423.175	96.25
423.398	72.25
423.621	89.25
423.843	88.25
424.066	85.25
424.288	83.25
424.511	68.25
424.733	80.25
424.956	109.25
425.178	93.25
425.401	94.25
425.623	97.25
425.846	91.25
426.068	93.25
426.291	95.25
426.513	88.25
426.735	84.25
426.958	88.25
427.18	108.25
427.402	116.25
427.625	148.25
427.847	120.25
428.069	113.25
428.292	89.25
428.514	101.25
428.736	86.25
428.958	66.25
429.181	91.25
429.403	73.25
429.625	78.25
429.847	100.25
430.069	79.25
430.292	83.25
430.514	73.25
430.736	85.25
430.958	79.25
431.18	101.25
431.402	86.25
431.624	96.25
431.846	66.25
432.068	89.25
432.29	87.25
432.512	87.25
432.734	89.25
432.956	78.25
433.178	89.25
433.4	96.25
433.622	97.25
433.844	97.25
434.066	83.25
434.287	85.25
434.509	74.25
434.731	75.25
434.953	83.25
435.175	87.25
435.397	80.25
435.618	85.25
435.84	99.25
436.062	104.25
436.284	98.25
436.505	106.25
436.727	96.25
436.949	93.25
437.17	96.25
437.392	108.25
437.614	92.25
437.835	96.25
438.057	99.25
438.278	91.25
438.5	101.25
438.721	118.25
438.943	100.25
439.165	82.25
439.386	77.25
439.608	75.25
439.829	91.25
440.05	109.25
440.272	133.25
440.493	96.25
440.715	85.25
440.936	91.25
441.158	94.25
441.379	87.25
441.6	88.25
441.822	88.25
442.043	87.25
442.264	93.25
442.486	93.25
442.707	97.25
442.928	103.25
443.149	111.25
443.371	112.25
443.592	108.25
443.813	94.25
444.034	102.25
444.255	99.25
444.476	80.25
444.698	75.25
444.919	89.25
445.14	126.25
445.361	103.25
445.582	104.25
445.803	117.25
446.024	133.25
446.245	124.25
446.466	108.25
446.687	88.25
446.908	100.25
447.129	79.25
447.35	87.25
447.571	88.25
447.792	89.25
448.013	90.25
448.234	99.25
448.455	96.25
448.675	108.25
448.896	103.25
449.117	99.25
449.338	107.25
449.559	107.25
449.779	114.25
450	105.25
450.221	89.25
450.442	80.25
450.662	83.25
450.883	105.25
451.104	103.25
451.324	95.25
451.545	86.25
451.766	81.25
451.986	81.25
452.207	81.25
452.428	84.25
452.648	93.25
452.869	101.25
453.089	109.25
453.31	108.25
453.53	89.25
453.751	92.25
453.971	97.25
454.192	89.25
454.412	77.25
454.633	93.25
454.853	87.25
455.073	88.25
455.294	83.25
455.514	91.25
455.734	94.25
455.955	85.25
456.175	90.25
456.395	84.25
456.616	95.25
456.836	90.25
457.056	84.25
457.276	87.25
457.497	75.25
457.717	88.25
457.937	77.25
458.157	76.25
458.377	80.25
458.598	98.25
458.818	127.25
459.038	153.25
459.258	101.25
459.478	77.25
459.698	80.25
459.918	84.25
460.138	96.25
460.358	92.25
460.578	78.25
460.798	82.25
461.018	74.25
461.238	67.25
461.458	85.25
461.678	83.25
461.898	66.25
462.118	93.25
462.338	79.25
462.558	84.25
462.777	96.25
462.997	83.25
463.217	85.25
463.437	86.25
463.657	94.25
463.876	104.25
464.096	91.25
464.316	88.25
464.536	97.25
464.755	79.25
464.975	89.25
465.195	140.25
465.414	144.25
465.634	87.25
465.854	98.25
466.073	89.25
466.293	75.25
466.512	79.25
466.732	89.25
466.951	72.25
467.171	84.25
467.391	83.25
467.61	95.25
467.829	114.25
468.049	114.25
468.268	128.25
468.488	105.25
468.707	87.25
468.927	84.25
469.146	66.25
469.365	77.25
469.585	100.25
469.804	94.25
470.023	87.25
470.243	87.25
470.462	96.25
470.681	97.25
470.901	87.25
471.12	79.25
471.339	71.25
471.558	84.25
471.777	77.25
471.997	107.25
472.216	137.25
472.435	232.25
472.654	115.25
472.873	87.25
473.092	84.25
473.311	92.25
473.53	103.25
473.749	88.25
473.968	104.25
474.187	107.25
474.406	88.25
474.625	92.25
474.844	85.25
475.063	82.25
475.282	90.25
475.501	85.25
475.72	105.25
475.939	101.25
476.158	87.25
476.377	88.25
476.596	84.25
476.814	89.25
477.033	98.25
477.252	70.25
477.471	74.25
477.69	83.25
477.908	79.25
478.127	88.25
478.346	95.25
478.564	99.25
478.783	87.25
479.002	100.25
479.22	84.25
479.439	104.25
479.658	93.25
479.876	102.25
480.095	85.25
480.313	87.25
480.532	87.25
480.751	108.25
480.969	156.25
481.188	352.25
481.406	241.25
481.624	106.25
481.843	76.25
482.061	85.25
482.28	84.25
482.498	74.25
482.717	79.25
482.935	98.25
483.153	95.25
483.372	85.25
483.59	98.25
483.808	76.25
484.027	85.25
484.245	101.25
484.463	89.25
484.681	97.25
484.9	77.25
485.118	86.25
485.336	99.25
485.554	87.25
485.772	102.25
485.99	108.25
486.209	108.25
486.427	109.25
486.645	100.25
486.863	109.25
487.081	103.25
487.299	98.25
487.517	108.25
487.735	90.25
487.953	101.25
488.171	93.25
488.389	92.25
488.607	100.25
488.825	91.25
489.043	86.25
489.261	83.25
489.479	90.25
489.696	98.25
489.914	110.25
490.132	92.25
490.35	79.25
490.568	92.25
490.786	82.25
491.003	80.25
491.221	91.25
491.439	86.25
491.657	75.25
491.874	78.25
492.092	87.25
492.31	83.25
492.527	76.25
492.745	82.25
492.963	90.25
493.18	99.25
493.398	98.25
493.615	77.25
493.833	89.25
494.05	85.25
494.268	92.25
494.485	87.25
494.703	91.25
494.92	82.25
495.138	90.25
495.355	85.25
495.573	81.25
495.79	90.25
496.008	92.25
496.225	87.25
496.442	92.25
496.66	87.25
496.877	88.25
497.094	93.25
497.312	95.25
497.529	94.25
497.746	78.25
497.963	87.25
498.181	85.25
498.398	110.25
498.615	100.25
498.832	106.25
499.049	89.25
499.267	87.25
499.484	101.25
499.701	71.25
499.918	77.25
500.135	98.25
500.352	99.25
500.569	97.25
500.786	98.25
501.003	89.25
501.22	81.25
501.437	79.25
501.654	87.25
501.871	103.25
502.088	98.25
502.305	99.25
502.522	106.25
502.739	79.25
502.956	89.25
503.172	96.25
503.389	87.25
503.606	91.25
503.823	101.25
504.04	78.25
504.256	82.25
504.473	84.25
504.69	82.25
504.907	101.25
505.123	79.25
505.34	81.25
505.557	79.25
505.773	78.25
505.99	87.25
506.207	76.25
506.423	89.25
506.64	99.25
506.856	83.25
507.073	96.25
507.289	91.25
507.506	115.25
507.722	116.25
507.939	92.25
508.155	107.25
508.372	90.25
508.588	97.25
508.805	77.25
509.021	88.25
509.238	115.25
509.454	99.25
509.67	100.25
509.887	107.25
510.103	123.25
510.319	191.25
510.536	682.25
510.752	2195.25
510.968	605.25
511.184	151.25
511.401	105.25
511.617	90.25
511.833	98.25
512.049	102.25
512.265	95.25
512.481	80.25
512.698	95.25
512.914	93.25
513.13	79.25
513.346	73.25
513.562	91.25
513.778	89.25
513.994	99.25
514.21	90.25
514.426	128.25
514.642	119.25
514.858	117.25
515.074	165.25
515.29	411.25
515.506	1288.25
515.721	476.25
515.937	146.25
516.153	102.25
