Data from Circ_1994_H10_HRD10591_00004.txt Node
Date: Wed Jan 03 11:40:31 EST 2024
User: Yrep
Spectrometer: HR+D1059
Trigger mode: 1
Integration Time (sec): 1.000000E-1
Scans to average: 1
Electric dark correction enabled: true
Nonlinearity correction enabled: false
Boxcar width: 0
XAxis mode: Wavelengths
Number of Pixels in Spectrum: 2048
>>>>>Begin Spectral Data<<<<<
223.165	-8.88
223.4	-8.88
223.635	-8.88
223.869	-25.88
224.104	-20.88
224.338	-23.88
224.573	-7.88
224.808	-13.88
225.042	0.12
225.277	-0.88
225.511	-15.88
225.746	4.12
225.98	9.12
226.215	15.12
226.449	11.12
226.683	16.12
226.918	32.12
227.152	30.12
227.387	50.12
227.621	34.12
227.856	43.12
228.09	43.12
228.324	48.12
228.559	53.12
228.793	62.12
229.027	49.12
229.262	67.12
229.496	68.12
229.73	62.12
229.964	74.12
230.199	68.12
230.433	65.12
230.667	68.12
230.901	71.12
231.136	75.12
231.37	78.12
231.604	82.12
231.838	84.12
232.072	78.12
232.306	83.12
232.541	82.12
232.775	69.12
233.009	95.12
233.243	65.12
233.477	80.12
233.711	76.12
233.945	73.12
234.179	63.12
234.413	76.12
234.647	71.12
234.881	94.12
235.115	95.12
235.349	89.12
235.583	77.12
235.817	72.12
236.051	100.12
236.285	71.12
236.519	67.12
236.753	77.12
236.987	83.12
237.221	69.12
237.455	83.12
237.689	81.12
237.922	79.12
238.156	68.12
238.39	85.12
238.624	67.12
238.858	85.12
239.091	87.12
239.325	63.12
239.559	81.12
239.793	73.12
240.027	80.12
240.26	76.12
240.494	73.12
240.728	83.12
240.961	76.12
241.195	78.12
241.429	77.12
241.662	77.12
241.896	82.12
242.13	70.12
242.363	85.12
242.597	75.12
242.83	73.12
243.064	65.12
243.298	79.12
243.531	81.12
243.765	79.12
243.998	77.12
244.232	83.12
244.465	96.12
244.699	69.12
244.932	72.12
245.166	63.12
245.399	77.12
245.633	82.12
245.866	89.12
246.099	71.12
246.333	85.12
246.566	80.12
246.8	73.12
247.033	83.12
247.266	72.12
247.5	77.12
247.733	84.12
247.966	89.12
248.2	82.12
248.433	88.12
248.666	81.12
248.899	76.12
249.133	90.12
249.366	95.12
249.599	89.12
249.832	72.12
250.066	76.12
250.299	88.12
250.532	80.12
250.765	81.12
250.998	84.12
251.231	83.12
251.465	90.12
251.698	77.12
251.931	68.12
252.164	79.12
252.397	77.12
252.63	61.12
252.863	84.12
253.096	75.12
253.329	78.12
253.562	81.12
253.795	87.12
254.028	89.12
254.261	81.12
254.494	72.12
254.727	91.12
254.96	80.12
255.193	58.12
255.426	81.12
255.659	87.12
255.892	79.12
256.124	66.12
256.357	71.12
256.59	85.12
256.823	75.12
257.056	84.12
257.289	79.12
257.521	75.12
257.754	81.12
257.987	78.12
258.22	68.12
258.452	87.12
258.685	73.12
258.918	71.12
259.151	85.12
259.383	89.12
259.616	69.12
259.849	75.12
260.081	75.12
260.314	87.12
260.547	85.12
260.779	87.12
261.012	94.12
261.244	77.12
261.477	83.12
261.71	96.12
261.942	108.12
262.175	112.12
262.407	83.12
262.64	73.12
262.872	84.12
263.105	76.12
263.337	73.12
263.57	79.12
263.802	77.12
264.035	94.12
264.267	81.12
264.499	83.12
264.732	80.12
264.964	83.12
265.197	78.12
265.429	77.12
265.661	81.12
265.894	92.12
266.126	90.12
266.358	78.12
266.591	73.12
266.823	80.12
267.055	76.12
267.287	83.12
267.52	83.12
267.752	76.12
267.984	91.12
268.216	89.12
268.448	82.12
268.681	80.12
268.913	79.12
269.145	90.12
269.377	89.12
269.609	90.12
269.841	90.12
270.073	74.12
270.306	77.12
270.538	79.12
270.77	76.12
271.002	74.12
271.234	67.12
271.466	79.12
271.698	87.12
271.93	88.12
272.162	77.12
272.394	89.12
272.626	92.12
272.858	82.12
273.09	81.12
273.322	69.12
273.553	88.12
273.785	82.12
274.017	91.12
274.249	74.12
274.481	67.12
274.713	78.12
274.945	70.12
275.176	83.12
275.408	93.12
275.64	71.12
275.872	78.12
276.104	95.12
276.335	89.12
276.567	87.12
276.799	97.12
277.031	103.12
277.262	90.12
277.494	68.12
277.726	85.12
277.957	90.12
278.189	93.12
278.421	94.12
278.652	87.12
278.884	90.12
279.115	88.12
279.347	93.12
279.579	75.12
279.81	82.12
280.042	89.12
280.273	79.12
280.505	84.12
280.736	97.12
280.968	85.12
281.199	72.12
281.431	85.12
281.662	80.12
281.894	88.12
282.125	87.12
282.356	114.12
282.588	120.12
282.819	96.12
283.051	77.12
283.282	77.12
283.513	95.12
283.745	82.12
283.976	91.12
284.207	87.12
284.439	86.12
284.67	93.12
284.901	78.12
285.132	79.12
285.364	90.12
285.595	110.12
285.826	85.12
286.057	102.12
286.288	85.12
286.52	92.12
286.751	84.12
286.982	83.12
287.213	86.12
287.444	86.12
287.675	80.12
287.906	80.12
288.138	93.12
288.369	99.12
288.6	83.12
288.831	82.12
289.062	89.12
289.293	77.12
289.524	89.12
289.755	73.12
289.986	94.12
290.217	95.12
290.448	90.12
290.679	80.12
290.91	95.12
291.141	91.12
291.371	88.12
291.602	91.12
291.833	93.12
292.064	82.12
292.295	88.12
292.526	87.12
292.757	85.12
292.987	96.12
293.218	82.12
293.449	78.12
293.68	85.12
293.91	90.12
294.141	84.12
294.372	97.12
294.603	99.12
294.833	97.12
295.064	78.12
295.295	86.12
295.525	75.12
295.756	87.12
295.987	98.12
296.217	112.12
296.448	110.12
296.679	96.12
296.909	100.12
297.14	80.12
297.37	89.12
297.601	84.12
297.831	92.12
298.062	83.12
298.292	83.12
298.523	95.12
298.753	85.12
298.984	93.12
299.214	87.12
299.445	92.12
299.675	79.12
299.905	96.12
300.136	100.12
300.366	94.12
300.597	91.12
300.827	92.12
301.057	88.12
301.288	90.12
301.518	85.12
301.748	92.12
301.979	106.12
302.209	75.12
302.439	87.12
302.669	100.12
302.9	93.12
303.13	87.12
303.36	91.12
303.59	85.12
303.82	91.12
304.051	105.12
304.281	91.12
304.511	102.12
304.741	88.12
304.971	90.12
305.201	73.12
305.431	85.12
305.661	86.12
305.891	88.12
306.121	92.12
306.352	101.12
306.582	99.12
306.812	87.12
307.042	103.12
307.272	96.12
307.502	91.12
307.731	95.12
307.961	93.12
308.191	86.12
308.421	95.12
308.651	102.12
308.881	106.12
309.111	97.12
309.341	96.12
309.571	85.12
309.8	95.12
310.03	94.12
310.26	104.12
310.49	99.12
310.72	107.12
310.949	92.12
311.179	96.12
311.409	80.12
311.639	99.12
311.868	94.12
312.098	91.12
312.328	93.12
312.557	106.12
312.787	95.12
313.017	108.12
313.246	92.12
313.476	97.12
313.706	87.12
313.935	86.12
314.165	91.12
314.394	99.12
314.624	83.12
314.853	101.12
315.083	93.12
315.312	100.12
315.542	81.12
315.771	95.12
316.001	95.12
316.23	87.12
316.46	85.12
316.689	104.12
316.919	97.12
317.148	95.12
317.377	93.12
317.607	97.12
317.836	103.12
318.065	89.12
318.295	84.12
318.524	77.12
318.753	87.12
318.983	99.12
319.212	97.12
319.441	103.12
319.67	105.12
319.9	104.12
320.129	80.12
320.358	91.12
320.587	82.12
320.816	105.12
321.046	95.12
321.275	96.12
321.504	99.12
321.733	89.12
321.962	95.12
322.191	92.12
322.42	110.12
322.649	104.12
322.878	118.12
323.108	108.12
323.337	112.12
323.566	117.12
323.795	131.12
324.024	164.12
324.253	340.12
324.482	691.12
324.71	1394.12
324.939	1796.12
325.168	690.12
325.397	207.12
325.626	115.12
325.855	122.12
326.084	109.12
326.313	121.12
326.542	137.12
326.77	190.12
326.999	411.12
327.228	786.12
327.457	1412.12
327.686	1091.12
327.914	308.12
328.143	174.12
328.372	124.12
328.6	121.12
328.829	117.12
329.058	111.12
329.287	116.12
329.515	87.12
329.744	94.12
329.972	97.12
330.201	100.12
330.43	110.12
330.658	128.12
330.887	124.12
331.115	112.12
331.344	89.12
331.572	106.12
331.801	95.12
332.03	95.12
332.258	95.12
332.486	90.12
332.715	100.12
332.943	84.12
333.172	84.12
333.4	89.12
333.629	96.12
333.857	108.12
334.085	96.12
334.314	101.12
334.542	98.12
334.771	92.12
334.999	93.12
335.227	91.12
335.455	101.12
335.684	103.12
335.912	94.12
336.14	84.12
336.369	107.12
336.597	112.12
336.825	93.12
337.053	102.12
337.281	77.12
337.51	68.12
337.738	100.12
337.966	96.12
338.194	89.12
338.422	104.12
338.65	86.12
338.878	88.12
339.106	85.12
339.334	93.12
339.562	95.12
339.79	100.12
340.018	89.12
340.246	68.12
340.474	103.12
340.702	105.12
340.93	85.12
341.158	95.12
341.386	94.12
341.614	90.12
341.842	91.12
342.07	91.12
342.298	85.12
342.526	95.12
342.754	89.12
342.981	91.12
343.209	89.12
343.437	105.12
343.665	89.12
343.893	80.12
344.12	101.12
344.348	91.12
344.576	97.12
344.804	89.12
345.031	110.12
345.259	93.12
345.487	97.12
345.714	105.12
345.942	108.12
346.17	89.12
346.397	101.12
346.625	91.12
346.853	84.12
347.08	89.12
347.308	99.12
347.535	92.12
347.763	94.12
347.99	79.12
348.218	91.12
348.445	99.12
348.673	102.12
348.9	99.12
349.128	96.12
349.355	97.12
349.583	90.12
349.81	67.12
350.037	86.12
350.265	100.12
350.492	98.12
350.72	100.12
350.947	99.12
351.174	103.12
351.402	117.12
351.629	126.12
351.856	104.12
352.083	97.12
352.311	109.12
352.538	123.12
352.765	113.12
352.992	114.12
353.22	101.12
353.447	95.12
353.674	86.12
353.901	91.12
354.128	99.12
354.355	101.12
354.583	99.12
354.81	93.12
355.037	100.12
355.264	95.12
355.491	78.12
355.718	96.12
355.945	91.12
356.172	89.12
356.399	86.12
356.626	108.12
356.853	99.12
357.08	82.12
357.307	103.12
357.534	96.12
357.761	94.12
357.988	91.12
358.215	90.12
358.441	101.12
358.668	99.12
358.895	89.12
359.122	104.12
359.349	83.12
359.576	97.12
359.802	87.12
360.029	101.12
360.256	106.12
360.483	87.12
360.709	93.12
360.936	99.12
361.163	86.12
361.39	86.12
361.616	82.12
361.843	101.12
362.07	108.12
362.296	109.12
362.523	96.12
362.749	101.12
362.976	97.12
363.203	95.12
363.429	83.12
363.656	95.12
363.882	82.12
364.109	93.12
364.335	83.12
364.562	88.12
364.788	79.12
365.015	90.12
365.241	83.12
365.468	93.12
365.694	94.12
365.92	84.12
366.147	82.12
366.373	85.12
366.599	87.12
366.826	97.12
367.052	93.12
367.278	90.12
367.505	92.12
367.731	83.12
367.957	97.12
368.184	81.12
368.41	114.12
368.636	108.12
368.862	107.12
369.089	104.12
369.315	96.12
369.541	93.12
369.767	78.12
369.993	81.12
370.219	96.12
370.445	92.12
370.672	83.12
370.898	85.12
371.124	94.12
371.35	100.12
371.576	88.12
371.802	90.12
372.028	85.12
372.254	83.12
372.48	92.12
372.706	93.12
372.932	90.12
373.158	87.12
373.384	89.12
373.61	97.12
373.835	85.12
374.061	96.12
374.287	90.12
374.513	92.12
374.739	85.12
374.965	73.12
375.191	94.12
375.416	92.12
375.642	92.12
375.868	95.12
376.094	92.12
376.319	87.12
376.545	105.12
376.771	79.12
376.997	91.12
377.222	83.12
377.448	78.12
377.674	85.12
377.899	85.12
378.125	83.12
378.35	93.12
378.576	103.12
378.802	88.12
379.027	98.12
379.253	87.12
379.478	90.12
379.704	89.12
379.929	92.12
380.155	84.12
380.38	82.12
380.606	92.12
380.831	100.12
381.057	92.12
381.282	103.12
381.507	97.12
381.733	81.12
381.958	97.12
382.184	104.12
382.409	114.12
382.634	95.12
382.86	89.12
383.085	99.12
383.31	105.12
383.535	97.12
383.761	107.12
383.986	114.12
384.211	86.12
384.436	96.12
384.662	97.12
384.887	109.12
385.112	96.12
385.337	91.12
385.562	113.12
385.787	94.12
386.013	104.12
386.238	107.12
386.463	114.12
386.688	104.12
386.913	115.12
387.138	106.12
387.363	109.12
387.588	102.12
387.813	92.12
388.038	110.12
388.263	114.12
388.488	124.12
388.713	94.12
388.938	91.12
389.163	99.12
389.387	103.12
389.612	85.12
389.837	87.12
390.062	96.12
390.287	96.12
390.512	87.12
390.736	101.12
390.961	97.12
391.186	92.12
391.411	77.12
391.636	93.12
391.86	83.12
392.085	80.12
392.31	70.12
392.534	83.12
392.759	78.12
392.984	97.12
393.208	93.12
393.433	104.12
393.658	107.12
393.882	89.12
394.107	92.12
394.331	80.12
394.556	75.12
394.78	93.12
395.005	84.12
395.229	62.12
395.454	78.12
395.678	83.12
395.903	81.12
396.127	95.12
396.352	92.12
396.576	78.12
396.801	78.12
397.025	100.12
397.249	81.12
397.474	84.12
397.698	80.12
397.922	75.12
398.147	106.12
398.371	92.12
398.595	106.12
398.82	86.12
399.044	77.12
399.268	80.12
399.492	83.12
399.717	71.12
399.941	88.12
400.165	97.12
400.389	94.12
400.613	71.12
400.837	90.12
401.062	89.12
401.286	99.12
401.51	85.12
401.734	106.12
401.958	84.12
402.182	111.12
402.406	135.12
402.63	93.12
402.854	73.12
403.078	75.12
403.302	93.12
403.526	88.12
403.75	95.12
403.974	75.12
404.198	83.12
404.422	83.12
404.645	76.12
404.869	84.12
405.093	88.12
405.317	97.12
405.541	103.12
405.765	97.12
405.988	105.12
406.212	154.12
406.436	193.12
406.66	126.12
406.883	95.12
407.107	88.12
407.331	91.12
407.555	89.12
407.778	98.12
408.002	86.12
408.226	91.12
408.449	99.12
408.673	96.12
408.896	83.12
409.12	80.12
409.344	89.12
409.567	95.12
409.791	85.12
410.014	88.12
410.238	88.12
410.461	98.12
410.685	99.12
410.908	86.12
411.132	99.12
411.355	105.12
411.578	87.12
411.802	82.12
412.025	77.12
412.249	81.12
412.472	90.12
412.695	80.12
412.919	87.12
413.142	84.12
413.365	95.12
413.589	84.12
413.812	98.12
414.035	93.12
414.258	81.12
414.482	84.12
414.705	83.12
414.928	92.12
415.151	99.12
415.374	91.12
415.597	84.12
415.821	96.12
416.044	91.12
416.267	94.12
416.49	91.12
416.713	82.12
416.936	103.12
417.159	81.12
417.382	103.12
417.605	89.12
417.828	78.12
418.051	89.12
418.274	105.12
418.497	84.12
418.72	93.12
418.943	76.12
419.166	83.12
419.389	104.12
419.611	77.12
419.834	86.12
420.057	75.12
420.28	89.12
420.503	95.12
420.726	88.12
420.948	97.12
421.171	104.12
421.394	92.12
421.617	99.12
421.839	91.12
422.062	91.12
422.285	91.12
422.507	79.12
422.73	118.12
422.953	103.12
423.175	83.12
423.398	92.12
423.621	83.12
423.843	73.12
424.066	80.12
424.288	77.12
424.511	82.12
424.733	95.12
424.956	99.12
425.178	108.12
425.401	111.12
425.623	83.12
425.846	81.12
426.068	90.12
426.291	79.12
426.513	91.12
426.735	80.12
426.958	90.12
427.18	97.12
427.402	128.12
427.625	151.12
427.847	124.12
428.069	108.12
428.292	96.12
428.514	81.12
428.736	94.12
428.958	94.12
429.181	77.12
429.403	76.12
429.625	79.12
429.847	107.12
430.069	97.12
430.292	89.12
430.514	79.12
430.736	90.12
430.958	98.12
431.18	87.12
431.402	79.12
431.624	92.12
431.846	90.12
432.068	69.12
432.29	82.12
432.512	67.12
432.734	91.12
432.956	92.12
433.178	82.12
433.4	104.12
433.622	96.12
433.844	85.12
434.066	92.12
434.287	83.12
434.509	86.12
434.731	95.12
434.953	87.12
435.175	103.12
435.397	91.12
435.618	86.12
435.84	97.12
436.062	120.12
436.284	106.12
436.505	93.12
436.727	89.12
436.949	87.12
437.17	92.12
437.392	93.12
437.614	97.12
437.835	99.12
438.057	111.12
438.278	106.12
438.5	104.12
438.721	109.12
438.943	100.12
439.165	96.12
439.386	81.12
439.608	96.12
439.829	104.12
440.05	107.12
440.272	117.12
440.493	99.12
440.715	93.12
440.936	103.12
441.158	90.12
441.379	82.12
441.6	93.12
441.822	94.12
442.043	87.12
442.264	101.12
442.486	87.12
442.707	91.12
442.928	93.12
443.149	105.12
443.371	120.12
443.592	100.12
443.813	103.12
444.034	80.12
444.255	84.12
444.476	81.12
444.698	83.12
444.919	79.12
445.14	120.12
445.361	114.12
445.582	98.12
445.803	130.12
446.024	124.12
446.245	125.12
446.466	101.12
446.687	98.12
446.908	84.12
447.129	90.12
447.35	89.12
447.571	99.12
447.792	84.12
448.013	92.12
448.234	99.12
448.455	90.12
448.675	107.12
448.896	112.12
449.117	88.12
449.338	89.12
449.559	128.12
449.779	121.12
450	91.12
450.221	71.12
450.442	83.12
450.662	91.12
450.883	96.12
451.104	114.12
451.324	89.12
451.545	82.12
451.766	81.12
451.986	92.12
452.207	82.12
452.428	83.12
452.648	101.12
452.869	99.12
453.089	86.12
453.31	101.12
453.53	90.12
453.751	81.12
453.971	95.12
454.192	108.12
454.412	84.12
454.633	81.12
454.853	88.12
455.073	60.12
455.294	101.12
455.514	97.12
455.734	98.12
455.955	81.12
456.175	92.12
456.395	93.12
456.616	80.12
456.836	76.12
457.056	96.12
457.276	92.12
457.497	79.12
457.717	96.12
457.937	94.12
458.157	78.12
458.377	80.12
458.598	111.12
458.818	124.12
459.038	131.12
459.258	115.12
459.478	80.12
459.698	78.12
459.918	91.12
460.138	73.12
460.358	84.12
460.578	80.12
460.798	89.12
461.018	98.12
461.238	86.12
461.458	86.12
461.678	92.12
461.898	92.12
462.118	84.12
462.338	92.12
462.558	86.12
462.777	82.12
462.997	85.12
463.217	86.12
463.437	88.12
463.657	85.12
463.876	84.12
464.096	92.12
464.316	82.12
464.536	96.12
464.755	87.12
464.975	89.12
465.195	142.12
465.414	134.12
465.634	91.12
465.854	88.12
466.073	82.12
466.293	92.12
466.512	98.12
466.732	68.12
466.951	92.12
467.171	93.12
467.391	86.12
467.61	101.12
467.829	91.12
468.049	81.12
468.268	98.12
468.488	86.12
468.707	84.12
468.927	81.12
469.146	89.12
469.365	74.12
469.585	84.12
469.804	96.12
470.023	92.12
470.243	93.12
470.462	107.12
470.681	91.12
470.901	83.12
471.12	69.12
471.339	82.12
471.558	79.12
471.777	76.12
471.997	72.12
472.216	88.12
472.435	104.12
472.654	91.12
472.873	85.12
473.092	83.12
473.311	90.12
473.53	85.12
473.749	95.12
473.968	85.12
474.187	87.12
474.406	98.12
474.625	86.12
474.844	76.12
475.063	90.12
475.282	73.12
475.501	87.12
475.72	94.12
475.939	101.12
476.158	98.12
476.377	84.12
476.596	92.12
476.814	104.12
477.033	93.12
477.252	101.12
477.471	84.12
477.69	77.12
477.908	110.12
478.127	94.12
478.346	79.12
478.564	92.12
478.783	91.12
479.002	89.12
479.22	98.12
479.439	91.12
479.658	89.12
479.876	79.12
480.095	82.12
480.313	71.12
480.532	73.12
480.751	91.12
480.969	89.12
481.188	128.12
481.406	126.12
481.624	76.12
481.843	95.12
482.061	82.12
482.28	82.12
482.498	88.12
482.717	87.12
482.935	80.12
483.153	97.12
483.372	99.12
483.59	95.12
483.808	83.12
484.027	90.12
484.245	96.12
484.463	84.12
484.681	101.12
484.9	88.12
485.118	96.12
485.336	98.12
485.554	90.12
485.772	102.12
485.99	107.12
486.209	99.12
486.427	106.12
486.645	114.12
486.863	113.12
487.081	112.12
487.299	108.12
487.517	86.12
487.735	97.12
487.953	92.12
488.171	78.12
488.389	83.12
488.607	107.12
488.825	89.12
489.043	95.12
489.261	93.12
489.479	75.12
489.696	98.12
489.914	104.12
490.132	75.12
490.35	78.12
490.568	85.12
490.786	99.12
491.003	81.12
491.221	89.12
491.439	89.12
491.657	103.12
491.874	103.12
492.092	76.12
492.31	71.12
492.527	83.12
492.745	84.12
492.963	89.12
493.18	92.12
493.398	91.12
493.615	114.12
493.833	97.12
494.05	87.12
494.268	104.12
494.485	101.12
494.703	91.12
494.92	84.12
495.138	87.12
495.355	106.12
495.573	81.12
495.79	75.12
496.008	94.12
496.225	78.12
496.442	85.12
496.66	99.12
496.877	96.12
497.094	99.12
497.312	108.12
497.529	94.12
497.746	98.12
497.963	76.12
498.181	83.12
498.398	76.12
498.615	92.12
498.832	105.12
499.049	101.12
499.267	95.12
499.484	79.12
499.701	92.12
499.918	92.12
500.135	83.12
500.352	88.12
500.569	97.12
500.786	97.12
501.003	97.12
501.22	89.12
501.437	100.12
501.654	104.12
501.871	98.12
502.088	81.12
502.305	101.12
502.522	99.12
502.739	74.12
502.956	97.12
503.172	79.12
503.389	91.12
503.606	105.12
503.823	98.12
504.04	101.12
504.256	87.12
504.473	74.12
504.69	92.12
504.907	99.12
505.123	84.12
505.34	99.12
505.557	94.12
505.773	88.12
505.99	73.12
506.207	92.12
506.423	90.12
506.64	95.12
506.856	96.12
507.073	87.12
507.289	98.12
507.506	92.12
507.722	101.12
507.939	116.12
508.155	101.12
508.372	87.12
508.588	93.12
508.805	100.12
509.021	92.12
509.238	99.12
509.454	86.12
509.67	104.12
509.887	110.12
510.103	119.12
510.319	187.12
510.536	648.12
510.752	2029.12
510.968	570.12
511.184	148.12
511.401	104.12
511.617	89.12
511.833	97.12
512.049	87.12
512.265	106.12
512.481	93.12
512.698	88.12
512.914	101.12
513.13	110.12
513.346	87.12
513.562	101.12
513.778	96.12
513.994	88.12
514.21	107.12
514.426	107.12
514.642	122.12
514.858	109.12
515.074	149.12
515.29	367.12
515.506	1177.12
515.721	436.12
515.937	130.12
516.153	103.12
516.369	92.12
