Data from Circ_1994_H10_HRD10591_00025.txt Node
Date: Wed Jan 03 11:40:35 EST 2024
User: Yrep
Spectrometer: HR+D1059
Trigger mode: 1
Integration Time (sec): 1.000000E-1
Scans to average: 1
Electric dark correction enabled: true
Nonlinearity correction enabled: false
Boxcar width: 0
XAxis mode: Wavelengths
Number of Pixels in Spectrum: 2048
>>>>>Begin Spectral Data<<<<<
223.165	-21.06
223.4	-21.06
223.635	-21.06
223.869	-24.06
224.104	-29.06
224.338	-14.06
224.573	-17.06
224.808	-7.06
225.042	-3.06
225.277	3.94
225.511	-7.06
225.746	11.94
225.98	-7.06
226.215	18.94
226.449	15.94
226.683	20.94
226.918	21.94
227.152	35.94
227.387	49.94
227.621	36.94
227.856	35.94
228.09	57.94
228.324	53.94
228.559	59.94
228.793	71.94
229.027	61.94
229.262	65.94
229.496	75.94
229.73	79.94
229.964	98.94
230.199	81.94
230.433	77.94
230.667	78.94
230.901	92.94
231.136	77.94
231.37	88.94
231.604	78.94
231.838	85.94
232.072	75.94
232.306	79.94
232.541	94.94
232.775	82.94
233.009	81.94
233.243	76.94
233.477	78.94
233.711	83.94
233.945	81.94
234.179	68.94
234.413	69.94
234.647	81.94
234.881	80.94
235.115	70.94
235.349	77.94
235.583	77.94
235.817	73.94
236.051	89.94
236.285	69.94
236.519	78.94
236.753	93.94
236.987	78.94
237.221	71.94
237.455	79.94
237.689	83.94
237.922	91.94
238.156	79.94
238.39	78.94
238.624	80.94
238.858	69.94
239.091	77.94
239.325	67.94
239.559	78.94
239.793	81.94
240.027	73.94
240.26	89.94
240.494	85.94
240.728	70.94
240.961	81.94
241.195	73.94
241.429	83.94
241.662	75.94
241.896	79.94
242.13	85.94
242.363	68.94
242.597	62.94
242.83	70.94
243.064	82.94
243.298	80.94
243.531	60.94
243.765	77.94
243.998	71.94
244.232	93.94
244.465	89.94
244.699	86.94
244.932	78.94
245.166	80.94
245.399	86.94
245.633	74.94
245.866	72.94
246.099	93.94
246.333	85.94
246.566	83.94
246.8	89.94
247.033	85.94
247.266	87.94
247.5	84.94
247.733	69.94
247.966	80.94
248.2	86.94
248.433	78.94
248.666	71.94
248.899	87.94
249.133	82.94
249.366	89.94
249.599	101.94
249.832	94.94
250.066	76.94
250.299	73.94
250.532	70.94
250.765	73.94
250.998	95.94
251.231	82.94
251.465	85.94
251.698	73.94
251.931	79.94
252.164	88.94
252.397	75.94
252.63	73.94
252.863	78.94
253.096	80.94
253.329	78.94
253.562	86.94
253.795	86.94
254.028	82.94
254.261	87.94
254.494	80.94
254.727	83.94
254.96	67.94
255.193	87.94
255.426	88.94
255.659	79.94
255.892	74.94
256.124	93.94
256.357	86.94
256.59	87.94
256.823	84.94
257.056	91.94
257.289	91.94
257.521	99.94
257.754	80.94
257.987	86.94
258.22	80.94
258.452	67.94
258.685	77.94
258.918	85.94
259.151	72.94
259.383	84.94
259.616	86.94
259.849	80.94
260.081	74.94
260.314	85.94
260.547	69.94
260.779	77.94
261.012	102.94
261.244	87.94
261.477	92.94
261.71	91.94
261.942	112.94
262.175	103.94
262.407	95.94
262.64	94.94
262.872	69.94
263.105	85.94
263.337	78.94
263.57	80.94
263.802	94.94
264.035	77.94
264.267	72.94
264.499	93.94
264.732	94.94
264.964	68.94
265.197	84.94
265.429	89.94
265.661	87.94
265.894	82.94
266.126	73.94
266.358	85.94
266.591	79.94
266.823	88.94
267.055	70.94
267.287	86.94
267.52	85.94
267.752	92.94
267.984	100.94
268.216	78.94
268.448	76.94
268.681	82.94
268.913	77.94
269.145	72.94
269.377	95.94
269.609	88.94
269.841	82.94
270.073	92.94
270.306	77.94
270.538	81.94
270.77	85.94
271.002	96.94
271.234	79.94
271.466	86.94
271.698	81.94
271.93	92.94
272.162	86.94
272.394	95.94
272.626	91.94
272.858	77.94
273.09	88.94
273.322	73.94
273.553	70.94
273.785	92.94
274.017	93.94
274.249	83.94
274.481	77.94
274.713	97.94
274.945	69.94
275.176	91.94
275.408	96.94
275.64	96.94
275.872	101.94
276.104	74.94
276.335	89.94
276.567	95.94
276.799	112.94
277.031	101.94
277.262	108.94
277.494	91.94
277.726	92.94
277.957	91.94
278.189	89.94
278.421	87.94
278.652	68.94
278.884	90.94
279.115	93.94
279.347	99.94
279.579	95.94
279.81	98.94
280.042	89.94
280.273	105.94
280.505	83.94
280.736	95.94
280.968	92.94
281.199	89.94
281.431	95.94
281.662	83.94
281.894	95.94
282.125	86.94
282.356	105.94
282.588	149.94
282.819	118.94
283.051	90.94
283.282	75.94
283.513	93.94
283.745	77.94
283.976	90.94
284.207	75.94
284.439	80.94
284.67	97.94
284.901	86.94
285.132	94.94
285.364	90.94
285.595	93.94
285.826	77.94
286.057	96.94
286.288	79.94
286.52	77.94
286.751	87.94
286.982	82.94
287.213	79.94
287.444	78.94
287.675	82.94
287.906	88.94
288.138	87.94
288.369	99.94
288.6	83.94
288.831	80.94
289.062	81.94
289.293	101.94
289.524	92.94
289.755	85.94
289.986	86.94
290.217	96.94
290.448	99.94
290.679	97.94
290.91	92.94
291.141	99.94
291.371	86.94
291.602	85.94
291.833	94.94
292.064	97.94
292.295	105.94
292.526	94.94
292.757	91.94
292.987	92.94
293.218	90.94
293.449	87.94
293.68	83.94
293.91	77.94
294.141	96.94
294.372	95.94
294.603	79.94
294.833	99.94
295.064	101.94
295.295	97.94
295.525	92.94
295.756	94.94
295.987	107.94
296.217	136.94
296.448	130.94
296.679	93.94
296.909	90.94
297.14	75.94
297.37	80.94
297.601	93.94
297.831	88.94
298.062	88.94
298.292	86.94
298.523	102.94
298.753	93.94
298.984	85.94
299.214	77.94
299.445	87.94
299.675	103.94
299.905	100.94
300.136	97.94
300.366	79.94
300.597	87.94
300.827	70.94
301.057	93.94
301.288	108.94
301.518	95.94
301.748	92.94
301.979	106.94
302.209	97.94
302.439	91.94
302.669	103.94
302.9	94.94
303.13	87.94
303.36	95.94
303.59	102.94
303.82	98.94
304.051	94.94
304.281	97.94
304.511	93.94
304.741	107.94
304.971	102.94
305.201	71.94
305.431	98.94
305.661	98.94
305.891	98.94
306.121	98.94
306.352	98.94
306.582	102.94
306.812	98.94
307.042	102.94
307.272	92.94
307.502	103.94
307.731	91.94
307.961	97.94
308.191	99.94
308.421	83.94
308.651	81.94
308.881	95.94
309.111	92.94
309.341	93.94
309.571	107.94
309.8	92.94
310.03	116.94
310.26	84.94
310.49	95.94
310.72	82.94
310.949	112.94
311.179	109.94
311.409	109.94
311.639	90.94
311.868	90.94
312.098	92.94
312.328	109.94
312.557	98.94
312.787	107.94
313.017	97.94
313.246	95.94
313.476	100.94
313.706	95.94
313.935	93.94
314.165	94.94
314.394	108.94
314.624	111.94
314.853	88.94
315.083	100.94
315.312	89.94
315.542	88.94
315.771	82.94
316.001	92.94
316.23	96.94
316.46	83.94
316.689	108.94
316.919	90.94
317.148	97.94
317.377	82.94
317.607	106.94
317.836	91.94
318.065	90.94
318.295	94.94
318.524	102.94
318.753	98.94
318.983	66.94
319.212	97.94
319.441	105.94
319.67	100.94
319.9	101.94
320.129	91.94
320.358	105.94
320.587	94.94
320.816	89.94
321.046	105.94
321.275	96.94
321.504	98.94
321.733	78.94
321.962	84.94
322.191	93.94
322.42	101.94
322.649	98.94
322.878	108.94
323.108	96.94
323.337	110.94
323.566	127.94
323.795	142.94
324.024	185.94
324.253	338.94
324.482	693.94
324.71	1425.94
324.939	1910.94
325.168	709.94
325.397	233.94
325.626	141.94
325.855	132.94
326.084	127.94
326.313	134.94
326.542	124.94
326.77	218.94
326.999	389.94
327.228	764.94
327.457	1378.94
327.686	1130.94
327.914	324.94
328.143	188.94
328.372	151.94
328.6	129.94
328.829	115.94
329.058	120.94
329.287	123.94
329.515	122.94
329.744	109.94
329.972	115.94
330.201	116.94
330.43	141.94
330.658	127.94
330.887	131.94
331.115	126.94
331.344	94.94
331.572	92.94
331.801	103.94
332.03	90.94
332.258	94.94
332.486	79.94
332.715	104.94
332.943	101.94
333.172	105.94
333.4	90.94
333.629	98.94
333.857	108.94
334.085	111.94
334.314	118.94
334.542	143.94
334.771	138.94
334.999	102.94
335.227	92.94
335.455	89.94
335.684	84.94
335.912	104.94
336.14	86.94
336.369	87.94
336.597	105.94
336.825	113.94
337.053	94.94
337.281	93.94
337.51	84.94
337.738	87.94
337.966	76.94
338.194	91.94
338.422	107.94
338.65	100.94
338.878	108.94
339.106	95.94
339.334	90.94
339.562	101.94
339.79	109.94
340.018	98.94
340.246	78.94
340.474	103.94
340.702	85.94
340.93	87.94
341.158	93.94
341.386	97.94
341.614	97.94
341.842	111.94
342.07	107.94
342.298	95.94
342.526	88.94
342.754	91.94
342.981	94.94
343.209	88.94
343.437	100.94
343.665	90.94
343.893	91.94
344.12	93.94
344.348	89.94
344.576	90.94
344.804	107.94
345.031	110.94
345.259	99.94
345.487	74.94
345.714	95.94
345.942	97.94
346.17	94.94
346.397	98.94
346.625	98.94
346.853	88.94
347.08	79.94
347.308	94.94
347.535	91.94
347.763	89.94
347.99	104.94
348.218	90.94
348.445	107.94
348.673	81.94
348.9	96.94
349.128	103.94
349.355	102.94
349.583	93.94
349.81	88.94
350.037	82.94
350.265	105.94
350.492	102.94
350.72	96.94
350.947	94.94
351.174	95.94
351.402	112.94
351.629	102.94
351.856	99.94
352.083	119.94
352.311	111.94
352.538	116.94
352.765	124.94
352.992	116.94
353.22	108.94
353.447	102.94
353.674	104.94
353.901	79.94
354.128	99.94
354.355	85.94
354.583	97.94
354.81	86.94
355.037	99.94
355.264	100.94
355.491	95.94
355.718	94.94
355.945	116.94
356.172	86.94
356.399	87.94
356.626	87.94
356.853	95.94
357.08	87.94
357.307	86.94
357.534	86.94
357.761	100.94
357.988	101.94
358.215	89.94
358.441	113.94
358.668	88.94
358.895	95.94
359.122	100.94
359.349	79.94
359.576	89.94
359.802	107.94
360.029	104.94
360.256	126.94
360.483	97.94
360.709	89.94
360.936	93.94
361.163	88.94
361.39	92.94
361.616	94.94
361.843	95.94
362.07	91.94
362.296	101.94
362.523	82.94
362.749	83.94
362.976	92.94
363.203	89.94
363.429	85.94
363.656	94.94
363.882	81.94
364.109	98.94
364.335	94.94
364.562	101.94
364.788	76.94
365.015	92.94
365.241	73.94
365.468	96.94
365.694	84.94
365.92	98.94
366.147	98.94
366.373	85.94
366.599	92.94
366.826	90.94
367.052	83.94
367.278	87.94
367.505	90.94
367.731	93.94
367.957	84.94
368.184	95.94
368.41	97.94
368.636	104.94
368.862	99.94
369.089	106.94
369.315	96.94
369.541	98.94
369.767	92.94
369.993	92.94
370.219	89.94
370.445	88.94
370.672	90.94
370.898	87.94
371.124	100.94
371.35	96.94
371.576	94.94
371.802	84.94
372.028	93.94
372.254	86.94
372.48	78.94
372.706	103.94
372.932	93.94
373.158	91.94
373.384	88.94
373.61	97.94
373.835	99.94
374.061	93.94
374.287	90.94
374.513	105.94
374.739	83.94
374.965	87.94
375.191	86.94
375.416	95.94
375.642	94.94
375.868	82.94
376.094	87.94
376.319	86.94
376.545	109.94
376.771	95.94
376.997	85.94
377.222	100.94
377.448	109.94
377.674	90.94
377.899	89.94
378.125	81.94
378.35	101.94
378.576	102.94
378.802	89.94
379.027	100.94
379.253	95.94
379.478	82.94
379.704	92.94
379.929	92.94
380.155	96.94
380.38	105.94
380.606	96.94
380.831	96.94
381.057	89.94
381.282	79.94
381.507	101.94
381.733	93.94
381.958	98.94
382.184	111.94
382.409	97.94
382.634	105.94
382.86	100.94
383.085	81.94
383.31	101.94
383.535	95.94
383.761	83.94
383.986	107.94
384.211	98.94
384.436	82.94
384.662	98.94
384.887	110.94
385.112	107.94
385.337	107.94
385.562	86.94
385.787	104.94
386.013	116.94
386.238	115.94
386.463	100.94
386.688	105.94
386.913	78.94
387.138	104.94
387.363	102.94
387.588	111.94
387.813	103.94
388.038	113.94
388.263	108.94
388.488	106.94
388.713	89.94
388.938	98.94
389.163	82.94
389.387	102.94
389.612	94.94
389.837	96.94
390.062	91.94
390.287	101.94
390.512	91.94
390.736	99.94
390.961	99.94
391.186	97.94
391.411	95.94
391.636	89.94
391.86	93.94
392.085	95.94
392.31	84.94
392.534	99.94
392.759	98.94
392.984	80.94
393.208	81.94
393.433	103.94
393.658	103.94
393.882	85.94
394.107	94.94
394.331	92.94
394.556	83.94
394.78	98.94
395.005	84.94
395.229	94.94
395.454	85.94
395.678	91.94
395.903	84.94
396.127	93.94
396.352	75.94
396.576	101.94
396.801	101.94
397.025	87.94
397.249	89.94
397.474	87.94
397.698	78.94
397.922	95.94
398.147	99.94
398.371	91.94
398.595	94.94
398.82	83.94
399.044	93.94
399.268	87.94
399.492	87.94
399.717	90.94
399.941	105.94
400.165	85.94
400.389	84.94
400.613	89.94
400.837	89.94
401.062	87.94
401.286	102.94
401.51	90.94
401.734	99.94
401.958	96.94
402.182	119.94
402.406	141.94
402.63	108.94
402.854	91.94
403.078	82.94
403.302	77.94
403.526	90.94
403.75	103.94
403.974	91.94
404.198	90.94
404.422	89.94
404.645	106.94
404.869	91.94
405.093	94.94
405.317	101.94
405.541	93.94
405.765	98.94
405.988	119.94
406.212	158.94
406.436	218.94
406.66	135.94
406.883	107.94
407.107	90.94
407.331	97.94
407.555	98.94
407.778	101.94
408.002	105.94
408.226	93.94
408.449	89.94
408.673	91.94
408.896	85.94
409.12	91.94
409.344	89.94
409.567	101.94
409.791	79.94
410.014	103.94
410.238	89.94
410.461	86.94
410.685	98.94
410.908	96.94
411.132	98.94
411.355	100.94
411.578	98.94
411.802	94.94
412.025	84.94
412.249	99.94
412.472	88.94
412.695	103.94
412.919	97.94
413.142	84.94
413.365	89.94
413.589	110.94
413.812	103.94
414.035	100.94
414.258	84.94
414.482	88.94
414.705	76.94
414.928	95.94
415.151	97.94
415.374	84.94
415.597	86.94
415.821	90.94
416.044	83.94
416.267	84.94
416.49	86.94
416.713	67.94
416.936	85.94
417.159	92.94
417.382	93.94
417.605	95.94
417.828	93.94
418.051	103.94
418.274	93.94
418.497	101.94
418.72	85.94
418.943	84.94
419.166	83.94
419.389	76.94
419.611	81.94
419.834	82.94
420.057	95.94
420.28	80.94
420.503	95.94
420.726	90.94
420.948	79.94
421.171	100.94
421.394	83.94
421.617	99.94
421.839	110.94
422.062	99.94
422.285	87.94
422.507	99.94
422.73	101.94
422.953	91.94
423.175	94.94
423.398	78.94
423.621	74.94
423.843	74.94
424.066	88.94
424.288	88.94
424.511	93.94
424.733	100.94
424.956	101.94
425.178	114.94
425.401	93.94
425.623	96.94
425.846	88.94
426.068	111.94
426.291	82.94
426.513	87.94
426.735	84.94
426.958	100.94
427.18	105.94
427.402	133.94
427.625	152.94
427.847	130.94
428.069	105.94
428.292	105.94
428.514	90.94
428.736	86.94
428.958	91.94
429.181	84.94
429.403	91.94
429.625	95.94
429.847	92.94
430.069	90.94
430.292	92.94
430.514	85.94
430.736	79.94
430.958	93.94
431.18	88.94
431.402	85.94
431.624	77.94
431.846	95.94
432.068	86.94
432.29	78.94
432.512	93.94
432.734	90.94
432.956	86.94
433.178	94.94
433.4	107.94
433.622	94.94
433.844	76.94
434.066	98.94
434.287	80.94
434.509	99.94
434.731	89.94
434.953	115.94
435.175	96.94
435.397	100.94
435.618	93.94
435.84	109.94
436.062	104.94
436.284	117.94
436.505	110.94
436.727	82.94
436.949	93.94
437.17	102.94
437.392	89.94
437.614	101.94
437.835	105.94
438.057	118.94
438.278	108.94
438.5	90.94
438.721	110.94
438.943	100.94
439.165	87.94
439.386	76.94
439.608	97.94
439.829	103.94
440.05	117.94
440.272	141.94
440.493	83.94
440.715	93.94
440.936	89.94
441.158	76.94
441.379	79.94
441.6	92.94
441.822	100.94
442.043	84.94
442.264	96.94
442.486	80.94
442.707	86.94
442.928	107.94
443.149	115.94
443.371	112.94
443.592	105.94
443.813	106.94
444.034	108.94
444.255	95.94
444.476	96.94
444.698	83.94
444.919	93.94
445.14	128.94
445.361	117.94
445.582	120.94
445.803	130.94
446.024	132.94
446.245	131.94
446.466	106.94
446.687	89.94
446.908	84.94
447.129	81.94
447.35	94.94
447.571	95.94
447.792	90.94
448.013	108.94
448.234	114.94
448.455	95.94
448.675	121.94
448.896	110.94
449.117	103.94
449.338	89.94
449.559	103.94
449.779	137.94
450	96.94
450.221	86.94
450.442	88.94
450.662	93.94
450.883	108.94
451.104	118.94
451.324	110.94
451.545	94.94
451.766	81.94
451.986	85.94
452.207	89.94
452.428	89.94
452.648	102.94
452.869	117.94
453.089	95.94
453.31	110.94
453.53	90.94
453.751	89.94
453.971	95.94
454.192	109.94
454.412	105.94
454.633	97.94
454.853	99.94
455.073	82.94
455.294	74.94
455.514	94.94
455.734	80.94
455.955	85.94
456.175	87.94
456.395	102.94
456.616	86.94
456.836	87.94
457.056	97.94
457.276	80.94
457.497	77.94
457.717	71.94
457.937	93.94
458.157	85.94
458.377	95.94
458.598	101.94
458.818	131.94
459.038	146.94
459.258	115.94
459.478	90.94
459.698	83.94
459.918	87.94
460.138	93.94
460.358	84.94
460.578	85.94
460.798	102.94
461.018	77.94
461.238	65.94
461.458	81.94
461.678	83.94
461.898	97.94
462.118	85.94
462.338	93.94
462.558	80.94
462.777	102.94
462.997	86.94
463.217	77.94
463.437	83.94
463.657	78.94
463.876	83.94
464.096	93.94
464.316	99.94
464.536	87.94
464.755	94.94
464.975	97.94
465.195	155.94
465.414	144.94
465.634	95.94
465.854	87.94
466.073	87.94
466.293	94.94
466.512	77.94
466.732	93.94
466.951	85.94
467.171	85.94
467.391	101.94
467.61	125.94
467.829	99.94
468.049	109.94
468.268	117.94
468.488	89.94
468.707	92.94
468.927	91.94
469.146	87.94
469.365	84.94
469.585	84.94
469.804	88.94
470.023	121.94
470.243	94.94
470.462	96.94
470.681	109.94
470.901	101.94
471.12	87.94
471.339	95.94
471.558	81.94
471.777	79.94
471.997	97.94
472.216	111.94
472.435	133.94
472.654	106.94
472.873	97.94
473.092	88.94
473.311	79.94
473.53	92.94
473.749	93.94
473.968	100.94
474.187	97.94
474.406	91.94
474.625	73.94
474.844	83.94
475.063	97.94
475.282	80.94
475.501	82.94
475.72	78.94
475.939	90.94
476.158	94.94
476.377	91.94
476.596	88.94
476.814	93.94
477.033	96.94
477.252	93.94
477.471	86.94
477.69	86.94
477.908	94.94
478.127	90.94
478.346	86.94
478.564	81.94
478.783	92.94
479.002	107.94
479.22	91.94
479.439	100.94
479.658	99.94
479.876	91.94
480.095	85.94
480.313	85.94
480.532	83.94
480.751	109.94
480.969	114.94
481.188	203.94
481.406	163.94
481.624	95.94
481.843	92.94
482.061	86.94
482.28	95.94
482.498	88.94
482.717	80.94
482.935	96.94
483.153	83.94
483.372	84.94
483.59	89.94
483.808	83.94
484.027	80.94
484.245	90.94
484.463	89.94
484.681	95.94
484.9	92.94
485.118	89.94
485.336	96.94
485.554	90.94
485.772	93.94
485.99	96.94
486.209	113.94
486.427	106.94
486.645	99.94
486.863	111.94
487.081	109.94
487.299	115.94
487.517	93.94
487.735	101.94
487.953	92.94
488.171	97.94
488.389	91.94
488.607	103.94
488.825	79.94
489.043	97.94
489.261	100.94
489.479	86.94
489.696	101.94
489.914	82.94
490.132	105.94
490.35	91.94
490.568	101.94
490.786	103.94
491.003	85.94
491.221	98.94
491.439	86.94
491.657	102.94
491.874	80.94
492.092	85.94
492.31	94.94
492.527	86.94
492.745	87.94
492.963	86.94
493.18	75.94
493.398	99.94
493.615	93.94
493.833	90.94
494.05	82.94
494.268	84.94
494.485	91.94
494.703	79.94
494.92	95.94
495.138	90.94
495.355	95.94
495.573	90.94
495.79	90.94
496.008	81.94
496.225	79.94
496.442	95.94
496.66	96.94
496.877	95.94
497.094	93.94
497.312	92.94
497.529	95.94
497.746	99.94
497.963	94.94
498.181	102.94
498.398	110.94
498.615	117.94
498.832	98.94
499.049	90.94
499.267	92.94
499.484	77.94
499.701	89.94
499.918	83.94
500.135	78.94
500.352	108.94
500.569	89.94
500.786	88.94
501.003	99.94
501.22	90.94
501.437	91.94
501.654	90.94
501.871	100.94
502.088	92.94
502.305	86.94
502.522	69.94
502.739	85.94
502.956	90.94
503.172	97.94
503.389	103.94
503.606	117.94
503.823	90.94
504.04	84.94
504.256	97.94
504.473	68.94
504.69	84.94
504.907	91.94
505.123	105.94
505.34	89.94
505.557	91.94
505.773	85.94
505.99	84.94
506.207	89.94
506.423	84.94
506.64	91.94
506.856	92.94
507.073	73.94
507.289	86.94
507.506	93.94
507.722	106.94
507.939	101.94
508.155	98.94
508.372	96.94
508.588	92.94
508.805	77.94
509.021	86.94
509.238	108.94
509.454	102.94
509.67	89.94
509.887	127.94
510.103	130.94
510.319	198.94
510.536	766.94
510.752	2421.94
510.968	667.94
511.184	158.94
511.401	122.94
511.617	100.94
511.833	89.94
512.049	102.94
512.265	89.94
512.481	111.94
512.698	91.94
512.914	83.94
513.13	97.94
513.346	99.94
513.562	106.94
513.778	105.94
513.994	97.94
514.21	99.94
514.426	113.94
514.642	125.94
514.858	111.94
515.074	156.94
515.29	428.94
