Data from Circ_1994_H10_HRD10591_00081.txt Node
Date: Wed Jan 03 11:40:46 EST 2024
User: Yrep
Spectrometer: HR+D1059
Trigger mode: 1
Integration Time (sec): 1.000000E-1
Scans to average: 1
Electric dark correction enabled: true
Nonlinearity correction enabled: false
Boxcar width: 0
XAxis mode: Wavelengths
Number of Pixels in Spectrum: 2048
>>>>>Begin Spectral Data<<<<<
223.165	-15.69
223.4	-15.69
223.635	-15.69
223.869	-18.69
224.104	-14.69
224.338	-25.69
224.573	-15.69
224.808	-5.69
225.042	2.31
225.277	-8.69
225.511	-15.69
225.746	7.31
225.98	10.31
226.215	23.31
226.449	-0.69
226.683	15.31
226.918	30.31
227.152	32.31
227.387	30.31
227.621	25.31
227.856	48.31
228.09	53.31
228.324	53.31
228.559	53.31
228.793	62.31
229.027	61.31
229.262	67.31
229.496	67.31
229.73	73.31
229.964	68.31
230.199	67.31
230.433	82.31
230.667	83.31
230.901	81.31
231.136	81.31
231.37	86.31
231.604	89.31
231.838	92.31
232.072	78.31
232.306	73.31
232.541	82.31
232.775	91.31
233.009	70.31
233.243	83.31
233.477	74.31
233.711	85.31
233.945	76.31
234.179	84.31
234.413	82.31
234.647	78.31
234.881	77.31
235.115	80.31
235.349	85.31
235.583	88.31
235.817	76.31
236.051	96.31
236.285	74.31
236.519	74.31
236.753	74.31
236.987	91.31
237.221	86.31
237.455	86.31
237.689	81.31
237.922	80.31
238.156	70.31
238.39	74.31
238.624	84.31
238.858	80.31
239.091	83.31
239.325	81.31
239.559	79.31
239.793	84.31
240.027	90.31
240.26	72.31
240.494	67.31
240.728	60.31
240.961	88.31
241.195	68.31
241.429	76.31
241.662	73.31
241.896	75.31
242.13	74.31
242.363	69.31
242.597	67.31
242.83	70.31
243.064	74.31
243.298	75.31
243.531	80.31
243.765	70.31
243.998	73.31
244.232	80.31
244.465	80.31
244.699	90.31
244.932	76.31
245.166	78.31
245.399	85.31
245.633	69.31
245.866	75.31
246.099	69.31
246.333	85.31
246.566	67.31
246.8	106.31
247.033	81.31
247.266	77.31
247.5	85.31
247.733	73.31
247.966	57.31
248.2	78.31
248.433	68.31
248.666	83.31
248.899	75.31
249.133	88.31
249.366	89.31
249.599	90.31
249.832	86.31
250.066	86.31
250.299	85.31
250.532	83.31
250.765	74.31
250.998	78.31
251.231	73.31
251.465	78.31
251.698	80.31
251.931	78.31
252.164	81.31
252.397	104.31
252.63	72.31
252.863	79.31
253.096	91.31
253.329	89.31
253.562	83.31
253.795	95.31
254.028	77.31
254.261	86.31
254.494	73.31
254.727	74.31
254.96	64.31
255.193	72.31
255.426	86.31
255.659	86.31
255.892	73.31
256.124	81.31
256.357	81.31
256.59	75.31
256.823	84.31
257.056	78.31
257.289	87.31
257.521	84.31
257.754	78.31
257.987	78.31
258.22	95.31
258.452	72.31
258.685	81.31
258.918	78.31
259.151	99.31
259.383	89.31
259.616	90.31
259.849	73.31
260.081	70.31
260.314	81.31
260.547	70.31
260.779	87.31
261.012	78.31
261.244	84.31
261.477	69.31
261.71	87.31
261.942	108.31
262.175	109.31
262.407	97.31
262.64	75.31
262.872	76.31
263.105	82.31
263.337	85.31
263.57	80.31
263.802	90.31
264.035	90.31
264.267	78.31
264.499	89.31
264.732	73.31
264.964	82.31
265.197	92.31
265.429	83.31
265.661	82.31
265.894	79.31
266.126	78.31
266.358	72.31
266.591	87.31
266.823	94.31
267.055	69.31
267.287	79.31
267.52	81.31
267.752	73.31
267.984	96.31
268.216	99.31
268.448	84.31
268.681	88.31
268.913	91.31
269.145	96.31
269.377	88.31
269.609	69.31
269.841	80.31
270.073	89.31
270.306	85.31
270.538	87.31
270.77	87.31
271.002	100.31
271.234	78.31
271.466	85.31
271.698	93.31
271.93	83.31
272.162	79.31
272.394	98.31
272.626	86.31
272.858	84.31
273.09	86.31
273.322	84.31
273.553	87.31
273.785	77.31
274.017	74.31
274.249	79.31
274.481	86.31
274.713	97.31
274.945	82.31
275.176	88.31
275.408	64.31
275.64	69.31
275.872	97.31
276.104	91.31
276.335	89.31
276.567	98.31
276.799	110.31
277.031	101.31
277.262	98.31
277.494	91.31
277.726	86.31
277.957	67.31
278.189	87.31
278.421	81.31
278.652	98.31
278.884	81.31
279.115	60.31
279.347	83.31
279.579	91.31
279.81	73.31
280.042	81.31
280.273	96.31
280.505	85.31
280.736	82.31
280.968	87.31
281.199	82.31
281.431	74.31
281.662	86.31
281.894	82.31
282.125	94.31
282.356	109.31
282.588	146.31
282.819	110.31
283.051	92.31
283.282	99.31
283.513	94.31
283.745	90.31
283.976	82.31
284.207	83.31
284.439	74.31
284.67	73.31
284.901	85.31
285.132	86.31
285.364	78.31
285.595	85.31
285.826	91.31
286.057	83.31
286.288	97.31
286.52	85.31
286.751	101.31
286.982	91.31
287.213	83.31
287.444	93.31
287.675	100.31
287.906	75.31
288.138	85.31
288.369	88.31
288.6	96.31
288.831	77.31
289.062	80.31
289.293	98.31
289.524	68.31
289.755	83.31
289.986	77.31
290.217	83.31
290.448	82.31
290.679	95.31
290.91	102.31
291.141	94.31
291.371	85.31
291.602	80.31
291.833	75.31
292.064	104.31
292.295	104.31
292.526	91.31
292.757	101.31
292.987	80.31
293.218	79.31
293.449	79.31
293.68	80.31
293.91	79.31
294.141	88.31
294.372	88.31
294.603	95.31
294.833	77.31
295.064	88.31
295.295	100.31
295.525	89.31
295.756	82.31
295.987	97.31
296.217	119.31
296.448	121.31
296.679	106.31
296.909	83.31
297.14	77.31
297.37	86.31
297.601	88.31
297.831	90.31
298.062	97.31
298.292	86.31
298.523	102.31
298.753	92.31
298.984	91.31
299.214	89.31
299.445	91.31
299.675	96.31
299.905	83.31
300.136	70.31
300.366	100.31
300.597	91.31
300.827	94.31
301.057	101.31
301.288	114.31
301.518	95.31
301.748	97.31
301.979	111.31
302.209	97.31
302.439	92.31
302.669	94.31
302.9	90.31
303.13	85.31
303.36	92.31
303.59	90.31
303.82	94.31
304.051	98.31
304.281	85.31
304.511	92.31
304.741	91.31
304.971	104.31
305.201	85.31
305.431	94.31
305.661	78.31
305.891	81.31
306.121	90.31
306.352	99.31
306.582	107.31
306.812	96.31
307.042	96.31
307.272	92.31
307.502	91.31
307.731	98.31
307.961	88.31
308.191	93.31
308.421	88.31
308.651	79.31
308.881	81.31
309.111	103.31
309.341	105.31
309.571	92.31
309.8	76.31
310.03	86.31
310.26	93.31
310.49	93.31
310.72	97.31
310.949	86.31
311.179	97.31
311.409	104.31
311.639	88.31
311.868	100.31
312.098	86.31
312.328	90.31
312.557	99.31
312.787	87.31
313.017	101.31
313.246	90.31
313.476	81.31
313.706	94.31
313.935	94.31
314.165	105.31
314.394	103.31
314.624	98.31
314.853	102.31
315.083	88.31
315.312	78.31
315.542	80.31
315.771	105.31
316.001	102.31
316.23	96.31
316.46	80.31
316.689	96.31
316.919	97.31
317.148	86.31
317.377	91.31
317.607	89.31
317.836	89.31
318.065	91.31
318.295	81.31
318.524	109.31
318.753	92.31
318.983	98.31
319.212	107.31
319.441	104.31
319.67	93.31
319.9	85.31
320.129	86.31
320.358	92.31
320.587	84.31
320.816	102.31
321.046	99.31
321.275	101.31
321.504	101.31
321.733	98.31
321.962	97.31
322.191	102.31
322.42	98.31
322.649	83.31
322.878	96.31
323.108	113.31
323.337	122.31
323.566	140.31
323.795	136.31
324.024	194.31
324.253	352.31
324.482	722.31
324.71	1424.31
324.939	1894.31
325.168	732.31
325.397	230.31
325.626	157.31
325.855	123.31
326.084	117.31
326.313	119.31
326.542	149.31
326.77	227.31
326.999	404.31
327.228	819.31
327.457	1419.31
327.686	1169.31
327.914	344.31
328.143	184.31
328.372	171.31
328.6	139.31
328.829	122.31
329.058	109.31
329.287	110.31
329.515	112.31
329.744	108.31
329.972	122.31
330.201	152.31
330.43	194.31
330.658	142.31
330.887	136.31
331.115	110.31
331.344	94.31
331.572	100.31
331.801	100.31
332.03	97.31
332.258	100.31
332.486	86.31
332.715	82.31
332.943	95.31
333.172	101.31
333.4	88.31
333.629	99.31
333.857	104.31
334.085	116.31
334.314	172.31
334.542	222.31
334.771	208.31
334.999	127.31
335.227	101.31
335.455	111.31
335.684	102.31
335.912	92.31
336.14	102.31
336.369	92.31
336.597	115.31
336.825	108.31
337.053	102.31
337.281	88.31
337.51	86.31
337.738	81.31
337.966	89.31
338.194	96.31
338.422	95.31
338.65	96.31
338.878	100.31
339.106	83.31
339.334	99.31
339.562	91.31
339.79	92.31
340.018	92.31
340.246	94.31
340.474	96.31
340.702	104.31
340.93	94.31
341.158	93.31
341.386	91.31
341.614	96.31
341.842	82.31
342.07	97.31
342.298	80.31
342.526	94.31
342.754	88.31
342.981	89.31
343.209	107.31
343.437	107.31
343.665	91.31
343.893	81.31
344.12	87.31
344.348	97.31
344.576	86.31
344.804	79.31
345.031	90.31
345.259	97.31
345.487	105.31
345.714	93.31
345.942	92.31
346.17	87.31
346.397	92.31
346.625	92.31
346.853	95.31
347.08	92.31
347.308	88.31
347.535	110.31
347.763	96.31
347.99	95.31
348.218	113.31
348.445	105.31
348.673	90.31
348.9	85.31
349.128	100.31
349.355	82.31
349.583	96.31
349.81	84.31
350.037	94.31
350.265	99.31
350.492	96.31
350.72	78.31
350.947	106.31
351.174	114.31
351.402	105.31
351.629	112.31
351.856	91.31
352.083	91.31
352.311	104.31
352.538	107.31
352.765	98.31
352.992	107.31
353.22	111.31
353.447	105.31
353.674	102.31
353.901	94.31
354.128	100.31
354.355	100.31
354.583	93.31
354.81	94.31
355.037	104.31
355.264	93.31
355.491	86.31
355.718	85.31
355.945	92.31
356.172	94.31
356.399	84.31
356.626	93.31
356.853	82.31
357.08	97.31
357.307	89.31
357.534	88.31
357.761	76.31
357.988	83.31
358.215	93.31
358.441	89.31
358.668	100.31
358.895	96.31
359.122	97.31
359.349	99.31
359.576	91.31
359.802	100.31
360.029	112.31
360.256	109.31
360.483	95.31
360.709	89.31
360.936	98.31
361.163	96.31
361.39	97.31
361.616	95.31
361.843	85.31
362.07	92.31
362.296	88.31
362.523	81.31
362.749	86.31
362.976	96.31
363.203	88.31
363.429	86.31
363.656	100.31
363.882	96.31
364.109	89.31
364.335	100.31
364.562	96.31
364.788	90.31
365.015	84.31
365.241	93.31
365.468	96.31
365.694	95.31
365.92	96.31
366.147	92.31
366.373	78.31
366.599	101.31
366.826	107.31
367.052	91.31
367.278	90.31
367.505	84.31
367.731	78.31
367.957	98.31
368.184	108.31
368.41	98.31
368.636	101.31
368.862	100.31
369.089	91.31
369.315	100.31
369.541	101.31
369.767	93.31
369.993	90.31
370.219	88.31
370.445	101.31
370.672	76.31
370.898	83.31
371.124	72.31
371.35	86.31
371.576	77.31
371.802	85.31
372.028	80.31
372.254	73.31
372.48	76.31
372.706	83.31
372.932	82.31
373.158	81.31
373.384	92.31
373.61	85.31
373.835	74.31
374.061	80.31
374.287	87.31
374.513	100.31
374.739	106.31
374.965	73.31
375.191	82.31
375.416	83.31
375.642	89.31
375.868	91.31
376.094	92.31
376.319	85.31
376.545	91.31
376.771	90.31
376.997	93.31
377.222	97.31
377.448	77.31
377.674	89.31
377.899	87.31
378.125	92.31
378.35	86.31
378.576	90.31
378.802	94.31
379.027	83.31
379.253	99.31
379.478	92.31
379.704	83.31
379.929	91.31
380.155	88.31
380.38	91.31
380.606	94.31
380.831	97.31
381.057	95.31
381.282	83.31
381.507	88.31
381.733	91.31
381.958	89.31
382.184	99.31
382.409	89.31
382.634	92.31
382.86	99.31
383.085	98.31
383.31	90.31
383.535	107.31
383.761	90.31
383.986	107.31
384.211	94.31
384.436	98.31
384.662	89.31
384.887	96.31
385.112	90.31
385.337	100.31
385.562	103.31
385.787	106.31
386.013	101.31
386.238	98.31
386.463	92.31
386.688	104.31
386.913	93.31
387.138	100.31
387.363	99.31
387.588	98.31
387.813	90.31
388.038	90.31
388.263	105.31
388.488	106.31
388.713	80.31
388.938	92.31
389.163	94.31
389.387	98.31
389.612	98.31
389.837	98.31
390.062	77.31
390.287	96.31
390.512	82.31
390.736	97.31
390.961	84.31
391.186	97.31
391.411	102.31
391.636	96.31
391.86	85.31
392.085	90.31
392.31	90.31
392.534	96.31
392.759	86.31
392.984	94.31
393.208	82.31
393.433	81.31
393.658	99.31
393.882	78.31
394.107	81.31
394.331	93.31
394.556	82.31
394.78	91.31
395.005	88.31
395.229	79.31
395.454	96.31
395.678	71.31
395.903	77.31
396.127	85.31
396.352	100.31
396.576	90.31
396.801	99.31
397.025	79.31
397.249	77.31
397.474	81.31
397.698	92.31
397.922	82.31
398.147	103.31
398.371	88.31
398.595	85.31
398.82	78.31
399.044	77.31
399.268	85.31
399.492	78.31
399.717	90.31
399.941	102.31
400.165	105.31
400.389	89.31
400.613	85.31
400.837	86.31
401.062	67.31
401.286	91.31
401.51	91.31
401.734	106.31
401.958	77.31
402.182	129.31
402.406	148.31
402.63	116.31
402.854	85.31
403.078	81.31
403.302	90.31
403.526	83.31
403.75	82.31
403.974	89.31
404.198	92.31
404.422	90.31
404.645	90.31
404.869	94.31
405.093	72.31
405.317	106.31
405.541	111.31
405.765	94.31
405.988	126.31
406.212	165.31
406.436	194.31
406.66	137.31
406.883	102.31
407.107	90.31
407.331	94.31
407.555	100.31
407.778	90.31
408.002	104.31
408.226	84.31
408.449	90.31
408.673	75.31
408.896	94.31
409.12	80.31
409.344	97.31
409.567	86.31
409.791	93.31
410.014	98.31
410.238	97.31
410.461	85.31
410.685	81.31
410.908	98.31
411.132	103.31
411.355	100.31
411.578	104.31
411.802	97.31
412.025	89.31
412.249	88.31
412.472	98.31
412.695	89.31
412.919	93.31
413.142	88.31
413.365	88.31
413.589	96.31
413.812	88.31
414.035	102.31
414.258	89.31
414.482	88.31
414.705	100.31
414.928	107.31
415.151	96.31
415.374	93.31
415.597	84.31
415.821	99.31
416.044	88.31
416.267	100.31
416.49	82.31
416.713	83.31
416.936	92.31
417.159	97.31
417.382	80.31
417.605	86.31
417.828	94.31
418.051	100.31
418.274	81.31
418.497	101.31
418.72	82.31
418.943	88.31
419.166	83.31
419.389	85.31
419.611	94.31
419.834	82.31
420.057	86.31
420.28	84.31
420.503	96.31
420.726	77.31
420.948	85.31
421.171	82.31
421.394	92.31
421.617	91.31
421.839	83.31
422.062	91.31
422.285	100.31
422.507	108.31
422.73	93.31
422.953	88.31
423.175	81.31
423.398	83.31
423.621	74.31
423.843	85.31
424.066	75.31
424.288	83.31
424.511	101.31
424.733	88.31
424.956	94.31
425.178	97.31
425.401	96.31
425.623	88.31
425.846	98.31
426.068	88.31
426.291	83.31
426.513	97.31
426.735	93.31
426.958	94.31
427.18	97.31
427.402	126.31
427.625	172.31
427.847	138.31
428.069	113.31
428.292	100.31
428.514	94.31
428.736	84.31
428.958	92.31
429.181	80.31
429.403	84.31
429.625	85.31
429.847	91.31
430.069	89.31
430.292	94.31
430.514	80.31
430.736	84.31
430.958	87.31
431.18	95.31
431.402	92.31
431.624	76.31
431.846	89.31
432.068	97.31
432.29	96.31
432.512	99.31
432.734	84.31
432.956	81.31
433.178	100.31
433.4	91.31
433.622	88.31
433.844	80.31
434.066	82.31
434.287	96.31
434.509	91.31
434.731	96.31
434.953	96.31
435.175	93.31
435.397	98.31
435.618	86.31
435.84	98.31
436.062	117.31
436.284	100.31
436.505	104.31
436.727	99.31
436.949	95.31
437.17	81.31
437.392	98.31
437.614	103.31
437.835	97.31
438.057	118.31
438.278	108.31
438.5	99.31
438.721	120.31
438.943	108.31
439.165	101.31
439.386	101.31
439.608	99.31
439.829	94.31
440.05	102.31
440.272	134.31
440.493	94.31
440.715	82.31
440.936	91.31
441.158	96.31
441.379	92.31
441.6	98.31
441.822	83.31
442.043	80.31
442.264	95.31
442.486	96.31
442.707	101.31
442.928	92.31
443.149	118.31
443.371	111.31
443.592	98.31
443.813	108.31
444.034	102.31
444.255	82.31
444.476	97.31
444.698	89.31
444.919	89.31
445.14	138.31
445.361	116.31
445.582	96.31
445.803	127.31
446.024	125.31
446.245	116.31
446.466	91.31
446.687	102.31
446.908	93.31
447.129	92.31
447.35	108.31
447.571	91.31
447.792	89.31
448.013	97.31
448.234	105.31
448.455	114.31
448.675	116.31
448.896	111.31
449.117	99.31
449.338	96.31
449.559	124.31
449.779	114.31
450	96.31
450.221	90.31
450.442	93.31
450.662	80.31
450.883	100.31
451.104	116.31
451.324	96.31
451.545	91.31
451.766	89.31
451.986	80.31
452.207	96.31
452.428	90.31
452.648	96.31
452.869	122.31
453.089	113.31
453.31	116.31
453.53	98.31
453.751	78.31
453.971	92.31
454.192	102.31
454.412	90.31
454.633	73.31
454.853	82.31
455.073	83.31
455.294	80.31
455.514	91.31
455.734	89.31
455.955	81.31
456.175	86.31
456.395	81.31
456.616	90.31
456.836	87.31
457.056	82.31
457.276	102.31
457.497	88.31
457.717	77.31
457.937	83.31
458.157	90.31
458.377	85.31
458.598	105.31
458.818	131.31
459.038	152.31
459.258	118.31
459.478	72.31
459.698	87.31
459.918	92.31
460.138	96.31
460.358	91.31
460.578	73.31
460.798	78.31
461.018	86.31
461.238	80.31
461.458	92.31
461.678	80.31
461.898	89.31
462.118	72.31
462.338	90.31
462.558	85.31
462.777	82.31
462.997	96.31
463.217	86.31
463.437	80.31
463.657	84.31
463.876	75.31
464.096	81.31
464.316	89.31
464.536	89.31
464.755	104.31
464.975	108.31
465.195	143.31
465.414	146.31
465.634	90.31
465.854	79.31
466.073	109.31
466.293	84.31
466.512	87.31
466.732	83.31
466.951	89.31
467.171	97.31
467.391	86.31
467.61	100.31
467.829	100.31
468.049	133.31
468.268	137.31
468.488	96.31
468.707	92.31
468.927	97.31
469.146	82.31
469.365	90.31
469.585	94.31
469.804	88.31
470.023	83.31
470.243	99.31
470.462	94.31
470.681	115.31
470.901	96.31
471.12	76.31
471.339	90.31
471.558	86.31
471.777	93.31
471.997	85.31
472.216	171.31
472.435	283.31
472.654	117.31
472.873	90.31
473.092	85.31
473.311	84.31
473.53	82.31
473.749	92.31
473.968	85.31
474.187	107.31
474.406	92.31
474.625	85.31
474.844	87.31
475.063	85.31
475.282	96.31
475.501	88.31
475.72	89.31
475.939	83.31
476.158	95.31
476.377	101.31
476.596	90.31
476.814	81.31
477.033	84.31
477.252	96.31
477.471	86.31
477.69	92.31
477.908	85.31
478.127	93.31
478.346	90.31
478.564	79.31
478.783	95.31
479.002	82.31
479.22	85.31
479.439	91.31
479.658	112.31
479.876	96.31
480.095	86.31
480.313	104.31
480.532	93.31
480.751	112.31
480.969	174.31
481.188	444.31
481.406	272.31
481.624	110.31
481.843	82.31
482.061	81.31
482.28	100.31
482.498	85.31
482.717	100.31
482.935	98.31
483.153	100.31
483.372	91.31
483.59	92.31
483.808	83.31
484.027	89.31
484.245	99.31
484.463	84.31
484.681	106.31
484.9	104.31
485.118	96.31
485.336	98.31
485.554	87.31
485.772	91.31
485.99	98.31
486.209	107.31
486.427	97.31
486.645	117.31
486.863	122.31
487.081	97.31
487.299	105.31
487.517	97.31
487.735	98.31
487.953	100.31
488.171	82.31
488.389	89.31
488.607	98.31
488.825	94.31
489.043	97.31
489.261	97.31
489.479	88.31
489.696	97.31
489.914	93.31
490.132	91.31
490.35	91.31
490.568	80.31
490.786	100.31
491.003	100.31
491.221	86.31
491.439	90.31
491.657	100.31
491.874	95.31
492.092	85.31
492.31	88.31
492.527	70.31
492.745	90.31
492.963	95.31
493.18	95.31
493.398	85.31
493.615	93.31
493.833	75.31
494.05	93.31
494.268	92.31
494.485	98.31
494.703	94.31
494.92	92.31
495.138	95.31
495.355	92.31
495.573	92.31
495.79	81.31
496.008	81.31
496.225	79.31
496.442	76.31
496.66	103.31
496.877	95.31
497.094	112.31
497.312	105.31
497.529	94.31
497.746	94.31
497.963	91.31
498.181	89.31
498.398	100.31
498.615	106.31
498.832	101.31
499.049	86.31
499.267	113.31
499.484	84.31
499.701	104.31
499.918	94.31
500.135	97.31
500.352	87.31
500.569	102.31
500.786	88.31
501.003	81.31
501.22	93.31
501.437	82.31
501.654	78.31
501.871	105.31
502.088	86.31
502.305	78.31
502.522	93.31
502.739	102.31
502.956	91.31
503.172	86.31
503.389	94.31
503.606	85.31
503.823	81.31
504.04	95.31
504.256	94.31
504.473	87.31
504.69	101.31
504.907	91.31
505.123	84.31
505.34	75.31
505.557	90.31
505.773	84.31
505.99	95.31
506.207	85.31
506.423	97.31
506.64	94.31
506.856	80.31
507.073	95.31
507.289	90.31
507.506	90.31
507.722	114.31
507.939	117.31
508.155	96.31
508.372	101.31
508.588	101.31
508.805	84.31
509.021	95.31
509.238	94.31
509.454	96.31
509.67	95.31
509.887	109.31
510.103	130.31
510.319	197.31
510.536	721.31
510.752	2230.31
510.968	617.31
511.184	154.31
511.401	97.31
511.617	84.31
511.833	91.31
512.049	93.31
512.265	98.31
512.481	85.31
512.698	76.31
512.914	90.31
513.13	97.31
513.346	95.31
513.562	100.31
513.778	102.31
513.994	106.31
514.21	95.31
514.426	111.31
514.642	109.31
514.858	107.31
515.074	160.31
515.29	412.31
515.506	1279.31
515.721	456.31
515.937	139.31
