Data from Circ_1994_H10_HRD10591_00048.txt Node
Date: Wed Jan 03 11:40:40 EST 2024
User: Yrep
Spectrometer: HR+D1059
Trigger mode: 1
Integration Time (sec): 1.000000E-1
Scans to average: 1
Electric dark correction enabled: true
Nonlinearity correction enabled: false
Boxcar width: 0
XAxis mode: Wavelengths
Number of Pixels in Spectrum: 2048
>>>>>Begin Spectral Data<<<<<
223.165	-21.31
223.4	-21.31
223.635	-21.31
223.869	-25.31
224.104	-11.31
224.338	-4.31
224.573	-24.31
224.808	-12.31
225.042	-2.31
225.277	-6.31
225.511	-7.31
225.746	14.69
225.98	4.69
226.215	12.69
226.449	12.69
226.683	17.69
226.918	21.69
227.152	30.69
227.387	36.69
227.621	41.69
227.856	38.69
228.09	36.69
228.324	52.69
228.559	50.69
228.793	47.69
229.027	54.69
229.262	60.69
229.496	77.69
229.73	77.69
229.964	75.69
230.199	73.69
230.433	78.69
230.667	74.69
230.901	80.69
231.136	68.69
231.37	76.69
231.604	82.69
231.838	77.69
232.072	84.69
232.306	74.69
232.541	74.69
232.775	86.69
233.009	65.69
233.243	70.69
233.477	85.69
233.711	83.69
233.945	69.69
234.179	82.69
234.413	76.69
234.647	88.69
234.881	83.69
235.115	76.69
235.349	82.69
235.583	76.69
235.817	76.69
236.051	81.69
236.285	72.69
236.519	75.69
236.753	77.69
236.987	80.69
237.221	77.69
237.455	77.69
237.689	64.69
237.922	68.69
238.156	66.69
238.39	70.69
238.624	70.69
238.858	73.69
239.091	82.69
239.325	76.69
239.559	78.69
239.793	88.69
240.027	83.69
240.26	72.69
240.494	83.69
240.728	82.69
240.961	78.69
241.195	63.69
241.429	76.69
241.662	76.69
241.896	62.69
242.13	73.69
242.363	63.69
242.597	76.69
242.83	88.69
243.064	68.69
243.298	76.69
243.531	61.69
243.765	70.69
243.998	69.69
244.232	81.69
244.465	84.69
244.699	81.69
244.932	83.69
245.166	77.69
245.399	91.69
245.633	72.69
245.866	76.69
246.099	78.69
246.333	89.69
246.566	75.69
246.8	76.69
247.033	83.69
247.266	73.69
247.5	82.69
247.733	91.69
247.966	75.69
248.2	80.69
248.433	81.69
248.666	76.69
248.899	74.69
249.133	91.69
249.366	89.69
249.599	94.69
249.832	78.69
250.066	86.69
250.299	83.69
250.532	87.69
250.765	78.69
250.998	77.69
251.231	83.69
251.465	76.69
251.698	68.69
251.931	75.69
252.164	82.69
252.397	88.69
252.63	86.69
252.863	85.69
253.096	76.69
253.329	89.69
253.562	82.69
253.795	73.69
254.028	76.69
254.261	73.69
254.494	74.69
254.727	88.69
254.96	75.69
255.193	82.69
255.426	81.69
255.659	74.69
255.892	75.69
256.124	76.69
256.357	81.69
256.59	76.69
256.823	76.69
257.056	85.69
257.289	81.69
257.521	83.69
257.754	85.69
257.987	92.69
258.22	80.69
258.452	78.69
258.685	86.69
258.918	76.69
259.151	94.69
259.383	86.69
259.616	84.69
259.849	76.69
260.081	83.69
260.314	80.69
260.547	85.69
260.779	76.69
261.012	88.69
261.244	80.69
261.477	82.69
261.71	98.69
261.942	110.69
262.175	103.69
262.407	93.69
262.64	78.69
262.872	98.69
263.105	92.69
263.337	75.69
263.57	95.69
263.802	92.69
264.035	85.69
264.267	92.69
264.499	81.69
264.732	82.69
264.964	88.69
265.197	70.69
265.429	89.69
265.661	69.69
265.894	87.69
266.126	101.69
266.358	74.69
266.591	67.69
266.823	85.69
267.055	77.69
267.287	69.69
267.52	84.69
267.752	98.69
267.984	80.69
268.216	82.69
268.448	93.69
268.681	86.69
268.913	81.69
269.145	81.69
269.377	78.69
269.609	86.69
269.841	88.69
270.073	86.69
270.306	83.69
270.538	90.69
270.77	91.69
271.002	84.69
271.234	108.69
271.466	95.69
271.698	82.69
271.93	95.69
272.162	91.69
272.394	90.69
272.626	81.69
272.858	90.69
273.09	89.69
273.322	86.69
273.553	92.69
273.785	91.69
274.017	76.69
274.249	85.69
274.481	96.69
274.713	94.69
274.945	90.69
275.176	89.69
275.408	104.69
275.64	84.69
275.872	78.69
276.104	98.69
276.335	76.69
276.567	102.69
276.799	118.69
277.031	90.69
277.262	93.69
277.494	77.69
277.726	94.69
277.957	90.69
278.189	100.69
278.421	88.69
278.652	95.69
278.884	84.69
279.115	88.69
279.347	88.69
279.579	78.69
279.81	84.69
280.042	87.69
280.273	99.69
280.505	96.69
280.736	77.69
280.968	82.69
281.199	68.69
281.431	84.69
281.662	88.69
281.894	99.69
282.125	101.69
282.356	116.69
282.588	137.69
282.819	101.69
283.051	96.69
283.282	96.69
283.513	76.69
283.745	101.69
283.976	88.69
284.207	99.69
284.439	89.69
284.67	83.69
284.901	96.69
285.132	82.69
285.364	86.69
285.595	85.69
285.826	96.69
286.057	83.69
286.288	72.69
286.52	88.69
286.751	78.69
286.982	96.69
287.213	91.69
287.444	95.69
287.675	84.69
287.906	97.69
288.138	97.69
288.369	89.69
288.6	112.69
288.831	84.69
289.062	76.69
289.293	69.69
289.524	97.69
289.755	74.69
289.986	84.69
290.217	87.69
290.448	85.69
290.679	83.69
290.91	98.69
291.141	95.69
291.371	77.69
291.602	94.69
291.833	85.69
292.064	95.69
292.295	89.69
292.526	75.69
292.757	82.69
292.987	94.69
293.218	96.69
293.449	87.69
293.68	86.69
293.91	83.69
294.141	94.69
294.372	76.69
294.603	98.69
294.833	74.69
295.064	84.69
295.295	90.69
295.525	92.69
295.756	94.69
295.987	112.69
296.217	139.69
296.448	114.69
296.679	93.69
296.909	98.69
297.14	82.69
297.37	82.69
297.601	98.69
297.831	90.69
298.062	82.69
298.292	92.69
298.523	90.69
298.753	98.69
298.984	98.69
299.214	93.69
299.445	85.69
299.675	86.69
299.905	94.69
300.136	80.69
300.366	88.69
300.597	97.69
300.827	95.69
301.057	95.69
301.288	88.69
301.518	77.69
301.748	86.69
301.979	99.69
302.209	78.69
302.439	88.69
302.669	80.69
302.9	94.69
303.13	85.69
303.36	98.69
303.59	94.69
303.82	100.69
304.051	78.69
304.281	88.69
304.511	92.69
304.741	100.69
304.971	90.69
305.201	108.69
305.431	86.69
305.661	93.69
305.891	102.69
306.121	98.69
306.352	94.69
306.582	100.69
306.812	116.69
307.042	98.69
307.272	89.69
307.502	93.69
307.731	98.69
307.961	100.69
308.191	76.69
308.421	96.69
308.651	90.69
308.881	88.69
309.111	101.69
309.341	91.69
309.571	100.69
309.8	84.69
310.03	108.69
310.26	90.69
310.49	118.69
310.72	102.69
310.949	100.69
311.179	104.69
311.409	99.69
311.639	81.69
311.868	102.69
312.098	80.69
312.328	84.69
312.557	96.69
312.787	109.69
313.017	92.69
313.246	94.69
313.476	102.69
313.706	92.69
313.935	91.69
314.165	91.69
314.394	102.69
314.624	102.69
314.853	108.69
315.083	84.69
315.312	97.69
315.542	98.69
315.771	94.69
316.001	117.69
316.23	97.69
316.46	94.69
316.689	96.69
316.919	77.69
317.148	101.69
317.377	99.69
317.607	97.69
317.836	80.69
318.065	94.69
318.295	92.69
318.524	75.69
318.753	93.69
318.983	96.69
319.212	108.69
319.441	105.69
319.67	96.69
319.9	96.69
320.129	90.69
320.358	95.69
320.587	98.69
320.816	100.69
321.046	108.69
321.275	102.69
321.504	93.69
321.733	94.69
321.962	86.69
322.191	100.69
322.42	93.69
322.649	94.69
322.878	109.69
323.108	113.69
323.337	117.69
323.566	136.69
323.795	146.69
324.024	181.69
324.253	336.69
324.482	704.69
324.71	1442.69
324.939	1870.69
325.168	707.69
325.397	229.69
325.626	143.69
325.855	124.69
326.084	110.69
326.313	119.69
326.542	141.69
326.77	213.69
326.999	376.69
327.228	763.69
327.457	1393.69
327.686	1114.69
327.914	306.69
328.143	195.69
328.372	162.69
328.6	124.69
328.829	110.69
329.058	129.69
329.287	120.69
329.515	100.69
329.744	115.69
329.972	115.69
330.201	120.69
330.43	158.69
330.658	130.69
330.887	132.69
331.115	111.69
331.344	90.69
331.572	85.69
331.801	94.69
332.03	89.69
332.258	94.69
332.486	93.69
332.715	86.69
332.943	89.69
333.172	105.69
333.4	95.69
333.629	114.69
333.857	116.69
334.085	107.69
334.314	131.69
334.542	161.69
334.771	160.69
334.999	114.69
335.227	102.69
335.455	106.69
335.684	94.69
335.912	101.69
336.14	94.69
336.369	106.69
336.597	94.69
336.825	88.69
337.053	100.69
337.281	98.69
337.51	84.69
337.738	97.69
337.966	88.69
338.194	95.69
338.422	90.69
338.65	107.69
338.878	84.69
339.106	82.69
339.334	97.69
339.562	97.69
339.79	89.69
340.018	81.69
340.246	94.69
340.474	96.69
340.702	94.69
340.93	101.69
341.158	91.69
341.386	99.69
341.614	89.69
341.842	91.69
342.07	83.69
342.298	85.69
342.526	91.69
342.754	99.69
342.981	88.69
343.209	93.69
343.437	97.69
343.665	99.69
343.893	97.69
344.12	93.69
344.348	97.69
344.576	95.69
344.804	97.69
345.031	96.69
345.259	97.69
345.487	100.69
345.714	92.69
345.942	83.69
346.17	93.69
346.397	91.69
346.625	87.69
346.853	91.69
347.08	96.69
347.308	100.69
347.535	90.69
347.763	86.69
347.99	80.69
348.218	101.69
348.445	99.69
348.673	97.69
348.9	96.69
349.128	94.69
349.355	89.69
349.583	93.69
349.81	94.69
350.037	97.69
350.265	95.69
350.492	93.69
350.72	97.69
350.947	99.69
351.174	110.69
351.402	112.69
351.629	103.69
351.856	92.69
352.083	77.69
352.311	109.69
352.538	124.69
352.765	115.69
352.992	122.69
353.22	114.69
353.447	84.69
353.674	103.69
353.901	95.69
354.128	85.69
354.355	95.69
354.583	92.69
354.81	116.69
355.037	98.69
355.264	81.69
355.491	80.69
355.718	90.69
355.945	82.69
356.172	93.69
356.399	104.69
356.626	97.69
356.853	88.69
357.08	95.69
357.307	99.69
357.534	97.69
357.761	92.69
357.988	101.69
358.215	96.69
358.441	95.69
358.668	95.69
358.895	79.69
359.122	92.69
359.349	105.69
359.576	76.69
359.802	97.69
360.029	114.69
360.256	118.69
360.483	98.69
360.709	92.69
360.936	96.69
361.163	93.69
361.39	93.69
361.616	90.69
361.843	101.69
362.07	90.69
362.296	99.69
362.523	89.69
362.749	91.69
362.976	92.69
363.203	97.69
363.429	116.69
363.656	85.69
363.882	93.69
364.109	93.69
364.335	92.69
364.562	92.69
364.788	100.69
365.015	101.69
365.241	96.69
365.468	110.69
365.694	100.69
365.92	85.69
366.147	93.69
366.373	99.69
366.599	99.69
366.826	93.69
367.052	98.69
367.278	92.69
367.505	93.69
367.731	91.69
367.957	84.69
368.184	94.69
368.41	102.69
368.636	108.69
368.862	115.69
369.089	117.69
369.315	108.69
369.541	93.69
369.767	92.69
369.993	87.69
370.219	90.69
370.445	94.69
370.672	95.69
370.898	93.69
371.124	94.69
371.35	85.69
371.576	83.69
371.802	82.69
372.028	93.69
372.254	94.69
372.48	81.69
372.706	79.69
372.932	83.69
373.158	91.69
373.384	100.69
373.61	93.69
373.835	94.69
374.061	87.69
374.287	95.69
374.513	94.69
374.739	84.69
374.965	98.69
375.191	88.69
375.416	90.69
375.642	92.69
375.868	74.69
376.094	81.69
376.319	92.69
376.545	92.69
376.771	91.69
376.997	104.69
377.222	95.69
377.448	102.69
377.674	93.69
377.899	85.69
378.125	97.69
378.35	93.69
378.576	98.69
378.802	93.69
379.027	92.69
379.253	96.69
379.478	82.69
379.704	106.69
379.929	73.69
380.155	92.69
380.38	90.69
380.606	83.69
380.831	88.69
381.057	103.69
381.282	74.69
381.507	96.69
381.733	104.69
381.958	97.69
382.184	90.69
382.409	88.69
382.634	90.69
382.86	87.69
383.085	90.69
383.31	111.69
383.535	88.69
383.761	94.69
383.986	92.69
384.211	79.69
384.436	104.69
384.662	99.69
384.887	104.69
385.112	101.69
385.337	110.69
385.562	102.69
385.787	105.69
386.013	108.69
386.238	104.69
386.463	98.69
386.688	106.69
386.913	106.69
387.138	93.69
387.363	94.69
387.588	98.69
387.813	95.69
388.038	93.69
388.263	120.69
388.488	102.69
388.713	99.69
388.938	94.69
389.163	100.69
389.387	94.69
389.612	98.69
389.837	95.69
390.062	98.69
390.287	89.69
390.512	95.69
390.736	84.69
390.961	99.69
391.186	88.69
391.411	105.69
391.636	102.69
391.86	85.69
392.085	89.69
392.31	85.69
392.534	82.69
392.759	79.69
392.984	86.69
393.208	76.69
393.433	88.69
393.658	94.69
393.882	81.69
394.107	69.69
394.331	80.69
394.556	85.69
394.78	100.69
395.005	93.69
395.229	94.69
395.454	82.69
395.678	81.69
395.903	79.69
396.127	85.69
396.352	113.69
396.576	97.69
396.801	96.69
397.025	97.69
397.249	84.69
397.474	85.69
397.698	88.69
397.922	78.69
398.147	89.69
398.371	94.69
398.595	91.69
398.82	78.69
399.044	92.69
399.268	83.69
399.492	85.69
399.717	94.69
399.941	92.69
400.165	114.69
400.389	88.69
400.613	96.69
400.837	89.69
401.062	88.69
401.286	68.69
401.51	78.69
401.734	82.69
401.958	99.69
402.182	116.69
402.406	150.69
402.63	100.69
402.854	87.69
403.078	85.69
403.302	76.69
403.526	93.69
403.75	98.69
403.974	100.69
404.198	65.69
404.422	92.69
404.645	90.69
404.869	99.69
405.093	89.69
405.317	96.69
405.541	86.69
405.765	111.69
405.988	126.69
406.212	164.69
406.436	212.69
406.66	125.69
406.883	105.69
407.107	94.69
407.331	87.69
407.555	93.69
407.778	92.69
408.002	83.69
408.226	74.69
408.449	79.69
408.673	107.69
408.896	89.69
409.12	109.69
409.344	90.69
409.567	92.69
409.791	92.69
410.014	93.69
410.238	98.69
410.461	89.69
410.685	79.69
410.908	79.69
411.132	109.69
411.355	98.69
411.578	95.69
411.802	89.69
412.025	69.69
412.249	72.69
412.472	90.69
412.695	111.69
412.919	98.69
413.142	83.69
413.365	87.69
413.589	88.69
413.812	83.69
414.035	85.69
414.258	80.69
414.482	79.69
414.705	93.69
414.928	91.69
415.151	93.69
415.374	96.69
415.597	85.69
415.821	98.69
416.044	87.69
416.267	105.69
416.49	97.69
416.713	79.69
416.936	95.69
417.159	82.69
417.382	85.69
417.605	97.69
417.828	100.69
418.051	82.69
418.274	86.69
418.497	82.69
418.72	87.69
418.943	92.69
419.166	98.69
419.389	83.69
419.611	86.69
419.834	93.69
420.057	104.69
420.28	80.69
420.503	93.69
420.726	78.69
420.948	86.69
421.171	87.69
421.394	97.69
421.617	84.69
421.839	85.69
422.062	95.69
422.285	81.69
422.507	88.69
422.73	97.69
422.953	90.69
423.175	91.69
423.398	97.69
423.621	77.69
423.843	93.69
424.066	90.69
424.288	92.69
424.511	92.69
424.733	96.69
424.956	95.69
425.178	101.69
425.401	105.69
425.623	83.69
425.846	81.69
426.068	92.69
426.291	77.69
426.513	97.69
426.735	75.69
426.958	83.69
427.18	88.69
427.402	124.69
427.625	159.69
427.847	115.69
428.069	119.69
428.292	82.69
428.514	81.69
428.736	94.69
428.958	86.69
429.181	96.69
429.403	94.69
429.625	86.69
429.847	79.69
430.069	104.69
430.292	108.69
430.514	89.69
430.736	80.69
430.958	88.69
431.18	69.69
431.402	82.69
431.624	78.69
431.846	78.69
432.068	84.69
432.29	91.69
432.512	79.69
432.734	78.69
432.956	92.69
433.178	95.69
433.4	109.69
433.622	105.69
433.844	72.69
434.066	93.69
434.287	94.69
434.509	84.69
434.731	100.69
434.953	97.69
435.175	99.69
435.397	88.69
435.618	74.69
435.84	104.69
436.062	107.69
436.284	106.69
436.505	98.69
436.727	103.69
436.949	105.69
437.17	112.69
437.392	100.69
437.614	102.69
437.835	99.69
438.057	102.69
438.278	91.69
438.5	93.69
438.721	104.69
438.943	93.69
439.165	88.69
439.386	86.69
439.608	95.69
439.829	101.69
440.05	111.69
440.272	125.69
440.493	95.69
440.715	71.69
440.936	83.69
441.158	78.69
441.379	101.69
441.6	89.69
441.822	92.69
442.043	74.69
442.264	93.69
442.486	101.69
442.707	96.69
442.928	108.69
443.149	132.69
443.371	121.69
443.592	113.69
443.813	106.69
444.034	104.69
444.255	86.69
444.476	84.69
444.698	89.69
444.919	95.69
445.14	116.69
445.361	122.69
445.582	108.69
445.803	124.69
446.024	111.69
446.245	124.69
446.466	107.69
446.687	92.69
446.908	93.69
447.129	99.69
447.35	79.69
447.571	87.69
447.792	86.69
448.013	90.69
448.234	108.69
448.455	107.69
448.675	108.69
448.896	113.69
449.117	101.69
449.338	107.69
449.559	116.69
449.779	117.69
450	94.69
450.221	81.69
450.442	92.69
450.662	85.69
450.883	107.69
451.104	103.69
451.324	89.69
451.545	90.69
451.766	87.69
451.986	84.69
452.207	96.69
452.428	85.69
452.648	94.69
452.869	103.69
453.089	97.69
453.31	114.69
453.53	80.69
453.751	94.69
453.971	106.69
454.192	96.69
454.412	95.69
454.633	88.69
454.853	84.69
455.073	86.69
455.294	88.69
455.514	96.69
455.734	96.69
455.955	92.69
456.175	96.69
456.395	82.69
456.616	82.69
456.836	87.69
457.056	89.69
457.276	90.69
457.497	80.69
457.717	77.69
457.937	84.69
458.157	69.69
458.377	86.69
458.598	101.69
458.818	138.69
459.038	138.69
459.258	114.69
459.478	95.69
459.698	79.69
459.918	93.69
460.138	72.69
460.358	96.69
460.578	97.69
460.798	80.69
461.018	83.69
461.238	76.69
461.458	86.69
461.678	85.69
461.898	84.69
462.118	92.69
462.338	82.69
462.558	80.69
462.777	68.69
462.997	81.69
463.217	93.69
463.437	94.69
463.657	88.69
463.876	85.69
464.096	100.69
464.316	88.69
464.536	95.69
464.755	106.69
464.975	112.69
465.195	157.69
465.414	136.69
465.634	106.69
465.854	84.69
466.073	85.69
466.293	90.69
466.512	90.69
466.732	103.69
466.951	92.69
467.171	103.69
467.391	99.69
467.61	101.69
467.829	107.69
468.049	102.69
468.268	122.69
468.488	93.69
468.707	85.69
468.927	90.69
469.146	81.69
469.365	74.69
469.585	92.69
469.804	106.69
470.023	93.69
470.243	76.69
470.462	96.69
470.681	110.69
470.901	85.69
471.12	81.69
471.339	79.69
471.558	97.69
471.777	73.69
471.997	102.69
472.216	141.69
472.435	184.69
472.654	111.69
472.873	81.69
473.092	84.69
473.311	95.69
473.53	89.69
473.749	108.69
473.968	99.69
474.187	105.69
474.406	87.69
474.625	90.69
474.844	87.69
475.063	77.69
475.282	91.69
475.501	91.69
475.72	88.69
475.939	78.69
476.158	85.69
476.377	93.69
476.596	86.69
476.814	90.69
477.033	97.69
477.252	90.69
477.471	79.69
477.69	90.69
477.908	93.69
478.127	87.69
478.346	89.69
478.564	102.69
478.783	103.69
479.002	85.69
479.22	81.69
479.439	84.69
479.658	97.69
479.876	88.69
480.095	90.69
480.313	78.69
480.532	88.69
480.751	102.69
480.969	123.69
481.188	290.69
481.406	185.69
481.624	120.69
481.843	94.69
482.061	88.69
482.28	95.69
482.498	90.69
482.717	91.69
482.935	93.69
483.153	95.69
483.372	96.69
483.59	102.69
483.808	100.69
484.027	88.69
484.245	84.69
484.463	91.69
484.681	106.69
484.9	96.69
485.118	95.69
485.336	100.69
485.554	87.69
485.772	107.69
485.99	99.69
486.209	96.69
486.427	92.69
486.645	116.69
486.863	102.69
487.081	89.69
487.299	101.69
487.517	90.69
487.735	94.69
487.953	90.69
488.171	101.69
488.389	101.69
488.607	104.69
488.825	86.69
489.043	93.69
489.261	96.69
489.479	89.69
489.696	89.69
489.914	83.69
490.132	67.69
490.35	84.69
490.568	94.69
490.786	100.69
491.003	88.69
491.221	96.69
491.439	98.69
491.657	77.69
491.874	86.69
492.092	93.69
492.31	90.69
492.527	84.69
492.745	76.69
492.963	89.69
493.18	97.69
493.398	93.69
493.615	99.69
493.833	92.69
494.05	93.69
494.268	93.69
494.485	96.69
494.703	86.69
494.92	98.69
495.138	92.69
495.355	84.69
495.573	112.69
495.79	83.69
496.008	81.69
496.225	83.69
496.442	92.69
496.66	83.69
496.877	89.69
497.094	90.69
497.312	93.69
497.529	85.69
497.746	96.69
497.963	87.69
498.181	80.69
498.398	91.69
498.615	105.69
498.832	104.69
499.049	85.69
499.267	101.69
499.484	92.69
499.701	97.69
499.918	96.69
500.135	90.69
500.352	83.69
500.569	84.69
500.786	96.69
501.003	101.69
501.22	92.69
501.437	89.69
501.654	79.69
501.871	110.69
502.088	82.69
502.305	85.69
502.522	96.69
502.739	90.69
502.956	94.69
503.172	84.69
503.389	97.69
503.606	100.69
503.823	90.69
504.04	107.69
504.256	93.69
504.473	85.69
504.69	108.69
504.907	84.69
505.123	79.69
505.34	93.69
505.557	90.69
505.773	97.69
505.99	116.69
506.207	89.69
506.423	86.69
506.64	102.69
506.856	94.69
507.073	86.69
507.289	82.69
507.506	108.69
507.722	125.69
507.939	120.69
508.155	92.69
508.372	90.69
508.588	98.69
508.805	80.69
509.021	92.69
509.238	108.69
509.454	100.69
509.67	110.69
509.887	117.69
510.103	142.69
510.319	221.69
510.536	766.69
510.752	2383.69
510.968	638.69
511.184	147.69
511.401	101.69
511.617	111.69
511.833	80.69
512.049	92.69
512.265	78.69
512.481	98.69
512.698	99.69
512.914	99.69
513.13	95.69
513.346	87.69
513.562	96.69
513.778	90.69
513.994	92.69
514.21	94.69
514.426	107.69
514.642	130.69
514.858	117.69
515.074	160.69
515.29	393.69
515.506	1378.69
515.721	511.69
515.937	145.69
