Data from Circ_1994_H10_HRD10591_00079.txt Node
Date: Wed Jan 03 11:40:46 EST 2024
User: Yrep
Spectrometer: HR+D1059
Trigger mode: 1
Integration Time (sec): 1.000000E-1
Scans to average: 1
Electric dark correction enabled: true
Nonlinearity correction enabled: false
Boxcar width: 0
XAxis mode: Wavelengths
Number of Pixels in Spectrum: 2048
>>>>>Begin Spectral Data<<<<<
223.165	-19.88
223.4	-19.88
223.635	-19.88
223.869	-10.88
224.104	-18.88
224.338	-9.88
224.573	-7.88
224.808	-7.88
225.042	-14.88
225.277	-6.88
225.511	-6.88
225.746	-4.88
225.98	11.12
226.215	14.12
226.449	5.12
226.683	25.12
226.918	29.12
227.152	24.12
227.387	41.12
227.621	41.12
227.856	46.12
228.09	52.12
228.324	54.12
228.559	54.12
228.793	60.12
229.027	69.12
229.262	69.12
229.496	68.12
229.73	82.12
229.964	91.12
230.199	70.12
230.433	80.12
230.667	87.12
230.901	80.12
231.136	84.12
231.37	81.12
231.604	83.12
231.838	74.12
232.072	83.12
232.306	78.12
232.541	79.12
232.775	80.12
233.009	88.12
233.243	60.12
233.477	84.12
233.711	80.12
233.945	81.12
234.179	79.12
234.413	111.12
234.647	76.12
234.881	69.12
235.115	79.12
235.349	89.12
235.583	81.12
235.817	81.12
236.051	86.12
236.285	82.12
236.519	67.12
236.753	97.12
236.987	88.12
237.221	87.12
237.455	82.12
237.689	70.12
237.922	70.12
238.156	70.12
238.39	78.12
238.624	79.12
238.858	82.12
239.091	74.12
239.325	70.12
239.559	75.12
239.793	88.12
240.027	87.12
240.26	72.12
240.494	81.12
240.728	79.12
240.961	86.12
241.195	90.12
241.429	71.12
241.662	78.12
241.896	81.12
242.13	70.12
242.363	84.12
242.597	74.12
242.83	81.12
243.064	69.12
243.298	95.12
243.531	73.12
243.765	66.12
243.998	75.12
244.232	76.12
244.465	84.12
244.699	76.12
244.932	66.12
245.166	78.12
245.399	74.12
245.633	77.12
245.866	73.12
246.099	83.12
246.333	75.12
246.566	67.12
246.8	100.12
247.033	83.12
247.266	79.12
247.5	81.12
247.733	75.12
247.966	87.12
248.2	81.12
248.433	87.12
248.666	69.12
248.899	85.12
249.133	87.12
249.366	97.12
249.599	109.12
249.832	86.12
250.066	88.12
250.299	68.12
250.532	89.12
250.765	98.12
250.998	92.12
251.231	79.12
251.465	104.12
251.698	80.12
251.931	77.12
252.164	53.12
252.397	80.12
252.63	73.12
252.863	75.12
253.096	74.12
253.329	79.12
253.562	84.12
253.795	90.12
254.028	79.12
254.261	58.12
254.494	69.12
254.727	86.12
254.96	79.12
255.193	83.12
255.426	81.12
255.659	77.12
255.892	90.12
256.124	80.12
256.357	73.12
256.59	92.12
256.823	87.12
257.056	78.12
257.289	81.12
257.521	90.12
257.754	83.12
257.987	89.12
258.22	87.12
258.452	94.12
258.685	68.12
258.918	82.12
259.151	85.12
259.383	76.12
259.616	83.12
259.849	82.12
260.081	83.12
260.314	90.12
260.547	83.12
260.779	80.12
261.012	88.12
261.244	85.12
261.477	97.12
261.71	102.12
261.942	121.12
262.175	106.12
262.407	86.12
262.64	77.12
262.872	93.12
263.105	75.12
263.337	100.12
263.57	84.12
263.802	79.12
264.035	78.12
264.267	87.12
264.499	90.12
264.732	75.12
264.964	85.12
265.197	79.12
265.429	87.12
265.661	78.12
265.894	87.12
266.126	92.12
266.358	80.12
266.591	77.12
266.823	92.12
267.055	85.12
267.287	90.12
267.52	81.12
267.752	77.12
267.984	89.12
268.216	75.12
268.448	79.12
268.681	84.12
268.913	89.12
269.145	81.12
269.377	83.12
269.609	82.12
269.841	94.12
270.073	68.12
270.306	91.12
270.538	79.12
270.77	77.12
271.002	103.12
271.234	79.12
271.466	86.12
271.698	78.12
271.93	84.12
272.162	99.12
272.394	99.12
272.626	84.12
272.858	78.12
273.09	85.12
273.322	86.12
273.553	82.12
273.785	95.12
274.017	97.12
274.249	79.12
274.481	84.12
274.713	87.12
274.945	90.12
275.176	76.12
275.408	94.12
275.64	87.12
275.872	93.12
276.104	83.12
276.335	92.12
276.567	102.12
276.799	103.12
277.031	93.12
277.262	95.12
277.494	82.12
277.726	86.12
277.957	82.12
278.189	89.12
278.421	77.12
278.652	89.12
278.884	84.12
279.115	95.12
279.347	96.12
279.579	94.12
279.81	93.12
280.042	88.12
280.273	96.12
280.505	96.12
280.736	87.12
280.968	96.12
281.199	83.12
281.431	76.12
281.662	81.12
281.894	83.12
282.125	98.12
282.356	112.12
282.588	148.12
282.819	103.12
283.051	103.12
283.282	92.12
283.513	91.12
283.745	94.12
283.976	90.12
284.207	78.12
284.439	85.12
284.67	75.12
284.901	92.12
285.132	77.12
285.364	85.12
285.595	89.12
285.826	97.12
286.057	79.12
286.288	86.12
286.52	88.12
286.751	69.12
286.982	85.12
287.213	81.12
287.444	85.12
287.675	84.12
287.906	84.12
288.138	89.12
288.369	84.12
288.6	75.12
288.831	84.12
289.062	90.12
289.293	88.12
289.524	94.12
289.755	93.12
289.986	85.12
290.217	93.12
290.448	94.12
290.679	90.12
290.91	95.12
291.141	102.12
291.371	93.12
291.602	97.12
291.833	74.12
292.064	94.12
292.295	78.12
292.526	100.12
292.757	91.12
292.987	91.12
293.218	86.12
293.449	86.12
293.68	92.12
293.91	94.12
294.141	93.12
294.372	83.12
294.603	97.12
294.833	75.12
295.064	86.12
295.295	92.12
295.525	110.12
295.756	104.12
295.987	105.12
296.217	115.12
296.448	131.12
296.679	88.12
296.909	97.12
297.14	83.12
297.37	93.12
297.601	98.12
297.831	95.12
298.062	112.12
298.292	91.12
298.523	97.12
298.753	85.12
298.984	104.12
299.214	91.12
299.445	108.12
299.675	93.12
299.905	88.12
300.136	99.12
300.366	74.12
300.597	90.12
300.827	83.12
301.057	98.12
301.288	88.12
301.518	86.12
301.748	103.12
301.979	101.12
302.209	91.12
302.439	98.12
302.669	96.12
302.9	73.12
303.13	101.12
303.36	92.12
303.59	89.12
303.82	108.12
304.051	89.12
304.281	84.12
304.511	92.12
304.741	102.12
304.971	68.12
305.201	94.12
305.431	78.12
305.661	94.12
305.891	100.12
306.121	100.12
306.352	94.12
306.582	112.12
306.812	94.12
307.042	101.12
307.272	101.12
307.502	93.12
307.731	105.12
307.961	98.12
308.191	89.12
308.421	82.12
308.651	82.12
308.881	86.12
309.111	89.12
309.341	97.12
309.571	101.12
309.8	102.12
310.03	87.12
310.26	92.12
310.49	94.12
310.72	93.12
310.949	99.12
311.179	92.12
311.409	88.12
311.639	86.12
311.868	100.12
312.098	82.12
312.328	108.12
312.557	91.12
312.787	107.12
313.017	92.12
313.246	87.12
313.476	98.12
313.706	92.12
313.935	89.12
314.165	81.12
314.394	105.12
314.624	82.12
314.853	102.12
315.083	92.12
315.312	80.12
315.542	78.12
315.771	85.12
316.001	91.12
316.23	93.12
316.46	86.12
316.689	83.12
316.919	92.12
317.148	92.12
317.377	97.12
317.607	86.12
317.836	103.12
318.065	89.12
318.295	79.12
318.524	85.12
318.753	98.12
318.983	77.12
319.212	111.12
319.441	109.12
319.67	114.12
319.9	100.12
320.129	95.12
320.358	93.12
320.587	110.12
320.816	101.12
321.046	95.12
321.275	109.12
321.504	94.12
321.733	86.12
321.962	94.12
322.191	108.12
322.42	100.12
322.649	105.12
322.878	100.12
323.108	116.12
323.337	109.12
323.566	122.12
323.795	138.12
324.024	183.12
324.253	339.12
324.482	719.12
324.71	1373.12
324.939	1845.12
325.168	673.12
325.397	224.12
325.626	125.12
325.855	103.12
326.084	131.12
326.313	129.12
326.542	157.12
326.77	185.12
326.999	381.12
327.228	785.12
327.457	1365.12
327.686	1105.12
327.914	317.12
328.143	191.12
328.372	172.12
328.6	131.12
328.829	111.12
329.058	114.12
329.287	117.12
329.515	100.12
329.744	118.12
329.972	122.12
330.201	172.12
330.43	199.12
330.658	141.12
330.887	132.12
331.115	96.12
331.344	87.12
331.572	97.12
331.801	99.12
332.03	100.12
332.258	96.12
332.486	90.12
332.715	101.12
332.943	92.12
333.172	93.12
333.4	96.12
333.629	96.12
333.857	122.12
334.085	128.12
334.314	159.12
334.542	229.12
334.771	220.12
334.999	116.12
335.227	91.12
335.455	95.12
335.684	97.12
335.912	106.12
336.14	108.12
336.369	86.12
336.597	107.12
336.825	107.12
337.053	89.12
337.281	100.12
337.51	93.12
337.738	98.12
337.966	106.12
338.194	96.12
338.422	100.12
338.65	96.12
338.878	100.12
339.106	101.12
339.334	97.12
339.562	98.12
339.79	82.12
340.018	84.12
340.246	89.12
340.474	90.12
340.702	88.12
340.93	97.12
341.158	87.12
341.386	104.12
341.614	106.12
341.842	101.12
342.07	85.12
342.298	92.12
342.526	106.12
342.754	94.12
342.981	90.12
343.209	97.12
343.437	103.12
343.665	85.12
343.893	93.12
344.12	109.12
344.348	107.12
344.576	100.12
344.804	92.12
345.031	98.12
345.259	107.12
345.487	91.12
345.714	99.12
345.942	92.12
346.17	88.12
346.397	101.12
346.625	94.12
346.853	79.12
347.08	96.12
347.308	101.12
347.535	94.12
347.763	105.12
347.99	102.12
348.218	104.12
348.445	103.12
348.673	85.12
348.9	84.12
349.128	95.12
349.355	84.12
349.583	101.12
349.81	95.12
350.037	89.12
350.265	105.12
350.492	92.12
350.72	83.12
350.947	93.12
351.174	104.12
351.402	93.12
351.629	97.12
351.856	93.12
352.083	95.12
352.311	108.12
352.538	106.12
352.765	114.12
352.992	115.12
353.22	102.12
353.447	114.12
353.674	108.12
353.901	97.12
354.128	99.12
354.355	73.12
354.583	89.12
354.81	109.12
355.037	96.12
355.264	93.12
355.491	97.12
355.718	93.12
355.945	99.12
356.172	105.12
356.399	112.12
356.626	112.12
356.853	86.12
357.08	91.12
357.307	96.12
357.534	84.12
357.761	94.12
357.988	100.12
358.215	91.12
358.441	88.12
358.668	78.12
358.895	100.12
359.122	91.12
359.349	90.12
359.576	65.12
359.802	101.12
360.029	104.12
360.256	96.12
360.483	93.12
360.709	82.12
360.936	97.12
361.163	98.12
361.39	91.12
361.616	95.12
361.843	96.12
362.07	101.12
362.296	97.12
362.523	79.12
362.749	70.12
362.976	95.12
363.203	87.12
363.429	84.12
363.656	95.12
363.882	104.12
364.109	91.12
364.335	104.12
364.562	86.12
364.788	99.12
365.015	105.12
365.241	108.12
365.468	107.12
365.694	94.12
365.92	90.12
366.147	84.12
366.373	87.12
366.599	77.12
366.826	75.12
367.052	87.12
367.278	87.12
367.505	92.12
367.731	94.12
367.957	103.12
368.184	87.12
368.41	104.12
368.636	110.12
368.862	109.12
369.089	111.12
369.315	78.12
369.541	92.12
369.767	97.12
369.993	99.12
370.219	78.12
370.445	81.12
370.672	84.12
370.898	89.12
371.124	91.12
371.35	93.12
371.576	92.12
371.802	88.12
372.028	94.12
372.254	98.12
372.48	85.12
372.706	77.12
372.932	88.12
373.158	82.12
373.384	84.12
373.61	92.12
373.835	78.12
374.061	89.12
374.287	95.12
374.513	84.12
374.739	89.12
374.965	78.12
375.191	93.12
375.416	94.12
375.642	97.12
375.868	87.12
376.094	92.12
376.319	97.12
376.545	105.12
376.771	90.12
376.997	89.12
377.222	101.12
377.448	92.12
377.674	88.12
377.899	89.12
378.125	99.12
378.35	105.12
378.576	89.12
378.802	95.12
379.027	90.12
379.253	93.12
379.478	95.12
379.704	94.12
379.929	80.12
380.155	91.12
380.38	89.12
380.606	98.12
380.831	93.12
381.057	94.12
381.282	98.12
381.507	91.12
381.733	93.12
381.958	95.12
382.184	92.12
382.409	96.12
382.634	100.12
382.86	92.12
383.085	101.12
383.31	99.12
383.535	96.12
383.761	93.12
383.986	94.12
384.211	78.12
384.436	95.12
384.662	89.12
384.887	98.12
385.112	100.12
385.337	101.12
385.562	114.12
385.787	97.12
386.013	109.12
386.238	118.12
386.463	108.12
386.688	106.12
386.913	110.12
387.138	99.12
387.363	97.12
387.588	93.12
387.813	96.12
388.038	94.12
388.263	91.12
388.488	96.12
388.713	94.12
388.938	89.12
389.163	98.12
389.387	99.12
389.612	85.12
389.837	105.12
390.062	93.12
390.287	83.12
390.512	105.12
390.736	81.12
390.961	78.12
391.186	112.12
391.411	95.12
391.636	92.12
391.86	95.12
392.085	92.12
392.31	89.12
392.534	87.12
392.759	86.12
392.984	91.12
393.208	91.12
393.433	104.12
393.658	81.12
393.882	83.12
394.107	88.12
394.331	102.12
394.556	92.12
394.78	89.12
395.005	87.12
395.229	97.12
395.454	85.12
395.678	91.12
395.903	99.12
396.127	82.12
396.352	77.12
396.576	75.12
396.801	86.12
397.025	86.12
397.249	85.12
397.474	89.12
397.698	90.12
397.922	79.12
398.147	86.12
398.371	85.12
398.595	87.12
398.82	87.12
399.044	88.12
399.268	83.12
399.492	90.12
399.717	83.12
399.941	87.12
400.165	91.12
400.389	89.12
400.613	94.12
400.837	77.12
401.062	94.12
401.286	90.12
401.51	88.12
401.734	101.12
401.958	90.12
402.182	104.12
402.406	135.12
402.63	112.12
402.854	91.12
403.078	97.12
403.302	95.12
403.526	98.12
403.75	95.12
403.974	80.12
404.198	90.12
404.422	81.12
404.645	74.12
404.869	89.12
405.093	94.12
405.317	83.12
405.541	101.12
405.765	94.12
405.988	111.12
406.212	155.12
406.436	207.12
406.66	131.12
406.883	106.12
407.107	103.12
407.331	101.12
407.555	101.12
407.778	86.12
408.002	93.12
408.226	91.12
408.449	89.12
408.673	99.12
408.896	88.12
409.12	83.12
409.344	97.12
409.567	97.12
409.791	89.12
410.014	91.12
410.238	101.12
410.461	80.12
410.685	87.12
410.908	106.12
411.132	118.12
411.355	99.12
411.578	94.12
411.802	84.12
412.025	89.12
412.249	94.12
412.472	99.12
412.695	92.12
412.919	88.12
413.142	92.12
413.365	74.12
413.589	84.12
413.812	89.12
414.035	86.12
414.258	87.12
414.482	93.12
414.705	99.12
414.928	87.12
415.151	99.12
415.374	82.12
415.597	83.12
415.821	86.12
416.044	89.12
416.267	77.12
416.49	105.12
416.713	87.12
416.936	98.12
417.159	77.12
417.382	78.12
417.605	94.12
417.828	98.12
418.051	90.12
418.274	89.12
418.497	82.12
418.72	98.12
418.943	84.12
419.166	86.12
419.389	79.12
419.611	98.12
419.834	75.12
420.057	95.12
420.28	82.12
420.503	83.12
420.726	74.12
420.948	90.12
421.171	94.12
421.394	96.12
421.617	90.12
421.839	86.12
422.062	75.12
422.285	86.12
422.507	98.12
422.73	95.12
422.953	85.12
423.175	84.12
423.398	94.12
423.621	97.12
423.843	83.12
424.066	78.12
424.288	107.12
424.511	82.12
424.733	104.12
424.956	95.12
425.178	106.12
425.401	93.12
425.623	94.12
425.846	93.12
426.068	101.12
426.291	88.12
426.513	92.12
426.735	77.12
426.958	96.12
427.18	110.12
427.402	128.12
427.625	154.12
427.847	142.12
428.069	113.12
428.292	83.12
428.514	91.12
428.736	104.12
428.958	78.12
429.181	92.12
429.403	97.12
429.625	85.12
429.847	90.12
430.069	96.12
430.292	87.12
430.514	96.12
430.736	77.12
430.958	71.12
431.18	99.12
431.402	88.12
431.624	89.12
431.846	69.12
432.068	97.12
432.29	87.12
432.512	92.12
432.734	89.12
432.956	98.12
433.178	91.12
433.4	95.12
433.622	71.12
433.844	78.12
434.066	92.12
434.287	81.12
434.509	92.12
434.731	92.12
434.953	87.12
435.175	93.12
435.397	91.12
435.618	95.12
435.84	103.12
436.062	112.12
436.284	105.12
436.505	97.12
436.727	107.12
436.949	97.12
437.17	95.12
437.392	92.12
437.614	90.12
437.835	97.12
438.057	115.12
438.278	112.12
438.5	101.12
438.721	104.12
438.943	111.12
439.165	83.12
439.386	94.12
439.608	98.12
439.829	92.12
440.05	109.12
440.272	123.12
440.493	95.12
440.715	99.12
440.936	101.12
441.158	99.12
441.379	99.12
441.6	93.12
441.822	93.12
442.043	90.12
442.264	78.12
442.486	96.12
442.707	108.12
442.928	98.12
443.149	111.12
443.371	122.12
443.592	90.12
443.813	105.12
444.034	106.12
444.255	80.12
444.476	91.12
444.698	78.12
444.919	85.12
445.14	123.12
445.361	117.12
445.582	115.12
445.803	139.12
446.024	129.12
446.245	125.12
446.466	99.12
446.687	76.12
446.908	95.12
447.129	89.12
447.35	89.12
447.571	96.12
447.792	97.12
448.013	102.12
448.234	99.12
448.455	104.12
448.675	109.12
448.896	103.12
449.117	100.12
449.338	98.12
449.559	123.12
449.779	116.12
450	87.12
450.221	86.12
450.442	97.12
450.662	68.12
450.883	104.12
451.104	112.12
451.324	103.12
451.545	92.12
451.766	91.12
451.986	94.12
452.207	90.12
452.428	87.12
452.648	110.12
452.869	105.12
453.089	107.12
453.31	121.12
453.53	101.12
453.751	92.12
453.971	95.12
454.192	101.12
454.412	91.12
454.633	75.12
454.853	92.12
455.073	100.12
455.294	94.12
455.514	98.12
455.734	101.12
455.955	85.12
456.175	94.12
456.395	95.12
456.616	85.12
456.836	85.12
457.056	90.12
457.276	87.12
457.497	85.12
457.717	77.12
457.937	92.12
458.157	95.12
458.377	98.12
458.598	99.12
458.818	133.12
459.038	148.12
459.258	106.12
459.478	91.12
459.698	94.12
459.918	95.12
460.138	89.12
460.358	89.12
460.578	82.12
460.798	86.12
461.018	85.12
461.238	75.12
461.458	63.12
461.678	91.12
461.898	93.12
462.118	90.12
462.338	79.12
462.558	69.12
462.777	74.12
462.997	103.12
463.217	83.12
463.437	95.12
463.657	99.12
463.876	73.12
464.096	96.12
464.316	86.12
464.536	67.12
464.755	83.12
464.975	92.12
465.195	163.12
465.414	143.12
465.634	104.12
465.854	98.12
466.073	87.12
466.293	82.12
466.512	91.12
466.732	87.12
466.951	86.12
467.171	87.12
467.391	94.12
467.61	109.12
467.829	93.12
468.049	123.12
468.268	147.12
468.488	83.12
468.707	84.12
468.927	89.12
469.146	83.12
469.365	92.12
469.585	75.12
469.804	83.12
470.023	97.12
470.243	79.12
470.462	104.12
470.681	107.12
470.901	90.12
471.12	106.12
471.339	101.12
471.558	85.12
471.777	91.12
471.997	97.12
472.216	181.12
472.435	299.12
472.654	127.12
472.873	83.12
473.092	102.12
473.311	80.12
473.53	85.12
473.749	82.12
473.968	95.12
474.187	99.12
474.406	87.12
474.625	76.12
474.844	97.12
475.063	97.12
475.282	87.12
475.501	82.12
475.72	88.12
475.939	76.12
476.158	85.12
476.377	84.12
476.596	106.12
476.814	91.12
477.033	93.12
477.252	84.12
477.471	79.12
477.69	90.12
477.908	102.12
478.127	93.12
478.346	101.12
478.564	83.12
478.783	93.12
479.002	93.12
479.22	90.12
479.439	102.12
479.658	98.12
479.876	86.12
480.095	86.12
480.313	99.12
480.532	95.12
480.751	101.12
480.969	184.12
481.188	463.12
481.406	296.12
481.624	110.12
481.843	84.12
482.061	89.12
482.28	90.12
482.498	82.12
482.717	98.12
482.935	86.12
483.153	86.12
483.372	102.12
483.59	84.12
483.808	96.12
484.027	107.12
484.245	87.12
484.463	88.12
484.681	95.12
484.9	89.12
485.118	88.12
485.336	92.12
485.554	99.12
485.772	98.12
485.99	95.12
486.209	102.12
486.427	111.12
486.645	106.12
486.863	108.12
487.081	90.12
487.299	95.12
487.517	84.12
487.735	93.12
487.953	91.12
488.171	92.12
488.389	78.12
488.607	78.12
488.825	94.12
489.043	104.12
489.261	91.12
489.479	89.12
489.696	94.12
489.914	86.12
490.132	94.12
490.35	98.12
490.568	94.12
490.786	88.12
491.003	90.12
491.221	85.12
491.439	98.12
491.657	82.12
491.874	95.12
492.092	95.12
492.31	73.12
492.527	84.12
492.745	94.12
492.963	95.12
493.18	87.12
493.398	86.12
493.615	100.12
493.833	88.12
494.05	94.12
494.268	102.12
494.485	96.12
494.703	86.12
494.92	97.12
495.138	74.12
495.355	93.12
495.573	92.12
495.79	89.12
496.008	89.12
496.225	93.12
496.442	84.12
496.66	99.12
496.877	93.12
497.094	93.12
497.312	102.12
497.529	90.12
497.746	94.12
497.963	92.12
498.181	106.12
498.398	108.12
498.615	99.12
498.832	96.12
499.049	86.12
499.267	92.12
499.484	95.12
499.701	85.12
499.918	89.12
500.135	92.12
500.352	78.12
500.569	83.12
500.786	86.12
501.003	93.12
501.22	99.12
501.437	86.12
501.654	88.12
501.871	96.12
502.088	91.12
502.305	92.12
502.522	83.12
502.739	103.12
502.956	86.12
503.172	90.12
503.389	93.12
503.606	98.12
503.823	92.12
504.04	92.12
504.256	100.12
504.473	80.12
504.69	86.12
504.907	85.12
505.123	100.12
505.34	87.12
505.557	87.12
505.773	86.12
505.99	95.12
506.207	91.12
506.423	75.12
506.64	100.12
506.856	82.12
507.073	85.12
507.289	99.12
507.506	95.12
507.722	101.12
507.939	97.12
508.155	100.12
508.372	83.12
508.588	100.12
508.805	89.12
509.021	97.12
509.238	95.12
509.454	110.12
509.67	95.12
509.887	108.12
510.103	130.12
510.319	208.12
510.536	716.12
510.752	2269.12
510.968	606.12
511.184	150.12
511.401	99.12
511.617	93.12
511.833	100.12
512.049	95.12
512.265	114.12
512.481	97.12
512.698	102.12
512.914	91.12
513.13	93.12
513.346	78.12
513.562	81.12
513.778	92.12
513.994	92.12
514.21	99.12
514.426	106.12
514.642	132.12
514.858	127.12
515.074	143.12
515.29	408.12
515.506	1319.12
515.721	485.12
