Data from Circ_1994_H10_HRD10591_00050.txt Node
Date: Wed Jan 03 11:40:40 EST 2024
User: Yrep
Spectrometer: HR+D1059
Trigger mode: 1
Integration Time (sec): 1.000000E-1
Scans to average: 1
Electric dark correction enabled: true
Nonlinearity correction enabled: false
Boxcar width: 0
XAxis mode: Wavelengths
Number of Pixels in Spectrum: 2048
>>>>>Begin Spectral Data<<<<<
223.165	-26.88
223.4	-26.88
223.635	-26.88
223.869	-8.88
224.104	-8.88
224.338	-16.88
224.573	-18.88
224.808	-3.88
225.042	-10.88
225.277	4.12
225.511	-5.88
225.746	0.12
225.98	7.12
226.215	12.12
226.449	10.12
226.683	19.12
226.918	17.12
227.152	31.12
227.387	35.12
227.621	46.12
227.856	48.12
228.09	39.12
228.324	59.12
228.559	58.12
228.793	59.12
229.027	59.12
229.262	84.12
229.496	74.12
229.73	76.12
229.964	78.12
230.199	71.12
230.433	84.12
230.667	80.12
230.901	75.12
231.136	77.12
231.37	91.12
231.604	95.12
231.838	79.12
232.072	79.12
232.306	79.12
232.541	79.12
232.775	70.12
233.009	96.12
233.243	76.12
233.477	85.12
233.711	78.12
233.945	78.12
234.179	94.12
234.413	101.12
234.647	95.12
234.881	79.12
235.115	79.12
235.349	70.12
235.583	91.12
235.817	86.12
236.051	76.12
236.285	68.12
236.519	90.12
236.753	82.12
236.987	70.12
237.221	89.12
237.455	90.12
237.689	88.12
237.922	82.12
238.156	71.12
238.39	88.12
238.624	90.12
238.858	69.12
239.091	72.12
239.325	79.12
239.559	87.12
239.793	84.12
240.027	83.12
240.26	78.12
240.494	77.12
240.728	78.12
240.961	86.12
241.195	75.12
241.429	77.12
241.662	69.12
241.896	97.12
242.13	79.12
242.363	65.12
242.597	84.12
242.83	79.12
243.064	71.12
243.298	70.12
243.531	78.12
243.765	72.12
243.998	90.12
244.232	85.12
244.465	79.12
244.699	83.12
244.932	79.12
245.166	75.12
245.399	82.12
245.633	75.12
245.866	70.12
246.099	84.12
246.333	74.12
246.566	78.12
246.8	67.12
247.033	53.12
247.266	78.12
247.5	84.12
247.733	87.12
247.966	81.12
248.2	79.12
248.433	82.12
248.666	82.12
248.899	67.12
249.133	86.12
249.366	88.12
249.599	86.12
249.832	84.12
250.066	80.12
250.299	66.12
250.532	91.12
250.765	91.12
250.998	78.12
251.231	93.12
251.465	81.12
251.698	88.12
251.931	85.12
252.164	81.12
252.397	77.12
252.63	96.12
252.863	83.12
253.096	90.12
253.329	82.12
253.562	64.12
253.795	71.12
254.028	79.12
254.261	87.12
254.494	83.12
254.727	92.12
254.96	76.12
255.193	79.12
255.426	83.12
255.659	86.12
255.892	75.12
256.124	91.12
256.357	84.12
256.59	74.12
256.823	91.12
257.056	81.12
257.289	81.12
257.521	82.12
257.754	84.12
257.987	87.12
258.22	82.12
258.452	90.12
258.685	83.12
258.918	84.12
259.151	79.12
259.383	86.12
259.616	85.12
259.849	77.12
260.081	88.12
260.314	78.12
260.547	97.12
260.779	93.12
261.012	66.12
261.244	93.12
261.477	84.12
261.71	88.12
261.942	112.12
262.175	107.12
262.407	92.12
262.64	94.12
262.872	96.12
263.105	84.12
263.337	90.12
263.57	83.12
263.802	76.12
264.035	88.12
264.267	91.12
264.499	83.12
264.732	78.12
264.964	81.12
265.197	90.12
265.429	75.12
265.661	88.12
265.894	112.12
266.126	89.12
266.358	89.12
266.591	92.12
266.823	94.12
267.055	71.12
267.287	80.12
267.52	93.12
267.752	85.12
267.984	95.12
268.216	93.12
268.448	86.12
268.681	90.12
268.913	86.12
269.145	82.12
269.377	70.12
269.609	87.12
269.841	88.12
270.073	87.12
270.306	97.12
270.538	100.12
270.77	87.12
271.002	84.12
271.234	80.12
271.466	95.12
271.698	89.12
271.93	77.12
272.162	78.12
272.394	82.12
272.626	93.12
272.858	98.12
273.09	94.12
273.322	78.12
273.553	89.12
273.785	94.12
274.017	77.12
274.249	90.12
274.481	76.12
274.713	87.12
274.945	79.12
275.176	84.12
275.408	86.12
275.64	95.12
275.872	78.12
276.104	95.12
276.335	80.12
276.567	95.12
276.799	92.12
277.031	99.12
277.262	95.12
277.494	96.12
277.726	91.12
277.957	82.12
278.189	75.12
278.421	84.12
278.652	84.12
278.884	81.12
279.115	66.12
279.347	90.12
279.579	88.12
279.81	88.12
280.042	90.12
280.273	101.12
280.505	103.12
280.736	98.12
280.968	105.12
281.199	76.12
281.431	92.12
281.662	76.12
281.894	105.12
282.125	91.12
282.356	111.12
282.588	124.12
282.819	117.12
283.051	87.12
283.282	91.12
283.513	87.12
283.745	93.12
283.976	92.12
284.207	99.12
284.439	87.12
284.67	81.12
284.901	92.12
285.132	89.12
285.364	92.12
285.595	95.12
285.826	97.12
286.057	94.12
286.288	90.12
286.52	95.12
286.751	80.12
286.982	80.12
287.213	75.12
287.444	96.12
287.675	84.12
287.906	90.12
288.138	99.12
288.369	90.12
288.6	88.12
288.831	89.12
289.062	99.12
289.293	76.12
289.524	84.12
289.755	83.12
289.986	86.12
290.217	103.12
290.448	103.12
290.679	94.12
290.91	95.12
291.141	92.12
291.371	78.12
291.602	84.12
291.833	92.12
292.064	91.12
292.295	80.12
292.526	85.12
292.757	83.12
292.987	97.12
293.218	76.12
293.449	104.12
293.68	89.12
293.91	92.12
294.141	99.12
294.372	102.12
294.603	89.12
294.833	81.12
295.064	98.12
295.295	83.12
295.525	88.12
295.756	97.12
295.987	104.12
296.217	119.12
296.448	114.12
296.679	82.12
296.909	87.12
297.14	91.12
297.37	104.12
297.601	84.12
297.831	95.12
298.062	92.12
298.292	84.12
298.523	93.12
298.753	81.12
298.984	90.12
299.214	98.12
299.445	98.12
299.675	98.12
299.905	101.12
300.136	98.12
300.366	97.12
300.597	87.12
300.827	109.12
301.057	94.12
301.288	102.12
301.518	95.12
301.748	85.12
301.979	87.12
302.209	93.12
302.439	79.12
302.669	92.12
302.9	102.12
303.13	90.12
303.36	88.12
303.59	103.12
303.82	115.12
304.051	104.12
304.281	94.12
304.511	90.12
304.741	108.12
304.971	85.12
305.201	100.12
305.431	106.12
305.661	97.12
305.891	102.12
306.121	105.12
306.352	95.12
306.582	108.12
306.812	83.12
307.042	107.12
307.272	95.12
307.502	104.12
307.731	90.12
307.961	86.12
308.191	108.12
308.421	98.12
308.651	89.12
308.881	98.12
309.111	97.12
309.341	101.12
309.571	99.12
309.8	96.12
310.03	91.12
310.26	98.12
310.49	99.12
310.72	96.12
310.949	104.12
311.179	102.12
311.409	95.12
311.639	100.12
311.868	101.12
312.098	82.12
312.328	90.12
312.557	110.12
312.787	100.12
313.017	94.12
313.246	101.12
313.476	91.12
313.706	88.12
313.935	98.12
314.165	91.12
314.394	99.12
314.624	111.12
314.853	92.12
315.083	101.12
315.312	89.12
315.542	101.12
315.771	106.12
316.001	80.12
316.23	99.12
316.46	93.12
316.689	92.12
316.919	76.12
317.148	100.12
317.377	95.12
317.607	110.12
317.836	97.12
318.065	97.12
318.295	98.12
318.524	88.12
318.753	99.12
318.983	94.12
319.212	102.12
319.441	104.12
319.67	102.12
319.9	99.12
320.129	87.12
320.358	80.12
320.587	102.12
320.816	108.12
321.046	102.12
321.275	96.12
321.504	92.12
321.733	94.12
321.962	104.12
322.191	89.12
322.42	98.12
322.649	110.12
322.878	115.12
323.108	123.12
323.337	119.12
323.566	130.12
323.795	147.12
324.024	180.12
324.253	327.12
324.482	706.12
324.71	1392.12
324.939	1799.12
325.168	685.12
325.397	229.12
325.626	136.12
325.855	114.12
326.084	122.12
326.313	110.12
326.542	133.12
326.77	200.12
326.999	381.12
327.228	806.12
327.457	1422.12
327.686	1134.12
327.914	338.12
328.143	192.12
328.372	138.12
328.6	126.12
328.829	132.12
329.058	132.12
329.287	120.12
329.515	106.12
329.744	104.12
329.972	115.12
330.201	132.12
330.43	142.12
330.658	141.12
330.887	133.12
331.115	110.12
331.344	96.12
331.572	98.12
331.801	102.12
332.03	100.12
332.258	94.12
332.486	99.12
332.715	99.12
332.943	93.12
333.172	94.12
333.4	108.12
333.629	102.12
333.857	122.12
334.085	111.12
334.314	126.12
334.542	169.12
334.771	169.12
334.999	110.12
335.227	82.12
335.455	105.12
335.684	108.12
335.912	90.12
336.14	108.12
336.369	110.12
336.597	86.12
336.825	92.12
337.053	100.12
337.281	111.12
337.51	102.12
337.738	85.12
337.966	97.12
338.194	111.12
338.422	94.12
338.65	110.12
338.878	91.12
339.106	89.12
339.334	102.12
339.562	99.12
339.79	96.12
340.018	94.12
340.246	93.12
340.474	103.12
340.702	109.12
340.93	110.12
341.158	101.12
341.386	108.12
341.614	103.12
341.842	103.12
342.07	88.12
342.298	91.12
342.526	102.12
342.754	92.12
342.981	88.12
343.209	94.12
343.437	87.12
343.665	103.12
343.893	85.12
344.12	86.12
344.348	84.12
344.576	96.12
344.804	99.12
345.031	108.12
345.259	103.12
345.487	97.12
345.714	96.12
345.942	82.12
346.17	102.12
346.397	93.12
346.625	106.12
346.853	97.12
347.08	84.12
347.308	80.12
347.535	100.12
347.763	101.12
347.99	102.12
348.218	100.12
348.445	88.12
348.673	96.12
348.9	95.12
349.128	99.12
349.355	110.12
349.583	87.12
349.81	85.12
350.037	97.12
350.265	100.12
350.492	91.12
350.72	90.12
350.947	109.12
351.174	117.12
351.402	109.12
351.629	99.12
351.856	91.12
352.083	118.12
352.311	107.12
352.538	100.12
352.765	108.12
352.992	108.12
353.22	101.12
353.447	102.12
353.674	98.12
353.901	101.12
354.128	110.12
354.355	100.12
354.583	94.12
354.81	94.12
355.037	93.12
355.264	96.12
355.491	96.12
355.718	97.12
355.945	102.12
356.172	93.12
356.399	95.12
356.626	112.12
356.853	95.12
357.08	100.12
357.307	84.12
357.534	89.12
357.761	87.12
357.988	99.12
358.215	102.12
358.441	84.12
358.668	95.12
358.895	95.12
359.122	86.12
359.349	101.12
359.576	93.12
359.802	92.12
360.029	97.12
360.256	101.12
360.483	106.12
360.709	100.12
360.936	95.12
361.163	101.12
361.39	92.12
361.616	109.12
361.843	93.12
362.07	117.12
362.296	99.12
362.523	86.12
362.749	96.12
362.976	98.12
363.203	80.12
363.429	93.12
363.656	84.12
363.882	102.12
364.109	96.12
364.335	97.12
364.562	92.12
364.788	85.12
365.015	100.12
365.241	96.12
365.468	105.12
365.694	98.12
365.92	94.12
366.147	99.12
366.373	96.12
366.599	102.12
366.826	81.12
367.052	97.12
367.278	85.12
367.505	90.12
367.731	92.12
367.957	89.12
368.184	87.12
368.41	87.12
368.636	101.12
368.862	108.12
369.089	101.12
369.315	98.12
369.541	86.12
369.767	104.12
369.993	90.12
370.219	98.12
370.445	91.12
370.672	88.12
370.898	86.12
371.124	86.12
371.35	86.12
371.576	77.12
371.802	86.12
372.028	89.12
372.254	96.12
372.48	91.12
372.706	92.12
372.932	87.12
373.158	99.12
373.384	88.12
373.61	87.12
373.835	96.12
374.061	82.12
374.287	105.12
374.513	94.12
374.739	82.12
374.965	80.12
375.191	93.12
375.416	84.12
375.642	83.12
375.868	96.12
376.094	92.12
376.319	101.12
376.545	86.12
376.771	90.12
376.997	101.12
377.222	83.12
377.448	90.12
377.674	89.12
377.899	82.12
378.125	112.12
378.35	101.12
378.576	102.12
378.802	102.12
379.027	95.12
379.253	102.12
379.478	92.12
379.704	85.12
379.929	100.12
380.155	97.12
380.38	107.12
380.606	96.12
380.831	93.12
381.057	89.12
381.282	99.12
381.507	97.12
381.733	91.12
381.958	108.12
382.184	105.12
382.409	87.12
382.634	104.12
382.86	114.12
383.085	100.12
383.31	93.12
383.535	94.12
383.761	97.12
383.986	106.12
384.211	100.12
384.436	98.12
384.662	99.12
384.887	101.12
385.112	108.12
385.337	84.12
385.562	102.12
385.787	89.12
386.013	101.12
386.238	110.12
386.463	104.12
386.688	106.12
386.913	103.12
387.138	107.12
387.363	94.12
387.588	101.12
387.813	104.12
388.038	100.12
388.263	110.12
388.488	104.12
388.713	100.12
388.938	93.12
389.163	87.12
389.387	98.12
389.612	94.12
389.837	109.12
390.062	84.12
390.287	93.12
390.512	93.12
390.736	87.12
390.961	104.12
391.186	102.12
391.411	86.12
391.636	90.12
391.86	91.12
392.085	88.12
392.31	92.12
392.534	83.12
392.759	87.12
392.984	77.12
393.208	89.12
393.433	85.12
393.658	91.12
393.882	84.12
394.107	98.12
394.331	88.12
394.556	83.12
394.78	101.12
395.005	87.12
395.229	93.12
395.454	84.12
395.678	108.12
395.903	81.12
396.127	96.12
396.352	100.12
396.576	92.12
396.801	77.12
397.025	82.12
397.249	106.12
397.474	77.12
397.698	74.12
397.922	80.12
398.147	93.12
398.371	99.12
398.595	97.12
398.82	78.12
399.044	90.12
399.268	94.12
399.492	87.12
399.717	87.12
399.941	99.12
400.165	98.12
400.389	103.12
400.613	89.12
400.837	90.12
401.062	100.12
401.286	86.12
401.51	100.12
401.734	88.12
401.958	98.12
402.182	121.12
402.406	140.12
402.63	119.12
402.854	91.12
403.078	71.12
403.302	81.12
403.526	98.12
403.75	90.12
403.974	98.12
404.198	73.12
404.422	95.12
404.645	97.12
404.869	87.12
405.093	100.12
405.317	94.12
405.541	111.12
405.765	116.12
405.988	104.12
406.212	149.12
406.436	183.12
406.66	121.12
406.883	100.12
407.107	91.12
407.331	87.12
407.555	94.12
407.778	104.12
408.002	83.12
408.226	95.12
408.449	103.12
408.673	92.12
408.896	110.12
409.12	95.12
409.344	98.12
409.567	86.12
409.791	74.12
410.014	85.12
410.238	90.12
410.461	95.12
410.685	96.12
410.908	94.12
411.132	98.12
411.355	100.12
411.578	85.12
411.802	87.12
412.025	88.12
412.249	90.12
412.472	99.12
412.695	97.12
412.919	94.12
413.142	80.12
413.365	76.12
413.589	100.12
413.812	99.12
414.035	105.12
414.258	94.12
414.482	91.12
414.705	92.12
414.928	99.12
415.151	107.12
415.374	96.12
415.597	94.12
415.821	102.12
416.044	92.12
416.267	90.12
416.49	95.12
416.713	87.12
416.936	97.12
417.159	92.12
417.382	101.12
417.605	95.12
417.828	104.12
418.051	88.12
418.274	100.12
418.497	80.12
418.72	85.12
418.943	97.12
419.166	89.12
419.389	97.12
419.611	91.12
419.834	82.12
420.057	90.12
420.28	88.12
420.503	97.12
420.726	92.12
420.948	78.12
421.171	90.12
421.394	94.12
421.617	102.12
421.839	92.12
422.062	94.12
422.285	95.12
422.507	106.12
422.73	101.12
422.953	99.12
423.175	97.12
423.398	102.12
423.621	108.12
423.843	83.12
424.066	92.12
424.288	88.12
424.511	93.12
424.733	100.12
424.956	103.12
425.178	101.12
425.401	104.12
425.623	97.12
425.846	87.12
426.068	90.12
426.291	93.12
426.513	92.12
426.735	107.12
426.958	99.12
427.18	109.12
427.402	132.12
427.625	145.12
427.847	129.12
428.069	104.12
428.292	101.12
428.514	98.12
428.736	92.12
428.958	85.12
429.181	89.12
429.403	88.12
429.625	95.12
429.847	88.12
430.069	104.12
430.292	90.12
430.514	98.12
430.736	83.12
430.958	87.12
431.18	82.12
431.402	93.12
431.624	80.12
431.846	84.12
432.068	78.12
432.29	82.12
432.512	99.12
432.734	92.12
432.956	90.12
433.178	99.12
433.4	108.12
433.622	86.12
433.844	79.12
434.066	93.12
434.287	100.12
434.509	95.12
434.731	94.12
434.953	90.12
435.175	97.12
435.397	99.12
435.618	103.12
435.84	101.12
436.062	119.12
436.284	113.12
436.505	95.12
436.727	100.12
436.949	100.12
437.17	95.12
437.392	78.12
437.614	89.12
437.835	107.12
438.057	103.12
438.278	106.12
438.5	103.12
438.721	118.12
438.943	104.12
439.165	97.12
439.386	100.12
439.608	99.12
439.829	106.12
440.05	110.12
440.272	136.12
440.493	99.12
440.715	82.12
440.936	90.12
441.158	91.12
441.379	72.12
441.6	87.12
441.822	98.12
442.043	95.12
442.264	107.12
442.486	95.12
442.707	88.12
442.928	81.12
443.149	119.12
443.371	128.12
443.592	111.12
443.813	103.12
444.034	101.12
444.255	92.12
444.476	95.12
444.698	92.12
444.919	91.12
445.14	122.12
445.361	117.12
445.582	117.12
445.803	136.12
446.024	118.12
446.245	116.12
446.466	111.12
446.687	91.12
446.908	90.12
447.129	89.12
447.35	99.12
447.571	99.12
447.792	96.12
448.013	104.12
448.234	94.12
448.455	98.12
448.675	114.12
448.896	120.12
449.117	103.12
449.338	109.12
449.559	134.12
449.779	124.12
450	83.12
450.221	107.12
450.442	97.12
450.662	96.12
450.883	116.12
451.104	107.12
451.324	98.12
451.545	92.12
451.766	98.12
451.986	78.12
452.207	90.12
452.428	94.12
452.648	82.12
452.869	119.12
453.089	115.12
453.31	103.12
453.53	91.12
453.751	93.12
453.971	94.12
454.192	98.12
454.412	105.12
454.633	87.12
454.853	86.12
455.073	83.12
455.294	76.12
455.514	98.12
455.734	107.12
455.955	88.12
456.175	94.12
456.395	93.12
456.616	82.12
456.836	94.12
457.056	86.12
457.276	100.12
457.497	74.12
457.717	97.12
457.937	82.12
458.157	96.12
458.377	102.12
458.598	99.12
458.818	133.12
459.038	144.12
459.258	109.12
459.478	95.12
459.698	82.12
459.918	96.12
460.138	93.12
460.358	88.12
460.578	97.12
460.798	94.12
461.018	78.12
461.238	93.12
461.458	91.12
461.678	94.12
461.898	85.12
462.118	78.12
462.338	84.12
462.558	102.12
462.777	84.12
462.997	76.12
463.217	86.12
463.437	101.12
463.657	90.12
463.876	86.12
464.096	94.12
464.316	94.12
464.536	99.12
464.755	103.12
464.975	107.12
465.195	140.12
465.414	131.12
465.634	86.12
465.854	72.12
466.073	85.12
466.293	104.12
466.512	96.12
466.732	91.12
466.951	102.12
467.171	95.12
467.391	94.12
467.61	103.12
467.829	103.12
468.049	98.12
468.268	109.12
468.488	95.12
468.707	92.12
468.927	78.12
469.146	100.12
469.365	101.12
469.585	93.12
469.804	95.12
470.023	78.12
470.243	99.12
470.462	93.12
470.681	101.12
470.901	107.12
471.12	93.12
471.339	90.12
471.558	88.12
471.777	80.12
471.997	93.12
472.216	128.12
472.435	191.12
472.654	110.12
472.873	90.12
473.092	97.12
473.311	90.12
473.53	97.12
473.749	80.12
473.968	87.12
474.187	113.12
474.406	93.12
474.625	85.12
474.844	91.12
475.063	86.12
475.282	104.12
475.501	81.12
475.72	82.12
475.939	85.12
476.158	79.12
476.377	69.12
476.596	86.12
476.814	90.12
477.033	82.12
477.252	85.12
477.471	79.12
477.69	99.12
477.908	107.12
478.127	94.12
478.346	100.12
478.564	85.12
478.783	97.12
479.002	87.12
479.22	93.12
479.439	92.12
479.658	97.12
479.876	88.12
480.095	105.12
480.313	90.12
480.532	84.12
480.751	109.12
480.969	124.12
481.188	264.12
481.406	197.12
481.624	103.12
481.843	93.12
482.061	91.12
482.28	88.12
482.498	91.12
482.717	91.12
482.935	100.12
483.153	94.12
483.372	90.12
483.59	85.12
483.808	98.12
484.027	104.12
484.245	113.12
484.463	108.12
484.681	101.12
484.9	90.12
485.118	95.12
485.336	99.12
485.554	104.12
485.772	102.12
485.99	111.12
486.209	105.12
486.427	98.12
486.645	112.12
486.863	109.12
487.081	92.12
487.299	103.12
487.517	111.12
487.735	98.12
487.953	94.12
488.171	91.12
488.389	96.12
488.607	103.12
488.825	90.12
489.043	86.12
489.261	101.12
489.479	100.12
489.696	88.12
489.914	82.12
490.132	86.12
490.35	95.12
490.568	91.12
490.786	99.12
491.003	101.12
491.221	86.12
491.439	91.12
491.657	89.12
491.874	95.12
492.092	99.12
492.31	95.12
492.527	92.12
492.745	90.12
492.963	90.12
493.18	74.12
493.398	90.12
493.615	102.12
493.833	109.12
494.05	101.12
494.268	97.12
494.485	104.12
494.703	82.12
494.92	99.12
495.138	89.12
495.355	93.12
495.573	86.12
495.79	98.12
496.008	96.12
496.225	102.12
496.442	83.12
496.66	106.12
496.877	100.12
497.094	95.12
497.312	95.12
497.529	94.12
497.746	89.12
497.963	92.12
498.181	94.12
498.398	112.12
498.615	105.12
498.832	111.12
499.049	106.12
499.267	90.12
499.484	98.12
499.701	86.12
499.918	97.12
500.135	84.12
500.352	90.12
500.569	89.12
500.786	91.12
501.003	95.12
501.22	98.12
501.437	94.12
501.654	92.12
501.871	97.12
502.088	101.12
502.305	88.12
502.522	84.12
502.739	97.12
502.956	113.12
503.172	93.12
503.389	91.12
503.606	98.12
503.823	95.12
504.04	91.12
504.256	90.12
504.473	78.12
504.69	91.12
504.907	98.12
505.123	99.12
505.34	72.12
505.557	101.12
505.773	90.12
505.99	92.12
506.207	96.12
506.423	106.12
506.64	78.12
506.856	99.12
507.073	89.12
507.289	84.12
507.506	104.12
507.722	98.12
507.939	112.12
508.155	116.12
508.372	84.12
508.588	95.12
508.805	93.12
509.021	88.12
509.238	107.12
509.454	108.12
509.67	101.12
509.887	103.12
510.103	127.12
510.319	192.12
510.536	675.12
510.752	2126.12
510.968	591.12
511.184	159.12
511.401	110.12
511.617	102.12
511.833	83.12
512.049	100.12
512.265	92.12
512.481	107.12
512.698	92.12
512.914	93.12
513.13	83.12
513.346	99.12
513.562	98.12
513.778	96.12
513.994	96.12
514.21	101.12
514.426	109.12
514.642	110.12
