Data from Circ_1994_H10_HRD10591_00003.txt Node
Date: Wed Jan 03 11:40:31 EST 2024
User: Yrep
Spectrometer: HR+D1059
Trigger mode: 1
Integration Time (sec): 1.000000E-1
Scans to average: 1
Electric dark correction enabled: true
Nonlinearity correction enabled: false
Boxcar width: 0
XAxis mode: Wavelengths
Number of Pixels in Spectrum: 2048
>>>>>Begin Spectral Data<<<<<
223.165	-17.56
223.4	-17.56
223.635	-17.56
223.869	-16.56
224.104	-30.56
224.338	-22.56
224.573	-17.56
224.808	-0.56
225.042	-6.56
225.277	4.44
225.511	-11.56
225.746	0.44
225.98	3.44
226.215	0.44
226.449	11.44
226.683	30.44
226.918	43.44
227.152	29.44
227.387	22.44
227.621	43.44
227.856	36.44
228.09	37.44
228.324	47.44
228.559	53.44
228.793	61.44
229.027	66.44
229.262	58.44
229.496	53.44
229.73	91.44
229.964	77.44
230.199	68.44
230.433	63.44
230.667	71.44
230.901	69.44
231.136	76.44
231.37	94.44
231.604	78.44
231.838	65.44
232.072	84.44
232.306	77.44
232.541	92.44
232.775	81.44
233.009	76.44
233.243	81.44
233.477	76.44
233.711	88.44
233.945	94.44
234.179	90.44
234.413	74.44
234.647	66.44
234.881	78.44
235.115	76.44
235.349	66.44
235.583	73.44
235.817	74.44
236.051	83.44
236.285	83.44
236.519	66.44
236.753	87.44
236.987	83.44
237.221	75.44
237.455	74.44
237.689	75.44
237.922	80.44
238.156	67.44
238.39	80.44
238.624	76.44
238.858	67.44
239.091	80.44
239.325	78.44
239.559	68.44
239.793	77.44
240.027	79.44
240.26	75.44
240.494	81.44
240.728	89.44
240.961	76.44
241.195	93.44
241.429	73.44
241.662	67.44
241.896	91.44
242.13	78.44
242.363	79.44
242.597	88.44
242.83	86.44
243.064	80.44
243.298	75.44
243.531	54.44
243.765	83.44
243.998	70.44
244.232	74.44
244.465	84.44
244.699	65.44
244.932	76.44
245.166	72.44
245.399	83.44
245.633	79.44
245.866	84.44
246.099	78.44
246.333	70.44
246.566	83.44
246.8	89.44
247.033	78.44
247.266	77.44
247.5	84.44
247.733	93.44
247.966	76.44
248.2	69.44
248.433	83.44
248.666	78.44
248.899	70.44
249.133	92.44
249.366	81.44
249.599	101.44
249.832	86.44
250.066	80.44
250.299	88.44
250.532	86.44
250.765	91.44
250.998	83.44
251.231	83.44
251.465	83.44
251.698	82.44
251.931	85.44
252.164	74.44
252.397	62.44
252.63	96.44
252.863	77.44
253.096	80.44
253.329	89.44
253.562	81.44
253.795	71.44
254.028	85.44
254.261	82.44
254.494	84.44
254.727	85.44
254.96	78.44
255.193	88.44
255.426	82.44
255.659	77.44
255.892	95.44
256.124	83.44
256.357	87.44
256.59	93.44
256.823	91.44
257.056	91.44
257.289	71.44
257.521	93.44
257.754	73.44
257.987	76.44
258.22	84.44
258.452	77.44
258.685	88.44
258.918	83.44
259.151	71.44
259.383	84.44
259.616	83.44
259.849	87.44
260.081	74.44
260.314	92.44
260.547	68.44
260.779	80.44
261.012	76.44
261.244	84.44
261.477	90.44
261.71	79.44
261.942	91.44
262.175	113.44
262.407	93.44
262.64	78.44
262.872	95.44
263.105	92.44
263.337	92.44
263.57	80.44
263.802	72.44
264.035	74.44
264.267	93.44
264.499	75.44
264.732	80.44
264.964	88.44
265.197	81.44
265.429	91.44
265.661	83.44
265.894	86.44
266.126	89.44
266.358	81.44
266.591	91.44
266.823	89.44
267.055	91.44
267.287	81.44
267.52	98.44
267.752	81.44
267.984	99.44
268.216	77.44
268.448	83.44
268.681	75.44
268.913	92.44
269.145	89.44
269.377	95.44
269.609	76.44
269.841	92.44
270.073	83.44
270.306	87.44
270.538	92.44
270.77	79.44
271.002	81.44
271.234	95.44
271.466	85.44
271.698	76.44
271.93	68.44
272.162	88.44
272.394	82.44
272.626	99.44
272.858	85.44
273.09	66.44
273.322	94.44
273.553	85.44
273.785	87.44
274.017	97.44
274.249	91.44
274.481	73.44
274.713	97.44
274.945	88.44
275.176	79.44
275.408	83.44
275.64	79.44
275.872	87.44
276.104	65.44
276.335	79.44
276.567	89.44
276.799	96.44
277.031	92.44
277.262	101.44
277.494	90.44
277.726	100.44
277.957	92.44
278.189	81.44
278.421	87.44
278.652	85.44
278.884	99.44
279.115	87.44
279.347	96.44
279.579	95.44
279.81	83.44
280.042	90.44
280.273	92.44
280.505	95.44
280.736	82.44
280.968	87.44
281.199	94.44
281.431	92.44
281.662	83.44
281.894	95.44
282.125	93.44
282.356	95.44
282.588	115.44
282.819	97.44
283.051	88.44
283.282	90.44
283.513	99.44
283.745	94.44
283.976	86.44
284.207	84.44
284.439	82.44
284.67	90.44
284.901	87.44
285.132	88.44
285.364	92.44
285.595	88.44
285.826	98.44
286.057	84.44
286.288	89.44
286.52	84.44
286.751	91.44
286.982	89.44
287.213	91.44
287.444	88.44
287.675	100.44
287.906	96.44
288.138	93.44
288.369	91.44
288.6	98.44
288.831	83.44
289.062	96.44
289.293	91.44
289.524	84.44
289.755	90.44
289.986	91.44
290.217	79.44
290.448	81.44
290.679	82.44
290.91	89.44
291.141	90.44
291.371	90.44
291.602	92.44
291.833	92.44
292.064	83.44
292.295	90.44
292.526	77.44
292.757	89.44
292.987	90.44
293.218	78.44
293.449	103.44
293.68	87.44
293.91	87.44
294.141	84.44
294.372	79.44
294.603	91.44
294.833	73.44
295.064	89.44
295.295	76.44
295.525	95.44
295.756	107.44
295.987	112.44
296.217	129.44
296.448	119.44
296.679	98.44
296.909	99.44
297.14	76.44
297.37	95.44
297.601	107.44
297.831	89.44
298.062	81.44
298.292	78.44
298.523	93.44
298.753	90.44
298.984	90.44
299.214	88.44
299.445	93.44
299.675	90.44
299.905	98.44
300.136	107.44
300.366	91.44
300.597	77.44
300.827	85.44
301.057	91.44
301.288	95.44
301.518	99.44
301.748	83.44
301.979	114.44
302.209	96.44
302.439	90.44
302.669	95.44
302.9	79.44
303.13	94.44
303.36	110.44
303.59	92.44
303.82	93.44
304.051	103.44
304.281	92.44
304.511	100.44
304.741	88.44
304.971	95.44
305.201	100.44
305.431	82.44
305.661	91.44
305.891	90.44
306.121	90.44
306.352	105.44
306.582	93.44
306.812	99.44
307.042	88.44
307.272	88.44
307.502	91.44
307.731	102.44
307.961	85.44
308.191	93.44
308.421	88.44
308.651	86.44
308.881	95.44
309.111	98.44
309.341	95.44
309.571	96.44
309.8	88.44
310.03	92.44
310.26	98.44
310.49	80.44
310.72	75.44
310.949	83.44
311.179	104.44
311.409	103.44
311.639	104.44
311.868	106.44
312.098	90.44
312.328	90.44
312.557	97.44
312.787	94.44
313.017	97.44
313.246	102.44
313.476	98.44
313.706	91.44
313.935	89.44
314.165	92.44
314.394	99.44
314.624	87.44
314.853	92.44
315.083	83.44
315.312	91.44
315.542	91.44
315.771	99.44
316.001	88.44
316.23	91.44
316.46	90.44
316.689	78.44
316.919	99.44
317.148	90.44
317.377	101.44
317.607	99.44
317.836	95.44
318.065	89.44
318.295	87.44
318.524	94.44
318.753	87.44
318.983	102.44
319.212	100.44
319.441	84.44
319.67	95.44
319.9	90.44
320.129	88.44
320.358	95.44
320.587	101.44
320.816	95.44
321.046	97.44
321.275	107.44
321.504	92.44
321.733	92.44
321.962	89.44
322.191	97.44
322.42	112.44
322.649	105.44
322.878	110.44
323.108	109.44
323.337	110.44
323.566	121.44
323.795	131.44
324.024	165.44
324.253	308.44
324.482	641.44
324.71	1261.44
324.939	1638.44
325.168	611.44
325.397	203.44
325.626	124.44
325.855	120.44
326.084	119.44
326.313	111.44
326.542	127.44
326.77	190.44
326.999	355.44
327.228	734.44
327.457	1290.44
327.686	1019.44
327.914	289.44
328.143	171.44
328.372	137.44
328.6	106.44
328.829	105.44
329.058	113.44
329.287	117.44
329.515	105.44
329.744	93.44
329.972	85.44
330.201	108.44
330.43	107.44
330.658	111.44
330.887	123.44
331.115	115.44
331.344	83.44
331.572	106.44
331.801	97.44
332.03	105.44
332.258	93.44
332.486	105.44
332.715	95.44
332.943	89.44
333.172	95.44
333.4	83.44
333.629	92.44
333.857	107.44
334.085	95.44
334.314	91.44
334.542	108.44
334.771	114.44
334.999	97.44
335.227	99.44
335.455	102.44
335.684	101.44
335.912	106.44
336.14	106.44
336.369	93.44
336.597	105.44
336.825	97.44
337.053	96.44
337.281	96.44
337.51	100.44
337.738	89.44
337.966	92.44
338.194	81.44
338.422	100.44
338.65	94.44
338.878	93.44
339.106	92.44
339.334	105.44
339.562	106.44
339.79	95.44
340.018	78.44
340.246	94.44
340.474	92.44
340.702	93.44
340.93	94.44
341.158	86.44
341.386	100.44
341.614	105.44
341.842	88.44
342.07	100.44
342.298	118.44
342.526	91.44
342.754	96.44
342.981	89.44
343.209	100.44
343.437	89.44
343.665	101.44
343.893	82.44
344.12	95.44
344.348	90.44
344.576	99.44
344.804	91.44
345.031	81.44
345.259	94.44
345.487	90.44
345.714	88.44
345.942	82.44
346.17	96.44
346.397	84.44
346.625	92.44
346.853	90.44
347.08	79.44
347.308	89.44
347.535	97.44
347.763	90.44
347.99	106.44
348.218	108.44
348.445	94.44
348.673	93.44
348.9	95.44
349.128	87.44
349.355	88.44
349.583	95.44
349.81	95.44
350.037	88.44
350.265	94.44
350.492	100.44
350.72	88.44
350.947	99.44
351.174	100.44
351.402	106.44
351.629	103.44
351.856	114.44
352.083	115.44
352.311	97.44
352.538	106.44
352.765	116.44
352.992	122.44
353.22	115.44
353.447	102.44
353.674	107.44
353.901	88.44
354.128	104.44
354.355	97.44
354.583	105.44
354.81	104.44
355.037	112.44
355.264	100.44
355.491	93.44
355.718	95.44
355.945	83.44
356.172	101.44
356.399	98.44
356.626	91.44
356.853	88.44
357.08	98.44
357.307	98.44
357.534	91.44
357.761	88.44
357.988	100.44
358.215	106.44
358.441	93.44
358.668	99.44
358.895	86.44
359.122	87.44
359.349	95.44
359.576	90.44
359.802	97.44
360.029	98.44
360.256	96.44
360.483	103.44
360.709	89.44
360.936	104.44
361.163	93.44
361.39	92.44
361.616	97.44
361.843	102.44
362.07	84.44
362.296	100.44
362.523	93.44
362.749	82.44
362.976	87.44
363.203	96.44
363.429	83.44
363.656	97.44
363.882	88.44
364.109	95.44
364.335	68.44
364.562	82.44
364.788	96.44
365.015	80.44
365.241	80.44
365.468	96.44
365.694	101.44
365.92	105.44
366.147	99.44
366.373	88.44
366.599	77.44
366.826	90.44
367.052	82.44
367.278	89.44
367.505	85.44
367.731	95.44
367.957	81.44
368.184	91.44
368.41	99.44
368.636	92.44
368.862	102.44
369.089	105.44
369.315	87.44
369.541	87.44
369.767	104.44
369.993	87.44
370.219	79.44
370.445	74.44
370.672	77.44
370.898	93.44
371.124	88.44
371.35	80.44
371.576	72.44
371.802	94.44
372.028	85.44
372.254	77.44
372.48	84.44
372.706	94.44
372.932	93.44
373.158	91.44
373.384	82.44
373.61	95.44
373.835	81.44
374.061	88.44
374.287	80.44
374.513	89.44
374.739	93.44
374.965	100.44
375.191	85.44
375.416	101.44
375.642	90.44
375.868	82.44
376.094	80.44
376.319	91.44
376.545	92.44
376.771	96.44
376.997	105.44
377.222	83.44
377.448	78.44
377.674	79.44
377.899	72.44
378.125	88.44
378.35	94.44
378.576	96.44
378.802	86.44
379.027	98.44
379.253	91.44
379.478	76.44
379.704	77.44
379.929	101.44
380.155	102.44
380.38	93.44
380.606	95.44
380.831	104.44
381.057	109.44
381.282	94.44
381.507	97.44
381.733	92.44
381.958	90.44
382.184	104.44
382.409	81.44
382.634	99.44
382.86	107.44
383.085	104.44
383.31	105.44
383.535	96.44
383.761	96.44
383.986	89.44
384.211	82.44
384.436	93.44
384.662	106.44
384.887	91.44
385.112	103.44
385.337	87.44
385.562	109.44
385.787	104.44
386.013	111.44
386.238	107.44
386.463	114.44
386.688	98.44
386.913	100.44
387.138	104.44
387.363	92.44
387.588	91.44
387.813	101.44
388.038	106.44
388.263	110.44
388.488	104.44
388.713	103.44
388.938	97.44
389.163	105.44
389.387	90.44
389.612	89.44
389.837	80.44
390.062	85.44
390.287	92.44
390.512	83.44
390.736	100.44
390.961	94.44
391.186	88.44
391.411	86.44
391.636	93.44
391.86	96.44
392.085	84.44
392.31	79.44
392.534	80.44
392.759	89.44
392.984	81.44
393.208	84.44
393.433	115.44
393.658	77.44
393.882	82.44
394.107	88.44
394.331	67.44
394.556	95.44
394.78	80.44
395.005	83.44
395.229	83.44
395.454	92.44
395.678	89.44
395.903	97.44
396.127	85.44
396.352	82.44
396.576	105.44
396.801	84.44
397.025	84.44
397.249	92.44
397.474	76.44
397.698	93.44
397.922	90.44
398.147	89.44
398.371	79.44
398.595	90.44
398.82	80.44
399.044	82.44
399.268	84.44
399.492	85.44
399.717	81.44
399.941	94.44
400.165	94.44
400.389	94.44
400.613	72.44
400.837	81.44
401.062	88.44
401.286	98.44
401.51	72.44
401.734	89.44
401.958	94.44
402.182	105.44
402.406	123.44
402.63	114.44
402.854	93.44
403.078	84.44
403.302	84.44
403.526	91.44
403.75	86.44
403.974	80.44
404.198	87.44
404.422	89.44
404.645	94.44
404.869	84.44
405.093	88.44
405.317	89.44
405.541	87.44
405.765	87.44
405.988	107.44
406.212	138.44
406.436	191.44
406.66	103.44
406.883	92.44
407.107	106.44
407.331	84.44
407.555	91.44
407.778	79.44
408.002	86.44
408.226	99.44
408.449	67.44
408.673	83.44
408.896	94.44
409.12	98.44
409.344	98.44
409.567	91.44
409.791	89.44
410.014	109.44
410.238	84.44
410.461	87.44
410.685	88.44
410.908	89.44
411.132	102.44
411.355	83.44
411.578	74.44
411.802	78.44
412.025	99.44
412.249	89.44
412.472	86.44
412.695	85.44
412.919	90.44
413.142	87.44
413.365	77.44
413.589	96.44
413.812	83.44
414.035	93.44
414.258	73.44
414.482	84.44
414.705	78.44
414.928	95.44
415.151	90.44
415.374	93.44
415.597	92.44
415.821	95.44
416.044	84.44
416.267	91.44
416.49	97.44
416.713	98.44
416.936	89.44
417.159	77.44
417.382	95.44
417.605	82.44
417.828	86.44
418.051	103.44
418.274	95.44
418.497	83.44
418.72	74.44
418.943	88.44
419.166	89.44
419.389	87.44
419.611	92.44
419.834	100.44
420.057	94.44
420.28	84.44
420.503	81.44
420.726	91.44
420.948	92.44
421.171	84.44
421.394	80.44
421.617	84.44
421.839	75.44
422.062	89.44
422.285	87.44
422.507	97.44
422.73	99.44
422.953	86.44
423.175	83.44
423.398	81.44
423.621	89.44
423.843	98.44
424.066	99.44
424.288	98.44
424.511	93.44
424.733	83.44
424.956	106.44
425.178	89.44
425.401	89.44
425.623	79.44
425.846	83.44
426.068	88.44
426.291	90.44
426.513	108.44
426.735	99.44
426.958	93.44
427.18	84.44
427.402	117.44
427.625	139.44
427.847	120.44
428.069	97.44
428.292	85.44
428.514	88.44
428.736	72.44
428.958	80.44
429.181	93.44
429.403	88.44
429.625	76.44
429.847	90.44
430.069	92.44
430.292	88.44
430.514	79.44
430.736	72.44
430.958	82.44
431.18	79.44
431.402	82.44
431.624	88.44
431.846	93.44
432.068	104.44
432.29	89.44
432.512	92.44
432.734	83.44
432.956	94.44
433.178	90.44
433.4	93.44
433.622	91.44
433.844	75.44
434.066	77.44
434.287	93.44
434.509	82.44
434.731	76.44
434.953	78.44
435.175	89.44
435.397	91.44
435.618	96.44
435.84	97.44
436.062	105.44
436.284	93.44
436.505	97.44
436.727	100.44
436.949	82.44
437.17	81.44
437.392	87.44
437.614	84.44
437.835	90.44
438.057	106.44
438.278	108.44
438.5	96.44
438.721	88.44
438.943	91.44
439.165	74.44
439.386	83.44
439.608	77.44
439.829	106.44
440.05	107.44
440.272	125.44
440.493	84.44
440.715	81.44
440.936	67.44
441.158	80.44
441.379	93.44
441.6	93.44
441.822	88.44
442.043	88.44
442.264	104.44
442.486	105.44
442.707	91.44
442.928	93.44
443.149	114.44
443.371	104.44
443.592	101.44
443.813	107.44
444.034	108.44
444.255	77.44
444.476	83.44
444.698	81.44
444.919	88.44
445.14	123.44
445.361	118.44
445.582	100.44
445.803	126.44
446.024	113.44
446.245	100.44
446.466	101.44
446.687	88.44
446.908	79.44
447.129	85.44
447.35	89.44
447.571	94.44
447.792	78.44
448.013	90.44
448.234	97.44
448.455	90.44
448.675	101.44
448.896	100.44
449.117	92.44
449.338	98.44
449.559	105.44
449.779	124.44
450	104.44
450.221	90.44
450.442	97.44
450.662	96.44
450.883	92.44
451.104	82.44
451.324	101.44
451.545	88.44
451.766	83.44
451.986	75.44
452.207	95.44
452.428	81.44
452.648	85.44
452.869	98.44
453.089	98.44
453.31	89.44
453.53	98.44
453.751	80.44
453.971	108.44
454.192	86.44
454.412	89.44
454.633	94.44
454.853	83.44
455.073	79.44
455.294	80.44
455.514	94.44
455.734	91.44
455.955	87.44
456.175	75.44
456.395	73.44
456.616	85.44
456.836	83.44
457.056	84.44
457.276	87.44
457.497	81.44
457.717	83.44
457.937	93.44
458.157	81.44
458.377	90.44
458.598	98.44
458.818	128.44
459.038	132.44
459.258	102.44
459.478	98.44
459.698	79.44
459.918	81.44
460.138	76.44
460.358	89.44
460.578	92.44
460.798	96.44
461.018	90.44
461.238	95.44
461.458	92.44
461.678	88.44
461.898	88.44
462.118	90.44
462.338	73.44
462.558	72.44
462.777	78.44
462.997	79.44
463.217	81.44
463.437	87.44
463.657	92.44
463.876	90.44
464.096	99.44
464.316	94.44
464.536	93.44
464.755	108.44
464.975	94.44
465.195	132.44
465.414	121.44
465.634	86.44
465.854	95.44
466.073	69.44
466.293	87.44
466.512	93.44
466.732	90.44
466.951	79.44
467.171	93.44
467.391	73.44
467.61	80.44
467.829	80.44
468.049	87.44
468.268	88.44
468.488	88.44
468.707	68.44
468.927	87.44
469.146	76.44
469.365	84.44
469.585	92.44
469.804	92.44
470.023	81.44
470.243	91.44
470.462	88.44
470.681	101.44
470.901	85.44
471.12	84.44
471.339	88.44
471.558	92.44
471.777	90.44
471.997	87.44
472.216	105.44
472.435	89.44
472.654	96.44
472.873	88.44
473.092	80.44
473.311	86.44
473.53	109.44
473.749	81.44
473.968	91.44
474.187	82.44
474.406	105.44
474.625	103.44
474.844	79.44
475.063	80.44
475.282	73.44
475.501	91.44
475.72	83.44
475.939	88.44
476.158	87.44
476.377	91.44
476.596	67.44
476.814	84.44
477.033	92.44
477.252	92.44
477.471	80.44
477.69	76.44
477.908	85.44
478.127	98.44
478.346	92.44
478.564	88.44
478.783	98.44
479.002	88.44
479.22	72.44
479.439	89.44
479.658	73.44
479.876	87.44
480.095	78.44
480.313	98.44
480.532	99.44
480.751	95.44
480.969	94.44
481.188	124.44
481.406	96.44
481.624	93.44
481.843	91.44
482.061	89.44
482.28	84.44
482.498	92.44
482.717	95.44
482.935	90.44
483.153	95.44
483.372	88.44
483.59	83.44
483.808	88.44
484.027	92.44
484.245	92.44
484.463	88.44
484.681	96.44
484.9	94.44
485.118	85.44
485.336	72.44
485.554	106.44
485.772	94.44
485.99	95.44
486.209	91.44
486.427	109.44
486.645	94.44
486.863	110.44
487.081	81.44
487.299	98.44
487.517	76.44
487.735	80.44
487.953	91.44
488.171	99.44
488.389	91.44
488.607	93.44
488.825	92.44
489.043	93.44
489.261	86.44
489.479	102.44
489.696	87.44
489.914	100.44
490.132	81.44
490.35	95.44
490.568	89.44
490.786	95.44
491.003	80.44
491.221	92.44
491.439	83.44
491.657	91.44
491.874	92.44
492.092	81.44
492.31	78.44
492.527	83.44
492.745	84.44
492.963	90.44
493.18	78.44
493.398	97.44
493.615	97.44
493.833	91.44
494.05	88.44
494.268	79.44
494.485	93.44
494.703	100.44
494.92	90.44
495.138	87.44
495.355	94.44
495.573	95.44
495.79	85.44
496.008	97.44
496.225	91.44
496.442	85.44
496.66	75.44
496.877	66.44
497.094	91.44
497.312	89.44
497.529	95.44
497.746	102.44
497.963	84.44
498.181	87.44
498.398	93.44
498.615	107.44
498.832	105.44
499.049	81.44
499.267	80.44
499.484	106.44
499.701	78.44
499.918	95.44
500.135	79.44
500.352	80.44
500.569	90.44
500.786	87.44
501.003	87.44
501.22	93.44
501.437	82.44
501.654	92.44
501.871	85.44
502.088	89.44
502.305	95.44
502.522	104.44
502.739	82.44
502.956	89.44
503.172	76.44
503.389	109.44
503.606	106.44
503.823	97.44
504.04	87.44
504.256	91.44
504.473	87.44
504.69	91.44
504.907	94.44
505.123	96.44
505.34	91.44
505.557	81.44
505.773	89.44
505.99	88.44
506.207	104.44
506.423	93.44
506.64	95.44
506.856	99.44
507.073	103.44
507.289	101.44
507.506	92.44
507.722	108.44
507.939	100.44
508.155	96.44
508.372	90.44
508.588	99.44
508.805	95.44
509.021	88.44
509.238	83.44
509.454	98.44
509.67	80.44
509.887	110.44
510.103	107.44
510.319	177.44
510.536	605.44
510.752	1848.44
510.968	505.44
511.184	149.44
511.401	95.44
511.617	97.44
511.833	86.44
512.049	88.44
512.265	89.44
512.481	95.44
512.698	77.44
512.914	82.44
513.13	100.44
513.346	89.44
513.562	81.44
513.778	87.44
513.994	98.44
514.21	102.44
514.426	96.44
514.642	113.44
514.858	110.44
515.074	143.44
515.29	337.44
515.506	1003.44
515.721	396.44
515.937	141.44
516.153	92.44
516.369	77.44
516.585	100.44
