Data from Circ_1994_H10_HRD10591_00058.txt Node
Date: Wed Jan 03 11:40:42 EST 2024
User: Yrep
Spectrometer: HR+D1059
Trigger mode: 1
Integration Time (sec): 1.000000E-1
Scans to average: 1
Electric dark correction enabled: true
Nonlinearity correction enabled: false
Boxcar width: 0
XAxis mode: Wavelengths
Number of Pixels in Spectrum: 2048
>>>>>Begin Spectral Data<<<<<
223.165	-12.75
223.4	-12.75
223.635	-12.75
223.869	-21.75
224.104	-14.75
224.338	-23.75
224.573	-19.75
224.808	-13.75
225.042	-5.75
225.277	-4.75
225.511	3.25
225.746	0.25
225.98	-3.75
226.215	19.25
226.449	11.25
226.683	25.25
226.918	22.25
227.152	39.25
227.387	35.25
227.621	38.25
227.856	36.25
228.09	40.25
228.324	43.25
228.559	46.25
228.793	59.25
229.027	55.25
229.262	70.25
229.496	70.25
229.73	85.25
229.964	75.25
230.199	64.25
230.433	79.25
230.667	76.25
230.901	81.25
231.136	85.25
231.37	69.25
231.604	74.25
231.838	78.25
232.072	85.25
232.306	86.25
232.541	76.25
232.775	86.25
233.009	66.25
233.243	75.25
233.477	71.25
233.711	72.25
233.945	89.25
234.179	65.25
234.413	63.25
234.647	76.25
234.881	73.25
235.115	61.25
235.349	87.25
235.583	76.25
235.817	89.25
236.051	73.25
236.285	73.25
236.519	78.25
236.753	85.25
236.987	79.25
237.221	84.25
237.455	69.25
237.689	63.25
237.922	92.25
238.156	73.25
238.39	76.25
238.624	74.25
238.858	58.25
239.091	77.25
239.325	82.25
239.559	76.25
239.793	63.25
240.027	77.25
240.26	55.25
240.494	73.25
240.728	66.25
240.961	84.25
241.195	77.25
241.429	61.25
241.662	67.25
241.896	77.25
242.13	73.25
242.363	74.25
242.597	80.25
242.83	75.25
243.064	78.25
243.298	85.25
243.531	77.25
243.765	83.25
243.998	74.25
244.232	80.25
244.465	76.25
244.699	88.25
244.932	86.25
245.166	78.25
245.399	90.25
245.633	70.25
245.866	77.25
246.099	76.25
246.333	55.25
246.566	89.25
246.8	71.25
247.033	69.25
247.266	71.25
247.5	75.25
247.733	70.25
247.966	92.25
248.2	84.25
248.433	79.25
248.666	73.25
248.899	103.25
249.133	85.25
249.366	89.25
249.599	100.25
249.832	73.25
250.066	98.25
250.299	71.25
250.532	76.25
250.765	67.25
250.998	79.25
251.231	93.25
251.465	70.25
251.698	69.25
251.931	80.25
252.164	86.25
252.397	71.25
252.63	89.25
252.863	74.25
253.096	71.25
253.329	81.25
253.562	81.25
253.795	66.25
254.028	88.25
254.261	77.25
254.494	74.25
254.727	67.25
254.96	68.25
255.193	65.25
255.426	83.25
255.659	73.25
255.892	72.25
256.124	93.25
256.357	80.25
256.59	75.25
256.823	58.25
257.056	78.25
257.289	76.25
257.521	81.25
257.754	71.25
257.987	70.25
258.22	98.25
258.452	81.25
258.685	89.25
258.918	83.25
259.151	85.25
259.383	64.25
259.616	74.25
259.849	82.25
260.081	80.25
260.314	72.25
260.547	80.25
260.779	80.25
261.012	90.25
261.244	75.25
261.477	89.25
261.71	81.25
261.942	89.25
262.175	117.25
262.407	78.25
262.64	79.25
262.872	76.25
263.105	79.25
263.337	75.25
263.57	75.25
263.802	90.25
264.035	82.25
264.267	78.25
264.499	66.25
264.732	97.25
264.964	81.25
265.197	85.25
265.429	90.25
265.661	71.25
265.894	81.25
266.126	81.25
266.358	68.25
266.591	73.25
266.823	78.25
267.055	77.25
267.287	81.25
267.52	87.25
267.752	73.25
267.984	95.25
268.216	87.25
268.448	67.25
268.681	88.25
268.913	85.25
269.145	80.25
269.377	88.25
269.609	78.25
269.841	85.25
270.073	69.25
270.306	76.25
270.538	82.25
270.77	85.25
271.002	85.25
271.234	83.25
271.466	70.25
271.698	82.25
271.93	77.25
272.162	82.25
272.394	87.25
272.626	97.25
272.858	90.25
273.09	91.25
273.322	85.25
273.553	71.25
273.785	67.25
274.017	84.25
274.249	96.25
274.481	86.25
274.713	79.25
274.945	81.25
275.176	81.25
275.408	80.25
275.64	88.25
275.872	77.25
276.104	79.25
276.335	98.25
276.567	90.25
276.799	112.25
277.031	99.25
277.262	85.25
277.494	81.25
277.726	75.25
277.957	84.25
278.189	85.25
278.421	96.25
278.652	77.25
278.884	90.25
279.115	81.25
279.347	81.25
279.579	92.25
279.81	89.25
280.042	89.25
280.273	76.25
280.505	79.25
280.736	104.25
280.968	86.25
281.199	78.25
281.431	70.25
281.662	82.25
281.894	103.25
282.125	88.25
282.356	93.25
282.588	119.25
282.819	111.25
283.051	86.25
283.282	79.25
283.513	69.25
283.745	75.25
283.976	87.25
284.207	94.25
284.439	90.25
284.67	86.25
284.901	86.25
285.132	77.25
285.364	86.25
285.595	70.25
285.826	86.25
286.057	78.25
286.288	78.25
286.52	93.25
286.751	96.25
286.982	73.25
287.213	82.25
287.444	89.25
287.675	86.25
287.906	95.25
288.138	93.25
288.369	104.25
288.6	98.25
288.831	95.25
289.062	91.25
289.293	90.25
289.524	80.25
289.755	87.25
289.986	75.25
290.217	90.25
290.448	86.25
290.679	89.25
290.91	76.25
291.141	71.25
291.371	84.25
291.602	92.25
291.833	90.25
292.064	93.25
292.295	73.25
292.526	78.25
292.757	92.25
292.987	73.25
293.218	85.25
293.449	89.25
293.68	94.25
293.91	73.25
294.141	96.25
294.372	80.25
294.603	91.25
294.833	89.25
295.064	90.25
295.295	94.25
295.525	97.25
295.756	103.25
295.987	88.25
296.217	142.25
296.448	105.25
296.679	94.25
296.909	92.25
297.14	88.25
297.37	97.25
297.601	80.25
297.831	95.25
298.062	84.25
298.292	86.25
298.523	95.25
298.753	89.25
298.984	86.25
299.214	90.25
299.445	91.25
299.675	90.25
299.905	85.25
300.136	83.25
300.366	91.25
300.597	80.25
300.827	85.25
301.057	89.25
301.288	97.25
301.518	86.25
301.748	78.25
301.979	102.25
302.209	90.25
302.439	95.25
302.669	89.25
302.9	97.25
303.13	97.25
303.36	92.25
303.59	106.25
303.82	110.25
304.051	99.25
304.281	95.25
304.511	82.25
304.741	89.25
304.971	99.25
305.201	82.25
305.431	89.25
305.661	87.25
305.891	81.25
306.121	99.25
306.352	96.25
306.582	84.25
306.812	87.25
307.042	100.25
307.272	77.25
307.502	90.25
307.731	86.25
307.961	78.25
308.191	89.25
308.421	100.25
308.651	96.25
308.881	89.25
309.111	81.25
309.341	69.25
309.571	102.25
309.8	92.25
310.03	90.25
310.26	95.25
310.49	83.25
310.72	92.25
310.949	85.25
311.179	86.25
311.409	94.25
311.639	91.25
311.868	90.25
312.098	80.25
312.328	85.25
312.557	81.25
312.787	99.25
313.017	96.25
313.246	92.25
313.476	81.25
313.706	86.25
313.935	98.25
314.165	90.25
314.394	95.25
314.624	89.25
314.853	97.25
315.083	88.25
315.312	108.25
315.542	92.25
315.771	89.25
316.001	90.25
316.23	77.25
316.46	85.25
316.689	88.25
316.919	82.25
317.148	97.25
317.377	86.25
317.607	89.25
317.836	85.25
318.065	82.25
318.295	87.25
318.524	89.25
318.753	89.25
318.983	88.25
319.212	105.25
319.441	104.25
319.67	89.25
319.9	97.25
320.129	73.25
320.358	85.25
320.587	103.25
320.816	99.25
321.046	106.25
321.275	108.25
321.504	84.25
321.733	86.25
321.962	92.25
322.191	100.25
322.42	88.25
322.649	90.25
322.878	95.25
323.108	114.25
323.337	113.25
323.566	118.25
323.795	137.25
324.024	172.25
324.253	325.25
324.482	661.25
324.71	1311.25
324.939	1687.25
325.168	634.25
325.397	209.25
325.626	131.25
325.855	106.25
326.084	109.25
326.313	127.25
326.542	126.25
326.77	177.25
326.999	375.25
327.228	738.25
327.457	1306.25
327.686	1045.25
327.914	306.25
328.143	185.25
328.372	139.25
328.6	129.25
328.829	102.25
329.058	122.25
329.287	136.25
329.515	101.25
329.744	100.25
329.972	105.25
330.201	129.25
330.43	149.25
330.658	133.25
330.887	118.25
331.115	118.25
331.344	95.25
331.572	99.25
331.801	87.25
332.03	110.25
332.258	94.25
332.486	85.25
332.715	85.25
332.943	84.25
333.172	73.25
333.4	95.25
333.629	109.25
333.857	114.25
334.085	116.25
334.314	133.25
334.542	148.25
334.771	169.25
334.999	101.25
335.227	86.25
335.455	99.25
335.684	95.25
335.912	86.25
336.14	78.25
336.369	97.25
336.597	104.25
336.825	72.25
337.053	93.25
337.281	94.25
337.51	82.25
337.738	105.25
337.966	105.25
338.194	99.25
338.422	104.25
338.65	91.25
338.878	96.25
339.106	77.25
339.334	97.25
339.562	90.25
339.79	85.25
340.018	88.25
340.246	94.25
340.474	85.25
340.702	89.25
340.93	86.25
341.158	82.25
341.386	98.25
341.614	100.25
341.842	81.25
342.07	89.25
342.298	85.25
342.526	85.25
342.754	81.25
342.981	100.25
343.209	92.25
343.437	114.25
343.665	89.25
343.893	78.25
344.12	89.25
344.348	81.25
344.576	85.25
344.804	89.25
345.031	109.25
345.259	91.25
345.487	89.25
345.714	95.25
345.942	80.25
346.17	85.25
346.397	103.25
346.625	116.25
346.853	86.25
347.08	97.25
347.308	105.25
347.535	97.25
347.763	92.25
347.99	76.25
348.218	94.25
348.445	96.25
348.673	97.25
348.9	87.25
349.128	104.25
349.355	96.25
349.583	89.25
349.81	77.25
350.037	88.25
350.265	93.25
350.492	90.25
350.72	99.25
350.947	99.25
351.174	100.25
351.402	98.25
351.629	102.25
351.856	94.25
352.083	95.25
352.311	99.25
352.538	98.25
352.765	115.25
352.992	102.25
353.22	99.25
353.447	95.25
353.674	91.25
353.901	109.25
354.128	91.25
354.355	103.25
354.583	103.25
354.81	98.25
355.037	97.25
355.264	94.25
355.491	97.25
355.718	103.25
355.945	79.25
356.172	77.25
356.399	92.25
356.626	81.25
356.853	103.25
357.08	109.25
357.307	95.25
357.534	96.25
357.761	92.25
357.988	95.25
358.215	92.25
358.441	96.25
358.668	90.25
358.895	89.25
359.122	89.25
359.349	90.25
359.576	107.25
359.802	98.25
360.029	117.25
360.256	88.25
360.483	98.25
360.709	78.25
360.936	96.25
361.163	96.25
361.39	86.25
361.616	101.25
361.843	103.25
362.07	82.25
362.296	81.25
362.523	88.25
362.749	81.25
362.976	93.25
363.203	91.25
363.429	78.25
363.656	97.25
363.882	91.25
364.109	95.25
364.335	109.25
364.562	93.25
364.788	92.25
365.015	92.25
365.241	95.25
365.468	100.25
365.694	95.25
365.92	82.25
366.147	101.25
366.373	88.25
366.599	85.25
366.826	86.25
367.052	86.25
367.278	80.25
367.505	75.25
367.731	84.25
367.957	94.25
368.184	71.25
368.41	97.25
368.636	85.25
368.862	107.25
369.089	91.25
369.315	88.25
369.541	93.25
369.767	88.25
369.993	89.25
370.219	90.25
370.445	92.25
370.672	79.25
370.898	103.25
371.124	89.25
371.35	93.25
371.576	75.25
371.802	73.25
372.028	89.25
372.254	88.25
372.48	82.25
372.706	97.25
372.932	78.25
373.158	73.25
373.384	95.25
373.61	85.25
373.835	98.25
374.061	82.25
374.287	83.25
374.513	95.25
374.739	77.25
374.965	79.25
375.191	85.25
375.416	71.25
375.642	98.25
375.868	83.25
376.094	67.25
376.319	82.25
376.545	96.25
376.771	82.25
376.997	97.25
377.222	73.25
377.448	88.25
377.674	79.25
377.899	83.25
378.125	90.25
378.35	89.25
378.576	77.25
378.802	98.25
379.027	78.25
379.253	92.25
379.478	86.25
379.704	79.25
379.929	85.25
380.155	97.25
380.38	97.25
380.606	105.25
380.831	95.25
381.057	89.25
381.282	81.25
381.507	95.25
381.733	106.25
381.958	90.25
382.184	90.25
382.409	105.25
382.634	99.25
382.86	107.25
383.085	88.25
383.31	93.25
383.535	95.25
383.761	81.25
383.986	96.25
384.211	96.25
384.436	89.25
384.662	93.25
384.887	112.25
385.112	101.25
385.337	92.25
385.562	93.25
385.787	93.25
386.013	103.25
386.238	93.25
386.463	89.25
386.688	90.25
386.913	89.25
387.138	83.25
387.363	83.25
387.588	96.25
387.813	109.25
388.038	90.25
388.263	98.25
388.488	117.25
388.713	98.25
388.938	95.25
389.163	99.25
389.387	93.25
389.612	86.25
389.837	99.25
390.062	104.25
390.287	91.25
390.512	79.25
390.736	102.25
390.961	87.25
391.186	92.25
391.411	89.25
391.636	93.25
391.86	90.25
392.085	88.25
392.31	82.25
392.534	97.25
392.759	94.25
392.984	77.25
393.208	85.25
393.433	101.25
393.658	97.25
393.882	77.25
394.107	88.25
394.331	69.25
394.556	85.25
394.78	82.25
395.005	89.25
395.229	80.25
395.454	84.25
395.678	77.25
395.903	88.25
396.127	95.25
396.352	89.25
396.576	82.25
396.801	89.25
397.025	86.25
397.249	92.25
397.474	88.25
397.698	70.25
397.922	89.25
398.147	81.25
398.371	91.25
398.595	101.25
398.82	95.25
399.044	77.25
399.268	63.25
399.492	87.25
399.717	93.25
399.941	85.25
400.165	89.25
400.389	96.25
400.613	86.25
400.837	91.25
401.062	87.25
401.286	84.25
401.51	73.25
401.734	81.25
401.958	78.25
402.182	111.25
402.406	153.25
402.63	110.25
402.854	86.25
403.078	90.25
403.302	84.25
403.526	91.25
403.75	85.25
403.974	69.25
404.198	90.25
404.422	93.25
404.645	89.25
404.869	80.25
405.093	101.25
405.317	98.25
405.541	96.25
405.765	75.25
405.988	103.25
406.212	150.25
406.436	177.25
406.66	121.25
406.883	92.25
407.107	87.25
407.331	101.25
407.555	92.25
407.778	102.25
408.002	98.25
408.226	91.25
408.449	101.25
408.673	97.25
408.896	92.25
409.12	84.25
409.344	89.25
409.567	88.25
409.791	82.25
410.014	81.25
410.238	108.25
410.461	90.25
410.685	93.25
410.908	89.25
411.132	103.25
411.355	81.25
411.578	89.25
411.802	85.25
412.025	86.25
412.249	93.25
412.472	85.25
412.695	74.25
412.919	80.25
413.142	81.25
413.365	80.25
413.589	87.25
413.812	90.25
414.035	74.25
414.258	74.25
414.482	104.25
414.705	97.25
414.928	95.25
415.151	74.25
415.374	74.25
415.597	86.25
415.821	80.25
416.044	104.25
416.267	79.25
416.49	85.25
416.713	66.25
416.936	82.25
417.159	73.25
417.382	88.25
417.605	88.25
417.828	97.25
418.051	82.25
418.274	89.25
418.497	88.25
418.72	90.25
418.943	94.25
419.166	87.25
419.389	80.25
419.611	78.25
419.834	91.25
420.057	90.25
420.28	93.25
420.503	92.25
420.726	90.25
420.948	76.25
421.171	84.25
421.394	82.25
421.617	75.25
421.839	101.25
422.062	92.25
422.285	90.25
422.507	88.25
422.73	102.25
422.953	87.25
423.175	87.25
423.398	98.25
423.621	81.25
423.843	86.25
424.066	79.25
424.288	92.25
424.511	98.25
424.733	81.25
424.956	92.25
425.178	99.25
425.401	85.25
425.623	94.25
425.846	103.25
426.068	85.25
426.291	87.25
426.513	87.25
426.735	79.25
426.958	91.25
427.18	96.25
427.402	121.25
427.625	149.25
427.847	122.25
428.069	111.25
428.292	88.25
428.514	95.25
428.736	93.25
428.958	74.25
429.181	79.25
429.403	95.25
429.625	80.25
429.847	75.25
430.069	104.25
430.292	80.25
430.514	83.25
430.736	80.25
430.958	79.25
431.18	91.25
431.402	87.25
431.624	81.25
431.846	84.25
432.068	74.25
432.29	77.25
432.512	91.25
432.734	79.25
432.956	96.25
433.178	95.25
433.4	94.25
433.622	82.25
433.844	90.25
434.066	87.25
434.287	89.25
434.509	77.25
434.731	94.25
434.953	85.25
435.175	74.25
435.397	83.25
435.618	80.25
435.84	98.25
436.062	110.25
436.284	93.25
436.505	88.25
436.727	104.25
436.949	85.25
437.17	91.25
437.392	78.25
437.614	87.25
437.835	93.25
438.057	109.25
438.278	81.25
438.5	90.25
438.721	102.25
438.943	109.25
439.165	87.25
439.386	85.25
439.608	88.25
439.829	86.25
440.05	100.25
440.272	117.25
440.493	82.25
440.715	97.25
440.936	71.25
441.158	83.25
441.379	106.25
441.6	88.25
441.822	96.25
442.043	99.25
442.264	88.25
442.486	82.25
442.707	81.25
442.928	95.25
443.149	115.25
443.371	127.25
443.592	108.25
443.813	105.25
444.034	94.25
444.255	95.25
444.476	87.25
444.698	82.25
444.919	87.25
445.14	125.25
445.361	106.25
445.582	113.25
445.803	113.25
446.024	108.25
446.245	116.25
446.466	95.25
446.687	87.25
446.908	82.25
447.129	69.25
447.35	85.25
447.571	91.25
447.792	91.25
448.013	85.25
448.234	104.25
448.455	94.25
448.675	104.25
448.896	109.25
449.117	95.25
449.338	91.25
449.559	106.25
449.779	112.25
450	92.25
450.221	81.25
450.442	93.25
450.662	72.25
450.883	104.25
451.104	105.25
451.324	81.25
451.545	91.25
451.766	69.25
451.986	88.25
452.207	84.25
452.428	86.25
452.648	89.25
452.869	90.25
453.089	97.25
453.31	87.25
453.53	93.25
453.751	82.25
453.971	86.25
454.192	99.25
454.412	93.25
454.633	87.25
454.853	89.25
455.073	88.25
455.294	95.25
455.514	97.25
455.734	91.25
455.955	73.25
456.175	86.25
456.395	86.25
456.616	73.25
456.836	97.25
457.056	75.25
457.276	81.25
457.497	93.25
457.717	90.25
457.937	90.25
458.157	82.25
458.377	82.25
458.598	99.25
458.818	126.25
459.038	150.25
459.258	109.25
459.478	98.25
459.698	100.25
459.918	82.25
460.138	67.25
460.358	75.25
460.578	84.25
460.798	81.25
461.018	93.25
461.238	89.25
461.458	94.25
461.678	97.25
461.898	93.25
462.118	90.25
462.338	89.25
462.558	92.25
462.777	91.25
462.997	87.25
463.217	95.25
463.437	89.25
463.657	83.25
463.876	94.25
464.096	82.25
464.316	89.25
464.536	102.25
464.755	86.25
464.975	98.25
465.195	129.25
465.414	134.25
465.634	85.25
465.854	95.25
466.073	79.25
466.293	91.25
466.512	82.25
466.732	89.25
466.951	91.25
467.171	86.25
467.391	93.25
467.61	86.25
467.829	81.25
468.049	105.25
468.268	114.25
468.488	91.25
468.707	80.25
468.927	75.25
469.146	85.25
469.365	89.25
469.585	95.25
469.804	86.25
470.023	96.25
470.243	90.25
470.462	98.25
470.681	103.25
470.901	102.25
471.12	78.25
471.339	87.25
471.558	102.25
471.777	85.25
471.997	93.25
472.216	141.25
472.435	197.25
472.654	100.25
472.873	93.25
473.092	75.25
473.311	79.25
473.53	80.25
473.749	85.25
473.968	112.25
474.187	96.25
474.406	80.25
474.625	77.25
474.844	90.25
475.063	97.25
475.282	86.25
475.501	76.25
475.72	86.25
475.939	74.25
476.158	77.25
476.377	77.25
476.596	94.25
476.814	94.25
477.033	93.25
477.252	77.25
477.471	91.25
477.69	90.25
477.908	95.25
478.127	71.25
478.346	81.25
478.564	80.25
478.783	78.25
479.002	93.25
479.22	94.25
479.439	104.25
479.658	89.25
479.876	84.25
480.095	76.25
480.313	98.25
480.532	105.25
480.751	96.25
480.969	141.25
481.188	314.25
481.406	217.25
481.624	104.25
481.843	89.25
482.061	88.25
482.28	84.25
482.498	76.25
482.717	79.25
482.935	94.25
483.153	83.25
483.372	86.25
483.59	93.25
483.808	82.25
484.027	82.25
484.245	95.25
484.463	92.25
484.681	96.25
484.9	82.25
485.118	99.25
485.336	105.25
485.554	93.25
485.772	98.25
485.99	93.25
486.209	93.25
486.427	95.25
486.645	105.25
486.863	99.25
487.081	91.25
487.299	84.25
487.517	96.25
487.735	95.25
487.953	95.25
488.171	109.25
488.389	88.25
488.607	104.25
488.825	88.25
489.043	95.25
489.261	76.25
489.479	81.25
489.696	90.25
489.914	95.25
490.132	80.25
490.35	84.25
490.568	92.25
490.786	91.25
491.003	90.25
491.221	85.25
491.439	87.25
491.657	83.25
491.874	85.25
492.092	104.25
492.31	100.25
492.527	73.25
492.745	75.25
492.963	82.25
493.18	83.25
493.398	92.25
493.615	84.25
493.833	104.25
494.05	84.25
494.268	81.25
494.485	71.25
494.703	84.25
494.92	90.25
495.138	79.25
495.355	95.25
495.573	91.25
495.79	91.25
496.008	81.25
496.225	87.25
496.442	82.25
496.66	87.25
496.877	93.25
497.094	107.25
497.312	77.25
497.529	84.25
497.746	77.25
497.963	81.25
498.181	85.25
498.398	87.25
498.615	105.25
498.832	95.25
499.049	92.25
499.267	99.25
499.484	73.25
499.701	93.25
499.918	75.25
500.135	72.25
500.352	69.25
500.569	81.25
500.786	82.25
501.003	80.25
501.22	83.25
501.437	84.25
501.654	88.25
501.871	99.25
502.088	93.25
502.305	94.25
502.522	71.25
502.739	84.25
502.956	78.25
503.172	87.25
503.389	102.25
503.606	105.25
503.823	85.25
504.04	93.25
504.256	84.25
504.473	89.25
504.69	94.25
504.907	89.25
505.123	77.25
505.34	93.25
505.557	77.25
505.773	82.25
505.99	90.25
506.207	82.25
506.423	102.25
506.64	95.25
506.856	99.25
507.073	88.25
507.289	92.25
507.506	97.25
507.722	114.25
507.939	117.25
508.155	90.25
508.372	87.25
508.588	108.25
508.805	97.25
509.021	103.25
509.238	91.25
509.454	81.25
509.67	81.25
509.887	111.25
510.103	115.25
510.319	206.25
510.536	656.25
510.752	2013.25
510.968	569.25
511.184	134.25
511.401	101.25
511.617	99.25
511.833	91.25
512.049	92.25
512.265	91.25
512.481	98.25
512.698	108.25
512.914	101.25
513.13	93.25
513.346	96.25
513.562	91.25
513.778	94.25
513.994	96.25
514.21	90.25
514.426	99.25
514.642	112.25
514.858	112.25
515.074	132.25
515.29	348.25
515.506	1140.25
515.721	430.25
515.937	151.25
516.153	106.25
516.369	93.25
516.585	93.25
516.801	82.25
517.016	97.25
