Data from Circ_1994_H10_HRD10591_00006.txt Node
Date: Wed Jan 03 11:40:31 EST 2024
User: Yrep
Spectrometer: HR+D1059
Trigger mode: 1
Integration Time (sec): 1.000000E-1
Scans to average: 1
Electric dark correction enabled: true
Nonlinearity correction enabled: false
Boxcar width: 0
XAxis mode: Wavelengths
Number of Pixels in Spectrum: 2048
>>>>>Begin Spectral Data<<<<<
223.165	-18.31
223.4	-18.31
223.635	-18.31
223.869	-17.31
224.104	-20.31
224.338	-17.31
224.573	-18.31
224.808	-16.31
225.042	-3.31
225.277	-9.31
225.511	2.69
225.746	2.69
225.98	11.69
226.215	2.69
226.449	24.69
226.683	28.69
226.918	22.69
227.152	24.69
227.387	31.69
227.621	33.69
227.856	60.69
228.09	36.69
228.324	45.69
228.559	52.69
228.793	51.69
229.027	47.69
229.262	52.69
229.496	79.69
229.73	64.69
229.964	75.69
230.199	72.69
230.433	75.69
230.667	67.69
230.901	74.69
231.136	68.69
231.37	89.69
231.604	67.69
231.838	84.69
232.072	74.69
232.306	86.69
232.541	86.69
232.775	70.69
233.009	84.69
233.243	70.69
233.477	78.69
233.711	75.69
233.945	82.69
234.179	90.69
234.413	83.69
234.647	82.69
234.881	68.69
235.115	86.69
235.349	67.69
235.583	72.69
235.817	71.69
236.051	87.69
236.285	65.69
236.519	82.69
236.753	78.69
236.987	85.69
237.221	75.69
237.455	66.69
237.689	78.69
237.922	89.69
238.156	67.69
238.39	75.69
238.624	77.69
238.858	82.69
239.091	83.69
239.325	68.69
239.559	67.69
239.793	78.69
240.027	86.69
240.26	77.69
240.494	79.69
240.728	75.69
240.961	70.69
241.195	74.69
241.429	76.69
241.662	78.69
241.896	64.69
242.13	66.69
242.363	81.69
242.597	74.69
242.83	82.69
243.064	76.69
243.298	74.69
243.531	73.69
243.765	75.69
243.998	70.69
244.232	79.69
244.465	88.69
244.699	82.69
244.932	86.69
245.166	96.69
245.399	78.69
245.633	68.69
245.866	82.69
246.099	73.69
246.333	80.69
246.566	72.69
246.8	67.69
247.033	82.69
247.266	90.69
247.5	76.69
247.733	79.69
247.966	76.69
248.2	76.69
248.433	73.69
248.666	75.69
248.899	77.69
249.133	78.69
249.366	80.69
249.599	85.69
249.832	88.69
250.066	77.69
250.299	83.69
250.532	84.69
250.765	68.69
250.998	75.69
251.231	87.69
251.465	96.69
251.698	64.69
251.931	82.69
252.164	95.69
252.397	94.69
252.63	89.69
252.863	88.69
253.096	74.69
253.329	91.69
253.562	89.69
253.795	70.69
254.028	83.69
254.261	74.69
254.494	87.69
254.727	74.69
254.96	78.69
255.193	92.69
255.426	70.69
255.659	77.69
255.892	84.69
256.124	67.69
256.357	79.69
256.59	88.69
256.823	68.69
257.056	95.69
257.289	74.69
257.521	81.69
257.754	84.69
257.987	78.69
258.22	75.69
258.452	83.69
258.685	81.69
258.918	85.69
259.151	92.69
259.383	78.69
259.616	78.69
259.849	90.69
260.081	75.69
260.314	85.69
260.547	82.69
260.779	72.69
261.012	91.69
261.244	81.69
261.477	72.69
261.71	84.69
261.942	112.69
262.175	113.69
262.407	76.69
262.64	82.69
262.872	70.69
263.105	86.69
263.337	73.69
263.57	73.69
263.802	90.69
264.035	94.69
264.267	78.69
264.499	70.69
264.732	82.69
264.964	90.69
265.197	86.69
265.429	86.69
265.661	91.69
265.894	74.69
266.126	84.69
266.358	90.69
266.591	86.69
266.823	78.69
267.055	75.69
267.287	88.69
267.52	105.69
267.752	81.69
267.984	78.69
268.216	83.69
268.448	93.69
268.681	68.69
268.913	88.69
269.145	81.69
269.377	75.69
269.609	90.69
269.841	75.69
270.073	80.69
270.306	94.69
270.538	86.69
270.77	87.69
271.002	73.69
271.234	88.69
271.466	92.69
271.698	70.69
271.93	83.69
272.162	73.69
272.394	74.69
272.626	83.69
272.858	85.69
273.09	88.69
273.322	77.69
273.553	60.69
273.785	76.69
274.017	74.69
274.249	79.69
274.481	78.69
274.713	94.69
274.945	91.69
275.176	77.69
275.408	92.69
275.64	92.69
275.872	67.69
276.104	86.69
276.335	84.69
276.567	97.69
276.799	93.69
277.031	113.69
277.262	99.69
277.494	85.69
277.726	79.69
277.957	79.69
278.189	91.69
278.421	75.69
278.652	87.69
278.884	84.69
279.115	81.69
279.347	75.69
279.579	87.69
279.81	87.69
280.042	89.69
280.273	98.69
280.505	72.69
280.736	94.69
280.968	89.69
281.199	86.69
281.431	95.69
281.662	84.69
281.894	83.69
282.125	81.69
282.356	93.69
282.588	108.69
282.819	108.69
283.051	95.69
283.282	81.69
283.513	82.69
283.745	71.69
283.976	84.69
284.207	90.69
284.439	86.69
284.67	96.69
284.901	79.69
285.132	81.69
285.364	67.69
285.595	86.69
285.826	74.69
286.057	89.69
286.288	82.69
286.52	75.69
286.751	79.69
286.982	91.69
287.213	93.69
287.444	72.69
287.675	91.69
287.906	96.69
288.138	99.69
288.369	95.69
288.6	85.69
288.831	83.69
289.062	77.69
289.293	86.69
289.524	89.69
289.755	95.69
289.986	86.69
290.217	79.69
290.448	80.69
290.679	71.69
290.91	76.69
291.141	85.69
291.371	82.69
291.602	96.69
291.833	94.69
292.064	81.69
292.295	82.69
292.526	82.69
292.757	89.69
292.987	92.69
293.218	81.69
293.449	94.69
293.68	94.69
293.91	83.69
294.141	82.69
294.372	81.69
294.603	92.69
294.833	90.69
295.064	106.69
295.295	96.69
295.525	80.69
295.756	98.69
295.987	107.69
296.217	102.69
296.448	127.69
296.679	90.69
296.909	92.69
297.14	96.69
297.37	83.69
297.601	80.69
297.831	77.69
298.062	88.69
298.292	78.69
298.523	103.69
298.753	71.69
298.984	98.69
299.214	94.69
299.445	95.69
299.675	92.69
299.905	86.69
300.136	98.69
300.366	75.69
300.597	91.69
300.827	88.69
301.057	95.69
301.288	103.69
301.518	87.69
301.748	78.69
301.979	80.69
302.209	84.69
302.439	74.69
302.669	87.69
302.9	88.69
303.13	87.69
303.36	83.69
303.59	95.69
303.82	92.69
304.051	109.69
304.281	97.69
304.511	86.69
304.741	83.69
304.971	79.69
305.201	86.69
305.431	98.69
305.661	82.69
305.891	88.69
306.121	96.69
306.352	104.69
306.582	107.69
306.812	100.69
307.042	95.69
307.272	85.69
307.502	94.69
307.731	83.69
307.961	74.69
308.191	88.69
308.421	84.69
308.651	89.69
308.881	102.69
309.111	88.69
309.341	84.69
309.571	92.69
309.8	91.69
310.03	95.69
310.26	98.69
310.49	79.69
310.72	90.69
310.949	97.69
311.179	98.69
311.409	84.69
311.639	95.69
311.868	87.69
312.098	103.69
312.328	97.69
312.557	95.69
312.787	109.69
313.017	91.69
313.246	89.69
313.476	94.69
313.706	76.69
313.935	82.69
314.165	95.69
314.394	74.69
314.624	96.69
314.853	87.69
315.083	99.69
315.312	98.69
315.542	90.69
315.771	86.69
316.001	92.69
316.23	91.69
316.46	103.69
316.689	106.69
316.919	86.69
317.148	89.69
317.377	93.69
317.607	79.69
317.836	90.69
318.065	85.69
318.295	94.69
318.524	90.69
318.753	88.69
318.983	93.69
319.212	106.69
319.441	108.69
319.67	101.69
319.9	84.69
320.129	88.69
320.358	95.69
320.587	87.69
320.816	93.69
321.046	99.69
321.275	103.69
321.504	102.69
321.733	91.69
321.962	98.69
322.191	87.69
322.42	103.69
322.649	94.69
322.878	109.69
323.108	97.69
323.337	103.69
323.566	111.69
323.795	137.69
324.024	178.69
324.253	307.69
324.482	628.69
324.71	1258.69
324.939	1578.69
325.168	603.69
325.397	203.69
325.626	130.69
325.855	104.69
326.084	119.69
326.313	112.69
326.542	148.69
326.77	184.69
326.999	359.69
327.228	715.69
327.457	1281.69
327.686	997.69
327.914	276.69
328.143	156.69
328.372	124.69
328.6	100.69
328.829	107.69
329.058	101.69
329.287	121.69
329.515	99.69
329.744	97.69
329.972	106.69
330.201	96.69
330.43	104.69
330.658	111.69
330.887	124.69
331.115	92.69
331.344	96.69
331.572	108.69
331.801	94.69
332.03	85.69
332.258	95.69
332.486	86.69
332.715	94.69
332.943	92.69
333.172	95.69
333.4	98.69
333.629	99.69
333.857	109.69
334.085	91.69
334.314	94.69
334.542	97.69
334.771	106.69
334.999	86.69
335.227	98.69
335.455	99.69
335.684	92.69
335.912	88.69
336.14	85.69
336.369	87.69
336.597	84.69
336.825	101.69
337.053	95.69
337.281	89.69
337.51	91.69
337.738	104.69
337.966	88.69
338.194	79.69
338.422	88.69
338.65	98.69
338.878	88.69
339.106	90.69
339.334	99.69
339.562	93.69
339.79	87.69
340.018	90.69
340.246	90.69
340.474	100.69
340.702	92.69
340.93	87.69
341.158	72.69
341.386	99.69
341.614	96.69
341.842	98.69
342.07	78.69
342.298	81.69
342.526	106.69
342.754	74.69
342.981	99.69
343.209	92.69
343.437	85.69
343.665	87.69
343.893	88.69
344.12	96.69
344.348	94.69
344.576	105.69
344.804	100.69
345.031	87.69
345.259	90.69
345.487	96.69
345.714	95.69
345.942	112.69
346.17	74.69
346.397	73.69
346.625	106.69
346.853	103.69
347.08	76.69
347.308	90.69
347.535	99.69
347.763	100.69
347.99	105.69
348.218	90.69
348.445	92.69
348.673	103.69
348.9	105.69
349.128	82.69
349.355	83.69
349.583	103.69
349.81	84.69
350.037	84.69
350.265	93.69
350.492	92.69
350.72	92.69
350.947	97.69
351.174	103.69
351.402	117.69
351.629	115.69
351.856	106.69
352.083	103.69
352.311	110.69
352.538	112.69
352.765	112.69
352.992	99.69
353.22	125.69
353.447	111.69
353.674	99.69
353.901	89.69
354.128	97.69
354.355	74.69
354.583	99.69
354.81	92.69
355.037	96.69
355.264	96.69
355.491	91.69
355.718	94.69
355.945	88.69
356.172	93.69
356.399	80.69
356.626	102.69
356.853	92.69
357.08	98.69
357.307	95.69
357.534	85.69
357.761	89.69
357.988	96.69
358.215	96.69
358.441	80.69
358.668	92.69
358.895	97.69
359.122	106.69
359.349	81.69
359.576	89.69
359.802	107.69
360.029	105.69
360.256	108.69
360.483	92.69
360.709	98.69
360.936	93.69
361.163	95.69
361.39	81.69
361.616	92.69
361.843	90.69
362.07	106.69
362.296	88.69
362.523	88.69
362.749	94.69
362.976	82.69
363.203	80.69
363.429	84.69
363.656	95.69
363.882	99.69
364.109	99.69
364.335	74.69
364.562	95.69
364.788	78.69
365.015	86.69
365.241	97.69
365.468	92.69
365.694	100.69
365.92	89.69
366.147	104.69
366.373	93.69
366.599	81.69
366.826	95.69
367.052	77.69
367.278	87.69
367.505	92.69
367.731	106.69
367.957	84.69
368.184	94.69
368.41	96.69
368.636	107.69
368.862	106.69
369.089	102.69
369.315	87.69
369.541	95.69
369.767	87.69
369.993	95.69
370.219	87.69
370.445	87.69
370.672	86.69
370.898	77.69
371.124	80.69
371.35	95.69
371.576	84.69
371.802	105.69
372.028	100.69
372.254	95.69
372.48	95.69
372.706	89.69
372.932	74.69
373.158	89.69
373.384	95.69
373.61	82.69
373.835	99.69
374.061	89.69
374.287	84.69
374.513	76.69
374.739	87.69
374.965	91.69
375.191	87.69
375.416	93.69
375.642	88.69
375.868	101.69
376.094	99.69
376.319	98.69
376.545	88.69
376.771	76.69
376.997	106.69
377.222	93.69
377.448	94.69
377.674	81.69
377.899	87.69
378.125	92.69
378.35	84.69
378.576	80.69
378.802	77.69
379.027	78.69
379.253	87.69
379.478	104.69
379.704	107.69
379.929	89.69
380.155	92.69
380.38	93.69
380.606	97.69
380.831	74.69
381.057	110.69
381.282	106.69
381.507	89.69
381.733	97.69
381.958	91.69
382.184	107.69
382.409	94.69
382.634	76.69
382.86	102.69
383.085	86.69
383.31	107.69
383.535	82.69
383.761	95.69
383.986	93.69
384.211	105.69
384.436	82.69
384.662	110.69
384.887	100.69
385.112	94.69
385.337	92.69
385.562	91.69
385.787	104.69
386.013	114.69
386.238	107.69
386.463	112.69
386.688	112.69
386.913	94.69
387.138	100.69
387.363	109.69
387.588	92.69
387.813	107.69
388.038	101.69
388.263	96.69
388.488	108.69
388.713	101.69
388.938	95.69
389.163	85.69
389.387	105.69
389.612	107.69
389.837	91.69
390.062	79.69
390.287	98.69
390.512	88.69
390.736	76.69
390.961	88.69
391.186	84.69
391.411	78.69
391.636	93.69
391.86	88.69
392.085	81.69
392.31	79.69
392.534	82.69
392.759	80.69
392.984	83.69
393.208	82.69
393.433	88.69
393.658	95.69
393.882	75.69
394.107	78.69
394.331	81.69
394.556	91.69
394.78	98.69
395.005	95.69
395.229	83.69
395.454	92.69
395.678	86.69
395.903	76.69
396.127	92.69
396.352	84.69
396.576	92.69
396.801	81.69
397.025	92.69
397.249	89.69
397.474	85.69
397.698	81.69
397.922	78.69
398.147	87.69
398.371	90.69
398.595	80.69
398.82	93.69
399.044	90.69
399.268	95.69
399.492	89.69
399.717	92.69
399.941	82.69
400.165	89.69
400.389	82.69
400.613	84.69
400.837	77.69
401.062	83.69
401.286	90.69
401.51	88.69
401.734	104.69
401.958	94.69
402.182	120.69
402.406	135.69
402.63	112.69
402.854	89.69
403.078	79.69
403.302	79.69
403.526	71.69
403.75	77.69
403.974	87.69
404.198	95.69
404.422	81.69
404.645	79.69
404.869	96.69
405.093	81.69
405.317	82.69
405.541	92.69
405.765	104.69
405.988	89.69
406.212	143.69
406.436	182.69
406.66	118.69
406.883	99.69
407.107	96.69
407.331	94.69
407.555	83.69
407.778	89.69
408.002	83.69
408.226	80.69
408.449	90.69
408.673	79.69
408.896	88.69
409.12	89.69
409.344	94.69
409.567	91.69
409.791	91.69
410.014	76.69
410.238	90.69
410.461	72.69
410.685	97.69
410.908	90.69
411.132	91.69
411.355	100.69
411.578	83.69
411.802	82.69
412.025	102.69
412.249	77.69
412.472	91.69
412.695	89.69
412.919	87.69
413.142	95.69
413.365	82.69
413.589	84.69
413.812	90.69
414.035	78.69
414.258	73.69
414.482	87.69
414.705	92.69
414.928	84.69
415.151	105.69
415.374	84.69
415.597	88.69
415.821	87.69
416.044	102.69
416.267	88.69
416.49	67.69
416.713	94.69
416.936	96.69
417.159	91.69
417.382	96.69
417.605	78.69
417.828	93.69
418.051	100.69
418.274	87.69
418.497	82.69
418.72	96.69
418.943	74.69
419.166	99.69
419.389	84.69
419.611	81.69
419.834	89.69
420.057	85.69
420.28	94.69
420.503	76.69
420.726	86.69
420.948	96.69
421.171	90.69
421.394	65.69
421.617	76.69
421.839	94.69
422.062	65.69
422.285	89.69
422.507	72.69
422.73	102.69
422.953	97.69
423.175	83.69
423.398	73.69
423.621	95.69
423.843	74.69
424.066	84.69
424.288	91.69
424.511	80.69
424.733	83.69
424.956	99.69
425.178	90.69
425.401	102.69
425.623	81.69
425.846	92.69
426.068	92.69
426.291	98.69
426.513	75.69
426.735	66.69
426.958	70.69
427.18	85.69
427.402	118.69
427.625	137.69
427.847	116.69
428.069	93.69
428.292	96.69
428.514	81.69
428.736	76.69
428.958	80.69
429.181	95.69
429.403	83.69
429.625	81.69
429.847	87.69
430.069	103.69
430.292	93.69
430.514	73.69
430.736	82.69
430.958	92.69
431.18	83.69
431.402	81.69
431.624	98.69
431.846	87.69
432.068	78.69
432.29	93.69
432.512	91.69
432.734	99.69
432.956	74.69
433.178	90.69
433.4	85.69
433.622	81.69
433.844	90.69
434.066	93.69
434.287	90.69
434.509	84.69
434.731	77.69
434.953	84.69
435.175	87.69
435.397	93.69
435.618	88.69
435.84	116.69
436.062	116.69
436.284	99.69
436.505	92.69
436.727	103.69
436.949	86.69
437.17	88.69
437.392	94.69
437.614	95.69
437.835	100.69
438.057	117.69
438.278	97.69
438.5	104.69
438.721	98.69
438.943	88.69
439.165	90.69
439.386	73.69
439.608	96.69
439.829	96.69
440.05	99.69
440.272	118.69
440.493	87.69
440.715	93.69
440.936	83.69
441.158	67.69
441.379	80.69
441.6	86.69
441.822	89.69
442.043	91.69
442.264	108.69
442.486	83.69
442.707	89.69
442.928	95.69
443.149	109.69
443.371	104.69
443.592	93.69
443.813	110.69
444.034	88.69
444.255	77.69
444.476	70.69
444.698	76.69
444.919	76.69
445.14	109.69
445.361	103.69
445.582	115.69
445.803	127.69
446.024	113.69
446.245	120.69
446.466	108.69
446.687	95.69
446.908	81.69
447.129	90.69
447.35	79.69
447.571	87.69
447.792	85.69
448.013	97.69
448.234	79.69
448.455	88.69
448.675	97.69
448.896	106.69
449.117	87.69
449.338	88.69
449.559	111.69
449.779	120.69
450	90.69
450.221	75.69
450.442	85.69
450.662	116.69
450.883	91.69
451.104	99.69
451.324	97.69
451.545	82.69
451.766	84.69
451.986	93.69
452.207	90.69
452.428	78.69
452.648	91.69
452.869	103.69
453.089	100.69
453.31	108.69
453.53	93.69
453.751	93.69
453.971	84.69
454.192	96.69
454.412	96.69
454.633	74.69
454.853	79.69
455.073	92.69
455.294	78.69
455.514	78.69
455.734	94.69
455.955	103.69
456.175	79.69
456.395	97.69
456.616	83.69
456.836	74.69
457.056	75.69
457.276	63.69
457.497	75.69
457.717	65.69
457.937	86.69
458.157	84.69
458.377	85.69
458.598	96.69
458.818	120.69
459.038	130.69
459.258	102.69
459.478	101.69
459.698	93.69
459.918	78.69
460.138	87.69
460.358	89.69
460.578	91.69
460.798	84.69
461.018	100.69
461.238	82.69
461.458	86.69
461.678	70.69
461.898	77.69
462.118	66.69
462.338	74.69
462.558	71.69
462.777	80.69
462.997	92.69
463.217	84.69
463.437	80.69
463.657	83.69
463.876	74.69
464.096	83.69
464.316	94.69
464.536	93.69
464.755	75.69
464.975	96.69
465.195	136.69
465.414	128.69
465.634	96.69
465.854	76.69
466.073	88.69
466.293	75.69
466.512	86.69
466.732	81.69
466.951	78.69
467.171	80.69
467.391	99.69
467.61	92.69
467.829	88.69
468.049	89.69
468.268	90.69
468.488	75.69
468.707	83.69
468.927	79.69
469.146	87.69
469.365	78.69
469.585	91.69
469.804	90.69
470.023	97.69
470.243	74.69
470.462	92.69
470.681	96.69
470.901	82.69
471.12	95.69
471.339	85.69
471.558	76.69
471.777	79.69
471.997	73.69
472.216	93.69
472.435	103.69
472.654	82.69
472.873	73.69
473.092	77.69
473.311	81.69
473.53	74.69
473.749	85.69
473.968	89.69
474.187	79.69
474.406	93.69
474.625	82.69
474.844	90.69
475.063	90.69
475.282	95.69
475.501	71.69
475.72	84.69
475.939	97.69
476.158	89.69
476.377	86.69
476.596	83.69
476.814	90.69
477.033	99.69
477.252	83.69
477.471	85.69
477.69	78.69
477.908	79.69
478.127	82.69
478.346	66.69
478.564	84.69
478.783	93.69
479.002	90.69
479.22	80.69
479.439	80.69
479.658	84.69
479.876	88.69
480.095	95.69
480.313	94.69
480.532	86.69
480.751	90.69
480.969	98.69
481.188	131.69
481.406	110.69
481.624	75.69
481.843	79.69
482.061	92.69
482.28	76.69
482.498	91.69
482.717	87.69
482.935	91.69
483.153	84.69
483.372	84.69
483.59	84.69
483.808	74.69
484.027	81.69
484.245	83.69
484.463	96.69
484.681	94.69
484.9	82.69
485.118	79.69
485.336	93.69
485.554	95.69
485.772	94.69
485.99	109.69
486.209	98.69
486.427	84.69
486.645	117.69
486.863	99.69
487.081	102.69
487.299	83.69
487.517	99.69
487.735	91.69
487.953	91.69
488.171	80.69
488.389	86.69
488.607	92.69
488.825	91.69
489.043	91.69
489.261	81.69
489.479	81.69
489.696	93.69
489.914	95.69
490.132	85.69
490.35	74.69
490.568	84.69
490.786	98.69
491.003	77.69
491.221	76.69
491.439	91.69
491.657	95.69
491.874	76.69
492.092	78.69
492.31	78.69
492.527	74.69
492.745	79.69
492.963	77.69
493.18	78.69
493.398	88.69
493.615	89.69
493.833	90.69
494.05	74.69
494.268	89.69
494.485	86.69
494.703	84.69
494.92	87.69
495.138	92.69
495.355	86.69
495.573	89.69
495.79	83.69
496.008	103.69
496.225	81.69
496.442	91.69
496.66	96.69
496.877	84.69
497.094	94.69
497.312	76.69
497.529	74.69
497.746	96.69
497.963	89.69
498.181	84.69
498.398	95.69
498.615	95.69
498.832	98.69
499.049	77.69
499.267	75.69
499.484	68.69
499.701	78.69
499.918	77.69
500.135	89.69
500.352	92.69
500.569	92.69
500.786	95.69
501.003	88.69
501.22	90.69
501.437	106.69
501.654	92.69
501.871	88.69
502.088	100.69
502.305	80.69
502.522	90.69
502.739	83.69
502.956	94.69
503.172	82.69
503.389	81.69
503.606	89.69
503.823	80.69
504.04	78.69
504.256	86.69
504.473	77.69
504.69	75.69
504.907	99.69
505.123	107.69
505.34	89.69
505.557	92.69
505.773	84.69
505.99	75.69
506.207	82.69
506.423	98.69
506.64	79.69
506.856	89.69
507.073	82.69
507.289	88.69
507.506	90.69
507.722	98.69
507.939	106.69
508.155	90.69
508.372	84.69
508.588	86.69
508.805	79.69
509.021	90.69
509.238	86.69
509.454	82.69
509.67	92.69
509.887	94.69
510.103	112.69
510.319	185.69
510.536	650.69
510.752	1883.69
510.968	529.69
511.184	104.69
511.401	100.69
511.617	81.69
511.833	82.69
512.049	90.69
512.265	95.69
512.481	91.69
512.698	87.69
512.914	96.69
513.13	86.69
513.346	84.69
513.562	82.69
513.778	92.69
513.994	90.69
514.21	107.69
514.426	109.69
514.642	115.69
514.858	118.69
515.074	142.69
515.29	306.69
515.506	1056.69
515.721	389.69
515.937	129.69
516.153	100.69
516.369	78.69
516.585	92.69
516.801	86.69
517.016	85.69
517.232	93.69
