Data from Circ_1994_H10_HRD10591_00086.txt Node
Date: Wed Jan 03 11:40:47 EST 2024
User: Yrep
Spectrometer: HR+D1059
Trigger mode: 1
Integration Time (sec): 1.000000E-1
Scans to average: 1
Electric dark correction enabled: true
Nonlinearity correction enabled: false
Boxcar width: 0
XAxis mode: Wavelengths
Number of Pixels in Spectrum: 2048
>>>>>Begin Spectral Data<<<<<
223.165	-21.94
223.4	-21.94
223.635	-21.94
223.869	-24.94
224.104	-21.94
224.338	-15.94
224.573	-9.94
224.808	-16.94
225.042	-18.94
225.277	-10.94
225.511	9.06
225.746	7.06
225.98	8.06
226.215	15.06
226.449	9.06
226.683	26.06
226.918	25.06
227.152	42.06
227.387	36.06
227.621	42.06
227.856	47.06
228.09	47.06
228.324	50.06
228.559	50.06
228.793	70.06
229.027	59.06
229.262	58.06
229.496	72.06
229.73	75.06
229.964	64.06
230.199	71.06
230.433	70.06
230.667	59.06
230.901	80.06
231.136	59.06
231.37	61.06
231.604	75.06
231.838	76.06
232.072	77.06
232.306	80.06
232.541	79.06
232.775	73.06
233.009	82.06
233.243	61.06
233.477	83.06
233.711	77.06
233.945	74.06
234.179	65.06
234.413	78.06
234.647	91.06
234.881	65.06
235.115	73.06
235.349	78.06
235.583	82.06
235.817	71.06
236.051	74.06
236.285	77.06
236.519	74.06
236.753	80.06
236.987	78.06
237.221	80.06
237.455	87.06
237.689	68.06
237.922	73.06
238.156	75.06
238.39	74.06
238.624	68.06
238.858	70.06
239.091	65.06
239.325	82.06
239.559	78.06
239.793	69.06
240.027	66.06
240.26	80.06
240.494	67.06
240.728	64.06
240.961	89.06
241.195	80.06
241.429	74.06
241.662	65.06
241.896	74.06
242.13	88.06
242.363	67.06
242.597	65.06
242.83	80.06
243.064	79.06
243.298	70.06
243.531	80.06
243.765	74.06
243.998	79.06
244.232	79.06
244.465	83.06
244.699	66.06
244.932	72.06
245.166	72.06
245.399	83.06
245.633	70.06
245.866	79.06
246.099	79.06
246.333	68.06
246.566	65.06
246.8	65.06
247.033	73.06
247.266	78.06
247.5	86.06
247.733	68.06
247.966	74.06
248.2	75.06
248.433	85.06
248.666	76.06
248.899	74.06
249.133	87.06
249.366	100.06
249.599	86.06
249.832	79.06
250.066	71.06
250.299	72.06
250.532	82.06
250.765	79.06
250.998	60.06
251.231	88.06
251.465	84.06
251.698	82.06
251.931	79.06
252.164	76.06
252.397	75.06
252.63	78.06
252.863	67.06
253.096	79.06
253.329	86.06
253.562	78.06
253.795	81.06
254.028	68.06
254.261	68.06
254.494	76.06
254.727	80.06
254.96	68.06
255.193	88.06
255.426	86.06
255.659	74.06
255.892	76.06
256.124	69.06
256.357	75.06
256.59	80.06
256.823	66.06
257.056	78.06
257.289	79.06
257.521	93.06
257.754	76.06
257.987	65.06
258.22	69.06
258.452	83.06
258.685	94.06
258.918	82.06
259.151	82.06
259.383	82.06
259.616	75.06
259.849	77.06
260.081	80.06
260.314	78.06
260.547	80.06
260.779	79.06
261.012	84.06
261.244	79.06
261.477	98.06
261.71	76.06
261.942	92.06
262.175	111.06
262.407	94.06
262.64	81.06
262.872	85.06
263.105	85.06
263.337	74.06
263.57	78.06
263.802	81.06
264.035	77.06
264.267	81.06
264.499	94.06
264.732	88.06
264.964	81.06
265.197	84.06
265.429	76.06
265.661	84.06
265.894	87.06
266.126	66.06
266.358	89.06
266.591	66.06
266.823	74.06
267.055	102.06
267.287	79.06
267.52	72.06
267.752	81.06
267.984	76.06
268.216	79.06
268.448	74.06
268.681	81.06
268.913	74.06
269.145	79.06
269.377	81.06
269.609	89.06
269.841	87.06
270.073	78.06
270.306	78.06
270.538	75.06
270.77	77.06
271.002	68.06
271.234	91.06
271.466	91.06
271.698	76.06
271.93	64.06
272.162	88.06
272.394	77.06
272.626	77.06
272.858	84.06
273.09	67.06
273.322	76.06
273.553	73.06
273.785	81.06
274.017	92.06
274.249	76.06
274.481	66.06
274.713	84.06
274.945	86.06
275.176	83.06
275.408	74.06
275.64	81.06
275.872	71.06
276.104	89.06
276.335	88.06
276.567	82.06
276.799	96.06
277.031	90.06
277.262	87.06
277.494	91.06
277.726	84.06
277.957	66.06
278.189	81.06
278.421	92.06
278.652	93.06
278.884	80.06
279.115	83.06
279.347	97.06
279.579	74.06
279.81	91.06
280.042	100.06
280.273	91.06
280.505	95.06
280.736	75.06
280.968	70.06
281.199	93.06
281.431	82.06
281.662	77.06
281.894	94.06
282.125	126.06
282.356	104.06
282.588	126.06
282.819	101.06
283.051	92.06
283.282	84.06
283.513	89.06
283.745	87.06
283.976	81.06
284.207	58.06
284.439	82.06
284.67	90.06
284.901	64.06
285.132	88.06
285.364	82.06
285.595	76.06
285.826	83.06
286.057	104.06
286.288	83.06
286.52	83.06
286.751	77.06
286.982	93.06
287.213	94.06
287.444	103.06
287.675	80.06
287.906	78.06
288.138	87.06
288.369	113.06
288.6	81.06
288.831	97.06
289.062	79.06
289.293	79.06
289.524	80.06
289.755	93.06
289.986	78.06
290.217	68.06
290.448	73.06
290.679	70.06
290.91	81.06
291.141	94.06
291.371	86.06
291.602	80.06
291.833	108.06
292.064	90.06
292.295	75.06
292.526	96.06
292.757	87.06
292.987	88.06
293.218	77.06
293.449	77.06
293.68	97.06
293.91	75.06
294.141	79.06
294.372	74.06
294.603	82.06
294.833	92.06
295.064	78.06
295.295	96.06
295.525	97.06
295.756	90.06
295.987	120.06
296.217	134.06
296.448	118.06
296.679	84.06
296.909	88.06
297.14	83.06
297.37	102.06
297.601	86.06
297.831	78.06
298.062	85.06
298.292	81.06
298.523	98.06
298.753	92.06
298.984	88.06
299.214	104.06
299.445	83.06
299.675	80.06
299.905	80.06
300.136	93.06
300.366	85.06
300.597	82.06
300.827	92.06
301.057	112.06
301.288	110.06
301.518	95.06
301.748	91.06
301.979	88.06
302.209	81.06
302.439	74.06
302.669	83.06
302.9	88.06
303.13	84.06
303.36	82.06
303.59	115.06
303.82	106.06
304.051	82.06
304.281	82.06
304.511	99.06
304.741	77.06
304.971	87.06
305.201	94.06
305.431	96.06
305.661	95.06
305.891	91.06
306.121	89.06
306.352	95.06
306.582	99.06
306.812	101.06
307.042	100.06
307.272	99.06
307.502	95.06
307.731	89.06
307.961	99.06
308.191	91.06
308.421	81.06
308.651	72.06
308.881	96.06
309.111	87.06
309.341	103.06
309.571	93.06
309.8	82.06
310.03	90.06
310.26	105.06
310.49	83.06
310.72	91.06
310.949	103.06
311.179	99.06
311.409	86.06
311.639	91.06
311.868	104.06
312.098	93.06
312.328	80.06
312.557	103.06
312.787	101.06
313.017	97.06
313.246	91.06
313.476	99.06
313.706	83.06
313.935	94.06
314.165	93.06
314.394	98.06
314.624	97.06
314.853	97.06
315.083	92.06
315.312	82.06
315.542	84.06
315.771	88.06
316.001	92.06
316.23	81.06
316.46	88.06
316.689	98.06
316.919	95.06
317.148	92.06
317.377	90.06
317.607	97.06
317.836	93.06
318.065	75.06
318.295	88.06
318.524	80.06
318.753	79.06
318.983	93.06
319.212	96.06
319.441	92.06
319.67	99.06
319.9	97.06
320.129	94.06
320.358	95.06
320.587	87.06
320.816	96.06
321.046	98.06
321.275	95.06
321.504	89.06
321.733	94.06
321.962	102.06
322.191	91.06
322.42	108.06
322.649	87.06
322.878	99.06
323.108	109.06
323.337	120.06
323.566	112.06
323.795	126.06
324.024	188.06
324.253	321.06
324.482	710.06
324.71	1436.06
324.939	1795.06
325.168	679.06
325.397	213.06
325.626	126.06
325.855	118.06
326.084	116.06
326.313	104.06
326.542	136.06
326.77	231.06
326.999	387.06
327.228	775.06
327.457	1390.06
327.686	1076.06
327.914	340.06
328.143	193.06
328.372	168.06
328.6	138.06
328.829	118.06
329.058	114.06
329.287	112.06
329.515	107.06
329.744	102.06
329.972	110.06
330.201	177.06
330.43	185.06
330.658	154.06
330.887	123.06
331.115	98.06
331.344	109.06
331.572	105.06
331.801	94.06
332.03	86.06
332.258	83.06
332.486	96.06
332.715	93.06
332.943	79.06
333.172	90.06
333.4	86.06
333.629	97.06
333.857	106.06
334.085	124.06
334.314	176.06
334.542	233.06
334.771	224.06
334.999	103.06
335.227	105.06
335.455	89.06
335.684	102.06
335.912	84.06
336.14	100.06
336.369	91.06
336.597	99.06
336.825	83.06
337.053	94.06
337.281	90.06
337.51	104.06
337.738	108.06
337.966	90.06
338.194	99.06
338.422	91.06
338.65	95.06
338.878	75.06
339.106	98.06
339.334	91.06
339.562	75.06
339.79	76.06
340.018	90.06
340.246	87.06
340.474	84.06
340.702	82.06
340.93	82.06
341.158	81.06
341.386	79.06
341.614	74.06
341.842	84.06
342.07	77.06
342.298	89.06
342.526	94.06
342.754	87.06
342.981	74.06
343.209	75.06
343.437	99.06
343.665	88.06
343.893	81.06
344.12	91.06
344.348	92.06
344.576	88.06
344.804	92.06
345.031	87.06
345.259	91.06
345.487	95.06
345.714	80.06
345.942	74.06
346.17	88.06
346.397	107.06
346.625	98.06
346.853	81.06
347.08	77.06
347.308	81.06
347.535	91.06
347.763	91.06
347.99	92.06
348.218	95.06
348.445	88.06
348.673	89.06
348.9	92.06
349.128	82.06
349.355	87.06
349.583	102.06
349.81	95.06
350.037	92.06
350.265	75.06
350.492	80.06
350.72	93.06
350.947	106.06
351.174	96.06
351.402	110.06
351.629	92.06
351.856	103.06
352.083	91.06
352.311	105.06
352.538	106.06
352.765	108.06
352.992	103.06
353.22	100.06
353.447	94.06
353.674	108.06
353.901	96.06
354.128	102.06
354.355	105.06
354.583	91.06
354.81	89.06
355.037	91.06
355.264	95.06
355.491	105.06
355.718	89.06
355.945	95.06
356.172	84.06
356.399	98.06
356.626	90.06
356.853	92.06
357.08	90.06
357.307	97.06
357.534	90.06
357.761	84.06
357.988	90.06
358.215	91.06
358.441	89.06
358.668	83.06
358.895	88.06
359.122	107.06
359.349	86.06
359.576	76.06
359.802	92.06
360.029	107.06
360.256	89.06
360.483	104.06
360.709	69.06
360.936	77.06
361.163	89.06
361.39	89.06
361.616	96.06
361.843	99.06
362.07	93.06
362.296	92.06
362.523	86.06
362.749	90.06
362.976	87.06
363.203	88.06
363.429	97.06
363.656	84.06
363.882	80.06
364.109	85.06
364.335	85.06
364.562	95.06
364.788	93.06
365.015	82.06
365.241	100.06
365.468	95.06
365.694	105.06
365.92	77.06
366.147	85.06
366.373	87.06
366.599	74.06
366.826	98.06
367.052	77.06
367.278	90.06
367.505	80.06
367.731	104.06
367.957	98.06
368.184	100.06
368.41	85.06
368.636	103.06
368.862	118.06
369.089	97.06
369.315	79.06
369.541	78.06
369.767	90.06
369.993	94.06
370.219	86.06
370.445	81.06
370.672	100.06
370.898	83.06
371.124	93.06
371.35	64.06
371.576	82.06
371.802	94.06
372.028	80.06
372.254	77.06
372.48	81.06
372.706	72.06
372.932	77.06
373.158	81.06
373.384	75.06
373.61	98.06
373.835	82.06
374.061	91.06
374.287	84.06
374.513	83.06
374.739	79.06
374.965	87.06
375.191	76.06
375.416	91.06
375.642	88.06
375.868	91.06
376.094	83.06
376.319	92.06
376.545	78.06
376.771	82.06
376.997	81.06
377.222	79.06
377.448	90.06
377.674	70.06
377.899	92.06
378.125	102.06
378.35	91.06
378.576	84.06
378.802	88.06
379.027	80.06
379.253	88.06
379.478	84.06
379.704	75.06
379.929	84.06
380.155	88.06
380.38	90.06
380.606	73.06
380.831	98.06
381.057	97.06
381.282	84.06
381.507	75.06
381.733	90.06
381.958	93.06
382.184	88.06
382.409	86.06
382.634	95.06
382.86	88.06
383.085	105.06
383.31	96.06
383.535	114.06
383.761	97.06
383.986	94.06
384.211	81.06
384.436	95.06
384.662	96.06
384.887	91.06
385.112	93.06
385.337	88.06
385.562	89.06
385.787	98.06
386.013	88.06
386.238	105.06
386.463	89.06
386.688	110.06
386.913	91.06
387.138	90.06
387.363	95.06
387.588	100.06
387.813	103.06
388.038	98.06
388.263	100.06
388.488	105.06
388.713	99.06
388.938	92.06
389.163	86.06
389.387	94.06
389.612	79.06
389.837	95.06
390.062	82.06
390.287	68.06
390.512	87.06
390.736	96.06
390.961	94.06
391.186	87.06
391.411	90.06
391.636	113.06
391.86	77.06
392.085	88.06
392.31	99.06
392.534	67.06
392.759	81.06
392.984	90.06
393.208	78.06
393.433	93.06
393.658	87.06
393.882	81.06
394.107	91.06
394.331	91.06
394.556	77.06
394.78	92.06
395.005	79.06
395.229	92.06
395.454	78.06
395.678	97.06
395.903	92.06
396.127	76.06
396.352	86.06
396.576	85.06
396.801	82.06
397.025	75.06
397.249	89.06
397.474	91.06
397.698	79.06
397.922	78.06
398.147	77.06
398.371	78.06
398.595	90.06
398.82	87.06
399.044	91.06
399.268	91.06
399.492	88.06
399.717	87.06
399.941	89.06
400.165	87.06
400.389	84.06
400.613	91.06
400.837	78.06
401.062	79.06
401.286	88.06
401.51	82.06
401.734	89.06
401.958	88.06
402.182	112.06
402.406	135.06
402.63	110.06
402.854	86.06
403.078	80.06
403.302	76.06
403.526	102.06
403.75	90.06
403.974	95.06
404.198	86.06
404.422	93.06
404.645	77.06
404.869	74.06
405.093	99.06
405.317	94.06
405.541	83.06
405.765	91.06
405.988	107.06
406.212	174.06
406.436	206.06
406.66	130.06
406.883	101.06
407.107	93.06
407.331	84.06
407.555	91.06
407.778	104.06
408.002	87.06
408.226	92.06
408.449	96.06
408.673	96.06
408.896	91.06
409.12	95.06
409.344	92.06
409.567	86.06
409.791	81.06
410.014	86.06
410.238	82.06
410.461	92.06
410.685	83.06
410.908	99.06
411.132	94.06
411.355	104.06
411.578	82.06
411.802	92.06
412.025	87.06
412.249	75.06
412.472	88.06
412.695	93.06
412.919	76.06
413.142	86.06
413.365	90.06
413.589	93.06
413.812	81.06
414.035	91.06
414.258	70.06
414.482	90.06
414.705	85.06
414.928	87.06
415.151	96.06
415.374	87.06
415.597	88.06
415.821	89.06
416.044	86.06
416.267	78.06
416.49	78.06
416.713	88.06
416.936	83.06
417.159	77.06
417.382	82.06
417.605	90.06
417.828	87.06
418.051	83.06
418.274	85.06
418.497	84.06
418.72	96.06
418.943	95.06
419.166	68.06
419.389	81.06
419.611	81.06
419.834	79.06
420.057	92.06
420.28	86.06
420.503	91.06
420.726	87.06
420.948	91.06
421.171	101.06
421.394	103.06
421.617	77.06
421.839	82.06
422.062	100.06
422.285	91.06
422.507	73.06
422.73	109.06
422.953	93.06
423.175	94.06
423.398	98.06
423.621	100.06
423.843	77.06
424.066	83.06
424.288	74.06
424.511	89.06
424.733	95.06
424.956	101.06
425.178	94.06
425.401	90.06
425.623	89.06
425.846	79.06
426.068	90.06
426.291	98.06
426.513	96.06
426.735	78.06
426.958	80.06
427.18	111.06
427.402	118.06
427.625	146.06
427.847	114.06
428.069	118.06
428.292	87.06
428.514	89.06
428.736	93.06
428.958	75.06
429.181	78.06
429.403	84.06
429.625	84.06
429.847	94.06
430.069	92.06
430.292	94.06
430.514	88.06
430.736	82.06
430.958	84.06
431.18	83.06
431.402	88.06
431.624	92.06
431.846	84.06
432.068	82.06
432.29	70.06
432.512	94.06
432.734	76.06
432.956	80.06
433.178	107.06
433.4	86.06
433.622	88.06
433.844	74.06
434.066	82.06
434.287	80.06
434.509	92.06
434.731	81.06
434.953	90.06
435.175	104.06
435.397	92.06
435.618	84.06
435.84	97.06
436.062	111.06
436.284	116.06
436.505	98.06
436.727	94.06
436.949	85.06
437.17	96.06
437.392	88.06
437.614	87.06
437.835	103.06
438.057	115.06
438.278	106.06
438.5	108.06
438.721	93.06
438.943	86.06
439.165	82.06
439.386	67.06
439.608	84.06
439.829	97.06
440.05	114.06
440.272	125.06
440.493	86.06
440.715	92.06
440.936	88.06
441.158	74.06
441.379	78.06
441.6	90.06
441.822	99.06
442.043	95.06
442.264	101.06
442.486	97.06
442.707	88.06
442.928	101.06
443.149	125.06
443.371	102.06
443.592	95.06
443.813	103.06
444.034	92.06
444.255	88.06
444.476	88.06
444.698	103.06
444.919	82.06
445.14	123.06
445.361	112.06
445.582	109.06
445.803	134.06
446.024	126.06
446.245	115.06
446.466	117.06
446.687	90.06
446.908	77.06
447.129	90.06
447.35	74.06
447.571	92.06
447.792	95.06
448.013	94.06
448.234	92.06
448.455	100.06
448.675	88.06
448.896	107.06
449.117	106.06
449.338	104.06
449.559	121.06
449.779	124.06
450	92.06
450.221	89.06
450.442	87.06
450.662	92.06
450.883	95.06
451.104	92.06
451.324	91.06
451.545	89.06
451.766	84.06
451.986	98.06
452.207	87.06
452.428	96.06
452.648	97.06
452.869	87.06
453.089	108.06
453.31	109.06
453.53	65.06
453.751	91.06
453.971	106.06
454.192	106.06
454.412	91.06
454.633	82.06
454.853	75.06
455.073	90.06
455.294	86.06
455.514	90.06
455.734	86.06
455.955	99.06
456.175	70.06
456.395	88.06
456.616	85.06
456.836	78.06
457.056	72.06
457.276	74.06
457.497	91.06
457.717	96.06
457.937	83.06
458.157	98.06
458.377	87.06
458.598	97.06
458.818	134.06
459.038	140.06
459.258	100.06
459.478	84.06
459.698	88.06
459.918	79.06
460.138	73.06
460.358	63.06
460.578	82.06
460.798	82.06
461.018	94.06
461.238	103.06
461.458	89.06
461.678	86.06
461.898	79.06
462.118	72.06
462.338	83.06
462.558	94.06
462.777	81.06
462.997	76.06
463.217	80.06
463.437	92.06
463.657	77.06
463.876	81.06
464.096	93.06
464.316	88.06
464.536	92.06
464.755	107.06
464.975	102.06
465.195	149.06
465.414	156.06
465.634	95.06
465.854	88.06
466.073	71.06
466.293	90.06
466.512	93.06
466.732	72.06
466.951	92.06
467.171	102.06
467.391	103.06
467.61	102.06
467.829	104.06
468.049	116.06
468.268	124.06
468.488	101.06
468.707	83.06
468.927	79.06
469.146	84.06
469.365	82.06
469.585	82.06
469.804	89.06
470.023	93.06
470.243	87.06
470.462	106.06
470.681	100.06
470.901	92.06
471.12	91.06
471.339	80.06
471.558	78.06
471.777	77.06
471.997	92.06
472.216	172.06
472.435	290.06
472.654	131.06
472.873	88.06
473.092	93.06
473.311	84.06
473.53	87.06
473.749	86.06
473.968	82.06
474.187	104.06
474.406	90.06
474.625	86.06
474.844	82.06
475.063	77.06
475.282	85.06
475.501	79.06
475.72	87.06
475.939	78.06
476.158	87.06
476.377	93.06
476.596	87.06
476.814	89.06
477.033	92.06
477.252	81.06
477.471	100.06
477.69	87.06
477.908	87.06
478.127	65.06
478.346	88.06
478.564	97.06
478.783	92.06
479.002	103.06
479.22	83.06
479.439	87.06
479.658	91.06
479.876	93.06
480.095	93.06
480.313	90.06
480.532	80.06
480.751	122.06
480.969	185.06
481.188	479.06
481.406	303.06
481.624	99.06
481.843	87.06
482.061	76.06
482.28	92.06
482.498	79.06
482.717	74.06
482.935	88.06
483.153	80.06
483.372	81.06
483.59	72.06
483.808	97.06
484.027	98.06
484.245	96.06
484.463	106.06
484.681	93.06
484.9	91.06
485.118	88.06
485.336	87.06
485.554	93.06
485.772	89.06
485.99	98.06
486.209	112.06
486.427	99.06
486.645	112.06
486.863	116.06
487.081	106.06
487.299	90.06
487.517	95.06
487.735	95.06
487.953	92.06
488.171	82.06
488.389	89.06
488.607	99.06
488.825	98.06
489.043	89.06
489.261	76.06
489.479	67.06
489.696	84.06
489.914	86.06
490.132	90.06
490.35	85.06
490.568	89.06
490.786	79.06
491.003	90.06
491.221	88.06
491.439	92.06
491.657	86.06
491.874	75.06
492.092	90.06
492.31	92.06
492.527	79.06
492.745	86.06
492.963	84.06
493.18	97.06
493.398	98.06
493.615	90.06
493.833	83.06
494.05	80.06
494.268	92.06
494.485	92.06
494.703	86.06
494.92	81.06
495.138	82.06
495.355	98.06
495.573	106.06
495.79	92.06
496.008	87.06
496.225	78.06
496.442	86.06
496.66	99.06
496.877	82.06
497.094	98.06
497.312	89.06
497.529	98.06
497.746	89.06
497.963	89.06
498.181	81.06
498.398	95.06
498.615	104.06
498.832	106.06
499.049	81.06
499.267	87.06
499.484	94.06
499.701	76.06
499.918	94.06
500.135	89.06
500.352	90.06
500.569	91.06
500.786	95.06
501.003	81.06
501.22	89.06
501.437	83.06
501.654	92.06
501.871	125.06
502.088	95.06
502.305	95.06
502.522	100.06
502.739	62.06
502.956	89.06
503.172	73.06
503.389	79.06
503.606	90.06
503.823	100.06
504.04	94.06
504.256	86.06
504.473	95.06
504.69	91.06
504.907	89.06
505.123	90.06
505.34	91.06
505.557	87.06
505.773	94.06
505.99	85.06
506.207	89.06
506.423	82.06
506.64	92.06
506.856	98.06
507.073	93.06
507.289	107.06
507.506	101.06
507.722	114.06
507.939	108.06
508.155	100.06
508.372	89.06
508.588	80.06
508.805	95.06
509.021	99.06
509.238	101.06
509.454	94.06
509.67	117.06
509.887	125.06
510.103	121.06
510.319	207.06
510.536	745.06
510.752	2352.06
510.968	619.06
511.184	135.06
511.401	107.06
511.617	91.06
511.833	97.06
512.049	97.06
512.265	90.06
512.481	94.06
512.698	96.06
512.914	91.06
513.13	86.06
513.346	90.06
513.562	97.06
513.778	84.06
513.994	83.06
514.21	95.06
514.426	104.06
514.642	115.06
514.858	125.06
515.074	150.06
515.29	401.06
515.506	1343.06
515.721	473.06
515.937	138.06
516.153	104.06
516.369	94.06
516.585	90.06
516.801	101.06
