Data from Circ_1994_H10_HRD10591_00080.txt Node
Date: Wed Jan 03 11:40:46 EST 2024
User: Yrep
Spectrometer: HR+D1059
Trigger mode: 1
Integration Time (sec): 1.000000E-1
Scans to average: 1
Electric dark correction enabled: true
Nonlinearity correction enabled: false
Boxcar width: 0
XAxis mode: Wavelengths
Number of Pixels in Spectrum: 2048
>>>>>Begin Spectral Data<<<<<
223.165	-26.06
223.4	-26.06
223.635	-26.06
223.869	-21.06
224.104	-21.06
224.338	-14.06
224.573	-14.06
224.808	-5.06
225.042	-18.06
225.277	-13.06
225.511	-3.06
225.746	-2.06
225.98	7.94
226.215	6.94
226.449	29.94
226.683	29.94
226.918	23.94
227.152	38.94
227.387	54.94
227.621	52.94
227.856	48.94
228.09	49.94
228.324	38.94
228.559	61.94
228.793	75.94
229.027	57.94
229.262	61.94
229.496	64.94
229.73	73.94
229.964	85.94
230.199	79.94
230.433	80.94
230.667	69.94
230.901	77.94
231.136	78.94
231.37	74.94
231.604	75.94
231.838	82.94
232.072	77.94
232.306	74.94
232.541	86.94
232.775	80.94
233.009	84.94
233.243	73.94
233.477	71.94
233.711	77.94
233.945	81.94
234.179	82.94
234.413	79.94
234.647	70.94
234.881	78.94
235.115	83.94
235.349	83.94
235.583	63.94
235.817	72.94
236.051	86.94
236.285	70.94
236.519	79.94
236.753	82.94
236.987	80.94
237.221	94.94
237.455	82.94
237.689	89.94
237.922	61.94
238.156	77.94
238.39	77.94
238.624	78.94
238.858	81.94
239.091	70.94
239.325	79.94
239.559	85.94
239.793	84.94
240.027	67.94
240.26	63.94
240.494	81.94
240.728	80.94
240.961	55.94
241.195	77.94
241.429	88.94
241.662	75.94
241.896	73.94
242.13	92.94
242.363	83.94
242.597	88.94
242.83	81.94
243.064	78.94
243.298	93.94
243.531	80.94
243.765	71.94
243.998	87.94
244.232	73.94
244.465	86.94
244.699	89.94
244.932	84.94
245.166	75.94
245.399	81.94
245.633	87.94
245.866	77.94
246.099	73.94
246.333	75.94
246.566	78.94
246.8	84.94
247.033	84.94
247.266	77.94
247.5	81.94
247.733	73.94
247.966	76.94
248.2	78.94
248.433	78.94
248.666	66.94
248.899	86.94
249.133	84.94
249.366	103.94
249.599	88.94
249.832	68.94
250.066	85.94
250.299	80.94
250.532	76.94
250.765	77.94
250.998	75.94
251.231	76.94
251.465	62.94
251.698	74.94
251.931	82.94
252.164	79.94
252.397	83.94
252.63	91.94
252.863	91.94
253.096	82.94
253.329	80.94
253.562	74.94
253.795	78.94
254.028	89.94
254.261	75.94
254.494	87.94
254.727	86.94
254.96	82.94
255.193	89.94
255.426	71.94
255.659	77.94
255.892	90.94
256.124	77.94
256.357	83.94
256.59	81.94
256.823	81.94
257.056	81.94
257.289	79.94
257.521	87.94
257.754	81.94
257.987	83.94
258.22	85.94
258.452	81.94
258.685	94.94
258.918	101.94
259.151	80.94
259.383	80.94
259.616	70.94
259.849	95.94
260.081	85.94
260.314	84.94
260.547	84.94
260.779	101.94
261.012	87.94
261.244	70.94
261.477	83.94
261.71	106.94
261.942	114.94
262.175	117.94
262.407	105.94
262.64	80.94
262.872	80.94
263.105	74.94
263.337	83.94
263.57	85.94
263.802	91.94
264.035	77.94
264.267	93.94
264.499	84.94
264.732	91.94
264.964	91.94
265.197	68.94
265.429	76.94
265.661	83.94
265.894	97.94
266.126	89.94
266.358	94.94
266.591	85.94
266.823	77.94
267.055	91.94
267.287	89.94
267.52	86.94
267.752	83.94
267.984	81.94
268.216	90.94
268.448	78.94
268.681	75.94
268.913	91.94
269.145	88.94
269.377	101.94
269.609	82.94
269.841	80.94
270.073	86.94
270.306	74.94
270.538	84.94
270.77	76.94
271.002	86.94
271.234	83.94
271.466	89.94
271.698	100.94
271.93	87.94
272.162	75.94
272.394	86.94
272.626	88.94
272.858	85.94
273.09	87.94
273.322	99.94
273.553	89.94
273.785	80.94
274.017	79.94
274.249	88.94
274.481	90.94
274.713	86.94
274.945	75.94
275.176	83.94
275.408	73.94
275.64	100.94
275.872	79.94
276.104	75.94
276.335	103.94
276.567	103.94
276.799	107.94
277.031	92.94
277.262	111.94
277.494	87.94
277.726	90.94
277.957	88.94
278.189	79.94
278.421	68.94
278.652	92.94
278.884	77.94
279.115	88.94
279.347	83.94
279.579	97.94
279.81	98.94
280.042	96.94
280.273	96.94
280.505	89.94
280.736	82.94
280.968	93.94
281.199	76.94
281.431	93.94
281.662	94.94
281.894	87.94
282.125	102.94
282.356	116.94
282.588	134.94
282.819	123.94
283.051	97.94
283.282	93.94
283.513	99.94
283.745	78.94
283.976	79.94
284.207	81.94
284.439	97.94
284.67	74.94
284.901	81.94
285.132	83.94
285.364	87.94
285.595	91.94
285.826	96.94
286.057	95.94
286.288	90.94
286.52	82.94
286.751	72.94
286.982	83.94
287.213	91.94
287.444	79.94
287.675	87.94
287.906	90.94
288.138	87.94
288.369	89.94
288.6	82.94
288.831	87.94
289.062	94.94
289.293	103.94
289.524	96.94
289.755	89.94
289.986	92.94
290.217	86.94
290.448	88.94
290.679	90.94
290.91	95.94
291.141	96.94
291.371	88.94
291.602	89.94
291.833	87.94
292.064	99.94
292.295	85.94
292.526	77.94
292.757	79.94
292.987	104.94
293.218	79.94
293.449	81.94
293.68	83.94
293.91	94.94
294.141	88.94
294.372	95.94
294.603	97.94
294.833	85.94
295.064	81.94
295.295	98.94
295.525	85.94
295.756	99.94
295.987	110.94
296.217	155.94
296.448	119.94
296.679	85.94
296.909	102.94
297.14	92.94
297.37	86.94
297.601	83.94
297.831	90.94
298.062	84.94
298.292	85.94
298.523	89.94
298.753	80.94
298.984	93.94
299.214	91.94
299.445	89.94
299.675	92.94
299.905	84.94
300.136	89.94
300.366	75.94
300.597	81.94
300.827	92.94
301.057	101.94
301.288	111.94
301.518	82.94
301.748	86.94
301.979	98.94
302.209	84.94
302.439	82.94
302.669	107.94
302.9	83.94
303.13	95.94
303.36	93.94
303.59	100.94
303.82	95.94
304.051	105.94
304.281	101.94
304.511	99.94
304.741	88.94
304.971	84.94
305.201	97.94
305.431	92.94
305.661	97.94
305.891	105.94
306.121	89.94
306.352	103.94
306.582	115.94
306.812	95.94
307.042	99.94
307.272	103.94
307.502	112.94
307.731	95.94
307.961	81.94
308.191	93.94
308.421	99.94
308.651	109.94
308.881	100.94
309.111	75.94
309.341	106.94
309.571	98.94
309.8	101.94
310.03	91.94
310.26	95.94
310.49	95.94
310.72	98.94
310.949	106.94
311.179	97.94
311.409	93.94
311.639	93.94
311.868	89.94
312.098	91.94
312.328	99.94
312.557	103.94
312.787	105.94
313.017	114.94
313.246	108.94
313.476	103.94
313.706	109.94
313.935	98.94
314.165	110.94
314.394	94.94
314.624	92.94
314.853	87.94
315.083	86.94
315.312	85.94
315.542	85.94
315.771	91.94
316.001	105.94
316.23	90.94
316.46	97.94
316.689	87.94
316.919	84.94
317.148	93.94
317.377	98.94
317.607	95.94
317.836	97.94
318.065	99.94
318.295	95.94
318.524	76.94
318.753	75.94
318.983	93.94
319.212	79.94
319.441	103.94
319.67	118.94
319.9	85.94
320.129	92.94
320.358	91.94
320.587	98.94
320.816	91.94
321.046	93.94
321.275	90.94
321.504	101.94
321.733	116.94
321.962	99.94
322.191	107.94
322.42	119.94
322.649	110.94
322.878	120.94
323.108	112.94
323.337	125.94
323.566	120.94
323.795	149.94
324.024	216.94
324.253	374.94
324.482	761.94
324.71	1559.94
324.939	2006.94
325.168	727.94
325.397	235.94
325.626	143.94
325.855	116.94
326.084	130.94
326.313	121.94
326.542	160.94
326.77	227.94
326.999	426.94
327.228	862.94
327.457	1565.94
327.686	1248.94
327.914	365.94
328.143	205.94
328.372	179.94
328.6	146.94
328.829	118.94
329.058	117.94
329.287	116.94
329.515	116.94
329.744	107.94
329.972	133.94
330.201	164.94
330.43	198.94
330.658	148.94
330.887	135.94
331.115	113.94
331.344	97.94
331.572	101.94
331.801	99.94
332.03	108.94
332.258	102.94
332.486	92.94
332.715	81.94
332.943	92.94
333.172	100.94
333.4	110.94
333.629	106.94
333.857	125.94
334.085	130.94
334.314	165.94
334.542	234.94
334.771	211.94
334.999	117.94
335.227	96.94
335.455	94.94
335.684	104.94
335.912	119.94
336.14	106.94
336.369	103.94
336.597	108.94
336.825	97.94
337.053	98.94
337.281	96.94
337.51	99.94
337.738	90.94
337.966	88.94
338.194	105.94
338.422	92.94
338.65	98.94
338.878	103.94
339.106	100.94
339.334	87.94
339.562	94.94
339.79	110.94
340.018	97.94
340.246	106.94
340.474	103.94
340.702	94.94
340.93	83.94
341.158	84.94
341.386	92.94
341.614	92.94
341.842	99.94
342.07	87.94
342.298	96.94
342.526	93.94
342.754	84.94
342.981	86.94
343.209	98.94
343.437	84.94
343.665	93.94
343.893	79.94
344.12	106.94
344.348	95.94
344.576	87.94
344.804	103.94
345.031	104.94
345.259	92.94
345.487	84.94
345.714	93.94
345.942	102.94
346.17	86.94
346.397	99.94
346.625	87.94
346.853	84.94
347.08	94.94
347.308	82.94
347.535	102.94
347.763	100.94
347.99	81.94
348.218	99.94
348.445	115.94
348.673	98.94
348.9	95.94
349.128	99.94
349.355	100.94
349.583	83.94
349.81	87.94
350.037	100.94
350.265	100.94
350.492	106.94
350.72	97.94
350.947	85.94
351.174	94.94
351.402	115.94
351.629	108.94
351.856	93.94
352.083	105.94
352.311	106.94
352.538	118.94
352.765	108.94
352.992	100.94
353.22	120.94
353.447	101.94
353.674	110.94
353.901	100.94
354.128	97.94
354.355	97.94
354.583	100.94
354.81	92.94
355.037	89.94
355.264	92.94
355.491	98.94
355.718	99.94
355.945	97.94
356.172	90.94
356.399	102.94
356.626	102.94
356.853	103.94
357.08	100.94
357.307	96.94
357.534	84.94
357.761	93.94
357.988	73.94
358.215	87.94
358.441	79.94
358.668	93.94
358.895	100.94
359.122	91.94
359.349	91.94
359.576	91.94
359.802	103.94
360.029	106.94
360.256	105.94
360.483	96.94
360.709	98.94
360.936	98.94
361.163	100.94
361.39	88.94
361.616	99.94
361.843	99.94
362.07	113.94
362.296	101.94
362.523	109.94
362.749	101.94
362.976	84.94
363.203	86.94
363.429	89.94
363.656	93.94
363.882	79.94
364.109	107.94
364.335	105.94
364.562	92.94
364.788	87.94
365.015	85.94
365.241	102.94
365.468	100.94
365.694	81.94
365.92	97.94
366.147	86.94
366.373	96.94
366.599	90.94
366.826	86.94
367.052	95.94
367.278	98.94
367.505	85.94
367.731	86.94
367.957	99.94
368.184	90.94
368.41	108.94
368.636	116.94
368.862	128.94
369.089	101.94
369.315	71.94
369.541	92.94
369.767	107.94
369.993	102.94
370.219	96.94
370.445	95.94
370.672	98.94
370.898	96.94
371.124	84.94
371.35	86.94
371.576	100.94
371.802	92.94
372.028	94.94
372.254	85.94
372.48	103.94
372.706	83.94
372.932	101.94
373.158	90.94
373.384	98.94
373.61	90.94
373.835	83.94
374.061	96.94
374.287	91.94
374.513	76.94
374.739	96.94
374.965	84.94
375.191	85.94
375.416	87.94
375.642	89.94
375.868	93.94
376.094	94.94
376.319	84.94
376.545	98.94
376.771	96.94
376.997	81.94
377.222	95.94
377.448	106.94
377.674	91.94
377.899	85.94
378.125	81.94
378.35	95.94
378.576	92.94
378.802	93.94
379.027	91.94
379.253	94.94
379.478	103.94
379.704	95.94
379.929	93.94
380.155	105.94
380.38	98.94
380.606	93.94
380.831	101.94
381.057	99.94
381.282	101.94
381.507	98.94
381.733	98.94
381.958	103.94
382.184	93.94
382.409	110.94
382.634	97.94
382.86	107.94
383.085	102.94
383.31	85.94
383.535	109.94
383.761	93.94
383.986	97.94
384.211	108.94
384.436	102.94
384.662	102.94
384.887	111.94
385.112	99.94
385.337	108.94
385.562	89.94
385.787	85.94
386.013	100.94
386.238	114.94
386.463	103.94
386.688	108.94
386.913	102.94
387.138	86.94
387.363	101.94
387.588	106.94
387.813	105.94
388.038	112.94
388.263	109.94
388.488	106.94
388.713	96.94
388.938	96.94
389.163	89.94
389.387	100.94
389.612	95.94
389.837	93.94
390.062	102.94
390.287	91.94
390.512	105.94
390.736	83.94
390.961	101.94
391.186	92.94
391.411	100.94
391.636	98.94
391.86	102.94
392.085	80.94
392.31	84.94
392.534	92.94
392.759	92.94
392.984	85.94
393.208	89.94
393.433	94.94
393.658	91.94
393.882	80.94
394.107	93.94
394.331	96.94
394.556	86.94
394.78	98.94
395.005	92.94
395.229	80.94
395.454	93.94
395.678	93.94
395.903	93.94
396.127	87.94
396.352	78.94
396.576	95.94
396.801	84.94
397.025	86.94
397.249	93.94
397.474	94.94
397.698	82.94
397.922	83.94
398.147	92.94
398.371	86.94
398.595	81.94
398.82	89.94
399.044	87.94
399.268	93.94
399.492	84.94
399.717	102.94
399.941	86.94
400.165	92.94
400.389	91.94
400.613	92.94
400.837	91.94
401.062	81.94
401.286	101.94
401.51	102.94
401.734	99.94
401.958	98.94
402.182	118.94
402.406	153.94
402.63	106.94
402.854	100.94
403.078	87.94
403.302	86.94
403.526	81.94
403.75	85.94
403.974	90.94
404.198	97.94
404.422	98.94
404.645	79.94
404.869	82.94
405.093	100.94
405.317	87.94
405.541	116.94
405.765	87.94
405.988	124.94
406.212	167.94
406.436	225.94
406.66	140.94
406.883	111.94
407.107	85.94
407.331	100.94
407.555	103.94
407.778	92.94
408.002	94.94
408.226	97.94
408.449	86.94
408.673	87.94
408.896	106.94
409.12	96.94
409.344	97.94
409.567	86.94
409.791	100.94
410.014	88.94
410.238	93.94
410.461	71.94
410.685	96.94
410.908	96.94
411.132	116.94
411.355	89.94
411.578	94.94
411.802	103.94
412.025	95.94
412.249	95.94
412.472	87.94
412.695	94.94
412.919	101.94
413.142	79.94
413.365	98.94
413.589	78.94
413.812	86.94
414.035	87.94
414.258	73.94
414.482	93.94
414.705	87.94
414.928	91.94
415.151	89.94
415.374	96.94
415.597	92.94
415.821	96.94
416.044	96.94
416.267	102.94
416.49	91.94
416.713	79.94
416.936	81.94
417.159	90.94
417.382	97.94
417.605	88.94
417.828	100.94
418.051	94.94
418.274	90.94
418.497	99.94
418.72	89.94
418.943	73.94
419.166	79.94
419.389	92.94
419.611	95.94
419.834	86.94
420.057	81.94
420.28	85.94
420.503	105.94
420.726	85.94
420.948	84.94
421.171	94.94
421.394	104.94
421.617	92.94
421.839	82.94
422.062	74.94
422.285	93.94
422.507	104.94
422.73	104.94
422.953	94.94
423.175	94.94
423.398	95.94
423.621	97.94
423.843	91.94
424.066	80.94
424.288	89.94
424.511	111.94
424.733	99.94
424.956	101.94
425.178	98.94
425.401	101.94
425.623	104.94
425.846	94.94
426.068	100.94
426.291	94.94
426.513	89.94
426.735	85.94
426.958	87.94
427.18	94.94
427.402	145.94
427.625	147.94
427.847	127.94
428.069	126.94
428.292	95.94
428.514	95.94
428.736	87.94
428.958	75.94
429.181	91.94
429.403	75.94
429.625	89.94
429.847	94.94
430.069	94.94
430.292	94.94
430.514	86.94
430.736	82.94
430.958	89.94
431.18	93.94
431.402	82.94
431.624	100.94
431.846	90.94
432.068	88.94
432.29	99.94
432.512	82.94
432.734	85.94
432.956	86.94
433.178	98.94
433.4	98.94
433.622	101.94
433.844	93.94
434.066	92.94
434.287	85.94
434.509	101.94
434.731	107.94
434.953	79.94
435.175	79.94
435.397	97.94
435.618	85.94
435.84	117.94
436.062	116.94
436.284	115.94
436.505	92.94
436.727	99.94
436.949	93.94
437.17	86.94
437.392	92.94
437.614	92.94
437.835	105.94
438.057	107.94
438.278	113.94
438.5	94.94
438.721	106.94
438.943	94.94
439.165	94.94
439.386	86.94
439.608	90.94
439.829	96.94
440.05	121.94
440.272	125.94
440.493	92.94
440.715	84.94
440.936	89.94
441.158	83.94
441.379	101.94
441.6	94.94
441.822	91.94
442.043	102.94
442.264	101.94
442.486	100.94
442.707	95.94
442.928	102.94
443.149	122.94
443.371	124.94
443.592	103.94
443.813	111.94
444.034	97.94
444.255	99.94
444.476	89.94
444.698	97.94
444.919	89.94
445.14	116.94
445.361	108.94
445.582	119.94
445.803	133.94
446.024	131.94
446.245	145.94
446.466	107.94
446.687	91.94
446.908	87.94
447.129	78.94
447.35	90.94
447.571	89.94
447.792	94.94
448.013	99.94
448.234	97.94
448.455	88.94
448.675	109.94
448.896	108.94
449.117	102.94
449.338	103.94
449.559	116.94
449.779	121.94
450	98.94
450.221	103.94
450.442	96.94
450.662	92.94
450.883	103.94
451.104	98.94
451.324	82.94
451.545	86.94
451.766	80.94
451.986	93.94
452.207	111.94
452.428	93.94
452.648	95.94
452.869	108.94
453.089	114.94
453.31	107.94
453.53	99.94
453.751	94.94
453.971	106.94
454.192	113.94
454.412	96.94
454.633	94.94
454.853	82.94
455.073	83.94
455.294	98.94
455.514	106.94
455.734	88.94
455.955	87.94
456.175	100.94
456.395	93.94
456.616	77.94
456.836	74.94
457.056	81.94
457.276	75.94
457.497	83.94
457.717	65.94
457.937	85.94
458.157	82.94
458.377	89.94
458.598	93.94
458.818	142.94
459.038	153.94
459.258	117.94
459.478	84.94
459.698	86.94
459.918	94.94
460.138	94.94
460.358	90.94
460.578	84.94
460.798	87.94
461.018	88.94
461.238	81.94
461.458	96.94
461.678	89.94
461.898	82.94
462.118	87.94
462.338	85.94
462.558	66.94
462.777	82.94
462.997	76.94
463.217	86.94
463.437	77.94
463.657	97.94
463.876	82.94
464.096	98.94
464.316	101.94
464.536	96.94
464.755	90.94
464.975	108.94
465.195	171.94
465.414	153.94
465.634	103.94
465.854	80.94
466.073	97.94
466.293	98.94
466.512	97.94
466.732	75.94
466.951	79.94
467.171	76.94
467.391	80.94
467.61	96.94
467.829	107.94
468.049	139.94
468.268	138.94
468.488	97.94
468.707	91.94
468.927	87.94
469.146	84.94
469.365	93.94
469.585	86.94
469.804	111.94
470.023	93.94
470.243	88.94
470.462	89.94
470.681	93.94
470.901	85.94
471.12	90.94
471.339	95.94
471.558	91.94
471.777	98.94
471.997	120.94
472.216	192.94
472.435	277.94
472.654	104.94
472.873	92.94
473.092	97.94
473.311	82.94
473.53	88.94
473.749	103.94
473.968	100.94
474.187	105.94
474.406	118.94
474.625	93.94
474.844	93.94
475.063	76.94
475.282	98.94
475.501	86.94
475.72	83.94
475.939	82.94
476.158	79.94
476.377	89.94
476.596	83.94
476.814	88.94
477.033	91.94
477.252	83.94
477.471	78.94
477.69	79.94
477.908	93.94
478.127	93.94
478.346	85.94
478.564	92.94
478.783	97.94
479.002	95.94
479.22	83.94
479.439	97.94
479.658	108.94
479.876	96.94
480.095	84.94
480.313	83.94
480.532	99.94
480.751	109.94
480.969	180.94
481.188	479.94
481.406	314.94
481.624	99.94
481.843	81.94
482.061	105.94
482.28	91.94
482.498	89.94
482.717	95.94
482.935	96.94
483.153	87.94
483.372	93.94
483.59	87.94
483.808	100.94
484.027	83.94
484.245	87.94
484.463	95.94
484.681	103.94
484.9	89.94
485.118	104.94
485.336	86.94
485.554	91.94
485.772	95.94
485.99	101.94
486.209	111.94
486.427	98.94
486.645	102.94
486.863	108.94
487.081	102.94
487.299	107.94
487.517	85.94
487.735	89.94
487.953	91.94
488.171	95.94
488.389	102.94
488.607	104.94
488.825	95.94
489.043	100.94
489.261	73.94
489.479	91.94
489.696	90.94
489.914	85.94
490.132	91.94
490.35	92.94
490.568	88.94
490.786	85.94
491.003	85.94
491.221	74.94
491.439	104.94
491.657	85.94
491.874	95.94
492.092	95.94
492.31	82.94
492.527	94.94
492.745	93.94
492.963	107.94
493.18	91.94
493.398	94.94
493.615	93.94
493.833	103.94
494.05	81.94
494.268	104.94
494.485	94.94
494.703	81.94
494.92	89.94
495.138	83.94
495.355	92.94
495.573	85.94
495.79	92.94
496.008	93.94
496.225	88.94
496.442	94.94
496.66	93.94
496.877	96.94
497.094	92.94
497.312	100.94
497.529	74.94
497.746	85.94
497.963	86.94
498.181	100.94
498.398	98.94
498.615	105.94
498.832	98.94
499.049	93.94
499.267	83.94
499.484	91.94
499.701	91.94
499.918	82.94
500.135	90.94
500.352	87.94
500.569	90.94
500.786	102.94
501.003	93.94
501.22	84.94
501.437	94.94
501.654	83.94
501.871	101.94
502.088	87.94
502.305	92.94
502.522	109.94
502.739	79.94
502.956	99.94
503.172	97.94
503.389	90.94
503.606	118.94
503.823	88.94
504.04	88.94
504.256	94.94
504.473	73.94
504.69	89.94
504.907	88.94
505.123	74.94
505.34	82.94
505.557	102.94
505.773	84.94
505.99	81.94
506.207	90.94
506.423	76.94
506.64	90.94
506.856	82.94
507.073	94.94
507.289	100.94
507.506	105.94
507.722	102.94
507.939	115.94
508.155	109.94
508.372	98.94
508.588	89.94
508.805	96.94
509.021	85.94
509.238	85.94
509.454	95.94
509.67	99.94
509.887	101.94
510.103	139.94
510.319	206.94
510.536	758.94
510.752	2413.94
510.968	642.94
511.184	159.94
511.401	124.94
511.617	97.94
511.833	104.94
512.049	93.94
512.265	90.94
512.481	92.94
512.698	77.94
512.914	82.94
513.13	91.94
513.346	98.94
513.562	91.94
513.778	92.94
513.994	99.94
514.21	100.94
514.426	117.94
514.642	132.94
514.858	119.94
515.074	161.94
