Data from Circ_1994_H10_HRD10591_00027.txt Node
Date: Wed Jan 03 11:40:35 EST 2024
User: Yrep
Spectrometer: HR+D1059
Trigger mode: 1
Integration Time (sec): 1.000000E-1
Scans to average: 1
Electric dark correction enabled: true
Nonlinearity correction enabled: false
Boxcar width: 0
XAxis mode: Wavelengths
Number of Pixels in Spectrum: 2048
>>>>>Begin Spectral Data<<<<<
223.165	-22.25
223.4	-22.25
223.635	-22.25
223.869	-16.25
224.104	-11.25
224.338	4.75
224.573	-17.25
224.808	-25.25
225.042	-17.25
225.277	-11.25
225.511	6.75
225.746	12.75
225.98	10.75
226.215	11.75
226.449	4.75
226.683	16.75
226.918	5.75
227.152	46.75
227.387	30.75
227.621	40.75
227.856	49.75
228.09	38.75
228.324	48.75
228.559	66.75
228.793	72.75
229.027	66.75
229.262	84.75
229.496	74.75
229.73	85.75
229.964	90.75
230.199	82.75
230.433	83.75
230.667	88.75
230.901	71.75
231.136	81.75
231.37	86.75
231.604	88.75
231.838	90.75
232.072	91.75
232.306	89.75
232.541	88.75
232.775	94.75
233.009	80.75
233.243	98.75
233.477	85.75
233.711	93.75
233.945	79.75
234.179	93.75
234.413	82.75
234.647	80.75
234.881	93.75
235.115	80.75
235.349	78.75
235.583	88.75
235.817	89.75
236.051	84.75
236.285	84.75
236.519	80.75
236.753	84.75
236.987	85.75
237.221	77.75
237.455	85.75
237.689	92.75
237.922	77.75
238.156	88.75
238.39	76.75
238.624	75.75
238.858	86.75
239.091	79.75
239.325	79.75
239.559	76.75
239.793	99.75
240.027	89.75
240.26	80.75
240.494	76.75
240.728	87.75
240.961	83.75
241.195	89.75
241.429	79.75
241.662	69.75
241.896	95.75
242.13	89.75
242.363	89.75
242.597	77.75
242.83	62.75
243.064	89.75
243.298	79.75
243.531	74.75
243.765	78.75
243.998	92.75
244.232	94.75
244.465	92.75
244.699	87.75
244.932	85.75
245.166	89.75
245.399	85.75
245.633	95.75
245.866	96.75
246.099	70.75
246.333	91.75
246.566	70.75
246.8	73.75
247.033	82.75
247.266	79.75
247.5	80.75
247.733	86.75
247.966	84.75
248.2	87.75
248.433	89.75
248.666	79.75
248.899	84.75
249.133	78.75
249.366	95.75
249.599	102.75
249.832	71.75
250.066	92.75
250.299	89.75
250.532	90.75
250.765	96.75
250.998	80.75
251.231	78.75
251.465	92.75
251.698	76.75
251.931	82.75
252.164	95.75
252.397	76.75
252.63	85.75
252.863	90.75
253.096	74.75
253.329	85.75
253.562	84.75
253.795	74.75
254.028	90.75
254.261	81.75
254.494	94.75
254.727	89.75
254.96	92.75
255.193	91.75
255.426	88.75
255.659	89.75
255.892	96.75
256.124	92.75
256.357	84.75
256.59	85.75
256.823	84.75
257.056	88.75
257.289	84.75
257.521	77.75
257.754	84.75
257.987	87.75
258.22	97.75
258.452	78.75
258.685	82.75
258.918	90.75
259.151	84.75
259.383	85.75
259.616	76.75
259.849	79.75
260.081	104.75
260.314	84.75
260.547	88.75
260.779	83.75
261.012	77.75
261.244	88.75
261.477	94.75
261.71	106.75
261.942	99.75
262.175	123.75
262.407	89.75
262.64	100.75
262.872	95.75
263.105	89.75
263.337	79.75
263.57	81.75
263.802	72.75
264.035	83.75
264.267	88.75
264.499	95.75
264.732	88.75
264.964	95.75
265.197	72.75
265.429	94.75
265.661	89.75
265.894	83.75
266.126	95.75
266.358	91.75
266.591	88.75
266.823	78.75
267.055	80.75
267.287	85.75
267.52	85.75
267.752	93.75
267.984	92.75
268.216	92.75
268.448	82.75
268.681	94.75
268.913	84.75
269.145	85.75
269.377	72.75
269.609	93.75
269.841	82.75
270.073	93.75
270.306	83.75
270.538	86.75
270.77	94.75
271.002	86.75
271.234	84.75
271.466	89.75
271.698	92.75
271.93	85.75
272.162	76.75
272.394	88.75
272.626	94.75
272.858	86.75
273.09	97.75
273.322	81.75
273.553	86.75
273.785	91.75
274.017	89.75
274.249	83.75
274.481	100.75
274.713	87.75
274.945	92.75
275.176	96.75
275.408	93.75
275.64	95.75
275.872	88.75
276.104	98.75
276.335	92.75
276.567	93.75
276.799	97.75
277.031	102.75
277.262	87.75
277.494	101.75
277.726	86.75
277.957	73.75
278.189	98.75
278.421	84.75
278.652	81.75
278.884	86.75
279.115	90.75
279.347	100.75
279.579	89.75
279.81	86.75
280.042	85.75
280.273	81.75
280.505	85.75
280.736	91.75
280.968	90.75
281.199	88.75
281.431	100.75
281.662	70.75
281.894	86.75
282.125	104.75
282.356	123.75
282.588	131.75
282.819	114.75
283.051	105.75
283.282	96.75
283.513	79.75
283.745	86.75
283.976	82.75
284.207	87.75
284.439	95.75
284.67	80.75
284.901	85.75
285.132	88.75
285.364	96.75
285.595	97.75
285.826	93.75
286.057	94.75
286.288	91.75
286.52	95.75
286.751	83.75
286.982	89.75
287.213	87.75
287.444	85.75
287.675	94.75
287.906	86.75
288.138	93.75
288.369	85.75
288.6	93.75
288.831	99.75
289.062	86.75
289.293	79.75
289.524	97.75
289.755	108.75
289.986	98.75
290.217	98.75
290.448	90.75
290.679	96.75
290.91	96.75
291.141	93.75
291.371	108.75
291.602	96.75
291.833	86.75
292.064	88.75
292.295	81.75
292.526	74.75
292.757	105.75
292.987	103.75
293.218	102.75
293.449	98.75
293.68	102.75
293.91	97.75
294.141	99.75
294.372	85.75
294.603	73.75
294.833	78.75
295.064	96.75
295.295	97.75
295.525	99.75
295.756	107.75
295.987	105.75
296.217	126.75
296.448	115.75
296.679	104.75
296.909	96.75
297.14	100.75
297.37	85.75
297.601	102.75
297.831	88.75
298.062	82.75
298.292	85.75
298.523	91.75
298.753	87.75
298.984	88.75
299.214	80.75
299.445	87.75
299.675	105.75
299.905	98.75
300.136	100.75
300.366	88.75
300.597	95.75
300.827	86.75
301.057	95.75
301.288	93.75
301.518	97.75
301.748	97.75
301.979	100.75
302.209	95.75
302.439	101.75
302.669	83.75
302.9	99.75
303.13	97.75
303.36	97.75
303.59	105.75
303.82	121.75
304.051	98.75
304.281	94.75
304.511	94.75
304.741	85.75
304.971	85.75
305.201	101.75
305.431	84.75
305.661	94.75
305.891	85.75
306.121	94.75
306.352	110.75
306.582	98.75
306.812	95.75
307.042	91.75
307.272	109.75
307.502	89.75
307.731	100.75
307.961	96.75
308.191	86.75
308.421	100.75
308.651	87.75
308.881	81.75
309.111	101.75
309.341	98.75
309.571	98.75
309.8	93.75
310.03	84.75
310.26	92.75
310.49	89.75
310.72	95.75
310.949	109.75
311.179	99.75
311.409	100.75
311.639	103.75
311.868	90.75
312.098	83.75
312.328	95.75
312.557	96.75
312.787	110.75
313.017	110.75
313.246	100.75
313.476	93.75
313.706	84.75
313.935	112.75
314.165	99.75
314.394	95.75
314.624	103.75
314.853	104.75
315.083	99.75
315.312	94.75
315.542	94.75
315.771	104.75
316.001	89.75
316.23	101.75
316.46	94.75
316.689	92.75
316.919	78.75
317.148	95.75
317.377	103.75
317.607	90.75
317.836	100.75
318.065	100.75
318.295	90.75
318.524	92.75
318.753	94.75
318.983	100.75
319.212	111.75
319.441	103.75
319.67	103.75
319.9	100.75
320.129	84.75
320.358	106.75
320.587	91.75
320.816	105.75
321.046	100.75
321.275	94.75
321.504	94.75
321.733	90.75
321.962	102.75
322.191	93.75
322.42	96.75
322.649	118.75
322.878	107.75
323.108	113.75
323.337	112.75
323.566	125.75
323.795	133.75
324.024	181.75
324.253	338.75
324.482	697.75
324.71	1415.75
324.939	1829.75
325.168	680.75
325.397	211.75
325.626	140.75
325.855	144.75
326.084	121.75
326.313	128.75
326.542	153.75
326.77	205.75
326.999	406.75
327.228	782.75
327.457	1417.75
327.686	1094.75
327.914	313.75
328.143	172.75
328.372	136.75
328.6	116.75
328.829	116.75
329.058	110.75
329.287	124.75
329.515	99.75
329.744	90.75
329.972	97.75
330.201	114.75
330.43	141.75
330.658	122.75
330.887	129.75
331.115	109.75
331.344	98.75
331.572	101.75
331.801	106.75
332.03	105.75
332.258	101.75
332.486	88.75
332.715	100.75
332.943	88.75
333.172	81.75
333.4	111.75
333.629	114.75
333.857	116.75
334.085	114.75
334.314	127.75
334.542	143.75
334.771	140.75
334.999	114.75
335.227	98.75
335.455	106.75
335.684	121.75
335.912	104.75
336.14	95.75
336.369	96.75
336.597	94.75
336.825	103.75
337.053	100.75
337.281	106.75
337.51	92.75
337.738	111.75
337.966	99.75
338.194	101.75
338.422	86.75
338.65	92.75
338.878	96.75
339.106	98.75
339.334	98.75
339.562	100.75
339.79	87.75
340.018	88.75
340.246	87.75
340.474	88.75
340.702	100.75
340.93	102.75
341.158	100.75
341.386	87.75
341.614	110.75
341.842	94.75
342.07	94.75
342.298	96.75
342.526	100.75
342.754	94.75
342.981	100.75
343.209	101.75
343.437	107.75
343.665	90.75
343.893	88.75
344.12	92.75
344.348	101.75
344.576	107.75
344.804	92.75
345.031	93.75
345.259	86.75
345.487	90.75
345.714	108.75
345.942	87.75
346.17	96.75
346.397	86.75
346.625	90.75
346.853	105.75
347.08	91.75
347.308	101.75
347.535	113.75
347.763	94.75
347.99	98.75
348.218	100.75
348.445	101.75
348.673	93.75
348.9	99.75
349.128	96.75
349.355	89.75
349.583	101.75
349.81	80.75
350.037	108.75
350.265	106.75
350.492	107.75
350.72	104.75
350.947	85.75
351.174	108.75
351.402	119.75
351.629	95.75
351.856	105.75
352.083	103.75
352.311	113.75
352.538	105.75
352.765	104.75
352.992	111.75
353.22	108.75
353.447	108.75
353.674	103.75
353.901	104.75
354.128	108.75
354.355	103.75
354.583	90.75
354.81	108.75
355.037	120.75
355.264	96.75
355.491	98.75
355.718	104.75
355.945	97.75
356.172	90.75
356.399	92.75
356.626	93.75
356.853	110.75
357.08	105.75
357.307	105.75
357.534	97.75
357.761	96.75
357.988	98.75
358.215	97.75
358.441	88.75
358.668	94.75
358.895	94.75
359.122	104.75
359.349	85.75
359.576	95.75
359.802	97.75
360.029	112.75
360.256	110.75
360.483	109.75
360.709	100.75
360.936	98.75
361.163	88.75
361.39	106.75
361.616	88.75
361.843	105.75
362.07	98.75
362.296	80.75
362.523	94.75
362.749	86.75
362.976	96.75
363.203	95.75
363.429	80.75
363.656	99.75
363.882	98.75
364.109	91.75
364.335	89.75
364.562	89.75
364.788	99.75
365.015	86.75
365.241	105.75
365.468	116.75
365.694	101.75
365.92	92.75
366.147	88.75
366.373	74.75
366.599	88.75
366.826	96.75
367.052	98.75
367.278	109.75
367.505	81.75
367.731	98.75
367.957	93.75
368.184	112.75
368.41	103.75
368.636	105.75
368.862	120.75
369.089	105.75
369.315	109.75
369.541	103.75
369.767	97.75
369.993	97.75
370.219	93.75
370.445	100.75
370.672	77.75
370.898	87.75
371.124	98.75
371.35	97.75
371.576	109.75
371.802	83.75
372.028	99.75
372.254	99.75
372.48	85.75
372.706	102.75
372.932	96.75
373.158	84.75
373.384	110.75
373.61	99.75
373.835	99.75
374.061	87.75
374.287	94.75
374.513	87.75
374.739	97.75
374.965	94.75
375.191	93.75
375.416	95.75
375.642	89.75
375.868	87.75
376.094	87.75
376.319	95.75
376.545	97.75
376.771	94.75
376.997	106.75
377.222	92.75
377.448	91.75
377.674	99.75
377.899	96.75
378.125	100.75
378.35	81.75
378.576	84.75
378.802	96.75
379.027	101.75
379.253	100.75
379.478	101.75
379.704	111.75
379.929	86.75
380.155	111.75
380.38	102.75
380.606	103.75
380.831	106.75
381.057	101.75
381.282	108.75
381.507	101.75
381.733	105.75
381.958	93.75
382.184	96.75
382.409	91.75
382.634	113.75
382.86	98.75
383.085	103.75
383.31	108.75
383.535	92.75
383.761	106.75
383.986	105.75
384.211	91.75
384.436	94.75
384.662	102.75
384.887	104.75
385.112	84.75
385.337	101.75
385.562	109.75
385.787	114.75
386.013	111.75
386.238	125.75
386.463	111.75
386.688	110.75
386.913	100.75
387.138	111.75
387.363	117.75
387.588	98.75
387.813	109.75
388.038	114.75
388.263	94.75
388.488	122.75
388.713	92.75
388.938	106.75
389.163	100.75
389.387	98.75
389.612	94.75
389.837	103.75
390.062	105.75
390.287	102.75
390.512	95.75
390.736	95.75
390.961	111.75
391.186	98.75
391.411	101.75
391.636	87.75
391.86	87.75
392.085	82.75
392.31	97.75
392.534	93.75
392.759	98.75
392.984	94.75
393.208	103.75
393.433	90.75
393.658	101.75
393.882	78.75
394.107	91.75
394.331	92.75
394.556	92.75
394.78	90.75
395.005	79.75
395.229	106.75
395.454	99.75
395.678	94.75
395.903	96.75
396.127	82.75
396.352	90.75
396.576	91.75
396.801	95.75
397.025	99.75
397.249	89.75
397.474	85.75
397.698	84.75
397.922	99.75
398.147	85.75
398.371	86.75
398.595	103.75
398.82	94.75
399.044	87.75
399.268	100.75
399.492	98.75
399.717	100.75
399.941	101.75
400.165	88.75
400.389	92.75
400.613	102.75
400.837	80.75
401.062	95.75
401.286	82.75
401.51	92.75
401.734	99.75
401.958	106.75
402.182	112.75
402.406	151.75
402.63	100.75
402.854	79.75
403.078	84.75
403.302	87.75
403.526	102.75
403.75	96.75
403.974	95.75
404.198	85.75
404.422	81.75
404.645	94.75
404.869	87.75
405.093	107.75
405.317	102.75
405.541	89.75
405.765	98.75
405.988	99.75
406.212	161.75
406.436	198.75
406.66	144.75
406.883	103.75
407.107	108.75
407.331	89.75
407.555	94.75
407.778	87.75
408.002	94.75
408.226	101.75
408.449	98.75
408.673	97.75
408.896	80.75
409.12	94.75
409.344	86.75
409.567	82.75
409.791	104.75
410.014	87.75
410.238	90.75
410.461	109.75
410.685	104.75
410.908	103.75
411.132	104.75
411.355	86.75
411.578	106.75
411.802	93.75
412.025	90.75
412.249	85.75
412.472	89.75
412.695	113.75
412.919	100.75
413.142	97.75
413.365	97.75
413.589	89.75
413.812	101.75
414.035	96.75
414.258	105.75
414.482	100.75
414.705	102.75
414.928	96.75
415.151	103.75
415.374	94.75
415.597	96.75
415.821	100.75
416.044	101.75
416.267	74.75
416.49	98.75
416.713	93.75
416.936	93.75
417.159	96.75
417.382	97.75
417.605	97.75
417.828	103.75
418.051	97.75
418.274	104.75
418.497	80.75
418.72	77.75
418.943	99.75
419.166	102.75
419.389	92.75
419.611	92.75
419.834	92.75
420.057	93.75
420.28	104.75
420.503	88.75
420.726	97.75
420.948	94.75
421.171	83.75
421.394	99.75
421.617	94.75
421.839	96.75
422.062	73.75
422.285	93.75
422.507	111.75
422.73	102.75
422.953	94.75
423.175	102.75
423.398	92.75
423.621	101.75
423.843	101.75
424.066	102.75
424.288	92.75
424.511	90.75
424.733	106.75
424.956	100.75
425.178	92.75
425.401	83.75
425.623	103.75
425.846	102.75
426.068	91.75
426.291	103.75
426.513	88.75
426.735	91.75
426.958	112.75
427.18	105.75
427.402	135.75
427.625	157.75
427.847	120.75
428.069	107.75
428.292	105.75
428.514	92.75
428.736	85.75
428.958	86.75
429.181	76.75
429.403	104.75
429.625	85.75
429.847	102.75
430.069	98.75
430.292	90.75
430.514	79.75
430.736	85.75
430.958	89.75
431.18	83.75
431.402	82.75
431.624	84.75
431.846	83.75
432.068	86.75
432.29	93.75
432.512	78.75
432.734	80.75
432.956	96.75
433.178	93.75
433.4	87.75
433.622	88.75
433.844	103.75
434.066	93.75
434.287	90.75
434.509	93.75
434.731	93.75
434.953	103.75
435.175	93.75
435.397	91.75
435.618	97.75
435.84	97.75
436.062	98.75
436.284	101.75
436.505	105.75
436.727	106.75
436.949	98.75
437.17	98.75
437.392	81.75
437.614	95.75
437.835	96.75
438.057	106.75
438.278	94.75
438.5	108.75
438.721	110.75
438.943	93.75
439.165	95.75
439.386	90.75
439.608	91.75
439.829	107.75
440.05	126.75
440.272	130.75
440.493	87.75
440.715	86.75
440.936	71.75
441.158	86.75
441.379	71.75
441.6	101.75
441.822	92.75
442.043	97.75
442.264	105.75
442.486	102.75
442.707	92.75
442.928	102.75
443.149	119.75
443.371	124.75
443.592	105.75
443.813	105.75
444.034	98.75
444.255	92.75
444.476	103.75
444.698	93.75
444.919	87.75
445.14	123.75
445.361	112.75
445.582	114.75
445.803	131.75
446.024	124.75
446.245	133.75
446.466	106.75
446.687	95.75
446.908	104.75
447.129	102.75
447.35	94.75
447.571	108.75
447.792	96.75
448.013	98.75
448.234	118.75
448.455	100.75
448.675	110.75
448.896	113.75
449.117	98.75
449.338	103.75
449.559	118.75
449.779	117.75
450	96.75
450.221	101.75
450.442	94.75
450.662	111.75
450.883	97.75
451.104	105.75
451.324	92.75
451.545	90.75
451.766	85.75
451.986	98.75
452.207	85.75
452.428	101.75
452.648	100.75
452.869	103.75
453.089	96.75
453.31	99.75
453.53	105.75
453.751	92.75
453.971	106.75
454.192	101.75
454.412	80.75
454.633	100.75
454.853	85.75
455.073	94.75
455.294	88.75
455.514	105.75
455.734	96.75
455.955	90.75
456.175	88.75
456.395	89.75
456.616	92.75
456.836	105.75
457.056	93.75
457.276	88.75
457.497	80.75
457.717	98.75
457.937	92.75
458.157	94.75
458.377	91.75
458.598	96.75
458.818	137.75
459.038	148.75
459.258	111.75
459.478	85.75
459.698	78.75
459.918	88.75
460.138	85.75
460.358	92.75
460.578	98.75
460.798	95.75
461.018	94.75
461.238	97.75
461.458	93.75
461.678	79.75
461.898	91.75
462.118	73.75
462.338	80.75
462.558	98.75
462.777	85.75
462.997	100.75
463.217	77.75
463.437	82.75
463.657	76.75
463.876	93.75
464.096	85.75
464.316	86.75
464.536	92.75
464.755	93.75
464.975	101.75
465.195	153.75
465.414	137.75
465.634	80.75
465.854	93.75
466.073	100.75
466.293	89.75
466.512	100.75
466.732	98.75
466.951	96.75
467.171	97.75
467.391	85.75
467.61	102.75
467.829	106.75
468.049	103.75
468.268	99.75
468.488	81.75
468.707	94.75
468.927	92.75
469.146	100.75
469.365	97.75
469.585	101.75
469.804	92.75
470.023	89.75
470.243	115.75
470.462	94.75
470.681	113.75
470.901	97.75
471.12	98.75
471.339	94.75
471.558	74.75
471.777	80.75
471.997	102.75
472.216	114.75
472.435	152.75
472.654	102.75
472.873	85.75
473.092	81.75
473.311	93.75
473.53	86.75
473.749	89.75
473.968	114.75
474.187	113.75
474.406	103.75
474.625	97.75
474.844	98.75
475.063	97.75
475.282	93.75
475.501	73.75
475.72	93.75
475.939	86.75
476.158	78.75
476.377	84.75
476.596	88.75
476.814	95.75
477.033	85.75
477.252	74.75
477.471	98.75
477.69	103.75
477.908	92.75
478.127	93.75
478.346	88.75
478.564	83.75
478.783	86.75
479.002	86.75
479.22	83.75
479.439	89.75
479.658	97.75
479.876	103.75
480.095	87.75
480.313	90.75
480.532	105.75
480.751	92.75
480.969	129.75
481.188	212.75
481.406	160.75
481.624	101.75
481.843	90.75
482.061	96.75
482.28	99.75
482.498	98.75
482.717	92.75
482.935	78.75
483.153	105.75
483.372	89.75
483.59	96.75
483.808	90.75
484.027	102.75
484.245	99.75
484.463	101.75
484.681	100.75
484.9	91.75
485.118	111.75
485.336	97.75
485.554	103.75
485.772	105.75
485.99	110.75
486.209	115.75
486.427	106.75
486.645	104.75
486.863	114.75
487.081	110.75
487.299	98.75
487.517	108.75
487.735	87.75
487.953	92.75
488.171	103.75
488.389	106.75
488.607	103.75
488.825	88.75
489.043	82.75
489.261	100.75
489.479	88.75
489.696	106.75
489.914	87.75
490.132	86.75
490.35	82.75
490.568	105.75
490.786	93.75
491.003	93.75
491.221	99.75
491.439	90.75
491.657	87.75
491.874	88.75
492.092	88.75
492.31	109.75
492.527	86.75
492.745	79.75
492.963	89.75
493.18	98.75
493.398	91.75
493.615	104.75
493.833	99.75
494.05	97.75
494.268	92.75
494.485	94.75
494.703	88.75
494.92	95.75
495.138	93.75
495.355	102.75
495.573	96.75
495.79	93.75
496.008	96.75
496.225	87.75
496.442	83.75
496.66	86.75
496.877	81.75
497.094	93.75
497.312	92.75
497.529	98.75
497.746	94.75
497.963	89.75
498.181	74.75
498.398	103.75
498.615	103.75
498.832	117.75
499.049	95.75
499.267	89.75
499.484	89.75
499.701	89.75
499.918	102.75
500.135	70.75
500.352	93.75
500.569	92.75
500.786	82.75
501.003	87.75
501.22	108.75
501.437	96.75
501.654	89.75
501.871	108.75
502.088	93.75
502.305	92.75
502.522	96.75
502.739	95.75
502.956	93.75
503.172	112.75
503.389	105.75
503.606	93.75
503.823	100.75
504.04	95.75
504.256	97.75
504.473	88.75
504.69	89.75
504.907	98.75
505.123	88.75
505.34	96.75
505.557	90.75
505.773	100.75
505.99	85.75
506.207	94.75
506.423	99.75
506.64	97.75
506.856	94.75
507.073	101.75
507.289	94.75
507.506	106.75
507.722	109.75
507.939	105.75
508.155	105.75
508.372	94.75
508.588	96.75
508.805	99.75
509.021	93.75
509.238	96.75
509.454	98.75
509.67	99.75
509.887	113.75
510.103	121.75
510.319	202.75
510.536	699.75
510.752	2220.75
510.968	607.75
511.184	161.75
511.401	117.75
511.617	97.75
511.833	90.75
512.049	87.75
512.265	98.75
512.481	82.75
512.698	99.75
512.914	101.75
513.13	92.75
513.346	103.75
513.562	95.75
513.778	95.75
513.994	105.75
514.21	106.75
