Data from Circ_1994_H10_HRD10591_00023.txt Node
Date: Wed Jan 03 11:40:35 EST 2024
User: Yrep
Spectrometer: HR+D1059
Trigger mode: 1
Integration Time (sec): 1.000000E-1
Scans to average: 1
Electric dark correction enabled: true
Nonlinearity correction enabled: false
Boxcar width: 0
XAxis mode: Wavelengths
Number of Pixels in Spectrum: 2048
>>>>>Begin Spectral Data<<<<<
223.165	-7.06
223.4	-7.06
223.635	-7.06
223.869	-17.06
224.104	-5.06
224.338	-20.06
224.573	-5.06
224.808	-12.06
225.042	-15.06
225.277	-11.06
225.511	-11.06
225.746	4.94
225.98	2.94
226.215	8.94
226.449	15.94
226.683	17.94
226.918	25.94
227.152	26.94
227.387	37.94
227.621	39.94
227.856	41.94
228.09	48.94
228.324	58.94
228.559	55.94
228.793	59.94
229.027	58.94
229.262	73.94
229.496	66.94
229.73	66.94
229.964	70.94
230.199	81.94
230.433	60.94
230.667	80.94
230.901	73.94
231.136	76.94
231.37	62.94
231.604	77.94
231.838	77.94
232.072	71.94
232.306	75.94
232.541	93.94
232.775	78.94
233.009	88.94
233.243	86.94
233.477	77.94
233.711	93.94
233.945	70.94
234.179	81.94
234.413	75.94
234.647	63.94
234.881	82.94
235.115	86.94
235.349	73.94
235.583	77.94
235.817	75.94
236.051	76.94
236.285	79.94
236.519	73.94
236.753	63.94
236.987	75.94
237.221	75.94
237.455	71.94
237.689	75.94
237.922	75.94
238.156	77.94
238.39	75.94
238.624	81.94
238.858	91.94
239.091	70.94
239.325	65.94
239.559	80.94
239.793	71.94
240.027	73.94
240.26	74.94
240.494	80.94
240.728	77.94
240.961	65.94
241.195	76.94
241.429	55.94
241.662	77.94
241.896	73.94
242.13	86.94
242.363	94.94
242.597	78.94
242.83	71.94
243.064	65.94
243.298	86.94
243.531	83.94
243.765	73.94
243.998	85.94
244.232	83.94
244.465	78.94
244.699	72.94
244.932	76.94
245.166	76.94
245.399	82.94
245.633	76.94
245.866	70.94
246.099	67.94
246.333	82.94
246.566	75.94
246.8	83.94
247.033	69.94
247.266	66.94
247.5	74.94
247.733	84.94
247.966	79.94
248.2	74.94
248.433	79.94
248.666	73.94
248.899	77.94
249.133	89.94
249.366	95.94
249.599	106.94
249.832	71.94
250.066	75.94
250.299	77.94
250.532	88.94
250.765	73.94
250.998	77.94
251.231	79.94
251.465	60.94
251.698	71.94
251.931	76.94
252.164	75.94
252.397	75.94
252.63	66.94
252.863	85.94
253.096	81.94
253.329	83.94
253.562	74.94
253.795	79.94
254.028	83.94
254.261	65.94
254.494	80.94
254.727	75.94
254.96	80.94
255.193	87.94
255.426	75.94
255.659	80.94
255.892	87.94
256.124	74.94
256.357	76.94
256.59	72.94
256.823	61.94
257.056	79.94
257.289	77.94
257.521	74.94
257.754	73.94
257.987	73.94
258.22	88.94
258.452	76.94
258.685	74.94
258.918	76.94
259.151	84.94
259.383	77.94
259.616	90.94
259.849	82.94
260.081	83.94
260.314	64.94
260.547	77.94
260.779	76.94
261.012	79.94
261.244	60.94
261.477	100.94
261.71	90.94
261.942	104.94
262.175	96.94
262.407	92.94
262.64	73.94
262.872	85.94
263.105	90.94
263.337	81.94
263.57	74.94
263.802	91.94
264.035	60.94
264.267	85.94
264.499	79.94
264.732	91.94
264.964	81.94
265.197	77.94
265.429	74.94
265.661	78.94
265.894	83.94
266.126	91.94
266.358	82.94
266.591	65.94
266.823	71.94
267.055	83.94
267.287	92.94
267.52	89.94
267.752	78.94
267.984	97.94
268.216	74.94
268.448	77.94
268.681	67.94
268.913	87.94
269.145	96.94
269.377	73.94
269.609	79.94
269.841	91.94
270.073	81.94
270.306	72.94
270.538	86.94
270.77	78.94
271.002	88.94
271.234	62.94
271.466	91.94
271.698	85.94
271.93	76.94
272.162	82.94
272.394	77.94
272.626	85.94
272.858	83.94
273.09	75.94
273.322	79.94
273.553	86.94
273.785	92.94
274.017	84.94
274.249	79.94
274.481	84.94
274.713	78.94
274.945	87.94
275.176	79.94
275.408	81.94
275.64	86.94
275.872	73.94
276.104	68.94
276.335	81.94
276.567	96.94
276.799	99.94
277.031	104.94
277.262	81.94
277.494	84.94
277.726	80.94
277.957	81.94
278.189	82.94
278.421	89.94
278.652	87.94
278.884	78.94
279.115	93.94
279.347	85.94
279.579	81.94
279.81	69.94
280.042	81.94
280.273	72.94
280.505	87.94
280.736	91.94
280.968	82.94
281.199	77.94
281.431	85.94
281.662	87.94
281.894	80.94
282.125	85.94
282.356	94.94
282.588	139.94
282.819	103.94
283.051	82.94
283.282	78.94
283.513	82.94
283.745	73.94
283.976	82.94
284.207	67.94
284.439	61.94
284.67	90.94
284.901	78.94
285.132	87.94
285.364	77.94
285.595	88.94
285.826	88.94
286.057	85.94
286.288	86.94
286.52	78.94
286.751	91.94
286.982	82.94
287.213	94.94
287.444	93.94
287.675	79.94
287.906	85.94
288.138	95.94
288.369	89.94
288.6	74.94
288.831	90.94
289.062	92.94
289.293	90.94
289.524	80.94
289.755	89.94
289.986	81.94
290.217	80.94
290.448	73.94
290.679	86.94
290.91	95.94
291.141	96.94
291.371	83.94
291.602	88.94
291.833	85.94
292.064	80.94
292.295	89.94
292.526	75.94
292.757	82.94
292.987	73.94
293.218	85.94
293.449	76.94
293.68	71.94
293.91	90.94
294.141	93.94
294.372	88.94
294.603	86.94
294.833	74.94
295.064	82.94
295.295	79.94
295.525	77.94
295.756	93.94
295.987	109.94
296.217	130.94
296.448	96.94
296.679	92.94
296.909	86.94
297.14	80.94
297.37	90.94
297.601	74.94
297.831	73.94
298.062	69.94
298.292	80.94
298.523	78.94
298.753	61.94
298.984	78.94
299.214	80.94
299.445	96.94
299.675	92.94
299.905	83.94
300.136	102.94
300.366	100.94
300.597	96.94
300.827	84.94
301.057	93.94
301.288	94.94
301.518	101.94
301.748	87.94
301.979	98.94
302.209	93.94
302.439	89.94
302.669	83.94
302.9	94.94
303.13	85.94
303.36	96.94
303.59	104.94
303.82	99.94
304.051	97.94
304.281	85.94
304.511	88.94
304.741	78.94
304.971	77.94
305.201	84.94
305.431	82.94
305.661	81.94
305.891	80.94
306.121	87.94
306.352	90.94
306.582	100.94
306.812	59.94
307.042	79.94
307.272	105.94
307.502	95.94
307.731	87.94
307.961	88.94
308.191	74.94
308.421	89.94
308.651	88.94
308.881	92.94
309.111	86.94
309.341	96.94
309.571	103.94
309.8	89.94
310.03	96.94
310.26	83.94
310.49	90.94
310.72	86.94
310.949	90.94
311.179	96.94
311.409	98.94
311.639	91.94
311.868	86.94
312.098	87.94
312.328	91.94
312.557	88.94
312.787	80.94
313.017	92.94
313.246	77.94
313.476	82.94
313.706	96.94
313.935	80.94
314.165	102.94
314.394	88.94
314.624	83.94
314.853	87.94
315.083	89.94
315.312	102.94
315.542	73.94
315.771	87.94
316.001	82.94
316.23	95.94
316.46	93.94
316.689	73.94
316.919	97.94
317.148	97.94
317.377	91.94
317.607	86.94
317.836	107.94
318.065	93.94
318.295	88.94
318.524	80.94
318.753	92.94
318.983	69.94
319.212	98.94
319.441	100.94
319.67	92.94
319.9	86.94
320.129	91.94
320.358	95.94
320.587	90.94
320.816	91.94
321.046	105.94
321.275	98.94
321.504	97.94
321.733	92.94
321.962	110.94
322.191	103.94
322.42	87.94
322.649	100.94
322.878	107.94
323.108	101.94
323.337	115.94
323.566	114.94
323.795	140.94
324.024	179.94
324.253	339.94
324.482	697.94
324.71	1379.94
324.939	1823.94
325.168	661.94
325.397	205.94
325.626	147.94
325.855	113.94
326.084	126.94
326.313	120.94
326.542	132.94
326.77	221.94
326.999	391.94
327.228	795.94
327.457	1389.94
327.686	1101.94
327.914	321.94
328.143	164.94
328.372	137.94
328.6	109.94
328.829	105.94
329.058	105.94
329.287	113.94
329.515	109.94
329.744	98.94
329.972	112.94
330.201	113.94
330.43	123.94
330.658	118.94
330.887	122.94
331.115	108.94
331.344	81.94
331.572	90.94
331.801	105.94
332.03	87.94
332.258	84.94
332.486	97.94
332.715	101.94
332.943	89.94
333.172	99.94
333.4	99.94
333.629	97.94
333.857	112.94
334.085	108.94
334.314	95.94
334.542	118.94
334.771	115.94
334.999	111.94
335.227	105.94
335.455	95.94
335.684	95.94
335.912	106.94
336.14	88.94
336.369	93.94
336.597	83.94
336.825	92.94
337.053	91.94
337.281	89.94
337.51	89.94
337.738	103.94
337.966	100.94
338.194	86.94
338.422	90.94
338.65	76.94
338.878	83.94
339.106	95.94
339.334	93.94
339.562	99.94
339.79	81.94
340.018	92.94
340.246	99.94
340.474	86.94
340.702	97.94
340.93	93.94
341.158	93.94
341.386	101.94
341.614	110.94
341.842	92.94
342.07	92.94
342.298	78.94
342.526	82.94
342.754	88.94
342.981	73.94
343.209	83.94
343.437	102.94
343.665	94.94
343.893	87.94
344.12	102.94
344.348	89.94
344.576	99.94
344.804	98.94
345.031	103.94
345.259	97.94
345.487	96.94
345.714	88.94
345.942	98.94
346.17	94.94
346.397	88.94
346.625	80.94
346.853	101.94
347.08	83.94
347.308	91.94
347.535	86.94
347.763	81.94
347.99	91.94
348.218	97.94
348.445	99.94
348.673	93.94
348.9	92.94
349.128	95.94
349.355	80.94
349.583	79.94
349.81	92.94
350.037	90.94
350.265	87.94
350.492	104.94
350.72	89.94
350.947	83.94
351.174	111.94
351.402	94.94
351.629	108.94
351.856	117.94
352.083	98.94
352.311	114.94
352.538	106.94
352.765	95.94
352.992	107.94
353.22	104.94
353.447	104.94
353.674	103.94
353.901	88.94
354.128	93.94
354.355	98.94
354.583	90.94
354.81	87.94
355.037	110.94
355.264	101.94
355.491	96.94
355.718	93.94
355.945	94.94
356.172	79.94
356.399	95.94
356.626	85.94
356.853	82.94
357.08	94.94
357.307	99.94
357.534	85.94
357.761	74.94
357.988	96.94
358.215	93.94
358.441	83.94
358.668	101.94
358.895	98.94
359.122	73.94
359.349	82.94
359.576	78.94
359.802	85.94
360.029	89.94
360.256	98.94
360.483	91.94
360.709	82.94
360.936	81.94
361.163	105.94
361.39	91.94
361.616	95.94
361.843	87.94
362.07	89.94
362.296	91.94
362.523	77.94
362.749	82.94
362.976	79.94
363.203	87.94
363.429	71.94
363.656	83.94
363.882	93.94
364.109	87.94
364.335	77.94
364.562	101.94
364.788	87.94
365.015	88.94
365.241	90.94
365.468	98.94
365.694	102.94
365.92	87.94
366.147	92.94
366.373	84.94
366.599	78.94
366.826	83.94
367.052	83.94
367.278	78.94
367.505	75.94
367.731	93.94
367.957	83.94
368.184	97.94
368.41	100.94
368.636	95.94
368.862	94.94
369.089	105.94
369.315	80.94
369.541	96.94
369.767	76.94
369.993	75.94
370.219	81.94
370.445	70.94
370.672	87.94
370.898	89.94
371.124	85.94
371.35	87.94
371.576	89.94
371.802	91.94
372.028	83.94
372.254	80.94
372.48	73.94
372.706	73.94
372.932	86.94
373.158	102.94
373.384	97.94
373.61	94.94
373.835	92.94
374.061	82.94
374.287	86.94
374.513	73.94
374.739	101.94
374.965	93.94
375.191	78.94
375.416	74.94
375.642	95.94
375.868	83.94
376.094	92.94
376.319	94.94
376.545	86.94
376.771	88.94
376.997	74.94
377.222	78.94
377.448	85.94
377.674	92.94
377.899	92.94
378.125	81.94
378.35	75.94
378.576	81.94
378.802	101.94
379.027	81.94
379.253	91.94
379.478	70.94
379.704	79.94
379.929	86.94
380.155	84.94
380.38	79.94
380.606	98.94
380.831	100.94
381.057	90.94
381.282	83.94
381.507	99.94
381.733	89.94
381.958	79.94
382.184	99.94
382.409	88.94
382.634	99.94
382.86	96.94
383.085	107.94
383.31	103.94
383.535	91.94
383.761	90.94
383.986	87.94
384.211	88.94
384.436	79.94
384.662	84.94
384.887	96.94
385.112	118.94
385.337	91.94
385.562	110.94
385.787	104.94
386.013	102.94
386.238	95.94
386.463	93.94
386.688	112.94
386.913	110.94
387.138	97.94
387.363	112.94
387.588	91.94
387.813	109.94
388.038	92.94
388.263	111.94
388.488	109.94
388.713	96.94
388.938	79.94
389.163	101.94
389.387	88.94
389.612	98.94
389.837	93.94
390.062	86.94
390.287	86.94
390.512	94.94
390.736	89.94
390.961	94.94
391.186	66.94
391.411	95.94
391.636	94.94
391.86	80.94
392.085	79.94
392.31	87.94
392.534	87.94
392.759	85.94
392.984	76.94
393.208	95.94
393.433	100.94
393.658	75.94
393.882	85.94
394.107	78.94
394.331	79.94
394.556	71.94
394.78	90.94
395.005	73.94
395.229	91.94
395.454	93.94
395.678	81.94
395.903	94.94
396.127	86.94
396.352	88.94
396.576	70.94
396.801	88.94
397.025	94.94
397.249	80.94
397.474	82.94
397.698	94.94
397.922	71.94
398.147	85.94
398.371	95.94
398.595	79.94
398.82	63.94
399.044	78.94
399.268	91.94
399.492	83.94
399.717	88.94
399.941	79.94
400.165	79.94
400.389	89.94
400.613	81.94
400.837	93.94
401.062	93.94
401.286	90.94
401.51	90.94
401.734	83.94
401.958	88.94
402.182	116.94
402.406	144.94
402.63	128.94
402.854	96.94
403.078	79.94
403.302	90.94
403.526	89.94
403.75	86.94
403.974	84.94
404.198	89.94
404.422	79.94
404.645	101.94
404.869	77.94
405.093	87.94
405.317	89.94
405.541	104.94
405.765	100.94
405.988	111.94
406.212	155.94
406.436	195.94
406.66	141.94
406.883	105.94
407.107	92.94
407.331	93.94
407.555	88.94
407.778	89.94
408.002	88.94
408.226	69.94
408.449	75.94
408.673	89.94
408.896	85.94
409.12	87.94
409.344	85.94
409.567	81.94
409.791	81.94
410.014	96.94
410.238	87.94
410.461	88.94
410.685	88.94
410.908	101.94
411.132	94.94
411.355	103.94
411.578	81.94
411.802	69.94
412.025	83.94
412.249	84.94
412.472	91.94
412.695	96.94
412.919	79.94
413.142	95.94
413.365	82.94
413.589	82.94
413.812	86.94
414.035	98.94
414.258	89.94
414.482	79.94
414.705	87.94
414.928	94.94
415.151	90.94
415.374	96.94
415.597	80.94
415.821	88.94
416.044	83.94
416.267	72.94
416.49	77.94
416.713	75.94
416.936	91.94
417.159	77.94
417.382	77.94
417.605	84.94
417.828	89.94
418.051	98.94
418.274	91.94
418.497	89.94
418.72	73.94
418.943	77.94
419.166	92.94
419.389	80.94
419.611	73.94
419.834	87.94
420.057	85.94
420.28	82.94
420.503	85.94
420.726	83.94
420.948	75.94
421.171	82.94
421.394	87.94
421.617	92.94
421.839	90.94
422.062	82.94
422.285	96.94
422.507	94.94
422.73	89.94
422.953	74.94
423.175	83.94
423.398	71.94
423.621	95.94
423.843	84.94
424.066	75.94
424.288	88.94
424.511	89.94
424.733	78.94
424.956	94.94
425.178	94.94
425.401	95.94
425.623	95.94
425.846	89.94
426.068	90.94
426.291	90.94
426.513	95.94
426.735	96.94
426.958	95.94
427.18	93.94
427.402	117.94
427.625	134.94
427.847	119.94
428.069	89.94
428.292	88.94
428.514	83.94
428.736	68.94
428.958	89.94
429.181	88.94
429.403	73.94
429.625	87.94
429.847	86.94
430.069	83.94
430.292	86.94
430.514	77.94
430.736	80.94
430.958	75.94
431.18	74.94
431.402	85.94
431.624	80.94
431.846	81.94
432.068	66.94
432.29	81.94
432.512	95.94
432.734	97.94
432.956	81.94
433.178	96.94
433.4	89.94
433.622	78.94
433.844	104.94
434.066	86.94
434.287	94.94
434.509	83.94
434.731	85.94
434.953	87.94
435.175	74.94
435.397	75.94
435.618	85.94
435.84	103.94
436.062	112.94
436.284	116.94
436.505	96.94
436.727	91.94
436.949	90.94
437.17	73.94
437.392	86.94
437.614	79.94
437.835	103.94
438.057	107.94
438.278	100.94
438.5	91.94
438.721	99.94
438.943	81.94
439.165	85.94
439.386	88.94
439.608	83.94
439.829	94.94
440.05	105.94
440.272	119.94
440.493	91.94
440.715	77.94
440.936	87.94
441.158	86.94
441.379	87.94
441.6	78.94
441.822	90.94
442.043	79.94
442.264	81.94
442.486	78.94
442.707	81.94
442.928	99.94
443.149	99.94
443.371	102.94
443.592	90.94
443.813	99.94
444.034	90.94
444.255	82.94
444.476	85.94
444.698	74.94
444.919	79.94
445.14	115.94
445.361	114.94
445.582	101.94
445.803	121.94
446.024	134.94
446.245	116.94
446.466	94.94
446.687	93.94
446.908	76.94
447.129	88.94
447.35	89.94
447.571	94.94
447.792	88.94
448.013	82.94
448.234	87.94
448.455	101.94
448.675	98.94
448.896	109.94
449.117	89.94
449.338	112.94
449.559	114.94
449.779	117.94
450	104.94
450.221	86.94
450.442	76.94
450.662	77.94
450.883	100.94
451.104	99.94
451.324	83.94
451.545	71.94
451.766	75.94
451.986	79.94
452.207	83.94
452.428	86.94
452.648	100.94
452.869	103.94
453.089	97.94
453.31	104.94
453.53	86.94
453.751	105.94
453.971	101.94
454.192	97.94
454.412	81.94
454.633	85.94
454.853	83.94
455.073	89.94
455.294	89.94
455.514	83.94
455.734	91.94
455.955	78.94
456.175	73.94
456.395	81.94
456.616	69.94
456.836	88.94
457.056	85.94
457.276	74.94
457.497	73.94
457.717	71.94
457.937	90.94
458.157	92.94
458.377	78.94
458.598	98.94
458.818	114.94
459.038	122.94
459.258	101.94
459.478	85.94
459.698	77.94
459.918	84.94
460.138	86.94
460.358	73.94
460.578	83.94
460.798	89.94
461.018	83.94
461.238	82.94
461.458	93.94
461.678	91.94
461.898	90.94
462.118	68.94
462.338	93.94
462.558	75.94
462.777	86.94
462.997	84.94
463.217	95.94
463.437	85.94
463.657	85.94
463.876	81.94
464.096	76.94
464.316	83.94
464.536	101.94
464.755	87.94
464.975	97.94
465.195	129.94
465.414	122.94
465.634	89.94
465.854	92.94
466.073	89.94
466.293	70.94
466.512	99.94
466.732	89.94
466.951	86.94
467.171	90.94
467.391	85.94
467.61	102.94
467.829	87.94
468.049	83.94
468.268	102.94
468.488	80.94
468.707	90.94
468.927	91.94
469.146	82.94
469.365	77.94
469.585	98.94
469.804	95.94
470.023	94.94
470.243	88.94
470.462	82.94
470.681	90.94
470.901	86.94
471.12	65.94
471.339	75.94
471.558	83.94
471.777	69.94
471.997	83.94
472.216	105.94
472.435	136.94
472.654	103.94
472.873	103.94
473.092	93.94
473.311	97.94
473.53	85.94
473.749	83.94
473.968	76.94
474.187	99.94
474.406	85.94
474.625	80.94
474.844	81.94
475.063	82.94
475.282	90.94
475.501	91.94
475.72	83.94
475.939	78.94
476.158	82.94
476.377	76.94
476.596	87.94
476.814	97.94
477.033	102.94
477.252	71.94
477.471	87.94
477.69	89.94
477.908	90.94
478.127	91.94
478.346	73.94
478.564	84.94
478.783	85.94
479.002	75.94
479.22	85.94
479.439	95.94
479.658	98.94
479.876	96.94
480.095	87.94
480.313	99.94
480.532	81.94
480.751	87.94
480.969	113.94
481.188	177.94
481.406	137.94
481.624	99.94
481.843	94.94
482.061	70.94
482.28	84.94
482.498	88.94
482.717	74.94
482.935	85.94
483.153	75.94
483.372	94.94
483.59	86.94
483.808	80.94
484.027	87.94
484.245	83.94
484.463	77.94
484.681	94.94
484.9	85.94
485.118	82.94
485.336	104.94
485.554	94.94
485.772	102.94
485.99	96.94
486.209	100.94
486.427	98.94
486.645	99.94
486.863	96.94
487.081	92.94
487.299	89.94
487.517	96.94
487.735	82.94
487.953	82.94
488.171	93.94
488.389	84.94
488.607	102.94
488.825	84.94
489.043	81.94
489.261	90.94
489.479	89.94
489.696	83.94
489.914	82.94
490.132	91.94
490.35	75.94
490.568	91.94
490.786	83.94
491.003	79.94
491.221	82.94
491.439	82.94
491.657	78.94
491.874	95.94
492.092	82.94
492.31	88.94
492.527	86.94
492.745	92.94
492.963	81.94
493.18	82.94
493.398	98.94
493.615	100.94
493.833	93.94
494.05	80.94
494.268	98.94
494.485	79.94
494.703	80.94
494.92	81.94
495.138	94.94
495.355	87.94
495.573	77.94
495.79	92.94
496.008	90.94
496.225	82.94
496.442	82.94
496.66	72.94
496.877	80.94
497.094	86.94
497.312	87.94
497.529	89.94
497.746	98.94
497.963	93.94
498.181	83.94
498.398	64.94
498.615	103.94
498.832	92.94
499.049	73.94
499.267	82.94
499.484	85.94
499.701	86.94
499.918	89.94
500.135	82.94
500.352	87.94
500.569	78.94
500.786	93.94
501.003	102.94
501.22	75.94
501.437	82.94
501.654	83.94
501.871	103.94
502.088	78.94
502.305	74.94
502.522	70.94
502.739	97.94
502.956	90.94
503.172	87.94
503.389	92.94
503.606	89.94
503.823	88.94
504.04	96.94
504.256	81.94
504.473	80.94
504.69	84.94
504.907	105.94
505.123	89.94
505.34	95.94
505.557	89.94
505.773	95.94
505.99	90.94
506.207	67.94
506.423	90.94
506.64	84.94
506.856	92.94
507.073	86.94
507.289	95.94
507.506	98.94
507.722	101.94
507.939	115.94
508.155	91.94
508.372	95.94
508.588	91.94
508.805	74.94
509.021	86.94
509.238	90.94
509.454	104.94
509.67	94.94
509.887	98.94
510.103	118.94
510.319	199.94
510.536	649.94
510.752	2039.94
510.968	570.94
511.184	141.94
511.401	98.94
511.617	92.94
511.833	77.94
512.049	93.94
512.265	93.94
512.481	86.94
512.698	95.94
512.914	81.94
513.13	80.94
513.346	89.94
513.562	90.94
513.778	87.94
513.994	100.94
514.21	110.94
514.426	112.94
514.642	126.94
514.858	120.94
515.074	136.94
515.29	359.94
515.506	1147.94
515.721	436.94
515.937	143.94
516.153	92.94
516.369	99.94
516.585	79.94
516.801	91.94
517.016	85.94
517.232	91.94
