Data from Circ_1994_H10_HRD10591_00037.txt Node
Date: Wed Jan 03 11:40:37 EST 2024
User: Yrep
Spectrometer: HR+D1059
Trigger mode: 1
Integration Time (sec): 1.000000E-1
Scans to average: 1
Electric dark correction enabled: true
Nonlinearity correction enabled: false
Boxcar width: 0
XAxis mode: Wavelengths
Number of Pixels in Spectrum: 2048
>>>>>Begin Spectral Data<<<<<
223.165	-15.44
223.4	-15.44
223.635	-15.44
223.869	-20.44
224.104	-19.44
224.338	-5.44
224.573	-15.44
224.808	-27.44
225.042	-9.44
225.277	-10.44
225.511	-4.44
225.746	-0.44
225.98	11.56
226.215	5.56
226.449	13.56
226.683	27.56
226.918	39.56
227.152	30.56
227.387	32.56
227.621	22.56
227.856	34.56
228.09	43.56
228.324	56.56
228.559	49.56
228.793	64.56
229.027	59.56
229.262	60.56
229.496	81.56
229.73	92.56
229.964	88.56
230.199	93.56
230.433	82.56
230.667	88.56
230.901	81.56
231.136	89.56
231.37	85.56
231.604	99.56
231.838	79.56
232.072	82.56
232.306	80.56
232.541	89.56
232.775	64.56
233.009	88.56
233.243	86.56
233.477	85.56
233.711	85.56
233.945	75.56
234.179	84.56
234.413	81.56
234.647	77.56
234.881	75.56
235.115	80.56
235.349	83.56
235.583	78.56
235.817	92.56
236.051	97.56
236.285	72.56
236.519	73.56
236.753	71.56
236.987	72.56
237.221	81.56
237.455	92.56
237.689	84.56
237.922	90.56
238.156	89.56
238.39	70.56
238.624	80.56
238.858	82.56
239.091	70.56
239.325	82.56
239.559	78.56
239.793	76.56
240.027	84.56
240.26	88.56
240.494	66.56
240.728	73.56
240.961	82.56
241.195	84.56
241.429	89.56
241.662	75.56
241.896	77.56
242.13	81.56
242.363	100.56
242.597	78.56
242.83	80.56
243.064	70.56
243.298	80.56
243.531	82.56
243.765	84.56
243.998	78.56
244.232	89.56
244.465	74.56
244.699	81.56
244.932	77.56
245.166	76.56
245.399	73.56
245.633	78.56
245.866	83.56
246.099	62.56
246.333	79.56
246.566	77.56
246.8	82.56
247.033	70.56
247.266	64.56
247.5	86.56
247.733	83.56
247.966	96.56
248.2	78.56
248.433	67.56
248.666	84.56
248.899	68.56
249.133	79.56
249.366	85.56
249.599	84.56
249.832	86.56
250.066	89.56
250.299	91.56
250.532	85.56
250.765	80.56
250.998	64.56
251.231	81.56
251.465	99.56
251.698	79.56
251.931	92.56
252.164	81.56
252.397	85.56
252.63	85.56
252.863	78.56
253.096	77.56
253.329	78.56
253.562	89.56
253.795	96.56
254.028	68.56
254.261	85.56
254.494	80.56
254.727	66.56
254.96	90.56
255.193	78.56
255.426	76.56
255.659	70.56
255.892	91.56
256.124	71.56
256.357	92.56
256.59	67.56
256.823	78.56
257.056	88.56
257.289	78.56
257.521	75.56
257.754	79.56
257.987	86.56
258.22	90.56
258.452	78.56
258.685	83.56
258.918	84.56
259.151	69.56
259.383	82.56
259.616	82.56
259.849	89.56
260.081	87.56
260.314	85.56
260.547	65.56
260.779	83.56
261.012	91.56
261.244	78.56
261.477	80.56
261.71	82.56
261.942	99.56
262.175	106.56
262.407	92.56
262.64	76.56
262.872	86.56
263.105	85.56
263.337	87.56
263.57	81.56
263.802	83.56
264.035	81.56
264.267	83.56
264.499	94.56
264.732	94.56
264.964	83.56
265.197	91.56
265.429	73.56
265.661	83.56
265.894	91.56
266.126	83.56
266.358	92.56
266.591	89.56
266.823	83.56
267.055	75.56
267.287	83.56
267.52	73.56
267.752	91.56
267.984	98.56
268.216	81.56
268.448	76.56
268.681	85.56
268.913	77.56
269.145	82.56
269.377	72.56
269.609	69.56
269.841	88.56
270.073	83.56
270.306	80.56
270.538	79.56
270.77	88.56
271.002	78.56
271.234	82.56
271.466	87.56
271.698	83.56
271.93	89.56
272.162	88.56
272.394	80.56
272.626	87.56
272.858	101.56
273.09	82.56
273.322	77.56
273.553	92.56
273.785	84.56
274.017	98.56
274.249	82.56
274.481	86.56
274.713	79.56
274.945	97.56
275.176	91.56
275.408	93.56
275.64	90.56
275.872	94.56
276.104	76.56
276.335	90.56
276.567	96.56
276.799	96.56
277.031	113.56
277.262	82.56
277.494	94.56
277.726	89.56
277.957	90.56
278.189	92.56
278.421	98.56
278.652	78.56
278.884	88.56
279.115	85.56
279.347	86.56
279.579	92.56
279.81	91.56
280.042	89.56
280.273	86.56
280.505	83.56
280.736	77.56
280.968	84.56
281.199	80.56
281.431	85.56
281.662	100.56
281.894	81.56
282.125	95.56
282.356	107.56
282.588	125.56
282.819	109.56
283.051	90.56
283.282	84.56
283.513	94.56
283.745	84.56
283.976	85.56
284.207	80.56
284.439	83.56
284.67	106.56
284.901	94.56
285.132	102.56
285.364	92.56
285.595	84.56
285.826	77.56
286.057	84.56
286.288	86.56
286.52	81.56
286.751	99.56
286.982	94.56
287.213	87.56
287.444	91.56
287.675	82.56
287.906	103.56
288.138	85.56
288.369	88.56
288.6	101.56
288.831	87.56
289.062	96.56
289.293	86.56
289.524	80.56
289.755	75.56
289.986	75.56
290.217	82.56
290.448	100.56
290.679	86.56
290.91	91.56
291.141	96.56
291.371	98.56
291.602	87.56
291.833	100.56
292.064	80.56
292.295	97.56
292.526	84.56
292.757	82.56
292.987	82.56
293.218	92.56
293.449	91.56
293.68	92.56
293.91	93.56
294.141	92.56
294.372	76.56
294.603	98.56
294.833	80.56
295.064	80.56
295.295	90.56
295.525	94.56
295.756	102.56
295.987	101.56
296.217	141.56
296.448	120.56
296.679	88.56
296.909	85.56
297.14	97.56
297.37	82.56
297.601	74.56
297.831	79.56
298.062	92.56
298.292	86.56
298.523	82.56
298.753	80.56
298.984	88.56
299.214	89.56
299.445	97.56
299.675	96.56
299.905	96.56
300.136	91.56
300.366	89.56
300.597	86.56
300.827	82.56
301.057	101.56
301.288	96.56
301.518	92.56
301.748	105.56
301.979	103.56
302.209	98.56
302.439	78.56
302.669	90.56
302.9	80.56
303.13	109.56
303.36	96.56
303.59	109.56
303.82	94.56
304.051	105.56
304.281	80.56
304.511	84.56
304.741	82.56
304.971	88.56
305.201	101.56
305.431	73.56
305.661	77.56
305.891	88.56
306.121	97.56
306.352	106.56
306.582	96.56
306.812	82.56
307.042	99.56
307.272	96.56
307.502	85.56
307.731	100.56
307.961	100.56
308.191	88.56
308.421	84.56
308.651	90.56
308.881	104.56
309.111	86.56
309.341	80.56
309.571	100.56
309.8	97.56
310.03	88.56
310.26	102.56
310.49	101.56
310.72	97.56
310.949	88.56
311.179	103.56
311.409	84.56
311.639	81.56
311.868	100.56
312.098	94.56
312.328	101.56
312.557	95.56
312.787	93.56
313.017	98.56
313.246	89.56
313.476	97.56
313.706	79.56
313.935	82.56
314.165	96.56
314.394	99.56
314.624	99.56
314.853	100.56
315.083	90.56
315.312	86.56
315.542	97.56
315.771	90.56
316.001	89.56
316.23	91.56
316.46	94.56
316.689	98.56
316.919	94.56
317.148	93.56
317.377	80.56
317.607	84.56
317.836	83.56
318.065	83.56
318.295	101.56
318.524	100.56
318.753	85.56
318.983	93.56
319.212	107.56
319.441	105.56
319.67	92.56
319.9	96.56
320.129	80.56
320.358	88.56
320.587	100.56
320.816	81.56
321.046	83.56
321.275	95.56
321.504	96.56
321.733	96.56
321.962	92.56
322.191	92.56
322.42	108.56
322.649	106.56
322.878	117.56
323.108	109.56
323.337	123.56
323.566	113.56
323.795	133.56
324.024	196.56
324.253	334.56
324.482	666.56
324.71	1319.56
324.939	1703.56
325.168	635.56
325.397	206.56
325.626	136.56
325.855	116.56
326.084	116.56
326.313	125.56
326.542	134.56
326.77	216.56
326.999	368.56
327.228	722.56
327.457	1316.56
327.686	1032.56
327.914	309.56
328.143	175.56
328.372	141.56
328.6	119.56
328.829	105.56
329.058	120.56
329.287	130.56
329.515	107.56
329.744	95.56
329.972	121.56
330.201	112.56
330.43	129.56
330.658	144.56
330.887	140.56
331.115	116.56
331.344	100.56
331.572	97.56
331.801	105.56
332.03	95.56
332.258	82.56
332.486	98.56
332.715	93.56
332.943	106.56
333.172	102.56
333.4	90.56
333.629	96.56
333.857	116.56
334.085	104.56
334.314	112.56
334.542	143.56
334.771	140.56
334.999	105.56
335.227	100.56
335.455	97.56
335.684	99.56
335.912	98.56
336.14	101.56
336.369	113.56
336.597	98.56
336.825	104.56
337.053	89.56
337.281	81.56
337.51	79.56
337.738	105.56
337.966	96.56
338.194	86.56
338.422	90.56
338.65	93.56
338.878	85.56
339.106	87.56
339.334	94.56
339.562	82.56
339.79	78.56
340.018	89.56
340.246	95.56
340.474	81.56
340.702	86.56
340.93	83.56
341.158	95.56
341.386	85.56
341.614	96.56
341.842	91.56
342.07	82.56
342.298	82.56
342.526	89.56
342.754	84.56
342.981	93.56
343.209	94.56
343.437	92.56
343.665	91.56
343.893	97.56
344.12	99.56
344.348	85.56
344.576	97.56
344.804	93.56
345.031	80.56
345.259	108.56
345.487	93.56
345.714	85.56
345.942	83.56
346.17	83.56
346.397	93.56
346.625	95.56
346.853	87.56
347.08	103.56
347.308	78.56
347.535	90.56
347.763	78.56
347.99	93.56
348.218	113.56
348.445	86.56
348.673	80.56
348.9	94.56
349.128	98.56
349.355	96.56
349.583	100.56
349.81	93.56
350.037	101.56
350.265	109.56
350.492	90.56
350.72	81.56
350.947	98.56
351.174	95.56
351.402	100.56
351.629	94.56
351.856	80.56
352.083	101.56
352.311	107.56
352.538	117.56
352.765	99.56
352.992	112.56
353.22	106.56
353.447	90.56
353.674	85.56
353.901	102.56
354.128	99.56
354.355	97.56
354.583	92.56
354.81	93.56
355.037	78.56
355.264	104.56
355.491	84.56
355.718	79.56
355.945	95.56
356.172	99.56
356.399	94.56
356.626	95.56
356.853	92.56
357.08	94.56
357.307	92.56
357.534	90.56
357.761	83.56
357.988	96.56
358.215	91.56
358.441	93.56
358.668	81.56
358.895	91.56
359.122	91.56
359.349	85.56
359.576	83.56
359.802	81.56
360.029	102.56
360.256	104.56
360.483	97.56
360.709	104.56
360.936	89.56
361.163	95.56
361.39	98.56
361.616	98.56
361.843	82.56
362.07	101.56
362.296	92.56
362.523	88.56
362.749	91.56
362.976	81.56
363.203	106.56
363.429	99.56
363.656	84.56
363.882	94.56
364.109	72.56
364.335	90.56
364.562	101.56
364.788	95.56
365.015	75.56
365.241	83.56
365.468	97.56
365.694	102.56
365.92	85.56
366.147	80.56
366.373	77.56
366.599	80.56
366.826	90.56
367.052	83.56
367.278	100.56
367.505	92.56
367.731	89.56
367.957	66.56
368.184	97.56
368.41	92.56
368.636	100.56
368.862	106.56
369.089	101.56
369.315	72.56
369.541	85.56
369.767	80.56
369.993	89.56
370.219	90.56
370.445	92.56
370.672	86.56
370.898	91.56
371.124	78.56
371.35	97.56
371.576	95.56
371.802	89.56
372.028	94.56
372.254	94.56
372.48	92.56
372.706	79.56
372.932	90.56
373.158	88.56
373.384	88.56
373.61	103.56
373.835	98.56
374.061	85.56
374.287	78.56
374.513	86.56
374.739	101.56
374.965	93.56
375.191	92.56
375.416	68.56
375.642	93.56
375.868	77.56
376.094	77.56
376.319	89.56
376.545	80.56
376.771	87.56
376.997	96.56
377.222	95.56
377.448	109.56
377.674	81.56
377.899	82.56
378.125	84.56
378.35	84.56
378.576	70.56
378.802	72.56
379.027	100.56
379.253	89.56
379.478	88.56
379.704	93.56
379.929	88.56
380.155	89.56
380.38	94.56
380.606	90.56
380.831	87.56
381.057	93.56
381.282	84.56
381.507	97.56
381.733	87.56
381.958	107.56
382.184	99.56
382.409	97.56
382.634	101.56
382.86	97.56
383.085	97.56
383.31	92.56
383.535	114.56
383.761	90.56
383.986	94.56
384.211	100.56
384.436	95.56
384.662	98.56
384.887	97.56
385.112	101.56
385.337	103.56
385.562	88.56
385.787	110.56
386.013	105.56
386.238	107.56
386.463	108.56
386.688	105.56
386.913	109.56
387.138	85.56
387.363	107.56
387.588	101.56
387.813	89.56
388.038	112.56
388.263	103.56
388.488	107.56
388.713	110.56
388.938	94.56
389.163	94.56
389.387	91.56
389.612	104.56
389.837	98.56
390.062	92.56
390.287	98.56
390.512	92.56
390.736	96.56
390.961	93.56
391.186	101.56
391.411	93.56
391.636	105.56
391.86	81.56
392.085	97.56
392.31	86.56
392.534	80.56
392.759	86.56
392.984	90.56
393.208	76.56
393.433	92.56
393.658	85.56
393.882	85.56
394.107	94.56
394.331	95.56
394.556	95.56
394.78	94.56
395.005	83.56
395.229	95.56
395.454	85.56
395.678	88.56
395.903	94.56
396.127	91.56
396.352	73.56
396.576	83.56
396.801	89.56
397.025	84.56
397.249	87.56
397.474	81.56
397.698	85.56
397.922	87.56
398.147	90.56
398.371	97.56
398.595	86.56
398.82	88.56
399.044	98.56
399.268	79.56
399.492	87.56
399.717	89.56
399.941	93.56
400.165	94.56
400.389	94.56
400.613	78.56
400.837	82.56
401.062	85.56
401.286	91.56
401.51	96.56
401.734	95.56
401.958	100.56
402.182	111.56
402.406	149.56
402.63	100.56
402.854	90.56
403.078	84.56
403.302	84.56
403.526	87.56
403.75	74.56
403.974	85.56
404.198	83.56
404.422	78.56
404.645	91.56
404.869	97.56
405.093	85.56
405.317	91.56
405.541	97.56
405.765	114.56
405.988	120.56
406.212	140.56
406.436	196.56
406.66	141.56
406.883	92.56
407.107	88.56
407.331	88.56
407.555	95.56
407.778	88.56
408.002	85.56
408.226	86.56
408.449	72.56
408.673	83.56
408.896	88.56
409.12	87.56
409.344	80.56
409.567	98.56
409.791	96.56
410.014	104.56
410.238	106.56
410.461	86.56
410.685	98.56
410.908	85.56
411.132	96.56
411.355	81.56
411.578	84.56
411.802	90.56
412.025	80.56
412.249	84.56
412.472	92.56
412.695	92.56
412.919	94.56
413.142	84.56
413.365	93.56
413.589	94.56
413.812	90.56
414.035	93.56
414.258	94.56
414.482	81.56
414.705	80.56
414.928	97.56
415.151	92.56
415.374	99.56
415.597	97.56
415.821	81.56
416.044	88.56
416.267	104.56
416.49	91.56
416.713	98.56
416.936	97.56
417.159	81.56
417.382	90.56
417.605	85.56
417.828	94.56
418.051	74.56
418.274	94.56
418.497	82.56
418.72	92.56
418.943	92.56
419.166	92.56
419.389	79.56
419.611	93.56
419.834	88.56
420.057	93.56
420.28	88.56
420.503	83.56
420.726	101.56
420.948	102.56
421.171	95.56
421.394	96.56
421.617	109.56
421.839	88.56
422.062	94.56
422.285	98.56
422.507	106.56
422.73	113.56
422.953	102.56
423.175	86.56
423.398	79.56
423.621	98.56
423.843	84.56
424.066	86.56
424.288	94.56
424.511	92.56
424.733	114.56
424.956	101.56
425.178	99.56
425.401	102.56
425.623	88.56
425.846	76.56
426.068	99.56
426.291	101.56
426.513	89.56
426.735	90.56
426.958	102.56
427.18	91.56
427.402	125.56
427.625	148.56
427.847	121.56
428.069	95.56
428.292	74.56
428.514	84.56
428.736	74.56
428.958	78.56
429.181	81.56
429.403	86.56
429.625	89.56
429.847	83.56
430.069	88.56
430.292	102.56
430.514	90.56
430.736	78.56
430.958	83.56
431.18	93.56
431.402	87.56
431.624	88.56
431.846	86.56
432.068	76.56
432.29	88.56
432.512	94.56
432.734	85.56
432.956	98.56
433.178	91.56
433.4	84.56
433.622	74.56
433.844	95.56
434.066	88.56
434.287	97.56
434.509	89.56
434.731	86.56
434.953	81.56
435.175	86.56
435.397	95.56
435.618	90.56
435.84	92.56
436.062	109.56
436.284	99.56
436.505	97.56
436.727	108.56
436.949	83.56
437.17	85.56
437.392	78.56
437.614	98.56
437.835	98.56
438.057	112.56
438.278	107.56
438.5	111.56
438.721	104.56
438.943	110.56
439.165	93.56
439.386	101.56
439.608	89.56
439.829	102.56
440.05	108.56
440.272	135.56
440.493	104.56
440.715	98.56
440.936	89.56
441.158	85.56
441.379	72.56
441.6	80.56
441.822	84.56
442.043	91.56
442.264	91.56
442.486	88.56
442.707	85.56
442.928	76.56
443.149	106.56
443.371	107.56
443.592	97.56
443.813	102.56
444.034	96.56
444.255	93.56
444.476	86.56
444.698	89.56
444.919	80.56
445.14	124.56
445.361	116.56
445.582	95.56
445.803	117.56
446.024	114.56
446.245	121.56
446.466	101.56
446.687	86.56
446.908	93.56
447.129	104.56
447.35	97.56
447.571	95.56
447.792	84.56
448.013	82.56
448.234	104.56
448.455	86.56
448.675	102.56
448.896	115.56
449.117	84.56
449.338	98.56
449.559	112.56
449.779	110.56
450	94.56
450.221	92.56
450.442	89.56
450.662	99.56
450.883	103.56
451.104	114.56
451.324	100.56
451.545	64.56
451.766	90.56
451.986	82.56
452.207	84.56
452.428	97.56
452.648	98.56
452.869	105.56
453.089	108.56
453.31	96.56
453.53	80.56
453.751	84.56
453.971	99.56
454.192	104.56
454.412	82.56
454.633	96.56
454.853	92.56
455.073	84.56
455.294	99.56
455.514	82.56
455.734	82.56
455.955	93.56
456.175	96.56
456.395	85.56
456.616	88.56
456.836	88.56
457.056	81.56
457.276	81.56
457.497	77.56
457.717	87.56
457.937	90.56
458.157	92.56
458.377	96.56
458.598	111.56
458.818	138.56
459.038	138.56
459.258	103.56
459.478	82.56
459.698	90.56
459.918	95.56
460.138	83.56
460.358	77.56
460.578	99.56
460.798	95.56
461.018	80.56
461.238	91.56
461.458	100.56
461.678	85.56
461.898	79.56
462.118	75.56
462.338	96.56
462.558	76.56
462.777	79.56
462.997	85.56
463.217	87.56
463.437	89.56
463.657	93.56
463.876	89.56
464.096	100.56
464.316	84.56
464.536	90.56
464.755	88.56
464.975	89.56
465.195	134.56
465.414	129.56
465.634	90.56
465.854	78.56
466.073	89.56
466.293	96.56
466.512	76.56
466.732	87.56
466.951	89.56
467.171	95.56
467.391	98.56
467.61	109.56
467.829	92.56
468.049	101.56
468.268	115.56
468.488	80.56
468.707	91.56
468.927	89.56
469.146	65.56
469.365	72.56
469.585	92.56
469.804	83.56
470.023	102.56
470.243	92.56
470.462	93.56
470.681	102.56
470.901	92.56
471.12	82.56
471.339	88.56
471.558	89.56
471.777	89.56
471.997	102.56
472.216	120.56
472.435	146.56
472.654	102.56
472.873	84.56
473.092	89.56
473.311	95.56
473.53	88.56
473.749	83.56
473.968	95.56
474.187	101.56
474.406	90.56
474.625	94.56
474.844	86.56
475.063	82.56
475.282	86.56
475.501	93.56
475.72	98.56
475.939	97.56
476.158	85.56
476.377	92.56
476.596	88.56
476.814	86.56
477.033	93.56
477.252	90.56
477.471	91.56
477.69	88.56
477.908	89.56
478.127	83.56
478.346	86.56
478.564	86.56
478.783	99.56
479.002	95.56
479.22	104.56
479.439	99.56
479.658	100.56
479.876	81.56
480.095	99.56
480.313	90.56
480.532	83.56
480.751	95.56
480.969	120.56
481.188	244.56
481.406	166.56
481.624	105.56
481.843	100.56
482.061	85.56
482.28	84.56
482.498	79.56
482.717	81.56
482.935	86.56
483.153	88.56
483.372	95.56
483.59	89.56
483.808	87.56
484.027	89.56
484.245	92.56
484.463	93.56
484.681	89.56
484.9	91.56
485.118	115.56
485.336	103.56
485.554	93.56
485.772	104.56
485.99	96.56
486.209	101.56
486.427	88.56
486.645	99.56
486.863	106.56
487.081	89.56
487.299	78.56
487.517	100.56
487.735	84.56
487.953	97.56
488.171	90.56
488.389	88.56
488.607	104.56
488.825	94.56
489.043	100.56
489.261	93.56
489.479	91.56
489.696	70.56
489.914	86.56
490.132	85.56
490.35	73.56
490.568	86.56
490.786	86.56
491.003	87.56
491.221	82.56
491.439	94.56
491.657	94.56
491.874	88.56
492.092	100.56
492.31	92.56
492.527	86.56
492.745	99.56
492.963	84.56
493.18	85.56
493.398	100.56
493.615	81.56
493.833	91.56
494.05	85.56
494.268	85.56
494.485	101.56
494.703	70.56
494.92	74.56
495.138	80.56
495.355	84.56
495.573	88.56
495.79	86.56
496.008	81.56
496.225	96.56
496.442	81.56
496.66	92.56
496.877	81.56
497.094	88.56
497.312	93.56
497.529	97.56
497.746	91.56
497.963	93.56
498.181	97.56
498.398	99.56
498.615	100.56
498.832	108.56
499.049	103.56
499.267	90.56
499.484	102.56
499.701	74.56
499.918	91.56
500.135	102.56
500.352	82.56
500.569	99.56
500.786	98.56
501.003	83.56
501.22	93.56
501.437	78.56
501.654	81.56
501.871	101.56
502.088	89.56
502.305	92.56
502.522	77.56
502.739	100.56
502.956	91.56
503.172	79.56
503.389	98.56
503.606	88.56
503.823	96.56
504.04	86.56
504.256	90.56
504.473	88.56
504.69	93.56
504.907	84.56
505.123	86.56
505.34	79.56
505.557	88.56
505.773	100.56
505.99	106.56
506.207	91.56
506.423	91.56
506.64	96.56
506.856	82.56
507.073	66.56
507.289	84.56
507.506	95.56
507.722	121.56
507.939	103.56
508.155	89.56
508.372	89.56
508.588	93.56
508.805	94.56
509.021	86.56
509.238	90.56
509.454	99.56
509.67	113.56
509.887	107.56
510.103	127.56
510.319	201.56
510.536	676.56
510.752	2072.56
510.968	592.56
511.184	145.56
511.401	101.56
511.617	102.56
511.833	84.56
512.049	96.56
512.265	88.56
512.481	93.56
512.698	94.56
512.914	100.56
513.13	83.56
513.346	78.56
513.562	95.56
513.778	98.56
513.994	100.56
514.21	103.56
514.426	110.56
514.642	118.56
514.858	122.56
515.074	159.56
515.29	341.56
515.506	1146.56
515.721	438.56
515.937	134.56
516.153	115.56
