Data from Circ_1994_H10_HRD10591_00019.txt Node
Date: Wed Jan 03 11:40:34 EST 2024
User: Yrep
Spectrometer: HR+D1059
Trigger mode: 1
Integration Time (sec): 1.000000E-1
Scans to average: 1
Electric dark correction enabled: true
Nonlinearity correction enabled: false
Boxcar width: 0
XAxis mode: Wavelengths
Number of Pixels in Spectrum: 2048
>>>>>Begin Spectral Data<<<<<
223.165	-11.62
223.4	-11.62
223.635	-11.62
223.869	-16.62
224.104	-18.62
224.338	-12.62
224.573	-8.62
224.808	-17.62
225.042	-24.62
225.277	-2.62
225.511	-4.62
225.746	5.38
225.98	20.38
226.215	2.38
226.449	12.38
226.683	26.38
226.918	28.38
227.152	22.38
227.387	32.38
227.621	37.38
227.856	52.38
228.09	42.38
228.324	65.38
228.559	59.38
228.793	63.38
229.027	77.38
229.262	70.38
229.496	68.38
229.73	70.38
229.964	76.38
230.199	94.38
230.433	66.38
230.667	71.38
230.901	74.38
231.136	80.38
231.37	88.38
231.604	78.38
231.838	71.38
232.072	84.38
232.306	77.38
232.541	90.38
232.775	79.38
233.009	85.38
233.243	83.38
233.477	76.38
233.711	94.38
233.945	80.38
234.179	78.38
234.413	98.38
234.647	83.38
234.881	63.38
235.115	84.38
235.349	72.38
235.583	71.38
235.817	84.38
236.051	78.38
236.285	86.38
236.519	90.38
236.753	68.38
236.987	66.38
237.221	103.38
237.455	96.38
237.689	80.38
237.922	78.38
238.156	96.38
238.39	77.38
238.624	88.38
238.858	68.38
239.091	86.38
239.325	79.38
239.559	75.38
239.793	82.38
240.027	78.38
240.26	69.38
240.494	80.38
240.728	78.38
240.961	72.38
241.195	92.38
241.429	92.38
241.662	76.38
241.896	63.38
242.13	83.38
242.363	85.38
242.597	77.38
242.83	84.38
243.064	86.38
243.298	60.38
243.531	85.38
243.765	72.38
243.998	80.38
244.232	86.38
244.465	84.38
244.699	83.38
244.932	71.38
245.166	85.38
245.399	76.38
245.633	82.38
245.866	70.38
246.099	100.38
246.333	81.38
246.566	67.38
246.8	88.38
247.033	80.38
247.266	68.38
247.5	71.38
247.733	96.38
247.966	88.38
248.2	85.38
248.433	86.38
248.666	88.38
248.899	75.38
249.133	91.38
249.366	96.38
249.599	89.38
249.832	76.38
250.066	84.38
250.299	89.38
250.532	78.38
250.765	80.38
250.998	76.38
251.231	84.38
251.465	80.38
251.698	93.38
251.931	90.38
252.164	73.38
252.397	70.38
252.63	68.38
252.863	84.38
253.096	81.38
253.329	67.38
253.562	92.38
253.795	78.38
254.028	91.38
254.261	92.38
254.494	90.38
254.727	97.38
254.96	76.38
255.193	69.38
255.426	86.38
255.659	86.38
255.892	99.38
256.124	81.38
256.357	94.38
256.59	89.38
256.823	97.38
257.056	70.38
257.289	76.38
257.521	82.38
257.754	84.38
257.987	82.38
258.22	76.38
258.452	85.38
258.685	79.38
258.918	77.38
259.151	86.38
259.383	102.38
259.616	89.38
259.849	82.38
260.081	82.38
260.314	84.38
260.547	93.38
260.779	96.38
261.012	98.38
261.244	94.38
261.477	76.38
261.71	92.38
261.942	92.38
262.175	102.38
262.407	82.38
262.64	92.38
262.872	91.38
263.105	91.38
263.337	94.38
263.57	78.38
263.802	84.38
264.035	84.38
264.267	85.38
264.499	81.38
264.732	81.38
264.964	87.38
265.197	73.38
265.429	83.38
265.661	81.38
265.894	93.38
266.126	88.38
266.358	85.38
266.591	78.38
266.823	70.38
267.055	90.38
267.287	87.38
267.52	78.38
267.752	93.38
267.984	85.38
268.216	98.38
268.448	93.38
268.681	82.38
268.913	69.38
269.145	93.38
269.377	81.38
269.609	86.38
269.841	98.38
270.073	77.38
270.306	87.38
270.538	78.38
270.77	94.38
271.002	83.38
271.234	77.38
271.466	80.38
271.698	76.38
271.93	81.38
272.162	88.38
272.394	93.38
272.626	85.38
272.858	88.38
273.09	71.38
273.322	94.38
273.553	102.38
273.785	89.38
274.017	94.38
274.249	84.38
274.481	82.38
274.713	83.38
274.945	90.38
275.176	79.38
275.408	78.38
275.64	75.38
275.872	87.38
276.104	87.38
276.335	100.38
276.567	111.38
276.799	102.38
277.031	101.38
277.262	98.38
277.494	91.38
277.726	89.38
277.957	81.38
278.189	90.38
278.421	75.38
278.652	94.38
278.884	84.38
279.115	89.38
279.347	98.38
279.579	87.38
279.81	101.38
280.042	96.38
280.273	93.38
280.505	93.38
280.736	88.38
280.968	76.38
281.199	95.38
281.431	102.38
281.662	83.38
281.894	93.38
282.125	103.38
282.356	102.38
282.588	130.38
282.819	110.38
283.051	98.38
283.282	93.38
283.513	98.38
283.745	99.38
283.976	88.38
284.207	87.38
284.439	84.38
284.67	89.38
284.901	83.38
285.132	90.38
285.364	103.38
285.595	83.38
285.826	83.38
286.057	99.38
286.288	83.38
286.52	94.38
286.751	87.38
286.982	94.38
287.213	74.38
287.444	106.38
287.675	98.38
287.906	77.38
288.138	102.38
288.369	93.38
288.6	77.38
288.831	103.38
289.062	93.38
289.293	101.38
289.524	78.38
289.755	81.38
289.986	80.38
290.217	82.38
290.448	96.38
290.679	99.38
290.91	86.38
291.141	86.38
291.371	88.38
291.602	93.38
291.833	100.38
292.064	93.38
292.295	81.38
292.526	70.38
292.757	94.38
292.987	96.38
293.218	85.38
293.449	91.38
293.68	104.38
293.91	83.38
294.141	84.38
294.372	85.38
294.603	82.38
294.833	78.38
295.064	90.38
295.295	95.38
295.525	94.38
295.756	85.38
295.987	101.38
296.217	120.38
296.448	119.38
296.679	86.38
296.909	99.38
297.14	87.38
297.37	102.38
297.601	81.38
297.831	92.38
298.062	93.38
298.292	81.38
298.523	98.38
298.753	100.38
298.984	98.38
299.214	102.38
299.445	103.38
299.675	102.38
299.905	94.38
300.136	87.38
300.366	79.38
300.597	83.38
300.827	96.38
301.057	99.38
301.288	102.38
301.518	85.38
301.748	87.38
301.979	88.38
302.209	102.38
302.439	92.38
302.669	84.38
302.9	106.38
303.13	100.38
303.36	83.38
303.59	100.38
303.82	105.38
304.051	105.38
304.281	82.38
304.511	83.38
304.741	90.38
304.971	96.38
305.201	89.38
305.431	90.38
305.661	95.38
305.891	86.38
306.121	95.38
306.352	104.38
306.582	94.38
306.812	89.38
307.042	93.38
307.272	93.38
307.502	109.38
307.731	95.38
307.961	101.38
308.191	86.38
308.421	75.38
308.651	86.38
308.881	91.38
309.111	96.38
309.341	95.38
309.571	97.38
309.8	96.38
310.03	101.38
310.26	86.38
310.49	90.38
310.72	103.38
310.949	103.38
311.179	104.38
311.409	96.38
311.639	107.38
311.868	92.38
312.098	94.38
312.328	82.38
312.557	103.38
312.787	100.38
313.017	101.38
313.246	105.38
313.476	98.38
313.706	76.38
313.935	85.38
314.165	99.38
314.394	86.38
314.624	100.38
314.853	93.38
315.083	88.38
315.312	93.38
315.542	92.38
315.771	94.38
316.001	98.38
316.23	90.38
316.46	103.38
316.689	86.38
316.919	98.38
317.148	87.38
317.377	82.38
317.607	98.38
317.836	92.38
318.065	86.38
318.295	96.38
318.524	77.38
318.753	92.38
318.983	74.38
319.212	98.38
319.441	109.38
319.67	101.38
319.9	83.38
320.129	91.38
320.358	80.38
320.587	100.38
320.816	100.38
321.046	96.38
321.275	98.38
321.504	100.38
321.733	98.38
321.962	88.38
322.191	98.38
322.42	96.38
322.649	112.38
322.878	103.38
323.108	113.38
323.337	118.38
323.566	124.38
323.795	143.38
324.024	180.38
324.253	337.38
324.482	701.38
324.71	1425.38
324.939	1831.38
325.168	708.38
325.397	221.38
325.626	152.38
325.855	123.38
326.084	119.38
326.313	103.38
326.542	139.38
326.77	190.38
326.999	389.38
327.228	805.38
327.457	1413.38
327.686	1104.38
327.914	333.38
328.143	174.38
328.372	144.38
328.6	114.38
328.829	122.38
329.058	120.38
329.287	117.38
329.515	120.38
329.744	106.38
329.972	120.38
330.201	113.38
330.43	145.38
330.658	131.38
330.887	140.38
331.115	114.38
331.344	90.38
331.572	100.38
331.801	99.38
332.03	86.38
332.258	102.38
332.486	104.38
332.715	106.38
332.943	97.38
333.172	97.38
333.4	99.38
333.629	117.38
333.857	104.38
334.085	105.38
334.314	101.38
334.542	138.38
334.771	114.38
334.999	102.38
335.227	106.38
335.455	78.38
335.684	92.38
335.912	110.38
336.14	106.38
336.369	101.38
336.597	90.38
336.825	102.38
337.053	99.38
337.281	94.38
337.51	99.38
337.738	92.38
337.966	93.38
338.194	103.38
338.422	101.38
338.65	90.38
338.878	94.38
339.106	104.38
339.334	101.38
339.562	102.38
339.79	103.38
340.018	89.38
340.246	95.38
340.474	92.38
340.702	84.38
340.93	97.38
341.158	98.38
341.386	100.38
341.614	110.38
341.842	93.38
342.07	96.38
342.298	104.38
342.526	94.38
342.754	94.38
342.981	78.38
343.209	82.38
343.437	102.38
343.665	83.38
343.893	97.38
344.12	93.38
344.348	93.38
344.576	79.38
344.804	95.38
345.031	91.38
345.259	102.38
345.487	103.38
345.714	106.38
345.942	96.38
346.17	100.38
346.397	104.38
346.625	99.38
346.853	94.38
347.08	109.38
347.308	91.38
347.535	95.38
347.763	91.38
347.99	91.38
348.218	110.38
348.445	103.38
348.673	112.38
348.9	83.38
349.128	108.38
349.355	103.38
349.583	115.38
349.81	83.38
350.037	95.38
350.265	87.38
350.492	98.38
350.72	100.38
350.947	96.38
351.174	103.38
351.402	112.38
351.629	110.38
351.856	106.38
352.083	113.38
352.311	103.38
352.538	114.38
352.765	113.38
352.992	110.38
353.22	107.38
353.447	111.38
353.674	117.38
353.901	93.38
354.128	85.38
354.355	112.38
354.583	101.38
354.81	92.38
355.037	92.38
355.264	89.38
355.491	81.38
355.718	86.38
355.945	110.38
356.172	95.38
356.399	86.38
356.626	100.38
356.853	116.38
357.08	97.38
357.307	87.38
357.534	90.38
357.761	74.38
357.988	84.38
358.215	84.38
358.441	97.38
358.668	100.38
358.895	90.38
359.122	95.38
359.349	101.38
359.576	94.38
359.802	104.38
360.029	115.38
360.256	103.38
360.483	87.38
360.709	83.38
360.936	96.38
361.163	89.38
361.39	88.38
361.616	92.38
361.843	104.38
362.07	116.38
362.296	95.38
362.523	101.38
362.749	90.38
362.976	100.38
363.203	103.38
363.429	95.38
363.656	93.38
363.882	97.38
364.109	89.38
364.335	95.38
364.562	91.38
364.788	100.38
365.015	92.38
365.241	108.38
365.468	103.38
365.694	114.38
365.92	111.38
366.147	104.38
366.373	108.38
366.599	83.38
366.826	90.38
367.052	90.38
367.278	104.38
367.505	105.38
367.731	97.38
367.957	78.38
368.184	86.38
368.41	110.38
368.636	117.38
368.862	111.38
369.089	104.38
369.315	96.38
369.541	90.38
369.767	75.38
369.993	98.38
370.219	92.38
370.445	98.38
370.672	74.38
370.898	88.38
371.124	88.38
371.35	92.38
371.576	93.38
371.802	79.38
372.028	82.38
372.254	92.38
372.48	88.38
372.706	88.38
372.932	86.38
373.158	88.38
373.384	105.38
373.61	102.38
373.835	102.38
374.061	85.38
374.287	87.38
374.513	86.38
374.739	98.38
374.965	84.38
375.191	93.38
375.416	101.38
375.642	100.38
375.868	94.38
376.094	86.38
376.319	82.38
376.545	86.38
376.771	87.38
376.997	103.38
377.222	80.38
377.448	100.38
377.674	90.38
377.899	83.38
378.125	95.38
378.35	102.38
378.576	87.38
378.802	88.38
379.027	86.38
379.253	102.38
379.478	86.38
379.704	83.38
379.929	97.38
380.155	91.38
380.38	94.38
380.606	100.38
380.831	101.38
381.057	95.38
381.282	86.38
381.507	91.38
381.733	97.38
381.958	102.38
382.184	98.38
382.409	100.38
382.634	90.38
382.86	100.38
383.085	101.38
383.31	106.38
383.535	120.38
383.761	101.38
383.986	93.38
384.211	93.38
384.436	108.38
384.662	116.38
384.887	117.38
385.112	92.38
385.337	96.38
385.562	99.38
385.787	99.38
386.013	114.38
386.238	124.38
386.463	119.38
386.688	109.38
386.913	110.38
387.138	117.38
387.363	103.38
387.588	100.38
387.813	75.38
388.038	117.38
388.263	106.38
388.488	102.38
388.713	101.38
388.938	92.38
389.163	112.38
389.387	88.38
389.612	94.38
389.837	79.38
390.062	95.38
390.287	101.38
390.512	94.38
390.736	92.38
390.961	106.38
391.186	96.38
391.411	99.38
391.636	88.38
391.86	88.38
392.085	94.38
392.31	77.38
392.534	78.38
392.759	89.38
392.984	93.38
393.208	92.38
393.433	89.38
393.658	97.38
393.882	71.38
394.107	79.38
394.331	98.38
394.556	90.38
394.78	103.38
395.005	96.38
395.229	83.38
395.454	85.38
395.678	85.38
395.903	94.38
396.127	90.38
396.352	94.38
396.576	97.38
396.801	70.38
397.025	102.38
397.249	86.38
397.474	89.38
397.698	93.38
397.922	94.38
398.147	71.38
398.371	103.38
398.595	94.38
398.82	93.38
399.044	95.38
399.268	97.38
399.492	79.38
399.717	96.38
399.941	93.38
400.165	93.38
400.389	84.38
400.613	93.38
400.837	83.38
401.062	79.38
401.286	86.38
401.51	95.38
401.734	88.38
401.958	90.38
402.182	119.38
402.406	157.38
402.63	113.38
402.854	92.38
403.078	100.38
403.302	92.38
403.526	93.38
403.75	93.38
403.974	80.38
404.198	96.38
404.422	83.38
404.645	95.38
404.869	94.38
405.093	98.38
405.317	90.38
405.541	95.38
405.765	91.38
405.988	116.38
406.212	152.38
406.436	200.38
406.66	126.38
406.883	93.38
407.107	76.38
407.331	83.38
407.555	80.38
407.778	91.38
408.002	94.38
408.226	97.38
408.449	100.38
408.673	98.38
408.896	89.38
409.12	72.38
409.344	95.38
409.567	84.38
409.791	96.38
410.014	103.38
410.238	82.38
410.461	100.38
410.685	109.38
410.908	92.38
411.132	115.38
411.355	103.38
411.578	81.38
411.802	80.38
412.025	86.38
412.249	98.38
412.472	100.38
412.695	90.38
412.919	78.38
413.142	82.38
413.365	96.38
413.589	80.38
413.812	92.38
414.035	96.38
414.258	94.38
414.482	96.38
414.705	77.38
414.928	99.38
415.151	97.38
415.374	92.38
415.597	90.38
415.821	74.38
416.044	98.38
416.267	83.38
416.49	85.38
416.713	76.38
416.936	75.38
417.159	89.38
417.382	86.38
417.605	80.38
417.828	95.38
418.051	92.38
418.274	81.38
418.497	85.38
418.72	95.38
418.943	90.38
419.166	90.38
419.389	91.38
419.611	91.38
419.834	86.38
420.057	86.38
420.28	103.38
420.503	94.38
420.726	102.38
420.948	96.38
421.171	88.38
421.394	83.38
421.617	76.38
421.839	88.38
422.062	82.38
422.285	79.38
422.507	112.38
422.73	109.38
422.953	87.38
423.175	76.38
423.398	88.38
423.621	81.38
423.843	84.38
424.066	89.38
424.288	92.38
424.511	105.38
424.733	103.38
424.956	97.38
425.178	84.38
425.401	111.38
425.623	110.38
425.846	108.38
426.068	95.38
426.291	95.38
426.513	95.38
426.735	92.38
426.958	92.38
427.18	92.38
427.402	117.38
427.625	149.38
427.847	102.38
428.069	94.38
428.292	94.38
428.514	100.38
428.736	84.38
428.958	85.38
429.181	86.38
429.403	99.38
429.625	83.38
429.847	106.38
430.069	101.38
430.292	96.38
430.514	97.38
430.736	80.38
430.958	78.38
431.18	90.38
431.402	82.38
431.624	100.38
431.846	86.38
432.068	93.38
432.29	92.38
432.512	94.38
432.734	92.38
432.956	101.38
433.178	92.38
433.4	94.38
433.622	90.38
433.844	93.38
434.066	90.38
434.287	88.38
434.509	86.38
434.731	90.38
434.953	80.38
435.175	92.38
435.397	90.38
435.618	89.38
435.84	98.38
436.062	100.38
436.284	123.38
436.505	104.38
436.727	93.38
436.949	95.38
437.17	93.38
437.392	90.38
437.614	75.38
437.835	91.38
438.057	109.38
438.278	114.38
438.5	83.38
438.721	91.38
438.943	94.38
439.165	99.38
439.386	88.38
439.608	84.38
439.829	104.38
440.05	115.38
440.272	126.38
440.493	89.38
440.715	84.38
440.936	97.38
441.158	79.38
441.379	69.38
441.6	94.38
441.822	97.38
442.043	92.38
442.264	96.38
442.486	104.38
442.707	87.38
442.928	101.38
443.149	118.38
443.371	109.38
443.592	95.38
443.813	110.38
444.034	113.38
444.255	88.38
444.476	90.38
444.698	93.38
444.919	103.38
445.14	127.38
445.361	110.38
445.582	98.38
445.803	142.38
446.024	120.38
446.245	118.38
446.466	115.38
446.687	94.38
446.908	94.38
447.129	99.38
447.35	81.38
447.571	85.38
447.792	109.38
448.013	101.38
448.234	113.38
448.455	104.38
448.675	99.38
448.896	106.38
449.117	103.38
449.338	108.38
449.559	126.38
449.779	123.38
450	95.38
450.221	81.38
450.442	98.38
450.662	96.38
450.883	103.38
451.104	102.38
451.324	85.38
451.545	78.38
451.766	87.38
451.986	97.38
452.207	78.38
452.428	95.38
452.648	99.38
452.869	92.38
453.089	109.38
453.31	115.38
453.53	84.38
453.751	98.38
453.971	103.38
454.192	96.38
454.412	81.38
454.633	96.38
454.853	76.38
455.073	93.38
455.294	95.38
455.514	93.38
455.734	111.38
455.955	76.38
456.175	86.38
456.395	88.38
456.616	98.38
456.836	81.38
457.056	86.38
457.276	92.38
457.497	76.38
457.717	87.38
457.937	82.38
458.157	76.38
458.377	93.38
458.598	94.38
458.818	127.38
459.038	139.38
459.258	92.38
459.478	101.38
459.698	98.38
459.918	92.38
460.138	87.38
460.358	108.38
460.578	100.38
460.798	102.38
461.018	98.38
461.238	85.38
461.458	99.38
461.678	86.38
461.898	86.38
462.118	86.38
462.338	83.38
462.558	92.38
462.777	79.38
462.997	84.38
463.217	79.38
463.437	96.38
463.657	93.38
463.876	85.38
464.096	101.38
464.316	93.38
464.536	113.38
464.755	116.38
464.975	112.38
465.195	155.38
465.414	134.38
465.634	96.38
465.854	89.38
466.073	100.38
466.293	92.38
466.512	95.38
466.732	89.38
466.951	83.38
467.171	99.38
467.391	106.38
467.61	90.38
467.829	103.38
468.049	112.38
468.268	103.38
468.488	91.38
468.707	84.38
468.927	91.38
469.146	95.38
469.365	92.38
469.585	88.38
469.804	92.38
470.023	88.38
470.243	112.38
470.462	100.38
470.681	98.38
470.901	84.38
471.12	88.38
471.339	104.38
471.558	83.38
471.777	88.38
471.997	111.38
472.216	108.38
472.435	119.38
472.654	105.38
472.873	93.38
473.092	86.38
473.311	94.38
473.53	80.38
473.749	102.38
473.968	97.38
474.187	97.38
474.406	102.38
474.625	101.38
474.844	102.38
475.063	79.38
475.282	97.38
475.501	80.38
475.72	96.38
475.939	72.38
476.158	86.38
476.377	90.38
476.596	81.38
476.814	98.38
477.033	92.38
477.252	96.38
477.471	83.38
477.69	96.38
477.908	106.38
478.127	98.38
478.346	90.38
478.564	94.38
478.783	107.38
479.002	82.38
479.22	97.38
479.439	75.38
479.658	99.38
479.876	92.38
480.095	81.38
480.313	75.38
480.532	90.38
480.751	104.38
480.969	101.38
481.188	187.38
481.406	135.38
481.624	99.38
481.843	96.38
482.061	94.38
482.28	103.38
482.498	89.38
482.717	83.38
482.935	78.38
483.153	84.38
483.372	90.38
483.59	84.38
483.808	92.38
484.027	86.38
484.245	91.38
484.463	94.38
484.681	109.38
484.9	101.38
485.118	113.38
485.336	100.38
485.554	102.38
485.772	92.38
485.99	113.38
486.209	108.38
486.427	119.38
486.645	104.38
486.863	105.38
487.081	107.38
487.299	106.38
487.517	102.38
487.735	106.38
487.953	84.38
488.171	93.38
488.389	99.38
488.607	97.38
488.825	79.38
489.043	89.38
489.261	99.38
489.479	79.38
489.696	110.38
489.914	90.38
490.132	87.38
490.35	103.38
490.568	102.38
490.786	96.38
491.003	90.38
491.221	86.38
491.439	100.38
491.657	94.38
491.874	90.38
492.092	77.38
492.31	88.38
492.527	94.38
492.745	82.38
492.963	79.38
493.18	107.38
493.398	82.38
493.615	107.38
493.833	106.38
494.05	88.38
494.268	87.38
494.485	86.38
494.703	90.38
494.92	86.38
495.138	86.38
495.355	79.38
495.573	92.38
495.79	101.38
496.008	98.38
496.225	84.38
496.442	92.38
496.66	98.38
496.877	83.38
497.094	87.38
497.312	102.38
497.529	99.38
497.746	103.38
497.963	94.38
498.181	93.38
498.398	97.38
498.615	114.38
498.832	102.38
499.049	102.38
499.267	104.38
499.484	99.38
499.701	104.38
499.918	95.38
500.135	74.38
500.352	91.38
500.569	87.38
500.786	94.38
501.003	101.38
501.22	92.38
501.437	86.38
501.654	102.38
501.871	98.38
502.088	91.38
502.305	95.38
502.522	90.38
502.739	89.38
502.956	80.38
503.172	102.38
503.389	89.38
503.606	93.38
503.823	86.38
504.04	91.38
504.256	108.38
504.473	82.38
504.69	96.38
504.907	89.38
505.123	101.38
505.34	88.38
505.557	94.38
505.773	99.38
505.99	89.38
506.207	84.38
506.423	85.38
506.64	77.38
506.856	99.38
507.073	92.38
507.289	101.38
507.506	91.38
507.722	114.38
507.939	115.38
508.155	97.38
508.372	87.38
508.588	83.38
508.805	113.38
509.021	95.38
509.238	105.38
509.454	82.38
509.67	92.38
509.887	96.38
510.103	142.38
510.319	187.38
510.536	718.38
510.752	2154.38
510.968	602.38
511.184	166.38
511.401	99.38
511.617	106.38
511.833	102.38
512.049	92.38
512.265	99.38
512.481	82.38
512.698	97.38
512.914	91.38
513.13	100.38
513.346	82.38
513.562	92.38
513.778	94.38
513.994	109.38
514.21	98.38
514.426	115.38
514.642	123.38
514.858	134.38
