Data from Circ_1994_H10_HRD10591_00099.txt Node
Date: Wed Jan 03 11:40:50 EST 2024
User: Yrep
Spectrometer: HR+D1059
Trigger mode: 1
Integration Time (sec): 1.000000E-1
Scans to average: 1
Electric dark correction enabled: true
Nonlinearity correction enabled: false
Boxcar width: 0
XAxis mode: Wavelengths
Number of Pixels in Spectrum: 2048
>>>>>Begin Spectral Data<<<<<
223.165	-20.69
223.4	-20.69
223.635	-20.69
223.869	-13.69
224.104	-16.69
224.338	-24.69
224.573	-24.69
224.808	-10.69
225.042	-21.69
225.277	-12.69
225.511	-7.69
225.746	13.31
225.98	18.31
226.215	18.31
226.449	19.31
226.683	28.31
226.918	25.31
227.152	30.31
227.387	18.31
227.621	27.31
227.856	29.31
228.09	27.31
228.324	40.31
228.559	61.31
228.793	54.31
229.027	62.31
229.262	61.31
229.496	66.31
229.73	76.31
229.964	75.31
230.199	83.31
230.433	88.31
230.667	80.31
230.901	69.31
231.136	67.31
231.37	70.31
231.604	66.31
231.838	87.31
232.072	90.31
232.306	70.31
232.541	76.31
232.775	75.31
233.009	59.31
233.243	65.31
233.477	75.31
233.711	78.31
233.945	79.31
234.179	66.31
234.413	81.31
234.647	81.31
234.881	83.31
235.115	67.31
235.349	72.31
235.583	85.31
235.817	55.31
236.051	70.31
236.285	77.31
236.519	65.31
236.753	75.31
236.987	82.31
237.221	81.31
237.455	83.31
237.689	84.31
237.922	80.31
238.156	89.31
238.39	72.31
238.624	80.31
238.858	73.31
239.091	76.31
239.325	86.31
239.559	80.31
239.793	78.31
240.027	80.31
240.26	76.31
240.494	79.31
240.728	86.31
240.961	91.31
241.195	86.31
241.429	79.31
241.662	70.31
241.896	67.31
242.13	67.31
242.363	77.31
242.597	68.31
242.83	78.31
243.064	77.31
243.298	81.31
243.531	77.31
243.765	90.31
243.998	79.31
244.232	90.31
244.465	90.31
244.699	81.31
244.932	81.31
245.166	76.31
245.399	82.31
245.633	81.31
245.866	94.31
246.099	79.31
246.333	91.31
246.566	86.31
246.8	61.31
247.033	79.31
247.266	67.31
247.5	70.31
247.733	70.31
247.966	84.31
248.2	91.31
248.433	60.31
248.666	84.31
248.899	74.31
249.133	90.31
249.366	84.31
249.599	90.31
249.832	65.31
250.066	84.31
250.299	77.31
250.532	86.31
250.765	74.31
250.998	83.31
251.231	58.31
251.465	79.31
251.698	79.31
251.931	94.31
252.164	69.31
252.397	83.31
252.63	55.31
252.863	65.31
253.096	78.31
253.329	86.31
253.562	79.31
253.795	82.31
254.028	89.31
254.261	74.31
254.494	88.31
254.727	61.31
254.96	81.31
255.193	83.31
255.426	64.31
255.659	75.31
255.892	90.31
256.124	67.31
256.357	74.31
256.59	74.31
256.823	67.31
257.056	76.31
257.289	94.31
257.521	92.31
257.754	88.31
257.987	73.31
258.22	79.31
258.452	79.31
258.685	77.31
258.918	86.31
259.151	83.31
259.383	79.31
259.616	67.31
259.849	70.31
260.081	86.31
260.314	82.31
260.547	63.31
260.779	76.31
261.012	68.31
261.244	87.31
261.477	90.31
261.71	90.31
261.942	112.31
262.175	115.31
262.407	80.31
262.64	68.31
262.872	72.31
263.105	102.31
263.337	101.31
263.57	92.31
263.802	84.31
264.035	87.31
264.267	84.31
264.499	69.31
264.732	90.31
264.964	79.31
265.197	80.31
265.429	85.31
265.661	76.31
265.894	68.31
266.126	88.31
266.358	98.31
266.591	91.31
266.823	72.31
267.055	76.31
267.287	94.31
267.52	78.31
267.752	84.31
267.984	88.31
268.216	78.31
268.448	73.31
268.681	83.31
268.913	82.31
269.145	96.31
269.377	87.31
269.609	65.31
269.841	73.31
270.073	81.31
270.306	86.31
270.538	72.31
270.77	74.31
271.002	78.31
271.234	90.31
271.466	95.31
271.698	92.31
271.93	81.31
272.162	101.31
272.394	83.31
272.626	84.31
272.858	89.31
273.09	86.31
273.322	71.31
273.553	78.31
273.785	87.31
274.017	77.31
274.249	82.31
274.481	80.31
274.713	90.31
274.945	82.31
275.176	83.31
275.408	86.31
275.64	86.31
275.872	88.31
276.104	76.31
276.335	95.31
276.567	84.31
276.799	97.31
277.031	105.31
277.262	88.31
277.494	91.31
277.726	78.31
277.957	74.31
278.189	78.31
278.421	77.31
278.652	69.31
278.884	82.31
279.115	67.31
279.347	92.31
279.579	92.31
279.81	83.31
280.042	91.31
280.273	104.31
280.505	95.31
280.736	88.31
280.968	88.31
281.199	75.31
281.431	90.31
281.662	78.31
281.894	76.31
282.125	103.31
282.356	101.31
282.588	133.31
282.819	105.31
283.051	89.31
283.282	93.31
283.513	75.31
283.745	92.31
283.976	75.31
284.207	93.31
284.439	70.31
284.67	65.31
284.901	83.31
285.132	86.31
285.364	90.31
285.595	87.31
285.826	96.31
286.057	109.31
286.288	98.31
286.52	92.31
286.751	74.31
286.982	90.31
287.213	80.31
287.444	81.31
287.675	86.31
287.906	103.31
288.138	77.31
288.369	90.31
288.6	88.31
288.831	94.31
289.062	91.31
289.293	94.31
289.524	74.31
289.755	88.31
289.986	92.31
290.217	86.31
290.448	81.31
290.679	84.31
290.91	90.31
291.141	94.31
291.371	75.31
291.602	99.31
291.833	98.31
292.064	92.31
292.295	91.31
292.526	98.31
292.757	87.31
292.987	84.31
293.218	87.31
293.449	97.31
293.68	82.31
293.91	81.31
294.141	86.31
294.372	88.31
294.603	83.31
294.833	86.31
295.064	90.31
295.295	75.31
295.525	91.31
295.756	115.31
295.987	118.31
296.217	138.31
296.448	121.31
296.679	102.31
296.909	101.31
297.14	89.31
297.37	92.31
297.601	102.31
297.831	92.31
298.062	82.31
298.292	91.31
298.523	66.31
298.753	84.31
298.984	96.31
299.214	94.31
299.445	83.31
299.675	90.31
299.905	96.31
300.136	98.31
300.366	84.31
300.597	101.31
300.827	86.31
301.057	103.31
301.288	90.31
301.518	94.31
301.748	82.31
301.979	99.31
302.209	78.31
302.439	90.31
302.669	85.31
302.9	92.31
303.13	85.31
303.36	93.31
303.59	90.31
303.82	106.31
304.051	100.31
304.281	94.31
304.511	80.31
304.741	80.31
304.971	82.31
305.201	88.31
305.431	91.31
305.661	88.31
305.891	91.31
306.121	91.31
306.352	106.31
306.582	98.31
306.812	75.31
307.042	98.31
307.272	93.31
307.502	105.31
307.731	102.31
307.961	88.31
308.191	92.31
308.421	95.31
308.651	86.31
308.881	88.31
309.111	91.31
309.341	92.31
309.571	106.31
309.8	92.31
310.03	83.31
310.26	100.31
310.49	108.31
310.72	90.31
310.949	90.31
311.179	80.31
311.409	105.31
311.639	89.31
311.868	108.31
312.098	83.31
312.328	91.31
312.557	84.31
312.787	107.31
313.017	113.31
313.246	94.31
313.476	89.31
313.706	81.31
313.935	93.31
314.165	98.31
314.394	102.31
314.624	100.31
314.853	95.31
315.083	90.31
315.312	98.31
315.542	81.31
315.771	96.31
316.001	97.31
316.23	90.31
316.46	89.31
316.689	91.31
316.919	95.31
317.148	79.31
317.377	104.31
317.607	96.31
317.836	89.31
318.065	93.31
318.295	94.31
318.524	76.31
318.753	83.31
318.983	70.31
319.212	95.31
319.441	104.31
319.67	107.31
319.9	89.31
320.129	75.31
320.358	80.31
320.587	98.31
320.816	95.31
321.046	95.31
321.275	88.31
321.504	95.31
321.733	92.31
321.962	103.31
322.191	99.31
322.42	103.31
322.649	116.31
322.878	106.31
323.108	116.31
323.337	109.31
323.566	115.31
323.795	141.31
324.024	210.31
324.253	384.31
324.482	783.31
324.71	1562.31
324.939	1968.31
325.168	763.31
325.397	231.31
325.626	158.31
325.855	115.31
326.084	110.31
326.313	108.31
326.542	151.31
326.77	221.31
326.999	429.31
327.228	858.31
327.457	1565.31
327.686	1234.31
327.914	363.31
328.143	210.31
328.372	167.31
328.6	128.31
328.829	116.31
329.058	123.31
329.287	121.31
329.515	105.31
329.744	104.31
329.972	119.31
330.201	198.31
330.43	217.31
330.658	162.31
330.887	140.31
331.115	110.31
331.344	85.31
331.572	90.31
331.801	107.31
332.03	93.31
332.258	104.31
332.486	88.31
332.715	85.31
332.943	84.31
333.172	92.31
333.4	97.31
333.629	114.31
333.857	116.31
334.085	133.31
334.314	167.31
334.542	263.31
334.771	233.31
334.999	109.31
335.227	82.31
335.455	86.31
335.684	95.31
335.912	91.31
336.14	108.31
336.369	98.31
336.597	85.31
336.825	96.31
337.053	89.31
337.281	89.31
337.51	87.31
337.738	100.31
337.966	98.31
338.194	84.31
338.422	93.31
338.65	84.31
338.878	91.31
339.106	79.31
339.334	88.31
339.562	88.31
339.79	94.31
340.018	74.31
340.246	89.31
340.474	84.31
340.702	75.31
340.93	85.31
341.158	82.31
341.386	92.31
341.614	97.31
341.842	108.31
342.07	107.31
342.298	87.31
342.526	80.31
342.754	80.31
342.981	83.31
343.209	91.31
343.437	92.31
343.665	87.31
343.893	79.31
344.12	107.31
344.348	86.31
344.576	96.31
344.804	71.31
345.031	91.31
345.259	91.31
345.487	83.31
345.714	89.31
345.942	89.31
346.17	91.31
346.397	86.31
346.625	80.31
346.853	92.31
347.08	99.31
347.308	103.31
347.535	90.31
347.763	86.31
347.99	95.31
348.218	90.31
348.445	101.31
348.673	88.31
348.9	92.31
349.128	90.31
349.355	85.31
349.583	110.31
349.81	89.31
350.037	94.31
350.265	82.31
350.492	98.31
350.72	85.31
350.947	90.31
351.174	111.31
351.402	106.31
351.629	95.31
351.856	79.31
352.083	95.31
352.311	90.31
352.538	115.31
352.765	108.31
352.992	98.31
353.22	95.31
353.447	92.31
353.674	105.31
353.901	100.31
354.128	97.31
354.355	102.31
354.583	96.31
354.81	78.31
355.037	88.31
355.264	82.31
355.491	90.31
355.718	83.31
355.945	86.31
356.172	83.31
356.399	86.31
356.626	92.31
356.853	85.31
357.08	66.31
357.307	76.31
357.534	99.31
357.761	93.31
357.988	96.31
358.215	98.31
358.441	84.31
358.668	79.31
358.895	80.31
359.122	76.31
359.349	83.31
359.576	103.31
359.802	95.31
360.029	127.31
360.256	115.31
360.483	99.31
360.709	74.31
360.936	89.31
361.163	82.31
361.39	80.31
361.616	94.31
361.843	83.31
362.07	92.31
362.296	86.31
362.523	95.31
362.749	93.31
362.976	91.31
363.203	75.31
363.429	89.31
363.656	98.31
363.882	83.31
364.109	89.31
364.335	82.31
364.562	82.31
364.788	80.31
365.015	86.31
365.241	99.31
365.468	102.31
365.694	99.31
365.92	86.31
366.147	83.31
366.373	91.31
366.599	76.31
366.826	94.31
367.052	79.31
367.278	102.31
367.505	91.31
367.731	88.31
367.957	88.31
368.184	82.31
368.41	94.31
368.636	96.31
368.862	109.31
369.089	100.31
369.315	83.31
369.541	90.31
369.767	108.31
369.993	88.31
370.219	82.31
370.445	82.31
370.672	88.31
370.898	76.31
371.124	76.31
371.35	86.31
371.576	87.31
371.802	92.31
372.028	107.31
372.254	87.31
372.48	84.31
372.706	86.31
372.932	86.31
373.158	70.31
373.384	98.31
373.61	94.31
373.835	81.31
374.061	88.31
374.287	86.31
374.513	86.31
374.739	73.31
374.965	94.31
375.191	101.31
375.416	96.31
375.642	89.31
375.868	98.31
376.094	81.31
376.319	80.31
376.545	74.31
376.771	67.31
376.997	102.31
377.222	82.31
377.448	83.31
377.674	88.31
377.899	80.31
378.125	91.31
378.35	94.31
378.576	74.31
378.802	76.31
379.027	80.31
379.253	89.31
379.478	91.31
379.704	86.31
379.929	87.31
380.155	106.31
380.38	94.31
380.606	81.31
380.831	94.31
381.057	89.31
381.282	93.31
381.507	76.31
381.733	91.31
381.958	86.31
382.184	94.31
382.409	83.31
382.634	92.31
382.86	90.31
383.085	89.31
383.31	94.31
383.535	84.31
383.761	91.31
383.986	88.31
384.211	90.31
384.436	82.31
384.662	85.31
384.887	90.31
385.112	95.31
385.337	88.31
385.562	74.31
385.787	95.31
386.013	86.31
386.238	110.31
386.463	91.31
386.688	93.31
386.913	104.31
387.138	106.31
387.363	99.31
387.588	90.31
387.813	103.31
388.038	102.31
388.263	93.31
388.488	106.31
388.713	99.31
388.938	103.31
389.163	104.31
389.387	100.31
389.612	90.31
389.837	109.31
390.062	91.31
390.287	95.31
390.512	89.31
390.736	70.31
390.961	86.31
391.186	78.31
391.411	95.31
391.636	97.31
391.86	80.31
392.085	85.31
392.31	70.31
392.534	80.31
392.759	80.31
392.984	82.31
393.208	92.31
393.433	93.31
393.658	74.31
393.882	80.31
394.107	89.31
394.331	73.31
394.556	85.31
394.78	95.31
395.005	71.31
395.229	85.31
395.454	78.31
395.678	76.31
395.903	93.31
396.127	83.31
396.352	86.31
396.576	85.31
396.801	84.31
397.025	86.31
397.249	81.31
397.474	100.31
397.698	88.31
397.922	101.31
398.147	92.31
398.371	82.31
398.595	93.31
398.82	90.31
399.044	83.31
399.268	89.31
399.492	94.31
399.717	104.31
399.941	72.31
400.165	103.31
400.389	95.31
400.613	87.31
400.837	89.31
401.062	99.31
401.286	86.31
401.51	98.31
401.734	83.31
401.958	105.31
402.182	128.31
402.406	138.31
402.63	108.31
402.854	86.31
403.078	85.31
403.302	75.31
403.526	82.31
403.75	86.31
403.974	85.31
404.198	79.31
404.422	89.31
404.645	87.31
404.869	83.31
405.093	94.31
405.317	104.31
405.541	109.31
405.765	90.31
405.988	115.31
406.212	154.31
406.436	213.31
406.66	134.31
406.883	103.31
407.107	92.31
407.331	89.31
407.555	92.31
407.778	98.31
408.002	92.31
408.226	84.31
408.449	83.31
408.673	83.31
408.896	96.31
409.12	91.31
409.344	80.31
409.567	68.31
409.791	87.31
410.014	89.31
410.238	112.31
410.461	91.31
410.685	96.31
410.908	98.31
411.132	95.31
411.355	90.31
411.578	87.31
411.802	88.31
412.025	89.31
412.249	87.31
412.472	86.31
412.695	98.31
412.919	90.31
413.142	92.31
413.365	92.31
413.589	95.31
413.812	89.31
414.035	73.31
414.258	71.31
414.482	78.31
414.705	74.31
414.928	87.31
415.151	85.31
415.374	89.31
415.597	98.31
415.821	94.31
416.044	72.31
416.267	94.31
416.49	81.31
416.713	83.31
416.936	83.31
417.159	88.31
417.382	68.31
417.605	89.31
417.828	84.31
418.051	74.31
418.274	72.31
418.497	89.31
418.72	74.31
418.943	86.31
419.166	94.31
419.389	83.31
419.611	73.31
419.834	85.31
420.057	83.31
420.28	80.31
420.503	83.31
420.726	87.31
420.948	95.31
421.171	88.31
421.394	95.31
421.617	96.31
421.839	99.31
422.062	87.31
422.285	97.31
422.507	101.31
422.73	95.31
422.953	92.31
423.175	88.31
423.398	90.31
423.621	74.31
423.843	64.31
424.066	89.31
424.288	71.31
424.511	92.31
424.733	84.31
424.956	90.31
425.178	86.31
425.401	94.31
425.623	97.31
425.846	83.31
426.068	90.31
426.291	92.31
426.513	84.31
426.735	95.31
426.958	95.31
427.18	113.31
427.402	123.31
427.625	168.31
427.847	139.31
428.069	116.31
428.292	95.31
428.514	74.31
428.736	83.31
428.958	79.31
429.181	88.31
429.403	75.31
429.625	83.31
429.847	86.31
430.069	100.31
430.292	86.31
430.514	81.31
430.736	76.31
430.958	74.31
431.18	77.31
431.402	75.31
431.624	76.31
431.846	81.31
432.068	88.31
432.29	91.31
432.512	90.31
432.734	82.31
432.956	88.31
433.178	103.31
433.4	87.31
433.622	68.31
433.844	86.31
434.066	74.31
434.287	74.31
434.509	95.31
434.731	82.31
434.953	87.31
435.175	99.31
435.397	86.31
435.618	86.31
435.84	105.31
436.062	120.31
436.284	105.31
436.505	99.31
436.727	91.31
436.949	94.31
437.17	88.31
437.392	84.31
437.614	96.31
437.835	111.31
438.057	110.31
438.278	94.31
438.5	98.31
438.721	106.31
438.943	99.31
439.165	95.31
439.386	89.31
439.608	90.31
439.829	103.31
440.05	120.31
440.272	120.31
440.493	97.31
440.715	85.31
440.936	90.31
441.158	98.31
441.379	92.31
441.6	75.31
441.822	87.31
442.043	75.31
442.264	95.31
442.486	87.31
442.707	94.31
442.928	103.31
443.149	119.31
443.371	108.31
443.592	97.31
443.813	100.31
444.034	96.31
444.255	80.31
444.476	82.31
444.698	97.31
444.919	86.31
445.14	140.31
445.361	111.31
445.582	112.31
445.803	131.31
446.024	113.31
446.245	118.31
446.466	99.31
446.687	97.31
446.908	89.31
447.129	77.31
447.35	86.31
447.571	79.31
447.792	95.31
448.013	85.31
448.234	105.31
448.455	89.31
448.675	109.31
448.896	118.31
449.117	101.31
449.338	92.31
449.559	117.31
449.779	109.31
450	85.31
450.221	83.31
450.442	79.31
450.662	87.31
450.883	93.31
451.104	113.31
451.324	87.31
451.545	92.31
451.766	88.31
451.986	84.31
452.207	91.31
452.428	86.31
452.648	98.31
452.869	98.31
453.089	100.31
453.31	106.31
453.53	96.31
453.751	98.31
453.971	100.31
454.192	103.31
454.412	71.31
454.633	75.31
454.853	88.31
455.073	92.31
455.294	80.31
455.514	98.31
455.734	86.31
455.955	85.31
456.175	80.31
456.395	96.31
456.616	68.31
456.836	83.31
457.056	70.31
457.276	71.31
457.497	90.31
457.717	84.31
457.937	72.31
458.157	83.31
458.377	83.31
458.598	96.31
458.818	146.31
459.038	147.31
459.258	112.31
459.478	74.31
459.698	84.31
459.918	81.31
460.138	84.31
460.358	94.31
460.578	78.31
460.798	96.31
461.018	89.31
461.238	78.31
461.458	88.31
461.678	94.31
461.898	96.31
462.118	74.31
462.338	84.31
462.558	78.31
462.777	86.31
462.997	89.31
463.217	86.31
463.437	84.31
463.657	82.31
463.876	87.31
464.096	84.31
464.316	83.31
464.536	88.31
464.755	100.31
464.975	97.31
465.195	129.31
465.414	154.31
465.634	110.31
465.854	96.31
466.073	83.31
466.293	95.31
466.512	87.31
466.732	74.31
466.951	83.31
467.171	104.31
467.391	74.31
467.61	102.31
467.829	88.31
468.049	121.31
468.268	158.31
468.488	93.31
468.707	87.31
468.927	89.31
469.146	92.31
469.365	86.31
469.585	89.31
469.804	102.31
470.023	97.31
470.243	82.31
470.462	95.31
470.681	98.31
470.901	106.31
471.12	88.31
471.339	83.31
471.558	78.31
471.777	82.31
471.997	95.31
472.216	213.31
472.435	328.31
472.654	140.31
472.873	95.31
473.092	82.31
473.311	98.31
473.53	76.31
473.749	71.31
473.968	105.31
474.187	113.31
474.406	98.31
474.625	80.31
474.844	85.31
475.063	87.31
475.282	89.31
475.501	86.31
475.72	95.31
475.939	96.31
476.158	73.31
476.377	90.31
476.596	90.31
476.814	101.31
477.033	90.31
477.252	90.31
477.471	66.31
477.69	75.31
477.908	96.31
478.127	92.31
478.346	85.31
478.564	81.31
478.783	94.31
479.002	97.31
479.22	96.31
479.439	95.31
479.658	103.31
479.876	87.31
480.095	99.31
480.313	91.31
480.532	105.31
480.751	120.31
480.969	206.31
481.188	540.31
481.406	321.31
481.624	106.31
481.843	79.31
482.061	90.31
482.28	86.31
482.498	77.31
482.717	83.31
482.935	90.31
483.153	75.31
483.372	87.31
483.59	102.31
483.808	86.31
484.027	86.31
484.245	89.31
484.463	88.31
484.681	100.31
484.9	98.31
485.118	90.31
485.336	88.31
485.554	90.31
485.772	87.31
485.99	91.31
486.209	105.31
486.427	106.31
486.645	112.31
486.863	121.31
487.081	97.31
487.299	73.31
487.517	102.31
487.735	85.31
487.953	84.31
488.171	104.31
488.389	82.31
488.607	79.31
488.825	78.31
489.043	82.31
489.261	68.31
489.479	72.31
489.696	71.31
489.914	96.31
490.132	92.31
490.35	100.31
490.568	91.31
490.786	85.31
491.003	80.31
491.221	96.31
491.439	98.31
491.657	98.31
491.874	91.31
492.092	96.31
492.31	94.31
492.527	81.31
492.745	95.31
492.963	98.31
493.18	99.31
493.398	101.31
493.615	106.31
493.833	93.31
494.05	100.31
494.268	103.31
494.485	90.31
494.703	88.31
494.92	95.31
495.138	87.31
495.355	96.31
495.573	83.31
495.79	93.31
496.008	86.31
496.225	96.31
496.442	80.31
496.66	87.31
496.877	96.31
497.094	99.31
497.312	95.31
497.529	91.31
497.746	97.31
497.963	81.31
498.181	82.31
498.398	92.31
498.615	108.31
498.832	99.31
499.049	86.31
499.267	91.31
499.484	95.31
499.701	92.31
499.918	85.31
500.135	98.31
500.352	109.31
500.569	93.31
500.786	91.31
501.003	86.31
501.22	89.31
501.437	83.31
501.654	101.31
501.871	106.31
502.088	90.31
502.305	84.31
502.522	90.31
502.739	100.31
502.956	78.31
503.172	88.31
503.389	98.31
503.606	104.31
503.823	106.31
504.04	106.31
504.256	91.31
504.473	90.31
504.69	99.31
504.907	94.31
505.123	92.31
505.34	97.31
505.557	86.31
505.773	79.31
505.99	89.31
506.207	89.31
506.423	82.31
506.64	82.31
506.856	99.31
507.073	88.31
507.289	80.31
507.506	93.31
507.722	101.31
507.939	109.31
508.155	98.31
508.372	86.31
508.588	99.31
508.805	95.31
509.021	90.31
509.238	85.31
509.454	102.31
509.67	87.31
509.887	116.31
510.103	134.31
510.319	200.31
510.536	721.31
510.752	2273.31
510.968	632.31
511.184	150.31
511.401	100.31
511.617	90.31
511.833	87.31
512.049	86.31
512.265	94.31
512.481	90.31
512.698	91.31
512.914	97.31
513.13	80.31
513.346	88.31
513.562	94.31
513.778	72.31
513.994	91.31
514.21	113.31
514.426	109.31
514.642	135.31
514.858	118.31
515.074	147.31
515.29	431.31
515.506	1382.31
515.721	516.31
515.937	142.31
516.153	109.31
516.369	100.31
516.585	91.31
