Data from Circ_1994_H10_HRD10591_00064.txt Node
Date: Wed Jan 03 11:40:43 EST 2024
User: Yrep
Spectrometer: HR+D1059
Trigger mode: 1
Integration Time (sec): 1.000000E-1
Scans to average: 1
Electric dark correction enabled: true
Nonlinearity correction enabled: false
Boxcar width: 0
XAxis mode: Wavelengths
Number of Pixels in Spectrum: 2048
>>>>>Begin Spectral Data<<<<<
223.165	-18.69
223.4	-18.69
223.635	-18.69
223.869	-16.69
224.104	-8.69
224.338	-11.69
224.573	-13.69
224.808	-26.69
225.042	0.31
225.277	-12.69
225.511	9.31
225.746	2.31
225.98	-5.69
226.215	8.31
226.449	23.31
226.683	16.31
226.918	14.31
227.152	40.31
227.387	17.31
227.621	38.31
227.856	52.31
228.09	46.31
228.324	51.31
228.559	50.31
228.793	52.31
229.027	73.31
229.262	69.31
229.496	65.31
229.73	83.31
229.964	75.31
230.199	78.31
230.433	86.31
230.667	71.31
230.901	64.31
231.136	82.31
231.37	87.31
231.604	79.31
231.838	69.31
232.072	76.31
232.306	68.31
232.541	75.31
232.775	71.31
233.009	79.31
233.243	77.31
233.477	97.31
233.711	80.31
233.945	87.31
234.179	90.31
234.413	84.31
234.647	73.31
234.881	86.31
235.115	76.31
235.349	81.31
235.583	70.31
235.817	72.31
236.051	71.31
236.285	74.31
236.519	63.31
236.753	69.31
236.987	84.31
237.221	90.31
237.455	74.31
237.689	82.31
237.922	76.31
238.156	79.31
238.39	69.31
238.624	71.31
238.858	79.31
239.091	81.31
239.325	61.31
239.559	87.31
239.793	88.31
240.027	75.31
240.26	67.31
240.494	73.31
240.728	88.31
240.961	61.31
241.195	75.31
241.429	89.31
241.662	81.31
241.896	76.31
242.13	81.31
242.363	77.31
242.597	68.31
242.83	71.31
243.064	80.31
243.298	60.31
243.531	74.31
243.765	90.31
243.998	89.31
244.232	90.31
244.465	93.31
244.699	81.31
244.932	62.31
245.166	77.31
245.399	94.31
245.633	71.31
245.866	63.31
246.099	75.31
246.333	95.31
246.566	75.31
246.8	79.31
247.033	77.31
247.266	72.31
247.5	71.31
247.733	79.31
247.966	91.31
248.2	68.31
248.433	77.31
248.666	75.31
248.899	57.31
249.133	88.31
249.366	97.31
249.599	100.31
249.832	82.31
250.066	78.31
250.299	84.31
250.532	75.31
250.765	87.31
250.998	68.31
251.231	78.31
251.465	86.31
251.698	79.31
251.931	85.31
252.164	91.31
252.397	82.31
252.63	74.31
252.863	74.31
253.096	69.31
253.329	76.31
253.562	76.31
253.795	82.31
254.028	93.31
254.261	70.31
254.494	84.31
254.727	77.31
254.96	91.31
255.193	76.31
255.426	78.31
255.659	67.31
255.892	68.31
256.124	78.31
256.357	83.31
256.59	72.31
256.823	75.31
257.056	88.31
257.289	88.31
257.521	73.31
257.754	75.31
257.987	75.31
258.22	83.31
258.452	93.31
258.685	94.31
258.918	89.31
259.151	89.31
259.383	86.31
259.616	80.31
259.849	82.31
260.081	78.31
260.314	89.31
260.547	87.31
260.779	71.31
261.012	67.31
261.244	103.31
261.477	88.31
261.71	98.31
261.942	112.31
262.175	119.31
262.407	89.31
262.64	91.31
262.872	83.31
263.105	81.31
263.337	78.31
263.57	79.31
263.802	85.31
264.035	79.31
264.267	81.31
264.499	78.31
264.732	84.31
264.964	74.31
265.197	77.31
265.429	84.31
265.661	79.31
265.894	81.31
266.126	79.31
266.358	91.31
266.591	97.31
266.823	89.31
267.055	94.31
267.287	77.31
267.52	88.31
267.752	85.31
267.984	91.31
268.216	91.31
268.448	85.31
268.681	97.31
268.913	92.31
269.145	84.31
269.377	78.31
269.609	91.31
269.841	76.31
270.073	81.31
270.306	91.31
270.538	89.31
270.77	94.31
271.002	83.31
271.234	84.31
271.466	80.31
271.698	80.31
271.93	92.31
272.162	85.31
272.394	92.31
272.626	90.31
272.858	84.31
273.09	92.31
273.322	81.31
273.553	83.31
273.785	85.31
274.017	82.31
274.249	86.31
274.481	84.31
274.713	80.31
274.945	79.31
275.176	62.31
275.408	84.31
275.64	89.31
275.872	85.31
276.104	92.31
276.335	86.31
276.567	102.31
276.799	107.31
277.031	103.31
277.262	83.31
277.494	91.31
277.726	93.31
277.957	85.31
278.189	86.31
278.421	87.31
278.652	67.31
278.884	89.31
279.115	80.31
279.347	90.31
279.579	89.31
279.81	83.31
280.042	84.31
280.273	88.31
280.505	91.31
280.736	80.31
280.968	84.31
281.199	84.31
281.431	81.31
281.662	75.31
281.894	92.31
282.125	99.31
282.356	116.31
282.588	119.31
282.819	110.31
283.051	86.31
283.282	82.31
283.513	96.31
283.745	84.31
283.976	90.31
284.207	74.31
284.439	80.31
284.67	92.31
284.901	80.31
285.132	87.31
285.364	81.31
285.595	71.31
285.826	80.31
286.057	100.31
286.288	85.31
286.52	90.31
286.751	91.31
286.982	97.31
287.213	90.31
287.444	95.31
287.675	87.31
287.906	91.31
288.138	90.31
288.369	83.31
288.6	82.31
288.831	81.31
289.062	90.31
289.293	96.31
289.524	87.31
289.755	83.31
289.986	77.31
290.217	79.31
290.448	79.31
290.679	102.31
290.91	92.31
291.141	82.31
291.371	87.31
291.602	91.31
291.833	81.31
292.064	87.31
292.295	74.31
292.526	79.31
292.757	71.31
292.987	72.31
293.218	96.31
293.449	88.31
293.68	100.31
293.91	100.31
294.141	85.31
294.372	75.31
294.603	81.31
294.833	89.31
295.064	95.31
295.295	93.31
295.525	84.31
295.756	92.31
295.987	111.31
296.217	137.31
296.448	128.31
296.679	91.31
296.909	98.31
297.14	85.31
297.37	85.31
297.601	80.31
297.831	83.31
298.062	80.31
298.292	81.31
298.523	97.31
298.753	89.31
298.984	82.31
299.214	100.31
299.445	91.31
299.675	96.31
299.905	94.31
300.136	84.31
300.366	68.31
300.597	89.31
300.827	96.31
301.057	89.31
301.288	104.31
301.518	91.31
301.748	65.31
301.979	105.31
302.209	100.31
302.439	80.31
302.669	89.31
302.9	99.31
303.13	84.31
303.36	81.31
303.59	88.31
303.82	94.31
304.051	91.31
304.281	77.31
304.511	102.31
304.741	87.31
304.971	101.31
305.201	87.31
305.431	75.31
305.661	90.31
305.891	87.31
306.121	98.31
306.352	114.31
306.582	107.31
306.812	95.31
307.042	91.31
307.272	92.31
307.502	105.31
307.731	88.31
307.961	81.31
308.191	81.31
308.421	95.31
308.651	79.31
308.881	94.31
309.111	95.31
309.341	99.31
309.571	86.31
309.8	86.31
310.03	77.31
310.26	84.31
310.49	106.31
310.72	80.31
310.949	90.31
311.179	101.31
311.409	99.31
311.639	84.31
311.868	97.31
312.098	93.31
312.328	106.31
312.557	98.31
312.787	89.31
313.017	88.31
313.246	96.31
313.476	94.31
313.706	85.31
313.935	91.31
314.165	81.31
314.394	87.31
314.624	99.31
314.853	100.31
315.083	84.31
315.312	93.31
315.542	97.31
315.771	100.31
316.001	90.31
316.23	92.31
316.46	84.31
316.689	89.31
316.919	89.31
317.148	95.31
317.377	101.31
317.607	90.31
317.836	78.31
318.065	93.31
318.295	99.31
318.524	81.31
318.753	99.31
318.983	88.31
319.212	94.31
319.441	97.31
319.67	95.31
319.9	85.31
320.129	90.31
320.358	99.31
320.587	93.31
320.816	93.31
321.046	93.31
321.275	99.31
321.504	85.31
321.733	87.31
321.962	103.31
322.191	101.31
322.42	114.31
322.649	86.31
322.878	100.31
323.108	103.31
323.337	96.31
323.566	119.31
323.795	146.31
324.024	191.31
324.253	347.31
324.482	713.31
324.71	1422.31
324.939	1871.31
325.168	681.31
325.397	210.31
325.626	122.31
325.855	122.31
326.084	121.31
326.313	119.31
326.542	141.31
326.77	214.31
326.999	397.31
327.228	816.31
327.457	1424.31
327.686	1144.31
327.914	305.31
328.143	186.31
328.372	149.31
328.6	117.31
328.829	98.31
329.058	107.31
329.287	120.31
329.515	115.31
329.744	121.31
329.972	116.31
330.201	139.31
330.43	159.31
330.658	151.31
330.887	111.31
331.115	119.31
331.344	97.31
331.572	95.31
331.801	100.31
332.03	105.31
332.258	89.31
332.486	98.31
332.715	86.31
332.943	85.31
333.172	97.31
333.4	111.31
333.629	108.31
333.857	109.31
334.085	107.31
334.314	139.31
334.542	172.31
334.771	178.31
334.999	106.31
335.227	80.31
335.455	104.31
335.684	109.31
335.912	100.31
336.14	100.31
336.369	113.31
336.597	95.31
336.825	104.31
337.053	87.31
337.281	90.31
337.51	96.31
337.738	96.31
337.966	89.31
338.194	84.31
338.422	99.31
338.65	101.31
338.878	82.31
339.106	90.31
339.334	91.31
339.562	88.31
339.79	99.31
340.018	95.31
340.246	82.31
340.474	75.31
340.702	109.31
340.93	94.31
341.158	98.31
341.386	88.31
341.614	96.31
341.842	92.31
342.07	90.31
342.298	88.31
342.526	89.31
342.754	88.31
342.981	90.31
343.209	89.31
343.437	92.31
343.665	82.31
343.893	93.31
344.12	94.31
344.348	96.31
344.576	86.31
344.804	95.31
345.031	100.31
345.259	90.31
345.487	91.31
345.714	80.31
345.942	91.31
346.17	99.31
346.397	94.31
346.625	97.31
346.853	91.31
347.08	86.31
347.308	111.31
347.535	95.31
347.763	100.31
347.99	100.31
348.218	105.31
348.445	105.31
348.673	98.31
348.9	93.31
349.128	98.31
349.355	80.31
349.583	87.31
349.81	88.31
350.037	95.31
350.265	95.31
350.492	87.31
350.72	96.31
350.947	98.31
351.174	109.31
351.402	90.31
351.629	101.31
351.856	100.31
352.083	104.31
352.311	104.31
352.538	104.31
352.765	116.31
352.992	101.31
353.22	101.31
353.447	92.31
353.674	95.31
353.901	79.31
354.128	93.31
354.355	95.31
354.583	105.31
354.81	95.31
355.037	103.31
355.264	90.31
355.491	87.31
355.718	75.31
355.945	94.31
356.172	90.31
356.399	87.31
356.626	97.31
356.853	100.31
357.08	94.31
357.307	88.31
357.534	95.31
357.761	88.31
357.988	78.31
358.215	89.31
358.441	82.31
358.668	85.31
358.895	94.31
359.122	93.31
359.349	87.31
359.576	91.31
359.802	88.31
360.029	88.31
360.256	103.31
360.483	88.31
360.709	84.31
360.936	88.31
361.163	95.31
361.39	101.31
361.616	90.31
361.843	87.31
362.07	88.31
362.296	104.31
362.523	87.31
362.749	89.31
362.976	88.31
363.203	115.31
363.429	75.31
363.656	79.31
363.882	88.31
364.109	91.31
364.335	86.31
364.562	96.31
364.788	80.31
365.015	97.31
365.241	90.31
365.468	92.31
365.694	93.31
365.92	95.31
366.147	87.31
366.373	96.31
366.599	89.31
366.826	85.31
367.052	98.31
367.278	96.31
367.505	104.31
367.731	79.31
367.957	79.31
368.184	82.31
368.41	99.31
368.636	100.31
368.862	117.31
369.089	109.31
369.315	79.31
369.541	76.31
369.767	90.31
369.993	78.31
370.219	94.31
370.445	78.31
370.672	79.31
370.898	82.31
371.124	91.31
371.35	81.31
371.576	99.31
371.802	85.31
372.028	82.31
372.254	101.31
372.48	97.31
372.706	99.31
372.932	92.31
373.158	81.31
373.384	99.31
373.61	82.31
373.835	79.31
374.061	89.31
374.287	89.31
374.513	78.31
374.739	85.31
374.965	94.31
375.191	111.31
375.416	87.31
375.642	88.31
375.868	65.31
376.094	79.31
376.319	83.31
376.545	84.31
376.771	90.31
376.997	89.31
377.222	83.31
377.448	87.31
377.674	97.31
377.899	97.31
378.125	72.31
378.35	84.31
378.576	95.31
378.802	79.31
379.027	81.31
379.253	98.31
379.478	94.31
379.704	96.31
379.929	84.31
380.155	79.31
380.38	94.31
380.606	85.31
380.831	92.31
381.057	85.31
381.282	106.31
381.507	91.31
381.733	92.31
381.958	79.31
382.184	83.31
382.409	92.31
382.634	93.31
382.86	84.31
383.085	98.31
383.31	84.31
383.535	87.31
383.761	97.31
383.986	99.31
384.211	96.31
384.436	94.31
384.662	94.31
384.887	104.31
385.112	98.31
385.337	104.31
385.562	109.31
385.787	85.31
386.013	99.31
386.238	106.31
386.463	90.31
386.688	101.31
386.913	91.31
387.138	101.31
387.363	83.31
387.588	79.31
387.813	100.31
388.038	97.31
388.263	93.31
388.488	101.31
388.713	102.31
388.938	82.31
389.163	90.31
389.387	92.31
389.612	79.31
389.837	81.31
390.062	90.31
390.287	88.31
390.512	78.31
390.736	81.31
390.961	96.31
391.186	88.31
391.411	81.31
391.636	75.31
391.86	87.31
392.085	88.31
392.31	80.31
392.534	78.31
392.759	85.31
392.984	88.31
393.208	87.31
393.433	86.31
393.658	85.31
393.882	83.31
394.107	81.31
394.331	82.31
394.556	87.31
394.78	93.31
395.005	92.31
395.229	65.31
395.454	95.31
395.678	90.31
395.903	81.31
396.127	101.31
396.352	83.31
396.576	89.31
396.801	85.31
397.025	95.31
397.249	95.31
397.474	96.31
397.698	92.31
397.922	82.31
398.147	85.31
398.371	80.31
398.595	83.31
398.82	89.31
399.044	94.31
399.268	84.31
399.492	83.31
399.717	100.31
399.941	84.31
400.165	87.31
400.389	94.31
400.613	75.31
400.837	91.31
401.062	79.31
401.286	87.31
401.51	91.31
401.734	92.31
401.958	90.31
402.182	115.31
402.406	142.31
402.63	119.31
402.854	74.31
403.078	97.31
403.302	76.31
403.526	81.31
403.75	81.31
403.974	88.31
404.198	85.31
404.422	87.31
404.645	92.31
404.869	96.31
405.093	96.31
405.317	100.31
405.541	96.31
405.765	84.31
405.988	109.31
406.212	148.31
406.436	205.31
406.66	135.31
406.883	102.31
407.107	83.31
407.331	91.31
407.555	96.31
407.778	100.31
408.002	101.31
408.226	89.31
408.449	80.31
408.673	84.31
408.896	85.31
409.12	85.31
409.344	87.31
409.567	96.31
409.791	106.31
410.014	88.31
410.238	78.31
410.461	93.31
410.685	92.31
410.908	106.31
411.132	113.31
411.355	80.31
411.578	89.31
411.802	92.31
412.025	90.31
412.249	78.31
412.472	90.31
412.695	82.31
412.919	81.31
413.142	84.31
413.365	81.31
413.589	81.31
413.812	92.31
414.035	97.31
414.258	87.31
414.482	83.31
414.705	82.31
414.928	87.31
415.151	84.31
415.374	101.31
415.597	83.31
415.821	80.31
416.044	103.31
416.267	82.31
416.49	87.31
416.713	91.31
416.936	95.31
417.159	82.31
417.382	76.31
417.605	100.31
417.828	95.31
418.051	91.31
418.274	72.31
418.497	83.31
418.72	89.31
418.943	81.31
419.166	80.31
419.389	86.31
419.611	84.31
419.834	88.31
420.057	73.31
420.28	96.31
420.503	72.31
420.726	87.31
420.948	80.31
421.171	93.31
421.394	98.31
421.617	84.31
421.839	101.31
422.062	83.31
422.285	80.31
422.507	92.31
422.73	101.31
422.953	98.31
423.175	91.31
423.398	81.31
423.621	78.31
423.843	83.31
424.066	78.31
424.288	78.31
424.511	86.31
424.733	90.31
424.956	108.31
425.178	87.31
425.401	105.31
425.623	87.31
425.846	90.31
426.068	97.31
426.291	93.31
426.513	78.31
426.735	95.31
426.958	83.31
427.18	101.31
427.402	135.31
427.625	155.31
427.847	117.31
428.069	115.31
428.292	87.31
428.514	82.31
428.736	72.31
428.958	90.31
429.181	93.31
429.403	80.31
429.625	85.31
429.847	104.31
430.069	107.31
430.292	79.31
430.514	81.31
430.736	78.31
430.958	91.31
431.18	87.31
431.402	75.31
431.624	97.31
431.846	90.31
432.068	79.31
432.29	78.31
432.512	85.31
432.734	88.31
432.956	99.31
433.178	100.31
433.4	94.31
433.622	91.31
433.844	76.31
434.066	104.31
434.287	79.31
434.509	88.31
434.731	82.31
434.953	91.31
435.175	76.31
435.397	97.31
435.618	100.31
435.84	90.31
436.062	107.31
436.284	108.31
436.505	111.31
436.727	108.31
436.949	88.31
437.17	96.31
437.392	86.31
437.614	103.31
437.835	99.31
438.057	100.31
438.278	88.31
438.5	91.31
438.721	106.31
438.943	94.31
439.165	91.31
439.386	78.31
439.608	96.31
439.829	85.31
440.05	115.31
440.272	135.31
440.493	102.31
440.715	87.31
440.936	85.31
441.158	91.31
441.379	77.31
441.6	79.31
441.822	77.31
442.043	94.31
442.264	99.31
442.486	115.31
442.707	89.31
442.928	106.31
443.149	112.31
443.371	111.31
443.592	101.31
443.813	99.31
444.034	87.31
444.255	84.31
444.476	79.31
444.698	87.31
444.919	83.31
445.14	126.31
445.361	124.31
445.582	117.31
445.803	132.31
446.024	123.31
446.245	123.31
446.466	100.31
446.687	97.31
446.908	84.31
447.129	89.31
447.35	88.31
447.571	85.31
447.792	89.31
448.013	103.31
448.234	108.31
448.455	94.31
448.675	90.31
448.896	110.31
449.117	85.31
449.338	108.31
449.559	122.31
449.779	112.31
450	97.31
450.221	77.31
450.442	88.31
450.662	107.31
450.883	108.31
451.104	103.31
451.324	94.31
451.545	83.31
451.766	84.31
451.986	90.31
452.207	87.31
452.428	83.31
452.648	98.31
452.869	98.31
453.089	113.31
453.31	121.31
453.53	87.31
453.751	88.31
453.971	92.31
454.192	104.31
454.412	93.31
454.633	89.31
454.853	84.31
455.073	92.31
455.294	86.31
455.514	95.31
455.734	85.31
455.955	73.31
456.175	78.31
456.395	80.31
456.616	92.31
456.836	68.31
457.056	84.31
457.276	64.31
457.497	82.31
457.717	79.31
457.937	78.31
458.157	76.31
458.377	76.31
458.598	101.31
458.818	125.31
459.038	152.31
459.258	100.31
459.478	92.31
459.698	84.31
459.918	87.31
460.138	75.31
460.358	94.31
460.578	101.31
460.798	80.31
461.018	97.31
461.238	84.31
461.458	80.31
461.678	83.31
461.898	94.31
462.118	85.31
462.338	94.31
462.558	85.31
462.777	90.31
462.997	92.31
463.217	84.31
463.437	82.31
463.657	79.31
463.876	98.31
464.096	96.31
464.316	88.31
464.536	113.31
464.755	99.31
464.975	109.31
465.195	153.31
465.414	129.31
465.634	87.31
465.854	98.31
466.073	98.31
466.293	88.31
466.512	100.31
466.732	71.31
466.951	82.31
467.171	101.31
467.391	93.31
467.61	93.31
467.829	105.31
468.049	108.31
468.268	117.31
468.488	96.31
468.707	97.31
468.927	79.31
469.146	84.31
469.365	84.31
469.585	91.31
469.804	89.31
470.023	91.31
470.243	83.31
470.462	95.31
470.681	107.31
470.901	75.31
471.12	84.31
471.339	82.31
471.558	80.31
471.777	105.31
471.997	96.31
472.216	137.31
472.435	223.31
472.654	112.31
472.873	78.31
473.092	81.31
473.311	89.31
473.53	100.31
473.749	82.31
473.968	97.31
474.187	119.31
474.406	98.31
474.625	89.31
474.844	59.31
475.063	89.31
475.282	87.31
475.501	87.31
475.72	85.31
475.939	81.31
476.158	83.31
476.377	90.31
476.596	89.31
476.814	106.31
477.033	92.31
477.252	88.31
477.471	93.31
477.69	91.31
477.908	94.31
478.127	88.31
478.346	80.31
478.564	78.31
478.783	89.31
479.002	97.31
479.22	88.31
479.439	91.31
479.658	104.31
479.876	88.31
480.095	72.31
480.313	84.31
480.532	104.31
480.751	107.31
480.969	153.31
481.188	360.31
481.406	211.31
481.624	107.31
481.843	100.31
482.061	93.31
482.28	96.31
482.498	82.31
482.717	88.31
482.935	82.31
483.153	81.31
483.372	75.31
483.59	87.31
483.808	96.31
484.027	97.31
484.245	81.31
484.463	89.31
484.681	99.31
484.9	92.31
485.118	86.31
485.336	88.31
485.554	98.31
485.772	93.31
485.99	108.31
486.209	97.31
486.427	97.31
486.645	122.31
486.863	114.31
487.081	98.31
487.299	91.31
487.517	89.31
487.735	101.31
487.953	93.31
488.171	92.31
488.389	89.31
488.607	115.31
488.825	103.31
489.043	100.31
489.261	75.31
489.479	106.31
489.696	88.31
489.914	88.31
490.132	82.31
490.35	78.31
490.568	90.31
490.786	79.31
491.003	87.31
491.221	87.31
491.439	96.31
491.657	93.31
491.874	87.31
492.092	95.31
492.31	92.31
492.527	91.31
492.745	87.31
492.963	80.31
493.18	89.31
493.398	80.31
493.615	91.31
493.833	81.31
494.05	91.31
494.268	96.31
494.485	87.31
494.703	84.31
494.92	76.31
495.138	95.31
495.355	96.31
495.573	81.31
495.79	100.31
496.008	87.31
496.225	87.31
496.442	95.31
496.66	83.31
496.877	95.31
497.094	98.31
497.312	95.31
497.529	78.31
497.746	97.31
497.963	83.31
498.181	91.31
498.398	111.31
498.615	112.31
498.832	109.31
499.049	96.31
499.267	101.31
499.484	103.31
499.701	91.31
499.918	87.31
500.135	79.31
500.352	84.31
500.569	87.31
500.786	76.31
501.003	100.31
501.22	91.31
501.437	85.31
501.654	99.31
501.871	77.31
502.088	97.31
502.305	99.31
502.522	89.31
502.739	84.31
502.956	96.31
503.172	93.31
503.389	101.31
503.606	91.31
503.823	104.31
504.04	100.31
504.256	96.31
504.473	94.31
504.69	89.31
504.907	92.31
505.123	91.31
505.34	63.31
505.557	86.31
505.773	87.31
505.99	89.31
506.207	106.31
506.423	81.31
506.64	84.31
506.856	90.31
507.073	87.31
507.289	108.31
507.506	89.31
507.722	101.31
507.939	104.31
508.155	91.31
508.372	92.31
508.588	82.31
508.805	97.31
509.021	98.31
509.238	97.31
509.454	101.31
509.67	102.31
509.887	101.31
510.103	112.31
510.319	187.31
510.536	718.31
510.752	2270.31
510.968	608.31
511.184	148.31
511.401	113.31
511.617	98.31
511.833	79.31
512.049	94.31
512.265	93.31
512.481	101.31
512.698	84.31
512.914	92.31
513.13	115.31
513.346	85.31
513.562	98.31
513.778	96.31
513.994	93.31
514.21	109.31
514.426	101.31
514.642	123.31
514.858	120.31
515.074	156.31
515.29	405.31
515.506	1301.31
515.721	491.31
515.937	139.31
516.153	101.31
516.369	90.31
