Data from Circ_1994_H10_HRD10591_00012.txt Node
Date: Wed Jan 03 11:40:32 EST 2024
User: Yrep
Spectrometer: HR+D1059
Trigger mode: 1
Integration Time (sec): 1.000000E-1
Scans to average: 1
Electric dark correction enabled: true
Nonlinearity correction enabled: false
Boxcar width: 0
XAxis mode: Wavelengths
Number of Pixels in Spectrum: 2048
>>>>>Begin Spectral Data<<<<<
223.165	-10
223.4	-10
223.635	-10
223.869	-24
224.104	-18
224.338	-24
224.573	-22
224.808	-15
225.042	-4
225.277	-9
225.511	8
225.746	3
225.98	18
226.215	2
226.449	0
226.683	33
226.918	24
227.152	38
227.387	40
227.621	43
227.856	44
228.09	43
228.324	49
228.559	70
228.793	64
229.027	72
229.262	54
229.496	87
229.73	88
229.964	91
230.199	70
230.433	62
230.667	70
230.901	82
231.136	81
231.37	96
231.604	83
231.838	87
232.072	75
232.306	90
232.541	83
232.775	76
233.009	94
233.243	87
233.477	82
233.711	77
233.945	97
234.179	82
234.413	90
234.647	94
234.881	74
235.115	83
235.349	78
235.583	73
235.817	95
236.051	85
236.285	63
236.519	92
236.753	79
236.987	72
237.221	80
237.455	91
237.689	85
237.922	75
238.156	78
238.39	61
238.624	65
238.858	82
239.091	78
239.325	78
239.559	92
239.793	75
240.027	84
240.26	89
240.494	83
240.728	91
240.961	76
241.195	78
241.429	91
241.662	63
241.896	67
242.13	78
242.363	77
242.597	74
242.83	64
243.064	79
243.298	81
243.531	68
243.765	69
243.998	84
244.232	81
244.465	79
244.699	86
244.932	81
245.166	76
245.399	77
245.633	82
245.866	90
246.099	65
246.333	67
246.566	82
246.8	93
247.033	86
247.266	99
247.5	81
247.733	89
247.966	93
248.2	76
248.433	86
248.666	84
248.899	79
249.133	62
249.366	93
249.599	105
249.832	85
250.066	85
250.299	78
250.532	92
250.765	79
250.998	87
251.231	98
251.465	90
251.698	80
251.931	96
252.164	77
252.397	77
252.63	87
252.863	85
253.096	56
253.329	76
253.562	98
253.795	89
254.028	83
254.261	80
254.494	76
254.727	82
254.96	91
255.193	91
255.426	85
255.659	87
255.892	102
256.124	88
256.357	91
256.59	82
256.823	81
257.056	79
257.289	90
257.521	75
257.754	86
257.987	66
258.22	78
258.452	91
258.685	91
258.918	98
259.151	81
259.383	91
259.616	84
259.849	87
260.081	88
260.314	77
260.547	78
260.779	79
261.012	80
261.244	71
261.477	75
261.71	88
261.942	108
262.175	115
262.407	82
262.64	77
262.872	64
263.105	83
263.337	82
263.57	82
263.802	93
264.035	88
264.267	90
264.499	98
264.732	80
264.964	78
265.197	78
265.429	81
265.661	72
265.894	85
266.126	80
266.358	76
266.591	80
266.823	76
267.055	88
267.287	80
267.52	70
267.752	86
267.984	85
268.216	95
268.448	91
268.681	107
268.913	76
269.145	78
269.377	83
269.609	95
269.841	90
270.073	83
270.306	91
270.538	76
270.77	91
271.002	90
271.234	87
271.466	81
271.698	72
271.93	86
272.162	84
272.394	95
272.626	95
272.858	94
273.09	82
273.322	98
273.553	88
273.785	93
274.017	82
274.249	88
274.481	93
274.713	73
274.945	91
275.176	72
275.408	80
275.64	90
275.872	98
276.104	83
276.335	85
276.567	86
276.799	97
277.031	108
277.262	92
277.494	86
277.726	77
277.957	71
278.189	95
278.421	102
278.652	98
278.884	76
279.115	97
279.347	86
279.579	84
279.81	95
280.042	91
280.273	100
280.505	76
280.736	90
280.968	83
281.199	91
281.431	87
281.662	78
281.894	84
282.125	88
282.356	130
282.588	139
282.819	111
283.051	88
283.282	87
283.513	96
283.745	95
283.976	78
284.207	80
284.439	92
284.67	91
284.901	109
285.132	91
285.364	84
285.595	82
285.826	108
286.057	90
286.288	86
286.52	94
286.751	78
286.982	92
287.213	87
287.444	95
287.675	92
287.906	85
288.138	100
288.369	92
288.6	99
288.831	82
289.062	95
289.293	89
289.524	98
289.755	86
289.986	98
290.217	85
290.448	85
290.679	81
290.91	105
291.141	81
291.371	92
291.602	87
291.833	95
292.064	90
292.295	82
292.526	86
292.757	95
292.987	92
293.218	93
293.449	92
293.68	84
293.91	87
294.141	81
294.372	92
294.603	87
294.833	97
295.064	93
295.295	97
295.525	96
295.756	101
295.987	113
296.217	136
296.448	124
296.679	97
296.909	95
297.14	98
297.37	104
297.601	83
297.831	86
298.062	106
298.292	99
298.523	93
298.753	89
298.984	89
299.214	85
299.445	103
299.675	86
299.905	76
300.136	88
300.366	87
300.597	104
300.827	99
301.057	109
301.288	115
301.518	93
301.748	92
301.979	102
302.209	98
302.439	85
302.669	93
302.9	91
303.13	97
303.36	93
303.59	100
303.82	98
304.051	79
304.281	84
304.511	92
304.741	92
304.971	101
305.201	92
305.431	95
305.661	87
305.891	113
306.121	93
306.352	99
306.582	109
306.812	114
307.042	112
307.272	100
307.502	108
307.731	90
307.961	96
308.191	84
308.421	99
308.651	87
308.881	96
309.111	103
309.341	113
309.571	101
309.8	107
310.03	94
310.26	99
310.49	92
310.72	100
310.949	107
311.179	108
311.409	104
311.639	100
311.868	96
312.098	99
312.328	104
312.557	97
312.787	103
313.017	102
313.246	103
313.476	86
313.706	84
313.935	98
314.165	107
314.394	108
314.624	97
314.853	83
315.083	101
315.312	88
315.542	76
315.771	83
316.001	88
316.23	97
316.46	92
316.689	90
316.919	91
317.148	99
317.377	98
317.607	96
317.836	98
318.065	94
318.295	86
318.524	100
318.753	105
318.983	107
319.212	105
319.441	102
319.67	104
319.9	98
320.129	81
320.358	84
320.587	100
320.816	112
321.046	87
321.275	102
321.504	111
321.733	99
321.962	106
322.191	97
322.42	106
322.649	132
322.878	102
323.108	115
323.337	118
323.566	124
323.795	127
324.024	187
324.253	336
324.482	726
324.71	1430
324.939	1839
325.168	678
325.397	222
325.626	144
325.855	122
326.084	127
326.313	134
326.542	151
326.77	216
326.999	397
327.228	779
327.457	1443
327.686	1131
327.914	316
328.143	191
328.372	152
328.6	121
328.829	118
329.058	129
329.287	115
329.515	100
329.744	108
329.972	98
330.201	112
330.43	123
330.658	118
330.887	113
331.115	119
331.344	93
331.572	95
331.801	104
332.03	102
332.258	86
332.486	101
332.715	90
332.943	100
333.172	88
333.4	88
333.629	97
333.857	114
334.085	101
334.314	95
334.542	112
334.771	111
334.999	107
335.227	92
335.455	96
335.684	93
335.912	102
336.14	101
336.369	104
336.597	94
336.825	89
337.053	105
337.281	92
337.51	101
337.738	94
337.966	104
338.194	108
338.422	92
338.65	90
338.878	101
339.106	88
339.334	99
339.562	98
339.79	94
340.018	101
340.246	94
340.474	78
340.702	89
340.93	103
341.158	99
341.386	107
341.614	109
341.842	91
342.07	86
342.298	91
342.526	95
342.754	94
342.981	92
343.209	86
343.437	105
343.665	83
343.893	87
344.12	93
344.348	75
344.576	96
344.804	108
345.031	110
345.259	104
345.487	95
345.714	102
345.942	83
346.17	100
346.397	95
346.625	83
346.853	90
347.08	93
347.308	86
347.535	109
347.763	91
347.99	86
348.218	86
348.445	106
348.673	103
348.9	109
349.128	101
349.355	96
349.583	95
349.81	90
350.037	86
350.265	113
350.492	82
350.72	97
350.947	116
351.174	107
351.402	100
351.629	95
351.856	100
352.083	93
352.311	99
352.538	119
352.765	113
352.992	126
353.22	123
353.447	118
353.674	116
353.901	98
354.128	97
354.355	98
354.583	100
354.81	86
355.037	99
355.264	104
355.491	85
355.718	90
355.945	108
356.172	92
356.399	94
356.626	98
356.853	88
357.08	106
357.307	89
357.534	99
357.761	105
357.988	95
358.215	91
358.441	95
358.668	95
358.895	101
359.122	98
359.349	95
359.576	91
359.802	85
360.029	107
360.256	110
360.483	85
360.709	103
360.936	93
361.163	83
361.39	101
361.616	92
361.843	98
362.07	87
362.296	103
362.523	84
362.749	102
362.976	84
363.203	102
363.429	83
363.656	94
363.882	86
364.109	93
364.335	107
364.562	95
364.788	89
365.015	86
365.241	93
365.468	112
365.694	113
365.92	100
366.147	90
366.373	84
366.599	87
366.826	77
367.052	94
367.278	99
367.505	85
367.731	99
367.957	71
368.184	83
368.41	97
368.636	102
368.862	108
369.089	108
369.315	80
369.541	96
369.767	93
369.993	98
370.219	93
370.445	89
370.672	95
370.898	86
371.124	95
371.35	73
371.576	94
371.802	91
372.028	83
372.254	104
372.48	87
372.706	87
372.932	100
373.158	99
373.384	95
373.61	86
373.835	85
374.061	92
374.287	89
374.513	88
374.739	96
374.965	93
375.191	88
375.416	101
375.642	106
375.868	101
376.094	88
376.319	88
376.545	84
376.771	87
376.997	87
377.222	88
377.448	83
377.674	87
377.899	94
378.125	70
378.35	90
378.576	98
378.802	93
379.027	90
379.253	100
379.478	94
379.704	102
379.929	98
380.155	91
380.38	103
380.606	105
380.831	99
381.057	99
381.282	94
381.507	101
381.733	91
381.958	102
382.184	92
382.409	100
382.634	96
382.86	102
383.085	119
383.31	103
383.535	89
383.761	102
383.986	103
384.211	84
384.436	88
384.662	102
384.887	100
385.112	101
385.337	95
385.562	110
385.787	113
386.013	111
386.238	104
386.463	114
386.688	113
386.913	91
387.138	102
387.363	99
387.588	110
387.813	109
388.038	105
388.263	119
388.488	111
388.713	104
388.938	103
389.163	102
389.387	108
389.612	90
389.837	92
390.062	89
390.287	102
390.512	91
390.736	94
390.961	93
391.186	102
391.411	94
391.636	87
391.86	93
392.085	95
392.31	95
392.534	101
392.759	88
392.984	89
393.208	76
393.433	107
393.658	88
393.882	88
394.107	96
394.331	78
394.556	96
394.78	95
395.005	90
395.229	96
395.454	82
395.678	87
395.903	94
396.127	91
396.352	85
396.576	92
396.801	99
397.025	86
397.249	75
397.474	93
397.698	93
397.922	87
398.147	98
398.371	90
398.595	90
398.82	94
399.044	85
399.268	93
399.492	81
399.717	88
399.941	97
400.165	94
400.389	92
400.613	103
400.837	105
401.062	100
401.286	90
401.51	87
401.734	88
401.958	102
402.182	114
402.406	146
402.63	109
402.854	103
403.078	88
403.302	83
403.526	91
403.75	99
403.974	91
404.198	79
404.422	84
404.645	101
404.869	87
405.093	110
405.317	90
405.541	102
405.765	100
405.988	106
406.212	141
406.436	183
406.66	127
406.883	99
407.107	89
407.331	91
407.555	84
407.778	78
408.002	90
408.226	104
408.449	74
408.673	93
408.896	89
409.12	101
409.344	103
409.567	100
409.791	95
410.014	90
410.238	86
410.461	96
410.685	105
410.908	95
411.132	112
411.355	100
411.578	74
411.802	88
412.025	107
412.249	86
412.472	93
412.695	95
412.919	82
413.142	87
413.365	79
413.589	86
413.812	88
414.035	94
414.258	84
414.482	110
414.705	98
414.928	87
415.151	93
415.374	100
415.597	94
415.821	93
416.044	94
416.267	93
416.49	94
416.713	90
416.936	94
417.159	89
417.382	99
417.605	81
417.828	91
418.051	100
418.274	99
418.497	94
418.72	98
418.943	92
419.166	101
419.389	94
419.611	82
419.834	93
420.057	83
420.28	95
420.503	79
420.726	80
420.948	92
421.171	99
421.394	103
421.617	85
421.839	91
422.062	102
422.285	97
422.507	107
422.73	103
422.953	94
423.175	91
423.398	106
423.621	82
423.843	86
424.066	72
424.288	100
424.511	79
424.733	94
424.956	81
425.178	85
425.401	108
425.623	100
425.846	105
426.068	93
426.291	96
426.513	85
426.735	82
426.958	81
427.18	108
427.402	136
427.625	159
427.847	116
428.069	96
428.292	85
428.514	90
428.736	90
428.958	91
429.181	82
429.403	88
429.625	85
429.847	94
430.069	100
430.292	105
430.514	82
430.736	86
430.958	75
431.18	81
431.402	81
431.624	81
431.846	88
432.068	92
432.29	85
432.512	77
432.734	82
432.956	92
433.178	97
433.4	111
433.622	87
433.844	91
434.066	97
434.287	86
434.509	102
434.731	78
434.953	91
435.175	90
435.397	92
435.618	85
435.84	112
436.062	111
436.284	130
436.505	103
436.727	99
436.949	99
437.17	91
437.392	80
437.614	93
437.835	100
438.057	115
438.278	107
438.5	109
438.721	108
438.943	96
439.165	88
439.386	72
439.608	93
439.829	96
440.05	115
440.272	121
440.493	106
440.715	78
440.936	90
441.158	83
441.379	105
441.6	98
441.822	107
442.043	78
442.264	114
442.486	100
442.707	95
442.928	107
443.149	143
443.371	114
443.592	110
443.813	111
444.034	106
444.255	96
444.476	75
444.698	84
444.919	86
445.14	130
445.361	119
445.582	98
445.803	118
446.024	122
446.245	117
446.466	113
446.687	87
446.908	91
447.129	74
447.35	78
447.571	87
447.792	87
448.013	96
448.234	100
448.455	98
448.675	102
448.896	110
449.117	103
449.338	98
449.559	112
449.779	117
450	110
450.221	85
450.442	92
450.662	93
450.883	96
451.104	99
451.324	94
451.545	103
451.766	85
451.986	94
452.207	92
452.428	84
452.648	101
452.869	109
453.089	109
453.31	109
453.53	92
453.751	86
453.971	96
454.192	102
454.412	87
454.633	96
454.853	81
455.073	96
455.294	85
455.514	115
455.734	95
455.955	110
456.175	89
456.395	88
456.616	80
456.836	86
457.056	85
457.276	88
457.497	98
457.717	74
457.937	82
458.157	99
458.377	99
458.598	113
458.818	140
459.038	133
459.258	117
459.478	95
459.698	90
459.918	82
460.138	93
460.358	90
460.578	93
460.798	103
461.018	94
461.238	96
461.458	76
461.678	60
461.898	79
462.118	81
462.338	93
462.558	65
462.777	96
462.997	86
463.217	78
463.437	88
463.657	91
463.876	95
464.096	85
464.316	103
464.536	80
464.755	92
464.975	109
465.195	138
465.414	140
465.634	98
465.854	86
466.073	84
466.293	109
466.512	95
466.732	90
466.951	87
467.171	91
467.391	92
467.61	92
467.829	97
468.049	99
468.268	92
468.488	89
468.707	90
468.927	91
469.146	83
469.365	93
469.585	74
469.804	90
470.023	84
470.243	98
470.462	107
470.681	103
470.901	99
471.12	96
471.339	93
471.558	92
471.777	90
471.997	86
472.216	75
472.435	121
472.654	90
472.873	88
473.092	71
473.311	90
473.53	84
473.749	73
473.968	95
474.187	104
474.406	101
474.625	92
474.844	91
475.063	95
475.282	91
475.501	101
475.72	77
475.939	93
476.158	70
476.377	82
476.596	95
476.814	87
477.033	88
477.252	93
477.471	84
477.69	84
477.908	85
478.127	97
478.346	87
478.564	83
478.783	102
479.002	89
479.22	89
479.439	97
479.658	102
479.876	98
480.095	82
480.313	82
480.532	90
480.751	88
480.969	111
481.188	127
481.406	108
481.624	100
481.843	88
482.061	96
482.28	86
482.498	88
482.717	82
482.935	102
483.153	100
483.372	92
483.59	95
483.808	94
484.027	101
484.245	95
484.463	85
484.681	96
484.9	90
485.118	94
485.336	97
485.554	98
485.772	120
485.99	103
486.209	107
486.427	98
486.645	106
486.863	96
487.081	106
487.299	98
487.517	107
487.735	99
487.953	93
488.171	92
488.389	93
488.607	103
488.825	95
489.043	90
489.261	94
489.479	90
489.696	86
489.914	96
490.132	94
490.35	98
490.568	92
490.786	95
491.003	100
491.221	90
491.439	91
491.657	88
491.874	94
492.092	84
492.31	74
492.527	90
492.745	96
492.963	97
493.18	90
493.398	91
493.615	92
493.833	103
494.05	82
494.268	76
494.485	80
494.703	93
494.92	104
495.138	95
495.355	86
495.573	95
495.79	84
496.008	99
496.225	98
496.442	94
496.66	98
496.877	88
497.094	102
497.312	89
497.529	87
497.746	89
497.963	100
498.181	90
498.398	86
498.615	117
498.832	94
499.049	84
499.267	98
499.484	111
499.701	88
499.918	88
500.135	79
500.352	96
500.569	90
500.786	86
501.003	87
501.22	97
501.437	104
501.654	90
501.871	100
502.088	98
502.305	104
502.522	105
502.739	89
502.956	91
503.172	90
503.389	95
503.606	99
503.823	95
504.04	93
504.256	89
504.473	82
504.69	84
504.907	85
505.123	94
505.34	82
505.557	82
505.773	91
505.99	91
506.207	96
506.423	90
506.64	86
506.856	102
507.073	78
507.289	87
507.506	103
507.722	120
507.939	115
508.155	97
508.372	94
508.588	91
508.805	103
509.021	95
509.238	114
509.454	96
509.67	86
509.887	104
510.103	117
510.319	190
510.536	673
510.752	2094
510.968	574
511.184	156
511.401	99
511.617	110
511.833	87
512.049	88
512.265	94
512.481	82
512.698	81
512.914	93
513.13	85
513.346	91
513.562	96
513.778	93
513.994	102
514.21	94
514.426	98
514.642	117
514.858	110
515.074	146
515.29	378
515.506	1169
515.721	442
515.937	138
516.153	99
516.369	86
516.585	88
516.801	103
517.016	102
517.232	106
517.448	104
517.664	104
517.879	91
518.095	100
518.311	114
518.527	84
518.742	97
518.958	92
519.173	96
519.389	91
519.605	102
519.82	98
520.036	86
520.251	106
520.467	114
520.682	104
520.898	97
521.113	106
521.329	122
521.544	187
521.76	463
521.975	1935
522.19	1141
522.406	260
522.621	96
522.836	88
523.052	91
523.267	101
523.482	99
523.698	112
523.913	104
524.128	102
524.343	94
524.559	94
524.774	101
524.989	86
525.204	84
525.419	89
525.634	75
525.849	76
526.064	80
526.28	91
526.495	83
526.71	98
526.925	92
527.14	93
527.355	94
527.57	100
527.785	91
527.999	90
528.214	95
528.429	91
528.644	96
528.859	96
529.074	106
529.289	98
529.503	162
529.718	106
529.933	99
530.148	91
530.363	87
530.577	86
530.792	90
531.007	90
531.221	91
531.436	81
531.651	85
531.865	97
532.08	115
532.295	105
532.509	103
532.724	95
532.938	77
533.153	101
533.367	87
533.582	108
533.796	91
534.011	93
534.225	79
534.44	83
534.654	101
534.868	91
535.083	94
535.297	87
535.511	104
535.726	94
535.94	94
536.154	83
536.369	86
536.583	93
536.797	86
537.011	91
537.225	95
537.44	88
537.654	97
537.868	82
538.082	93
538.296	74
538.51	88
538.724	92
538.938	85
539.153	108
539.367	94
539.581	99
539.795	97
540.009	96
540.222	102
540.436	106
540.65	100
540.864	91
541.078	75
541.292	95
541.506	95
541.72	89
541.934	96
542.147	83
542.361	90
542.575	84
542.789	96
543.002	84
543.216	97
543.43	95
543.644	93
543.857	89
544.071	76
544.285	96
544.498	95
544.712	88
544.925	87
545.139	95
545.352	79
545.566	91
545.779	90
545.993	95
546.206	89
546.42	98
546.633	80
546.847	88
547.06	84
547.274	93
547.487	94
547.7	93
547.914	95
548.127	92
548.34	95
548.554	89
548.767	92
548.98	103
549.193	88
549.407	78
549.62	88
549.833	84
550.046	92
550.259	88
550.473	86
550.686	99
550.899	83
551.112	82
551.325	102
551.538	87
551.751	91
551.964	91
552.177	84
552.39	98
552.603	79
552.816	89
553.029	86
553.242	85
553.455	109
553.667	99
553.88	90
554.093	82
554.306	93
554.519	88
554.732	94
554.944	83
555.157	88
555.37	82
555.583	89
555.795	95
556.008	85
556.221	88
556.433	94
556.646	85
556.859	99
557.071	102
557.284	100
557.496	105
557.709	86
557.921	83
558.134	85
558.346	95
558.559	98
558.771	66
558.984	91
559.196	97
559.409	92
559.621	86
559.833	106
560.046	99
560.258	95
560.47	85
560.683	92
560.895	101
561.107	85
561.32	81
561.532	103
561.744	89
561.956	95
562.168	74
562.381	94
562.593	91
562.805	85
563.017	93
563.229	98
563.441	101
563.653	84
563.865	93
564.077	98
564.289	84
564.501	87
564.713	95
564.925	115
565.137	105
565.349	90
565.561	70
565.773	80
565.985	87
566.197	88
566.408	83
566.62	108
566.832	90
567.044	83
567.255	96
567.467	99
567.679	95
567.891	98
568.102	88
568.314	89
568.526	103
568.737	95
568.949	93
569.161	92
569.372	83
569.584	92
569.795	90
570.007	111
570.218	216
570.43	123
570.641	88
570.853	87
571.064	93
571.276	71
571.487	80
571.698	89
571.91	78
572.121	86
572.333	95
572.544	96
572.755	86
572.966	90
573.178	97
573.389	93
573.6	90
573.811	88
574.023	82
574.234	95
574.445	95
574.656	79
574.867	97
575.078	87
575.289	88
575.501	103
575.712	95
575.923	110
576.134	93
576.345	90
576.556	85
576.767	103
576.978	87
577.188	95
577.399	87
577.61	81
577.821	102
578.032	112
578.243	251
578.454	632
578.665	202
578.875	89
579.086	90
579.297	97
579.508	107
579.718	98
579.929	103
580.14	82
580.35	93
580.561	88
580.772	105
580.982	101
581.193	90
581.403	92
581.614	84
581.825	87
582.035	91
582.246	87
582.456	82
582.667	88
582.877	86
583.087	92
583.298	92
583.508	88
