Data from Circ_1994_H10_HRD10591_00096.txt Node
Date: Wed Jan 03 11:40:49 EST 2024
User: Yrep
Spectrometer: HR+D1059
Trigger mode: 1
Integration Time (sec): 1.000000E-1
Scans to average: 1
Electric dark correction enabled: true
Nonlinearity correction enabled: false
Boxcar width: 0
XAxis mode: Wavelengths
Number of Pixels in Spectrum: 2048
>>>>>Begin Spectral Data<<<<<
223.165	-25.56
223.4	-25.56
223.635	-25.56
223.869	-8.56
224.104	-19.56
224.338	-12.56
224.573	-28.56
224.808	-7.56
225.042	-7.56
225.277	-2.56
225.511	22.44
225.746	-4.56
225.98	1.44
226.215	18.44
226.449	12.44
226.683	20.44
226.918	17.44
227.152	24.44
227.387	33.44
227.621	42.44
227.856	26.44
228.09	46.44
228.324	45.44
228.559	51.44
228.793	45.44
229.027	64.44
229.262	73.44
229.496	73.44
229.73	69.44
229.964	73.44
230.199	63.44
230.433	79.44
230.667	92.44
230.901	86.44
231.136	82.44
231.37	71.44
231.604	66.44
231.838	64.44
232.072	74.44
232.306	71.44
232.541	92.44
232.775	89.44
233.009	80.44
233.243	77.44
233.477	73.44
233.711	69.44
233.945	97.44
234.179	75.44
234.413	73.44
234.647	75.44
234.881	82.44
235.115	63.44
235.349	63.44
235.583	77.44
235.817	73.44
236.051	81.44
236.285	69.44
236.519	75.44
236.753	82.44
236.987	85.44
237.221	63.44
237.455	77.44
237.689	76.44
237.922	81.44
238.156	62.44
238.39	75.44
238.624	70.44
238.858	78.44
239.091	71.44
239.325	75.44
239.559	80.44
239.793	76.44
240.027	66.44
240.26	70.44
240.494	81.44
240.728	75.44
240.961	77.44
241.195	71.44
241.429	73.44
241.662	78.44
241.896	87.44
242.13	77.44
242.363	78.44
242.597	79.44
242.83	63.44
243.064	70.44
243.298	71.44
243.531	77.44
243.765	73.44
243.998	74.44
244.232	88.44
244.465	89.44
244.699	79.44
244.932	70.44
245.166	70.44
245.399	73.44
245.633	79.44
245.866	74.44
246.099	90.44
246.333	90.44
246.566	89.44
246.8	62.44
247.033	63.44
247.266	70.44
247.5	81.44
247.733	73.44
247.966	74.44
248.2	88.44
248.433	71.44
248.666	73.44
248.899	74.44
249.133	86.44
249.366	77.44
249.599	88.44
249.832	84.44
250.066	89.44
250.299	69.44
250.532	75.44
250.765	81.44
250.998	83.44
251.231	69.44
251.465	62.44
251.698	83.44
251.931	87.44
252.164	98.44
252.397	89.44
252.63	71.44
252.863	60.44
253.096	61.44
253.329	81.44
253.562	76.44
253.795	80.44
254.028	86.44
254.261	86.44
254.494	72.44
254.727	77.44
254.96	64.44
255.193	59.44
255.426	90.44
255.659	65.44
255.892	86.44
256.124	72.44
256.357	68.44
256.59	84.44
256.823	70.44
257.056	83.44
257.289	86.44
257.521	80.44
257.754	87.44
257.987	81.44
258.22	78.44
258.452	76.44
258.685	70.44
258.918	70.44
259.151	76.44
259.383	77.44
259.616	74.44
259.849	71.44
260.081	82.44
260.314	83.44
260.547	74.44
260.779	80.44
261.012	89.44
261.244	66.44
261.477	85.44
261.71	69.44
261.942	99.44
262.175	113.44
262.407	96.44
262.64	80.44
262.872	87.44
263.105	89.44
263.337	86.44
263.57	88.44
263.802	94.44
264.035	80.44
264.267	71.44
264.499	90.44
264.732	88.44
264.964	87.44
265.197	88.44
265.429	85.44
265.661	66.44
265.894	89.44
266.126	86.44
266.358	83.44
266.591	83.44
266.823	86.44
267.055	58.44
267.287	87.44
267.52	73.44
267.752	82.44
267.984	67.44
268.216	89.44
268.448	79.44
268.681	81.44
268.913	88.44
269.145	84.44
269.377	74.44
269.609	69.44
269.841	89.44
270.073	72.44
270.306	73.44
270.538	89.44
270.77	69.44
271.002	94.44
271.234	78.44
271.466	82.44
271.698	86.44
271.93	87.44
272.162	87.44
272.394	78.44
272.626	70.44
272.858	69.44
273.09	90.44
273.322	89.44
273.553	94.44
273.785	85.44
274.017	85.44
274.249	79.44
274.481	82.44
274.713	80.44
274.945	91.44
275.176	94.44
275.408	80.44
275.64	87.44
275.872	77.44
276.104	84.44
276.335	88.44
276.567	94.44
276.799	95.44
277.031	89.44
277.262	94.44
277.494	93.44
277.726	86.44
277.957	85.44
278.189	78.44
278.421	71.44
278.652	85.44
278.884	88.44
279.115	75.44
279.347	87.44
279.579	83.44
279.81	102.44
280.042	95.44
280.273	95.44
280.505	89.44
280.736	88.44
280.968	92.44
281.199	85.44
281.431	90.44
281.662	80.44
281.894	89.44
282.125	99.44
282.356	115.44
282.588	132.44
282.819	116.44
283.051	93.44
283.282	92.44
283.513	89.44
283.745	81.44
283.976	91.44
284.207	82.44
284.439	95.44
284.67	81.44
284.901	89.44
285.132	87.44
285.364	86.44
285.595	90.44
285.826	76.44
286.057	75.44
286.288	83.44
286.52	76.44
286.751	92.44
286.982	86.44
287.213	94.44
287.444	94.44
287.675	97.44
287.906	100.44
288.138	90.44
288.369	79.44
288.6	89.44
288.831	91.44
289.062	96.44
289.293	81.44
289.524	78.44
289.755	99.44
289.986	85.44
290.217	87.44
290.448	90.44
290.679	79.44
290.91	85.44
291.141	87.44
291.371	75.44
291.602	91.44
291.833	81.44
292.064	75.44
292.295	88.44
292.526	100.44
292.757	79.44
292.987	81.44
293.218	77.44
293.449	76.44
293.68	82.44
293.91	75.44
294.141	81.44
294.372	77.44
294.603	80.44
294.833	79.44
295.064	78.44
295.295	85.44
295.525	73.44
295.756	86.44
295.987	111.44
296.217	136.44
296.448	105.44
296.679	86.44
296.909	102.44
297.14	98.44
297.37	104.44
297.601	97.44
297.831	84.44
298.062	85.44
298.292	79.44
298.523	85.44
298.753	89.44
298.984	77.44
299.214	102.44
299.445	103.44
299.675	88.44
299.905	86.44
300.136	77.44
300.366	93.44
300.597	88.44
300.827	85.44
301.057	102.44
301.288	107.44
301.518	83.44
301.748	88.44
301.979	112.44
302.209	89.44
302.439	75.44
302.669	81.44
302.9	81.44
303.13	80.44
303.36	109.44
303.59	102.44
303.82	85.44
304.051	92.44
304.281	89.44
304.511	77.44
304.741	94.44
304.971	79.44
305.201	88.44
305.431	84.44
305.661	78.44
305.891	80.44
306.121	105.44
306.352	105.44
306.582	98.44
306.812	93.44
307.042	93.44
307.272	106.44
307.502	97.44
307.731	87.44
307.961	91.44
308.191	96.44
308.421	81.44
308.651	102.44
308.881	83.44
309.111	87.44
309.341	90.44
309.571	90.44
309.8	81.44
310.03	89.44
310.26	80.44
310.49	94.44
310.72	86.44
310.949	93.44
311.179	90.44
311.409	90.44
311.639	94.44
311.868	103.44
312.098	94.44
312.328	93.44
312.557	105.44
312.787	105.44
313.017	96.44
313.246	87.44
313.476	96.44
313.706	93.44
313.935	94.44
314.165	91.44
314.394	79.44
314.624	95.44
314.853	83.44
315.083	93.44
315.312	91.44
315.542	110.44
315.771	90.44
316.001	89.44
316.23	80.44
316.46	83.44
316.689	87.44
316.919	77.44
317.148	92.44
317.377	100.44
317.607	88.44
317.836	89.44
318.065	79.44
318.295	87.44
318.524	80.44
318.753	75.44
318.983	82.44
319.212	94.44
319.441	100.44
319.67	107.44
319.9	96.44
320.129	88.44
320.358	83.44
320.587	88.44
320.816	98.44
321.046	97.44
321.275	97.44
321.504	82.44
321.733	110.44
321.962	90.44
322.191	94.44
322.42	102.44
322.649	94.44
322.878	100.44
323.108	111.44
323.337	105.44
323.566	118.44
323.795	134.44
324.024	191.44
324.253	349.44
324.482	680.44
324.71	1395.44
324.939	1814.44
325.168	701.44
325.397	226.44
325.626	142.44
325.855	111.44
326.084	122.44
326.313	125.44
326.542	138.44
326.77	199.44
326.999	401.44
327.228	789.44
327.457	1429.44
327.686	1132.44
327.914	302.44
328.143	202.44
328.372	159.44
328.6	120.44
328.829	101.44
329.058	123.44
329.287	113.44
329.515	100.44
329.744	107.44
329.972	118.44
330.201	159.44
330.43	185.44
330.658	139.44
330.887	141.44
331.115	106.44
331.344	115.44
331.572	91.44
331.801	80.44
332.03	100.44
332.258	93.44
332.486	88.44
332.715	85.44
332.943	94.44
333.172	98.44
333.4	90.44
333.629	93.44
333.857	121.44
334.085	128.44
334.314	164.44
334.542	227.44
334.771	224.44
334.999	113.44
335.227	110.44
335.455	80.44
335.684	96.44
335.912	111.44
336.14	95.44
336.369	96.44
336.597	96.44
336.825	91.44
337.053	83.44
337.281	80.44
337.51	81.44
337.738	81.44
337.966	88.44
338.194	89.44
338.422	73.44
338.65	88.44
338.878	99.44
339.106	90.44
339.334	93.44
339.562	91.44
339.79	80.44
340.018	75.44
340.246	79.44
340.474	80.44
340.702	79.44
340.93	82.44
341.158	88.44
341.386	94.44
341.614	105.44
341.842	111.44
342.07	92.44
342.298	87.44
342.526	84.44
342.754	93.44
342.981	92.44
343.209	76.44
343.437	98.44
343.665	99.44
343.893	82.44
344.12	90.44
344.348	89.44
344.576	97.44
344.804	97.44
345.031	98.44
345.259	100.44
345.487	101.44
345.714	94.44
345.942	95.44
346.17	89.44
346.397	86.44
346.625	81.44
346.853	81.44
347.08	97.44
347.308	98.44
347.535	74.44
347.763	98.44
347.99	79.44
348.218	90.44
348.445	93.44
348.673	96.44
348.9	102.44
349.128	104.44
349.355	105.44
349.583	84.44
349.81	103.44
350.037	91.44
350.265	91.44
350.492	97.44
350.72	92.44
350.947	104.44
351.174	104.44
351.402	97.44
351.629	103.44
351.856	96.44
352.083	80.44
352.311	88.44
352.538	104.44
352.765	102.44
352.992	90.44
353.22	107.44
353.447	97.44
353.674	107.44
353.901	109.44
354.128	102.44
354.355	74.44
354.583	83.44
354.81	90.44
355.037	83.44
355.264	93.44
355.491	95.44
355.718	94.44
355.945	80.44
356.172	83.44
356.399	80.44
356.626	86.44
356.853	75.44
357.08	85.44
357.307	87.44
357.534	88.44
357.761	89.44
357.988	94.44
358.215	88.44
358.441	88.44
358.668	72.44
358.895	83.44
359.122	91.44
359.349	87.44
359.576	87.44
359.802	93.44
360.029	107.44
360.256	94.44
360.483	80.44
360.709	85.44
360.936	101.44
361.163	82.44
361.39	94.44
361.616	93.44
361.843	87.44
362.07	83.44
362.296	90.44
362.523	92.44
362.749	94.44
362.976	87.44
363.203	89.44
363.429	82.44
363.656	90.44
363.882	87.44
364.109	84.44
364.335	96.44
364.562	97.44
364.788	99.44
365.015	101.44
365.241	102.44
365.468	101.44
365.694	102.44
365.92	83.44
366.147	81.44
366.373	73.44
366.599	78.44
366.826	80.44
367.052	70.44
367.278	86.44
367.505	79.44
367.731	95.44
367.957	91.44
368.184	85.44
368.41	93.44
368.636	116.44
368.862	118.44
369.089	99.44
369.315	88.44
369.541	81.44
369.767	65.44
369.993	91.44
370.219	72.44
370.445	71.44
370.672	83.44
370.898	92.44
371.124	84.44
371.35	86.44
371.576	79.44
371.802	94.44
372.028	85.44
372.254	83.44
372.48	82.44
372.706	88.44
372.932	77.44
373.158	85.44
373.384	92.44
373.61	84.44
373.835	73.44
374.061	85.44
374.287	90.44
374.513	90.44
374.739	85.44
374.965	87.44
375.191	92.44
375.416	97.44
375.642	90.44
375.868	93.44
376.094	90.44
376.319	91.44
376.545	86.44
376.771	80.44
376.997	92.44
377.222	97.44
377.448	85.44
377.674	99.44
377.899	97.44
378.125	96.44
378.35	96.44
378.576	86.44
378.802	83.44
379.027	79.44
379.253	91.44
379.478	81.44
379.704	87.44
379.929	86.44
380.155	86.44
380.38	85.44
380.606	79.44
380.831	87.44
381.057	90.44
381.282	81.44
381.507	111.44
381.733	81.44
381.958	89.44
382.184	98.44
382.409	100.44
382.634	102.44
382.86	85.44
383.085	93.44
383.31	85.44
383.535	96.44
383.761	92.44
383.986	80.44
384.211	107.44
384.436	91.44
384.662	92.44
384.887	74.44
385.112	83.44
385.337	105.44
385.562	80.44
385.787	100.44
386.013	82.44
386.238	97.44
386.463	105.44
386.688	96.44
386.913	108.44
387.138	85.44
387.363	92.44
387.588	98.44
387.813	88.44
388.038	83.44
388.263	107.44
388.488	92.44
388.713	90.44
388.938	91.44
389.163	88.44
389.387	87.44
389.612	91.44
389.837	92.44
390.062	85.44
390.287	83.44
390.512	101.44
390.736	93.44
390.961	99.44
391.186	83.44
391.411	88.44
391.636	99.44
391.86	86.44
392.085	79.44
392.31	73.44
392.534	86.44
392.759	83.44
392.984	81.44
393.208	84.44
393.433	83.44
393.658	83.44
393.882	82.44
394.107	88.44
394.331	66.44
394.556	76.44
394.78	71.44
395.005	77.44
395.229	81.44
395.454	82.44
395.678	85.44
395.903	89.44
396.127	92.44
396.352	77.44
396.576	89.44
396.801	95.44
397.025	94.44
397.249	72.44
397.474	82.44
397.698	67.44
397.922	81.44
398.147	97.44
398.371	92.44
398.595	85.44
398.82	82.44
399.044	82.44
399.268	90.44
399.492	72.44
399.717	80.44
399.941	91.44
400.165	85.44
400.389	88.44
400.613	87.44
400.837	87.44
401.062	88.44
401.286	81.44
401.51	76.44
401.734	73.44
401.958	83.44
402.182	110.44
402.406	138.44
402.63	110.44
402.854	77.44
403.078	80.44
403.302	102.44
403.526	79.44
403.75	82.44
403.974	86.44
404.198	88.44
404.422	85.44
404.645	86.44
404.869	67.44
405.093	95.44
405.317	91.44
405.541	104.44
405.765	93.44
405.988	119.44
406.212	147.44
406.436	199.44
406.66	119.44
406.883	95.44
407.107	87.44
407.331	91.44
407.555	98.44
407.778	91.44
408.002	95.44
408.226	83.44
408.449	80.44
408.673	88.44
408.896	83.44
409.12	81.44
409.344	78.44
409.567	92.44
409.791	87.44
410.014	91.44
410.238	82.44
410.461	72.44
410.685	84.44
410.908	89.44
411.132	97.44
411.355	84.44
411.578	91.44
411.802	95.44
412.025	94.44
412.249	83.44
412.472	86.44
412.695	73.44
412.919	83.44
413.142	86.44
413.365	69.44
413.589	73.44
413.812	96.44
414.035	96.44
414.258	96.44
414.482	95.44
414.705	79.44
414.928	90.44
415.151	90.44
415.374	80.44
415.597	87.44
415.821	80.44
416.044	88.44
416.267	90.44
416.49	93.44
416.713	98.44
416.936	93.44
417.159	77.44
417.382	86.44
417.605	89.44
417.828	96.44
418.051	88.44
418.274	92.44
418.497	89.44
418.72	87.44
418.943	101.44
419.166	93.44
419.389	80.44
419.611	99.44
419.834	84.44
420.057	78.44
420.28	78.44
420.503	86.44
420.726	82.44
420.948	81.44
421.171	88.44
421.394	87.44
421.617	93.44
421.839	93.44
422.062	88.44
422.285	90.44
422.507	99.44
422.73	83.44
422.953	89.44
423.175	90.44
423.398	82.44
423.621	82.44
423.843	89.44
424.066	91.44
424.288	95.44
424.511	93.44
424.733	89.44
424.956	108.44
425.178	82.44
425.401	94.44
425.623	86.44
425.846	85.44
426.068	81.44
426.291	95.44
426.513	74.44
426.735	88.44
426.958	82.44
427.18	104.44
427.402	137.44
427.625	150.44
427.847	131.44
428.069	112.44
428.292	81.44
428.514	78.44
428.736	77.44
428.958	67.44
429.181	89.44
429.403	99.44
429.625	90.44
429.847	85.44
430.069	71.44
430.292	92.44
430.514	80.44
430.736	74.44
430.958	79.44
431.18	85.44
431.402	76.44
431.624	79.44
431.846	87.44
432.068	93.44
432.29	66.44
432.512	82.44
432.734	80.44
432.956	79.44
433.178	93.44
433.4	94.44
433.622	85.44
433.844	85.44
434.066	93.44
434.287	89.44
434.509	90.44
434.731	88.44
434.953	82.44
435.175	81.44
435.397	87.44
435.618	90.44
435.84	80.44
436.062	113.44
436.284	109.44
436.505	86.44
436.727	110.44
436.949	87.44
437.17	88.44
437.392	94.44
437.614	88.44
437.835	98.44
438.057	107.44
438.278	97.44
438.5	105.44
438.721	98.44
438.943	97.44
439.165	90.44
439.386	77.44
439.608	90.44
439.829	92.44
440.05	109.44
440.272	126.44
440.493	105.44
440.715	76.44
440.936	81.44
441.158	80.44
441.379	70.44
441.6	97.44
441.822	94.44
442.043	93.44
442.264	94.44
442.486	82.44
442.707	92.44
442.928	100.44
443.149	125.44
443.371	126.44
443.592	103.44
443.813	88.44
444.034	101.44
444.255	74.44
444.476	73.44
444.698	90.44
444.919	73.44
445.14	118.44
445.361	116.44
445.582	114.44
445.803	124.44
446.024	123.44
446.245	135.44
446.466	98.44
446.687	85.44
446.908	89.44
447.129	95.44
447.35	80.44
447.571	84.44
447.792	75.44
448.013	74.44
448.234	78.44
448.455	91.44
448.675	114.44
448.896	107.44
449.117	93.44
449.338	96.44
449.559	110.44
449.779	124.44
450	90.44
450.221	78.44
450.442	79.44
450.662	97.44
450.883	105.44
451.104	98.44
451.324	101.44
451.545	84.44
451.766	82.44
451.986	77.44
452.207	92.44
452.428	83.44
452.648	88.44
452.869	102.44
453.089	109.44
453.31	106.44
453.53	89.44
453.751	71.44
453.971	96.44
454.192	90.44
454.412	87.44
454.633	82.44
454.853	80.44
455.073	79.44
455.294	89.44
455.514	106.44
455.734	91.44
455.955	75.44
456.175	87.44
456.395	89.44
456.616	86.44
456.836	91.44
457.056	72.44
457.276	64.44
457.497	65.44
457.717	73.44
457.937	83.44
458.157	96.44
458.377	83.44
458.598	87.44
458.818	123.44
459.038	141.44
459.258	109.44
459.478	76.44
459.698	75.44
459.918	71.44
460.138	77.44
460.358	79.44
460.578	88.44
460.798	67.44
461.018	95.44
461.238	77.44
461.458	80.44
461.678	74.44
461.898	85.44
462.118	81.44
462.338	90.44
462.558	79.44
462.777	70.44
462.997	86.44
463.217	90.44
463.437	89.44
463.657	88.44
463.876	66.44
464.096	83.44
464.316	89.44
464.536	84.44
464.755	94.44
464.975	104.44
465.195	147.44
465.414	124.44
465.634	89.44
465.854	67.44
466.073	77.44
466.293	65.44
466.512	83.44
466.732	97.44
466.951	82.44
467.171	96.44
467.391	94.44
467.61	108.44
467.829	111.44
468.049	122.44
468.268	120.44
468.488	89.44
468.707	85.44
468.927	86.44
469.146	74.44
469.365	79.44
469.585	89.44
469.804	97.44
470.023	80.44
470.243	88.44
470.462	88.44
470.681	92.44
470.901	80.44
471.12	79.44
471.339	78.44
471.558	77.44
471.777	83.44
471.997	106.44
472.216	160.44
472.435	293.44
472.654	127.44
472.873	99.44
473.092	90.44
473.311	96.44
473.53	82.44
473.749	94.44
473.968	85.44
474.187	117.44
474.406	82.44
474.625	83.44
474.844	86.44
475.063	87.44
475.282	76.44
475.501	82.44
475.72	94.44
475.939	87.44
476.158	82.44
476.377	79.44
476.596	70.44
476.814	97.44
477.033	94.44
477.252	89.44
477.471	79.44
477.69	79.44
477.908	87.44
478.127	97.44
478.346	79.44
478.564	90.44
478.783	88.44
479.002	85.44
479.22	85.44
479.439	91.44
479.658	105.44
479.876	97.44
480.095	87.44
480.313	94.44
480.532	96.44
480.751	110.44
480.969	189.44
481.188	465.44
481.406	297.44
481.624	113.44
481.843	89.44
482.061	97.44
482.28	89.44
482.498	88.44
482.717	83.44
482.935	87.44
483.153	81.44
483.372	101.44
483.59	96.44
483.808	87.44
484.027	81.44
484.245	98.44
484.463	85.44
484.681	89.44
484.9	83.44
485.118	91.44
485.336	95.44
485.554	93.44
485.772	84.44
485.99	109.44
486.209	103.44
486.427	109.44
486.645	103.44
486.863	100.44
487.081	94.44
487.299	85.44
487.517	85.44
487.735	83.44
487.953	85.44
488.171	89.44
488.389	89.44
488.607	91.44
488.825	87.44
489.043	75.44
489.261	90.44
489.479	92.44
489.696	93.44
489.914	94.44
490.132	77.44
490.35	81.44
490.568	70.44
490.786	89.44
491.003	80.44
491.221	83.44
491.439	79.44
491.657	87.44
491.874	79.44
492.092	87.44
492.31	105.44
492.527	94.44
492.745	86.44
492.963	81.44
493.18	84.44
493.398	92.44
493.615	88.44
493.833	85.44
494.05	77.44
494.268	89.44
494.485	75.44
494.703	73.44
494.92	87.44
495.138	76.44
495.355	91.44
495.573	96.44
495.79	80.44
496.008	79.44
496.225	98.44
496.442	91.44
496.66	82.44
496.877	90.44
497.094	94.44
497.312	78.44
497.529	88.44
497.746	87.44
497.963	96.44
498.181	102.44
498.398	81.44
498.615	113.44
498.832	96.44
499.049	85.44
499.267	82.44
499.484	86.44
499.701	71.44
499.918	94.44
500.135	91.44
500.352	78.44
500.569	88.44
500.786	96.44
501.003	92.44
501.22	75.44
501.437	76.44
501.654	98.44
501.871	99.44
502.088	90.44
502.305	69.44
502.522	82.44
502.739	93.44
502.956	105.44
503.172	97.44
503.389	95.44
503.606	101.44
503.823	93.44
504.04	93.44
504.256	86.44
504.473	82.44
504.69	99.44
504.907	79.44
505.123	79.44
505.34	90.44
505.557	89.44
505.773	90.44
505.99	81.44
506.207	80.44
506.423	75.44
506.64	97.44
506.856	90.44
507.073	83.44
507.289	89.44
507.506	92.44
507.722	105.44
507.939	108.44
508.155	91.44
508.372	87.44
508.588	108.44
508.805	96.44
509.021	86.44
509.238	100.44
509.454	91.44
509.67	103.44
509.887	107.44
510.103	122.44
510.319	202.44
510.536	677.44
510.752	2093.44
510.968	568.44
511.184	137.44
511.401	85.44
511.617	87.44
511.833	96.44
512.049	81.44
512.265	86.44
512.481	89.44
512.698	82.44
512.914	97.44
513.13	90.44
513.346	82.44
513.562	91.44
513.778	101.44
513.994	88.44
514.21	95.44
514.426	117.44
514.642	123.44
514.858	109.44
515.074	141.44
515.29	378.44
515.506	1221.44
515.721	463.44
515.937	131.44
516.153	103.44
516.369	82.44
516.585	68.44
516.801	80.44
517.016	88.44
