Data from Circ_1994_H10_HRD10591_00067.txt Node
Date: Wed Jan 03 11:40:43 EST 2024
User: Yrep
Spectrometer: HR+D1059
Trigger mode: 1
Integration Time (sec): 1.000000E-1
Scans to average: 1
Electric dark correction enabled: true
Nonlinearity correction enabled: false
Boxcar width: 0
XAxis mode: Wavelengths
Number of Pixels in Spectrum: 2048
>>>>>Begin Spectral Data<<<<<
223.165	-21.25
223.4	-21.25
223.635	-21.25
223.869	-15.25
224.104	-29.25
224.338	-8.25
224.573	-15.25
224.808	1.75
225.042	-33.25
225.277	-6.25
225.511	1.75
225.746	2.75
225.98	7.75
226.215	23.75
226.449	10.75
226.683	23.75
226.918	17.75
227.152	38.75
227.387	39.75
227.621	32.75
227.856	33.75
228.09	48.75
228.324	37.75
228.559	55.75
228.793	60.75
229.027	66.75
229.262	76.75
229.496	59.75
229.73	77.75
229.964	66.75
230.199	75.75
230.433	70.75
230.667	78.75
230.901	75.75
231.136	71.75
231.37	68.75
231.604	73.75
231.838	76.75
232.072	91.75
232.306	81.75
232.541	89.75
232.775	85.75
233.009	84.75
233.243	76.75
233.477	86.75
233.711	80.75
233.945	78.75
234.179	65.75
234.413	83.75
234.647	79.75
234.881	78.75
235.115	86.75
235.349	89.75
235.583	75.75
235.817	88.75
236.051	61.75
236.285	73.75
236.519	84.75
236.753	71.75
236.987	63.75
237.221	90.75
237.455	77.75
237.689	72.75
237.922	72.75
238.156	78.75
238.39	81.75
238.624	76.75
238.858	60.75
239.091	81.75
239.325	87.75
239.559	62.75
239.793	80.75
240.027	90.75
240.26	68.75
240.494	71.75
240.728	63.75
240.961	61.75
241.195	72.75
241.429	83.75
241.662	78.75
241.896	78.75
242.13	76.75
242.363	79.75
242.597	76.75
242.83	69.75
243.064	83.75
243.298	57.75
243.531	71.75
243.765	68.75
243.998	81.75
244.232	79.75
244.465	83.75
244.699	77.75
244.932	83.75
245.166	74.75
245.399	77.75
245.633	74.75
245.866	72.75
246.099	67.75
246.333	79.75
246.566	83.75
246.8	83.75
247.033	94.75
247.266	67.75
247.5	64.75
247.733	72.75
247.966	72.75
248.2	79.75
248.433	87.75
248.666	67.75
248.899	79.75
249.133	76.75
249.366	82.75
249.599	96.75
249.832	74.75
250.066	83.75
250.299	65.75
250.532	76.75
250.765	54.75
250.998	80.75
251.231	83.75
251.465	82.75
251.698	75.75
251.931	82.75
252.164	75.75
252.397	73.75
252.63	92.75
252.863	85.75
253.096	75.75
253.329	85.75
253.562	90.75
253.795	78.75
254.028	73.75
254.261	82.75
254.494	73.75
254.727	82.75
254.96	86.75
255.193	80.75
255.426	77.75
255.659	85.75
255.892	85.75
256.124	72.75
256.357	83.75
256.59	73.75
256.823	73.75
257.056	76.75
257.289	86.75
257.521	91.75
257.754	84.75
257.987	80.75
258.22	84.75
258.452	77.75
258.685	84.75
258.918	91.75
259.151	87.75
259.383	77.75
259.616	95.75
259.849	69.75
260.081	82.75
260.314	87.75
260.547	91.75
260.779	85.75
261.012	86.75
261.244	75.75
261.477	83.75
261.71	103.75
261.942	99.75
262.175	102.75
262.407	94.75
262.64	79.75
262.872	98.75
263.105	76.75
263.337	87.75
263.57	86.75
263.802	84.75
264.035	77.75
264.267	65.75
264.499	72.75
264.732	83.75
264.964	74.75
265.197	71.75
265.429	85.75
265.661	87.75
265.894	82.75
266.126	78.75
266.358	76.75
266.591	89.75
266.823	85.75
267.055	80.75
267.287	76.75
267.52	87.75
267.752	77.75
267.984	88.75
268.216	83.75
268.448	84.75
268.681	87.75
268.913	79.75
269.145	88.75
269.377	91.75
269.609	94.75
269.841	82.75
270.073	82.75
270.306	92.75
270.538	79.75
270.77	75.75
271.002	87.75
271.234	72.75
271.466	83.75
271.698	85.75
271.93	83.75
272.162	92.75
272.394	75.75
272.626	75.75
272.858	81.75
273.09	87.75
273.322	84.75
273.553	83.75
273.785	74.75
274.017	92.75
274.249	79.75
274.481	88.75
274.713	82.75
274.945	82.75
275.176	82.75
275.408	92.75
275.64	85.75
275.872	73.75
276.104	92.75
276.335	93.75
276.567	99.75
276.799	105.75
277.031	105.75
277.262	109.75
277.494	88.75
277.726	88.75
277.957	72.75
278.189	74.75
278.421	81.75
278.652	75.75
278.884	100.75
279.115	89.75
279.347	77.75
279.579	86.75
279.81	79.75
280.042	85.75
280.273	101.75
280.505	87.75
280.736	77.75
280.968	102.75
281.199	87.75
281.431	72.75
281.662	83.75
281.894	103.75
282.125	99.75
282.356	122.75
282.588	132.75
282.819	121.75
283.051	97.75
283.282	79.75
283.513	74.75
283.745	89.75
283.976	83.75
284.207	93.75
284.439	91.75
284.67	96.75
284.901	93.75
285.132	87.75
285.364	76.75
285.595	84.75
285.826	95.75
286.057	96.75
286.288	83.75
286.52	94.75
286.751	99.75
286.982	76.75
287.213	89.75
287.444	85.75
287.675	90.75
287.906	73.75
288.138	82.75
288.369	90.75
288.6	100.75
288.831	87.75
289.062	95.75
289.293	84.75
289.524	85.75
289.755	73.75
289.986	80.75
290.217	76.75
290.448	80.75
290.679	90.75
290.91	96.75
291.141	81.75
291.371	80.75
291.602	69.75
291.833	79.75
292.064	80.75
292.295	84.75
292.526	85.75
292.757	86.75
292.987	85.75
293.218	94.75
293.449	82.75
293.68	84.75
293.91	79.75
294.141	88.75
294.372	94.75
294.603	90.75
294.833	91.75
295.064	90.75
295.295	92.75
295.525	90.75
295.756	112.75
295.987	120.75
296.217	130.75
296.448	119.75
296.679	98.75
296.909	84.75
297.14	81.75
297.37	95.75
297.601	93.75
297.831	91.75
298.062	87.75
298.292	81.75
298.523	83.75
298.753	89.75
298.984	86.75
299.214	93.75
299.445	84.75
299.675	95.75
299.905	84.75
300.136	112.75
300.366	81.75
300.597	83.75
300.827	108.75
301.057	87.75
301.288	113.75
301.518	106.75
301.748	84.75
301.979	92.75
302.209	101.75
302.439	88.75
302.669	87.75
302.9	90.75
303.13	97.75
303.36	105.75
303.59	96.75
303.82	112.75
304.051	86.75
304.281	83.75
304.511	94.75
304.741	91.75
304.971	103.75
305.201	73.75
305.431	92.75
305.661	101.75
305.891	86.75
306.121	96.75
306.352	102.75
306.582	100.75
306.812	100.75
307.042	85.75
307.272	83.75
307.502	85.75
307.731	99.75
307.961	82.75
308.191	88.75
308.421	91.75
308.651	91.75
308.881	103.75
309.111	99.75
309.341	90.75
309.571	78.75
309.8	89.75
310.03	96.75
310.26	84.75
310.49	104.75
310.72	108.75
310.949	106.75
311.179	117.75
311.409	98.75
311.639	99.75
311.868	93.75
312.098	99.75
312.328	87.75
312.557	100.75
312.787	104.75
313.017	104.75
313.246	96.75
313.476	92.75
313.706	94.75
313.935	88.75
314.165	87.75
314.394	104.75
314.624	116.75
314.853	95.75
315.083	92.75
315.312	85.75
315.542	93.75
315.771	85.75
316.001	96.75
316.23	97.75
316.46	97.75
316.689	91.75
316.919	105.75
317.148	103.75
317.377	89.75
317.607	91.75
317.836	86.75
318.065	88.75
318.295	97.75
318.524	102.75
318.753	94.75
318.983	96.75
319.212	95.75
319.441	110.75
319.67	100.75
319.9	98.75
320.129	95.75
320.358	100.75
320.587	94.75
320.816	96.75
321.046	103.75
321.275	101.75
321.504	97.75
321.733	96.75
321.962	99.75
322.191	93.75
322.42	96.75
322.649	115.75
322.878	107.75
323.108	113.75
323.337	110.75
323.566	122.75
323.795	141.75
324.024	181.75
324.253	350.75
324.482	755.75
324.71	1506.75
324.939	1907.75
325.168	747.75
325.397	223.75
325.626	138.75
325.855	129.75
326.084	95.75
326.313	130.75
326.542	151.75
326.77	199.75
326.999	401.75
327.228	820.75
327.457	1487.75
327.686	1169.75
327.914	333.75
328.143	183.75
328.372	159.75
328.6	145.75
328.829	111.75
329.058	124.75
329.287	121.75
329.515	114.75
329.744	119.75
329.972	129.75
330.201	130.75
330.43	188.75
330.658	127.75
330.887	128.75
331.115	125.75
331.344	98.75
331.572	104.75
331.801	101.75
332.03	122.75
332.258	112.75
332.486	96.75
332.715	97.75
332.943	103.75
333.172	91.75
333.4	98.75
333.629	105.75
333.857	113.75
334.085	106.75
334.314	149.75
334.542	205.75
334.771	199.75
334.999	125.75
335.227	103.75
335.455	82.75
335.684	100.75
335.912	98.75
336.14	89.75
336.369	93.75
336.597	92.75
336.825	95.75
337.053	96.75
337.281	96.75
337.51	103.75
337.738	96.75
337.966	101.75
338.194	85.75
338.422	100.75
338.65	92.75
338.878	88.75
339.106	97.75
339.334	91.75
339.562	80.75
339.79	89.75
340.018	102.75
340.246	92.75
340.474	81.75
340.702	90.75
340.93	82.75
341.158	90.75
341.386	92.75
341.614	105.75
341.842	87.75
342.07	84.75
342.298	103.75
342.526	105.75
342.754	80.75
342.981	77.75
343.209	80.75
343.437	96.75
343.665	83.75
343.893	109.75
344.12	99.75
344.348	86.75
344.576	85.75
344.804	92.75
345.031	107.75
345.259	85.75
345.487	100.75
345.714	93.75
345.942	95.75
346.17	84.75
346.397	95.75
346.625	89.75
346.853	122.75
347.08	83.75
347.308	82.75
347.535	107.75
347.763	95.75
347.99	108.75
348.218	108.75
348.445	93.75
348.673	110.75
348.9	97.75
349.128	95.75
349.355	92.75
349.583	108.75
349.81	101.75
350.037	87.75
350.265	93.75
350.492	104.75
350.72	87.75
350.947	99.75
351.174	109.75
351.402	104.75
351.629	101.75
351.856	105.75
352.083	111.75
352.311	108.75
352.538	96.75
352.765	113.75
352.992	124.75
353.22	113.75
353.447	99.75
353.674	84.75
353.901	98.75
354.128	83.75
354.355	92.75
354.583	84.75
354.81	83.75
355.037	100.75
355.264	102.75
355.491	95.75
355.718	101.75
355.945	104.75
356.172	89.75
356.399	105.75
356.626	97.75
356.853	97.75
357.08	106.75
357.307	99.75
357.534	81.75
357.761	88.75
357.988	82.75
358.215	91.75
358.441	90.75
358.668	97.75
358.895	100.75
359.122	88.75
359.349	96.75
359.576	92.75
359.802	109.75
360.029	101.75
360.256	113.75
360.483	95.75
360.709	80.75
360.936	100.75
361.163	96.75
361.39	90.75
361.616	87.75
361.843	109.75
362.07	99.75
362.296	107.75
362.523	78.75
362.749	93.75
362.976	84.75
363.203	97.75
363.429	80.75
363.656	83.75
363.882	86.75
364.109	95.75
364.335	89.75
364.562	82.75
364.788	83.75
365.015	106.75
365.241	99.75
365.468	101.75
365.694	96.75
365.92	83.75
366.147	93.75
366.373	77.75
366.599	101.75
366.826	89.75
367.052	79.75
367.278	79.75
367.505	86.75
367.731	84.75
367.957	86.75
368.184	77.75
368.41	84.75
368.636	100.75
368.862	108.75
369.089	116.75
369.315	85.75
369.541	113.75
369.767	86.75
369.993	93.75
370.219	79.75
370.445	96.75
370.672	78.75
370.898	87.75
371.124	89.75
371.35	105.75
371.576	81.75
371.802	79.75
372.028	106.75
372.254	95.75
372.48	84.75
372.706	88.75
372.932	97.75
373.158	86.75
373.384	75.75
373.61	89.75
373.835	91.75
374.061	84.75
374.287	97.75
374.513	97.75
374.739	78.75
374.965	98.75
375.191	93.75
375.416	90.75
375.642	83.75
375.868	85.75
376.094	95.75
376.319	94.75
376.545	88.75
376.771	76.75
376.997	77.75
377.222	78.75
377.448	99.75
377.674	85.75
377.899	87.75
378.125	96.75
378.35	90.75
378.576	91.75
378.802	91.75
379.027	104.75
379.253	85.75
379.478	84.75
379.704	96.75
379.929	79.75
380.155	90.75
380.38	87.75
380.606	92.75
380.831	79.75
381.057	106.75
381.282	90.75
381.507	101.75
381.733	92.75
381.958	82.75
382.184	88.75
382.409	104.75
382.634	89.75
382.86	89.75
383.085	106.75
383.31	101.75
383.535	99.75
383.761	97.75
383.986	93.75
384.211	94.75
384.436	91.75
384.662	103.75
384.887	94.75
385.112	99.75
385.337	96.75
385.562	98.75
385.787	85.75
386.013	97.75
386.238	101.75
386.463	98.75
386.688	103.75
386.913	84.75
387.138	104.75
387.363	103.75
387.588	106.75
387.813	101.75
388.038	93.75
388.263	102.75
388.488	100.75
388.713	95.75
388.938	104.75
389.163	97.75
389.387	97.75
389.612	85.75
389.837	89.75
390.062	83.75
390.287	92.75
390.512	91.75
390.736	85.75
390.961	80.75
391.186	94.75
391.411	91.75
391.636	92.75
391.86	96.75
392.085	79.75
392.31	95.75
392.534	82.75
392.759	91.75
392.984	89.75
393.208	76.75
393.433	98.75
393.658	81.75
393.882	90.75
394.107	83.75
394.331	96.75
394.556	93.75
394.78	102.75
395.005	90.75
395.229	76.75
395.454	87.75
395.678	84.75
395.903	86.75
396.127	91.75
396.352	80.75
396.576	79.75
396.801	83.75
397.025	94.75
397.249	99.75
397.474	90.75
397.698	82.75
397.922	81.75
398.147	87.75
398.371	89.75
398.595	71.75
398.82	96.75
399.044	91.75
399.268	73.75
399.492	80.75
399.717	90.75
399.941	77.75
400.165	97.75
400.389	92.75
400.613	80.75
400.837	78.75
401.062	82.75
401.286	72.75
401.51	101.75
401.734	88.75
401.958	82.75
402.182	125.75
402.406	151.75
402.63	109.75
402.854	81.75
403.078	86.75
403.302	72.75
403.526	87.75
403.75	89.75
403.974	86.75
404.198	88.75
404.422	76.75
404.645	84.75
404.869	91.75
405.093	91.75
405.317	95.75
405.541	100.75
405.765	88.75
405.988	112.75
406.212	157.75
406.436	209.75
406.66	137.75
406.883	104.75
407.107	88.75
407.331	95.75
407.555	90.75
407.778	77.75
408.002	79.75
408.226	73.75
408.449	98.75
408.673	82.75
408.896	90.75
409.12	84.75
409.344	85.75
409.567	85.75
409.791	98.75
410.014	92.75
410.238	91.75
410.461	82.75
410.685	93.75
410.908	91.75
411.132	104.75
411.355	93.75
411.578	81.75
411.802	88.75
412.025	96.75
412.249	95.75
412.472	90.75
412.695	98.75
412.919	82.75
413.142	89.75
413.365	77.75
413.589	94.75
413.812	82.75
414.035	84.75
414.258	93.75
414.482	91.75
414.705	79.75
414.928	81.75
415.151	92.75
415.374	83.75
415.597	80.75
415.821	100.75
416.044	88.75
416.267	93.75
416.49	95.75
416.713	85.75
416.936	81.75
417.159	81.75
417.382	60.75
417.605	86.75
417.828	71.75
418.051	89.75
418.274	88.75
418.497	96.75
418.72	89.75
418.943	79.75
419.166	79.75
419.389	92.75
419.611	83.75
419.834	71.75
420.057	83.75
420.28	93.75
420.503	67.75
420.726	82.75
420.948	70.75
421.171	87.75
421.394	88.75
421.617	83.75
421.839	90.75
422.062	84.75
422.285	91.75
422.507	101.75
422.73	89.75
422.953	79.75
423.175	90.75
423.398	87.75
423.621	97.75
423.843	84.75
424.066	84.75
424.288	78.75
424.511	75.75
424.733	105.75
424.956	100.75
425.178	115.75
425.401	104.75
425.623	96.75
425.846	81.75
426.068	82.75
426.291	88.75
426.513	68.75
426.735	81.75
426.958	100.75
427.18	95.75
427.402	114.75
427.625	157.75
427.847	121.75
428.069	103.75
428.292	93.75
428.514	87.75
428.736	99.75
428.958	100.75
429.181	88.75
429.403	83.75
429.625	85.75
429.847	83.75
430.069	95.75
430.292	97.75
430.514	75.75
430.736	97.75
430.958	87.75
431.18	84.75
431.402	89.75
431.624	75.75
431.846	89.75
432.068	94.75
432.29	78.75
432.512	74.75
432.734	78.75
432.956	81.75
433.178	96.75
433.4	88.75
433.622	80.75
433.844	81.75
434.066	97.75
434.287	96.75
434.509	84.75
434.731	85.75
434.953	91.75
435.175	82.75
435.397	89.75
435.618	98.75
435.84	98.75
436.062	115.75
436.284	100.75
436.505	95.75
436.727	106.75
436.949	89.75
437.17	79.75
437.392	83.75
437.614	90.75
437.835	93.75
438.057	120.75
438.278	105.75
438.5	98.75
438.721	108.75
438.943	81.75
439.165	85.75
439.386	79.75
439.608	98.75
439.829	86.75
440.05	115.75
440.272	117.75
440.493	99.75
440.715	96.75
440.936	92.75
441.158	88.75
441.379	87.75
441.6	95.75
441.822	99.75
442.043	81.75
442.264	99.75
442.486	100.75
442.707	89.75
442.928	99.75
443.149	120.75
443.371	116.75
443.592	110.75
443.813	105.75
444.034	112.75
444.255	96.75
444.476	85.75
444.698	76.75
444.919	87.75
445.14	129.75
445.361	126.75
445.582	99.75
445.803	134.75
446.024	122.75
446.245	122.75
446.466	98.75
446.687	97.75
446.908	91.75
447.129	98.75
447.35	103.75
447.571	93.75
447.792	92.75
448.013	91.75
448.234	100.75
448.455	98.75
448.675	96.75
448.896	89.75
449.117	82.75
449.338	90.75
449.559	118.75
449.779	115.75
450	91.75
450.221	82.75
450.442	85.75
450.662	80.75
450.883	99.75
451.104	94.75
451.324	94.75
451.545	83.75
451.766	101.75
451.986	69.75
452.207	80.75
452.428	99.75
452.648	85.75
452.869	115.75
453.089	106.75
453.31	101.75
453.53	99.75
453.751	97.75
453.971	95.75
454.192	112.75
454.412	96.75
454.633	89.75
454.853	97.75
455.073	84.75
455.294	81.75
455.514	83.75
455.734	93.75
455.955	79.75
456.175	85.75
456.395	90.75
456.616	94.75
456.836	83.75
457.056	78.75
457.276	73.75
457.497	80.75
457.717	77.75
457.937	64.75
458.157	78.75
458.377	85.75
458.598	100.75
458.818	131.75
459.038	156.75
459.258	114.75
459.478	82.75
459.698	87.75
459.918	87.75
460.138	90.75
460.358	96.75
460.578	92.75
460.798	81.75
461.018	84.75
461.238	85.75
461.458	82.75
461.678	87.75
461.898	78.75
462.118	83.75
462.338	94.75
462.558	87.75
462.777	85.75
462.997	79.75
463.217	75.75
463.437	80.75
463.657	90.75
463.876	89.75
464.096	73.75
464.316	94.75
464.536	84.75
464.755	99.75
464.975	105.75
465.195	156.75
465.414	140.75
465.634	103.75
465.854	95.75
466.073	83.75
466.293	71.75
466.512	77.75
466.732	72.75
466.951	88.75
467.171	93.75
467.391	84.75
467.61	98.75
467.829	100.75
468.049	108.75
468.268	126.75
468.488	87.75
468.707	88.75
468.927	77.75
469.146	84.75
469.365	79.75
469.585	83.75
469.804	100.75
470.023	98.75
470.243	98.75
470.462	105.75
470.681	103.75
470.901	80.75
471.12	75.75
471.339	75.75
471.558	72.75
471.777	81.75
471.997	93.75
472.216	164.75
472.435	268.75
472.654	124.75
472.873	87.75
473.092	89.75
473.311	78.75
473.53	73.75
473.749	98.75
473.968	101.75
474.187	91.75
474.406	89.75
474.625	76.75
474.844	65.75
475.063	96.75
475.282	89.75
475.501	88.75
475.72	90.75
475.939	90.75
476.158	94.75
476.377	94.75
476.596	87.75
476.814	84.75
477.033	83.75
477.252	84.75
477.471	81.75
477.69	71.75
477.908	93.75
478.127	91.75
478.346	97.75
478.564	78.75
478.783	71.75
479.002	83.75
479.22	92.75
479.439	93.75
479.658	106.75
479.876	84.75
480.095	90.75
480.313	107.75
480.532	105.75
480.751	101.75
480.969	166.75
481.188	395.75
481.406	248.75
481.624	100.75
481.843	89.75
482.061	91.75
482.28	97.75
482.498	74.75
482.717	71.75
482.935	82.75
483.153	93.75
483.372	75.75
483.59	96.75
483.808	95.75
484.027	81.75
484.245	91.75
484.463	89.75
484.681	88.75
484.9	112.75
485.118	81.75
485.336	92.75
485.554	99.75
485.772	89.75
485.99	89.75
486.209	102.75
486.427	94.75
486.645	100.75
486.863	106.75
487.081	99.75
487.299	98.75
487.517	81.75
487.735	90.75
487.953	75.75
488.171	81.75
488.389	101.75
488.607	101.75
488.825	89.75
489.043	95.75
489.261	86.75
489.479	76.75
489.696	88.75
489.914	73.75
490.132	87.75
490.35	95.75
490.568	91.75
490.786	88.75
491.003	61.75
491.221	87.75
491.439	93.75
491.657	92.75
491.874	87.75
492.092	79.75
492.31	96.75
492.527	78.75
492.745	89.75
492.963	86.75
493.18	94.75
493.398	97.75
493.615	82.75
493.833	91.75
494.05	88.75
494.268	84.75
494.485	86.75
494.703	79.75
494.92	87.75
495.138	89.75
495.355	88.75
495.573	95.75
495.79	101.75
496.008	89.75
496.225	96.75
496.442	76.75
496.66	87.75
496.877	83.75
497.094	94.75
497.312	96.75
497.529	90.75
497.746	79.75
497.963	83.75
498.181	88.75
498.398	96.75
498.615	95.75
498.832	105.75
499.049	76.75
499.267	98.75
499.484	93.75
499.701	87.75
499.918	79.75
500.135	87.75
500.352	91.75
500.569	92.75
500.786	99.75
501.003	83.75
501.22	96.75
501.437	94.75
501.654	90.75
501.871	97.75
502.088	95.75
502.305	100.75
502.522	83.75
502.739	95.75
502.956	105.75
503.172	92.75
503.389	96.75
503.606	82.75
503.823	102.75
504.04	78.75
504.256	90.75
504.473	92.75
504.69	81.75
504.907	95.75
505.123	100.75
505.34	91.75
505.557	86.75
505.773	79.75
505.99	91.75
506.207	99.75
506.423	106.75
506.64	87.75
506.856	74.75
507.073	97.75
507.289	93.75
507.506	96.75
507.722	109.75
507.939	116.75
508.155	89.75
508.372	95.75
508.588	92.75
508.805	99.75
509.021	94.75
509.238	98.75
509.454	91.75
509.67	93.75
509.887	111.75
510.103	128.75
510.319	212.75
510.536	750.75
510.752	2350.75
510.968	659.75
511.184	155.75
511.401	108.75
511.617	90.75
511.833	89.75
512.049	100.75
512.265	88.75
512.481	82.75
512.698	88.75
512.914	81.75
513.13	82.75
513.346	93.75
513.562	81.75
513.778	95.75
513.994	105.75
514.21	93.75
514.426	121.75
514.642	132.75
514.858	109.75
515.074	160.75
515.29	417.75
515.506	1407.75
515.721	500.75
515.937	148.75
516.153	111.75
