Data from Circ_1994_H10_HRD10591_00095.txt Node
Date: Wed Jan 03 11:40:49 EST 2024
User: Yrep
Spectrometer: HR+D1059
Trigger mode: 1
Integration Time (sec): 1.000000E-1
Scans to average: 1
Electric dark correction enabled: true
Nonlinearity correction enabled: false
Boxcar width: 0
XAxis mode: Wavelengths
Number of Pixels in Spectrum: 2048
>>>>>Begin Spectral Data<<<<<
223.165	-23.88
223.4	-23.88
223.635	-23.88
223.869	-24.88
224.104	-17.88
224.338	-15.88
224.573	-13.88
224.808	-25.88
225.042	-17.88
225.277	2.12
225.511	9.12
225.746	5.12
225.98	9.12
226.215	9.12
226.449	15.12
226.683	30.12
226.918	34.12
227.152	26.12
227.387	26.12
227.621	26.12
227.856	45.12
228.09	46.12
228.324	39.12
228.559	53.12
228.793	47.12
229.027	56.12
229.262	54.12
229.496	59.12
229.73	79.12
229.964	72.12
230.199	73.12
230.433	70.12
230.667	56.12
230.901	69.12
231.136	72.12
231.37	81.12
231.604	78.12
231.838	83.12
232.072	77.12
232.306	74.12
232.541	82.12
232.775	77.12
233.009	86.12
233.243	75.12
233.477	75.12
233.711	84.12
233.945	87.12
234.179	74.12
234.413	76.12
234.647	87.12
234.881	81.12
235.115	82.12
235.349	77.12
235.583	74.12
235.817	75.12
236.051	89.12
236.285	87.12
236.519	79.12
236.753	73.12
236.987	92.12
237.221	63.12
237.455	75.12
237.689	72.12
237.922	76.12
238.156	74.12
238.39	91.12
238.624	87.12
238.858	78.12
239.091	59.12
239.325	63.12
239.559	83.12
239.793	69.12
240.027	93.12
240.26	78.12
240.494	81.12
240.728	77.12
240.961	80.12
241.195	86.12
241.429	87.12
241.662	76.12
241.896	69.12
242.13	73.12
242.363	72.12
242.597	77.12
242.83	75.12
243.064	69.12
243.298	65.12
243.531	65.12
243.765	71.12
243.998	74.12
244.232	77.12
244.465	76.12
244.699	77.12
244.932	77.12
245.166	80.12
245.399	75.12
245.633	77.12
245.866	85.12
246.099	77.12
246.333	74.12
246.566	78.12
246.8	86.12
247.033	69.12
247.266	72.12
247.5	79.12
247.733	70.12
247.966	83.12
248.2	72.12
248.433	86.12
248.666	75.12
248.899	77.12
249.133	95.12
249.366	97.12
249.599	93.12
249.832	85.12
250.066	76.12
250.299	73.12
250.532	70.12
250.765	79.12
250.998	74.12
251.231	88.12
251.465	73.12
251.698	88.12
251.931	71.12
252.164	91.12
252.397	66.12
252.63	67.12
252.863	72.12
253.096	72.12
253.329	71.12
253.562	81.12
253.795	69.12
254.028	89.12
254.261	85.12
254.494	63.12
254.727	67.12
254.96	83.12
255.193	83.12
255.426	81.12
255.659	80.12
255.892	83.12
256.124	92.12
256.357	77.12
256.59	83.12
256.823	76.12
257.056	80.12
257.289	72.12
257.521	71.12
257.754	75.12
257.987	73.12
258.22	70.12
258.452	74.12
258.685	85.12
258.918	79.12
259.151	74.12
259.383	78.12
259.616	73.12
259.849	80.12
260.081	95.12
260.314	69.12
260.547	72.12
260.779	82.12
261.012	79.12
261.244	78.12
261.477	94.12
261.71	98.12
261.942	106.12
262.175	110.12
262.407	95.12
262.64	75.12
262.872	82.12
263.105	73.12
263.337	89.12
263.57	89.12
263.802	89.12
264.035	73.12
264.267	78.12
264.499	72.12
264.732	90.12
264.964	85.12
265.197	69.12
265.429	92.12
265.661	90.12
265.894	92.12
266.126	85.12
266.358	77.12
266.591	86.12
266.823	78.12
267.055	88.12
267.287	89.12
267.52	65.12
267.752	81.12
267.984	85.12
268.216	66.12
268.448	86.12
268.681	76.12
268.913	91.12
269.145	78.12
269.377	78.12
269.609	86.12
269.841	81.12
270.073	77.12
270.306	77.12
270.538	66.12
270.77	78.12
271.002	90.12
271.234	90.12
271.466	92.12
271.698	91.12
271.93	79.12
272.162	86.12
272.394	74.12
272.626	104.12
272.858	80.12
273.09	93.12
273.322	88.12
273.553	81.12
273.785	87.12
274.017	75.12
274.249	92.12
274.481	83.12
274.713	86.12
274.945	90.12
275.176	87.12
275.408	88.12
275.64	78.12
275.872	83.12
276.104	91.12
276.335	88.12
276.567	88.12
276.799	110.12
277.031	99.12
277.262	86.12
277.494	90.12
277.726	94.12
277.957	77.12
278.189	98.12
278.421	77.12
278.652	71.12
278.884	73.12
279.115	93.12
279.347	83.12
279.579	87.12
279.81	79.12
280.042	95.12
280.273	101.12
280.505	87.12
280.736	75.12
280.968	99.12
281.199	70.12
281.431	82.12
281.662	86.12
281.894	83.12
282.125	92.12
282.356	105.12
282.588	128.12
282.819	104.12
283.051	71.12
283.282	79.12
283.513	85.12
283.745	82.12
283.976	79.12
284.207	83.12
284.439	76.12
284.67	93.12
284.901	98.12
285.132	78.12
285.364	87.12
285.595	86.12
285.826	83.12
286.057	92.12
286.288	94.12
286.52	77.12
286.751	85.12
286.982	73.12
287.213	87.12
287.444	90.12
287.675	85.12
287.906	96.12
288.138	82.12
288.369	95.12
288.6	87.12
288.831	81.12
289.062	80.12
289.293	80.12
289.524	80.12
289.755	82.12
289.986	69.12
290.217	77.12
290.448	88.12
290.679	77.12
290.91	86.12
291.141	83.12
291.371	94.12
291.602	85.12
291.833	74.12
292.064	94.12
292.295	88.12
292.526	84.12
292.757	83.12
292.987	76.12
293.218	85.12
293.449	81.12
293.68	100.12
293.91	69.12
294.141	78.12
294.372	72.12
294.603	91.12
294.833	87.12
295.064	85.12
295.295	80.12
295.525	89.12
295.756	82.12
295.987	101.12
296.217	135.12
296.448	117.12
296.679	92.12
296.909	93.12
297.14	81.12
297.37	98.12
297.601	88.12
297.831	94.12
298.062	94.12
298.292	74.12
298.523	66.12
298.753	83.12
298.984	92.12
299.214	90.12
299.445	86.12
299.675	105.12
299.905	73.12
300.136	91.12
300.366	82.12
300.597	87.12
300.827	87.12
301.057	105.12
301.288	89.12
301.518	80.12
301.748	97.12
301.979	105.12
302.209	88.12
302.439	82.12
302.669	82.12
302.9	93.12
303.13	94.12
303.36	81.12
303.59	100.12
303.82	99.12
304.051	85.12
304.281	83.12
304.511	88.12
304.741	84.12
304.971	86.12
305.201	89.12
305.431	94.12
305.661	79.12
305.891	82.12
306.121	101.12
306.352	81.12
306.582	95.12
306.812	98.12
307.042	80.12
307.272	97.12
307.502	101.12
307.731	97.12
307.961	78.12
308.191	83.12
308.421	83.12
308.651	89.12
308.881	85.12
309.111	87.12
309.341	94.12
309.571	84.12
309.8	85.12
310.03	87.12
310.26	90.12
310.49	96.12
310.72	92.12
310.949	92.12
311.179	91.12
311.409	92.12
311.639	91.12
311.868	95.12
312.098	89.12
312.328	89.12
312.557	105.12
312.787	97.12
313.017	96.12
313.246	99.12
313.476	89.12
313.706	102.12
313.935	91.12
314.165	95.12
314.394	96.12
314.624	99.12
314.853	83.12
315.083	85.12
315.312	97.12
315.542	82.12
315.771	86.12
316.001	86.12
316.23	86.12
316.46	79.12
316.689	82.12
316.919	82.12
317.148	78.12
317.377	99.12
317.607	98.12
317.836	96.12
318.065	80.12
318.295	80.12
318.524	88.12
318.753	95.12
318.983	87.12
319.212	98.12
319.441	88.12
319.67	101.12
319.9	92.12
320.129	96.12
320.358	106.12
320.587	102.12
320.816	101.12
321.046	111.12
321.275	99.12
321.504	103.12
321.733	101.12
321.962	92.12
322.191	88.12
322.42	101.12
322.649	94.12
322.878	126.12
323.108	119.12
323.337	107.12
323.566	124.12
323.795	128.12
324.024	176.12
324.253	339.12
324.482	704.12
324.71	1453.12
324.939	1898.12
325.168	690.12
325.397	211.12
325.626	141.12
325.855	114.12
326.084	118.12
326.313	113.12
326.542	131.12
326.77	216.12
326.999	411.12
327.228	809.12
327.457	1448.12
327.686	1122.12
327.914	338.12
328.143	193.12
328.372	176.12
328.6	138.12
328.829	107.12
329.058	109.12
329.287	121.12
329.515	105.12
329.744	92.12
329.972	122.12
330.201	176.12
330.43	206.12
330.658	137.12
330.887	131.12
331.115	113.12
331.344	88.12
331.572	90.12
331.801	97.12
332.03	85.12
332.258	86.12
332.486	96.12
332.715	87.12
332.943	96.12
333.172	92.12
333.4	85.12
333.629	103.12
333.857	112.12
334.085	125.12
334.314	167.12
334.542	256.12
334.771	201.12
334.999	117.12
335.227	92.12
335.455	102.12
335.684	103.12
335.912	92.12
336.14	92.12
336.369	91.12
336.597	73.12
336.825	100.12
337.053	91.12
337.281	87.12
337.51	75.12
337.738	82.12
337.966	74.12
338.194	104.12
338.422	93.12
338.65	80.12
338.878	85.12
339.106	85.12
339.334	86.12
339.562	89.12
339.79	91.12
340.018	94.12
340.246	73.12
340.474	88.12
340.702	86.12
340.93	90.12
341.158	83.12
341.386	85.12
341.614	97.12
341.842	83.12
342.07	80.12
342.298	90.12
342.526	91.12
342.754	80.12
342.981	75.12
343.209	93.12
343.437	96.12
343.665	87.12
343.893	95.12
344.12	84.12
344.348	79.12
344.576	97.12
344.804	97.12
345.031	90.12
345.259	106.12
345.487	86.12
345.714	99.12
345.942	91.12
346.17	98.12
346.397	100.12
346.625	78.12
346.853	85.12
347.08	83.12
347.308	88.12
347.535	97.12
347.763	85.12
347.99	108.12
348.218	86.12
348.445	100.12
348.673	86.12
348.9	93.12
349.128	85.12
349.355	108.12
349.583	89.12
349.81	91.12
350.037	90.12
350.265	93.12
350.492	85.12
350.72	104.12
350.947	95.12
351.174	107.12
351.402	104.12
351.629	98.12
351.856	102.12
352.083	95.12
352.311	93.12
352.538	109.12
352.765	103.12
352.992	114.12
353.22	94.12
353.447	86.12
353.674	89.12
353.901	92.12
354.128	83.12
354.355	105.12
354.583	104.12
354.81	100.12
355.037	99.12
355.264	93.12
355.491	98.12
355.718	94.12
355.945	84.12
356.172	101.12
356.399	96.12
356.626	90.12
356.853	93.12
357.08	99.12
357.307	90.12
357.534	98.12
357.761	86.12
357.988	87.12
358.215	93.12
358.441	79.12
358.668	98.12
358.895	76.12
359.122	103.12
359.349	86.12
359.576	66.12
359.802	86.12
360.029	105.12
360.256	104.12
360.483	89.12
360.709	81.12
360.936	94.12
361.163	86.12
361.39	93.12
361.616	95.12
361.843	97.12
362.07	90.12
362.296	89.12
362.523	79.12
362.749	76.12
362.976	101.12
363.203	96.12
363.429	98.12
363.656	92.12
363.882	84.12
364.109	87.12
364.335	87.12
364.562	79.12
364.788	90.12
365.015	83.12
365.241	91.12
365.468	100.12
365.694	85.12
365.92	98.12
366.147	92.12
366.373	90.12
366.599	88.12
366.826	87.12
367.052	85.12
367.278	74.12
367.505	78.12
367.731	98.12
367.957	87.12
368.184	85.12
368.41	83.12
368.636	117.12
368.862	110.12
369.089	104.12
369.315	70.12
369.541	92.12
369.767	91.12
369.993	93.12
370.219	93.12
370.445	86.12
370.672	98.12
370.898	91.12
371.124	86.12
371.35	93.12
371.576	89.12
371.802	87.12
372.028	64.12
372.254	86.12
372.48	93.12
372.706	89.12
372.932	66.12
373.158	88.12
373.384	87.12
373.61	88.12
373.835	98.12
374.061	73.12
374.287	73.12
374.513	85.12
374.739	85.12
374.965	81.12
375.191	91.12
375.416	98.12
375.642	83.12
375.868	78.12
376.094	74.12
376.319	88.12
376.545	77.12
376.771	85.12
376.997	87.12
377.222	88.12
377.448	89.12
377.674	84.12
377.899	90.12
378.125	83.12
378.35	71.12
378.576	91.12
378.802	77.12
379.027	94.12
379.253	90.12
379.478	73.12
379.704	79.12
379.929	94.12
380.155	76.12
380.38	93.12
380.606	96.12
380.831	89.12
381.057	90.12
381.282	95.12
381.507	94.12
381.733	92.12
381.958	95.12
382.184	96.12
382.409	94.12
382.634	105.12
382.86	96.12
383.085	88.12
383.31	97.12
383.535	87.12
383.761	91.12
383.986	98.12
384.211	102.12
384.436	88.12
384.662	93.12
384.887	94.12
385.112	99.12
385.337	85.12
385.562	99.12
385.787	85.12
386.013	107.12
386.238	90.12
386.463	106.12
386.688	91.12
386.913	89.12
387.138	83.12
387.363	84.12
387.588	87.12
387.813	93.12
388.038	86.12
388.263	99.12
388.488	107.12
388.713	84.12
388.938	91.12
389.163	90.12
389.387	90.12
389.612	99.12
389.837	86.12
390.062	71.12
390.287	80.12
390.512	90.12
390.736	86.12
390.961	96.12
391.186	88.12
391.411	98.12
391.636	93.12
391.86	75.12
392.085	85.12
392.31	108.12
392.534	90.12
392.759	93.12
392.984	76.12
393.208	90.12
393.433	84.12
393.658	87.12
393.882	82.12
394.107	90.12
394.331	86.12
394.556	76.12
394.78	87.12
395.005	94.12
395.229	74.12
395.454	79.12
395.678	85.12
395.903	98.12
396.127	96.12
396.352	85.12
396.576	85.12
396.801	73.12
397.025	98.12
397.249	77.12
397.474	83.12
397.698	74.12
397.922	70.12
398.147	91.12
398.371	98.12
398.595	81.12
398.82	87.12
399.044	92.12
399.268	97.12
399.492	91.12
399.717	90.12
399.941	83.12
400.165	86.12
400.389	89.12
400.613	79.12
400.837	81.12
401.062	100.12
401.286	82.12
401.51	79.12
401.734	87.12
401.958	78.12
402.182	109.12
402.406	142.12
402.63	111.12
402.854	82.12
403.078	89.12
403.302	97.12
403.526	74.12
403.75	86.12
403.974	92.12
404.198	85.12
404.422	83.12
404.645	88.12
404.869	89.12
405.093	87.12
405.317	102.12
405.541	89.12
405.765	110.12
405.988	107.12
406.212	141.12
406.436	211.12
406.66	126.12
406.883	99.12
407.107	95.12
407.331	79.12
407.555	75.12
407.778	86.12
408.002	94.12
408.226	89.12
408.449	83.12
408.673	90.12
408.896	78.12
409.12	82.12
409.344	87.12
409.567	79.12
409.791	90.12
410.014	89.12
410.238	85.12
410.461	72.12
410.685	92.12
410.908	85.12
411.132	86.12
411.355	97.12
411.578	98.12
411.802	86.12
412.025	79.12
412.249	89.12
412.472	92.12
412.695	99.12
412.919	93.12
413.142	88.12
413.365	80.12
413.589	72.12
413.812	93.12
414.035	98.12
414.258	79.12
414.482	80.12
414.705	95.12
414.928	92.12
415.151	86.12
415.374	75.12
415.597	97.12
415.821	85.12
416.044	88.12
416.267	97.12
416.49	83.12
416.713	82.12
416.936	84.12
417.159	90.12
417.382	96.12
417.605	93.12
417.828	86.12
418.051	98.12
418.274	87.12
418.497	99.12
418.72	82.12
418.943	93.12
419.166	89.12
419.389	86.12
419.611	85.12
419.834	95.12
420.057	86.12
420.28	73.12
420.503	76.12
420.726	74.12
420.948	83.12
421.171	97.12
421.394	103.12
421.617	81.12
421.839	80.12
422.062	94.12
422.285	84.12
422.507	80.12
422.73	88.12
422.953	81.12
423.175	87.12
423.398	83.12
423.621	79.12
423.843	80.12
424.066	94.12
424.288	94.12
424.511	85.12
424.733	98.12
424.956	99.12
425.178	92.12
425.401	89.12
425.623	86.12
425.846	107.12
426.068	94.12
426.291	96.12
426.513	91.12
426.735	85.12
426.958	94.12
427.18	114.12
427.402	123.12
427.625	156.12
427.847	117.12
428.069	110.12
428.292	90.12
428.514	91.12
428.736	85.12
428.958	80.12
429.181	83.12
429.403	79.12
429.625	90.12
429.847	96.12
430.069	90.12
430.292	106.12
430.514	93.12
430.736	86.12
430.958	90.12
431.18	73.12
431.402	92.12
431.624	81.12
431.846	77.12
432.068	75.12
432.29	77.12
432.512	91.12
432.734	81.12
432.956	94.12
433.178	103.12
433.4	104.12
433.622	83.12
433.844	85.12
434.066	87.12
434.287	79.12
434.509	95.12
434.731	104.12
434.953	95.12
435.175	77.12
435.397	89.12
435.618	90.12
435.84	98.12
436.062	104.12
436.284	94.12
436.505	96.12
436.727	100.12
436.949	93.12
437.17	92.12
437.392	97.12
437.614	80.12
437.835	102.12
438.057	96.12
438.278	98.12
438.5	97.12
438.721	112.12
438.943	102.12
439.165	103.12
439.386	82.12
439.608	85.12
439.829	103.12
440.05	118.12
440.272	135.12
440.493	103.12
440.715	85.12
440.936	77.12
441.158	83.12
441.379	87.12
441.6	84.12
441.822	77.12
442.043	88.12
442.264	104.12
442.486	99.12
442.707	90.12
442.928	92.12
443.149	128.12
443.371	122.12
443.592	115.12
443.813	95.12
444.034	109.12
444.255	83.12
444.476	78.12
444.698	90.12
444.919	80.12
445.14	121.12
445.361	103.12
445.582	115.12
445.803	125.12
446.024	122.12
446.245	125.12
446.466	97.12
446.687	92.12
446.908	83.12
447.129	78.12
447.35	91.12
447.571	86.12
447.792	89.12
448.013	85.12
448.234	82.12
448.455	90.12
448.675	95.12
448.896	104.12
449.117	97.12
449.338	98.12
449.559	108.12
449.779	108.12
450	98.12
450.221	78.12
450.442	88.12
450.662	90.12
450.883	101.12
451.104	112.12
451.324	89.12
451.545	81.12
451.766	95.12
451.986	80.12
452.207	87.12
452.428	87.12
452.648	90.12
452.869	112.12
453.089	113.12
453.31	110.12
453.53	103.12
453.751	77.12
453.971	98.12
454.192	94.12
454.412	89.12
454.633	76.12
454.853	91.12
455.073	86.12
455.294	82.12
455.514	100.12
455.734	102.12
455.955	87.12
456.175	93.12
456.395	77.12
456.616	96.12
456.836	79.12
457.056	95.12
457.276	72.12
457.497	77.12
457.717	90.12
457.937	79.12
458.157	70.12
458.377	90.12
458.598	99.12
458.818	137.12
459.038	141.12
459.258	121.12
459.478	98.12
459.698	81.12
459.918	87.12
460.138	71.12
460.358	85.12
460.578	98.12
460.798	102.12
461.018	101.12
461.238	81.12
461.458	87.12
461.678	89.12
461.898	97.12
462.118	75.12
462.338	91.12
462.558	90.12
462.777	93.12
462.997	72.12
463.217	89.12
463.437	84.12
463.657	90.12
463.876	94.12
464.096	83.12
464.316	78.12
464.536	86.12
464.755	90.12
464.975	94.12
465.195	149.12
465.414	137.12
465.634	74.12
465.854	85.12
466.073	84.12
466.293	79.12
466.512	77.12
466.732	90.12
466.951	82.12
467.171	85.12
467.391	94.12
467.61	103.12
467.829	112.12
468.049	135.12
468.268	125.12
468.488	80.12
468.707	89.12
468.927	71.12
469.146	78.12
469.365	98.12
469.585	70.12
469.804	88.12
470.023	83.12
470.243	92.12
470.462	97.12
470.681	101.12
470.901	90.12
471.12	72.12
471.339	95.12
471.558	85.12
471.777	89.12
471.997	117.12
472.216	185.12
472.435	302.12
472.654	112.12
472.873	101.12
473.092	84.12
473.311	74.12
473.53	82.12
473.749	94.12
473.968	100.12
474.187	89.12
474.406	106.12
474.625	96.12
474.844	71.12
475.063	86.12
475.282	76.12
475.501	75.12
475.72	71.12
475.939	76.12
476.158	80.12
476.377	73.12
476.596	86.12
476.814	81.12
477.033	82.12
477.252	84.12
477.471	94.12
477.69	81.12
477.908	70.12
478.127	85.12
478.346	88.12
478.564	81.12
478.783	89.12
479.002	79.12
479.22	89.12
479.439	108.12
479.658	103.12
479.876	91.12
480.095	85.12
480.313	82.12
480.532	95.12
480.751	113.12
480.969	182.12
481.188	491.12
481.406	315.12
481.624	114.12
481.843	97.12
482.061	85.12
482.28	87.12
482.498	89.12
482.717	86.12
482.935	81.12
483.153	87.12
483.372	82.12
483.59	92.12
483.808	90.12
484.027	94.12
484.245	108.12
484.463	92.12
484.681	88.12
484.9	72.12
485.118	88.12
485.336	83.12
485.554	89.12
485.772	96.12
485.99	102.12
486.209	97.12
486.427	86.12
486.645	94.12
486.863	99.12
487.081	94.12
487.299	86.12
487.517	103.12
487.735	94.12
487.953	96.12
488.171	95.12
488.389	85.12
488.607	95.12
488.825	86.12
489.043	76.12
489.261	81.12
489.479	97.12
489.696	85.12
489.914	88.12
490.132	89.12
490.35	73.12
490.568	82.12
490.786	65.12
491.003	93.12
491.221	99.12
491.439	77.12
491.657	86.12
491.874	77.12
492.092	89.12
492.31	84.12
492.527	90.12
492.745	86.12
492.963	71.12
493.18	91.12
493.398	89.12
493.615	102.12
493.833	86.12
494.05	104.12
494.268	83.12
494.485	94.12
494.703	85.12
494.92	91.12
495.138	88.12
495.355	104.12
495.573	86.12
495.79	90.12
496.008	97.12
496.225	87.12
496.442	92.12
496.66	90.12
496.877	90.12
497.094	96.12
497.312	93.12
497.529	74.12
497.746	85.12
497.963	94.12
498.181	88.12
498.398	89.12
498.615	91.12
498.832	93.12
499.049	82.12
499.267	102.12
499.484	85.12
499.701	86.12
499.918	79.12
500.135	89.12
500.352	89.12
500.569	80.12
500.786	85.12
501.003	90.12
501.22	95.12
501.437	77.12
501.654	76.12
501.871	88.12
502.088	91.12
502.305	71.12
502.522	78.12
502.739	75.12
502.956	92.12
503.172	109.12
503.389	78.12
503.606	87.12
503.823	88.12
504.04	94.12
504.256	85.12
504.473	65.12
504.69	84.12
504.907	91.12
505.123	77.12
505.34	85.12
505.557	87.12
505.773	82.12
505.99	87.12
506.207	89.12
506.423	81.12
506.64	86.12
506.856	70.12
507.073	82.12
507.289	79.12
507.506	82.12
507.722	93.12
507.939	106.12
508.155	93.12
508.372	99.12
508.588	87.12
508.805	78.12
509.021	98.12
509.238	95.12
509.454	93.12
509.67	98.12
509.887	111.12
510.103	108.12
510.319	215.12
510.536	713.12
510.752	2304.12
510.968	615.12
511.184	143.12
511.401	95.12
511.617	98.12
511.833	100.12
512.049	96.12
512.265	83.12
512.481	91.12
512.698	93.12
512.914	95.12
513.13	96.12
513.346	92.12
513.562	97.12
513.778	92.12
513.994	95.12
514.21	92.12
514.426	103.12
514.642	117.12
514.858	125.12
515.074	147.12
515.29	407.12
515.506	1334.12
515.721	481.12
515.937	133.12
516.153	102.12
516.369	96.12
516.585	90.12
516.801	79.12
517.016	79.12
517.232	89.12
