Data from Circ_1994_H10_HRD10591_00060.txt Node
Date: Wed Jan 03 11:40:42 EST 2024
User: Yrep
Spectrometer: HR+D1059
Trigger mode: 1
Integration Time (sec): 1.000000E-1
Scans to average: 1
Electric dark correction enabled: true
Nonlinearity correction enabled: false
Boxcar width: 0
XAxis mode: Wavelengths
Number of Pixels in Spectrum: 2048
>>>>>Begin Spectral Data<<<<<
223.165	-30.88
223.4	-30.88
223.635	-30.88
223.869	-14.88
224.104	-41.88
224.338	-9.88
224.573	-12.88
224.808	-18.88
225.042	-7.88
225.277	-2.88
225.511	-3.88
225.746	4.12
225.98	-1.88
226.215	24.12
226.449	25.12
226.683	25.12
226.918	34.12
227.152	33.12
227.387	33.12
227.621	35.12
227.856	28.12
228.09	45.12
228.324	46.12
228.559	60.12
228.793	172.12
229.027	410.12
229.262	467.12
229.496	551.12
229.73	691.12
229.964	696.12
230.199	517.12
230.433	437.12
230.667	452.12
230.901	451.12
231.136	425.12
231.37	427.12
231.604	407.12
231.838	439.12
232.072	417.12
232.306	464.12
232.541	425.12
232.775	465.12
233.009	441.12
233.243	443.12
233.477	459.12
233.711	457.12
233.945	477.12
234.179	485.12
234.413	461.12
234.647	506.12
234.881	507.12
235.115	529.12
235.349	515.12
235.583	536.12
235.817	559.12
236.051	578.12
236.285	573.12
236.519	571.12
236.753	659.12
236.987	829.12
237.221	1225.12
237.455	1287.12
237.689	805.12
237.922	687.12
238.156	663.12
238.39	667.12
238.624	643.12
238.858	608.12
239.091	625.12
239.325	636.12
239.559	667.12
239.793	703.12
240.027	715.12
240.26	839.12
240.494	867.12
240.728	856.12
240.961	839.12
241.195	789.12
241.429	757.12
241.662	750.12
241.896	747.12
242.13	758.12
242.363	742.12
242.597	763.12
242.83	805.12
243.064	789.12
243.298	842.12
243.531	829.12
243.765	802.12
243.998	820.12
244.232	832.12
244.465	865.12
244.699	878.12
244.932	882.12
245.166	864.12
245.399	883.12
245.633	866.12
245.866	876.12
246.099	900.12
246.333	911.12
246.566	945.12
246.8	939.12
247.033	983.12
247.266	1020.12
247.5	1035.12
247.733	1069.12
247.966	1100.12
248.2	1095.12
248.433	1103.12
248.666	1127.12
248.899	1250.12
249.133	1340.12
249.366	1375.12
249.599	1265.12
249.832	1223.12
250.066	1227.12
250.299	1358.12
250.532	1475.12
250.765	1592.12
250.998	1658.12
251.231	1581.12
251.465	1451.12
251.698	1367.12
251.931	1349.12
252.164	1325.12
252.397	1343.12
252.63	1394.12
252.863	1478.12
253.096	1555.12
253.329	1605.12
253.562	1583.12
253.795	1477.12
254.028	1491.12
254.261	1501.12
254.494	1694.12
254.727	1923.12
254.96	2014.12
255.193	1838.12
255.426	1732.12
255.659	1732.12
255.892	1853.12
256.124	2034.12
256.357	1963.12
256.59	1720.12
256.823	1627.12
257.056	1567.12
257.289	1543.12
257.521	1516.12
257.754	1523.12
257.987	1531.12
258.22	1522.12
258.452	1479.12
258.685	1479.12
258.918	1555.12
259.151	1562.12
259.383	1621.12
259.616	1634.12
259.849	1685.12
260.081	1807.12
260.314	1918.12
260.547	1878.12
260.779	1755.12
261.012	1699.12
261.244	1652.12
261.477	1642.12
261.71	1621.12
261.942	1663.12
262.175	1703.12
262.407	1660.12
262.64	1574.12
262.872	1600.12
263.105	1635.12
263.337	1603.12
263.57	1604.12
263.802	1609.12
264.035	1634.12
264.267	1619.12
264.499	1650.12
264.732	1610.12
264.964	1648.12
265.197	1667.12
265.429	1675.12
265.661	1685.12
265.894	1704.12
266.126	1705.12
266.358	1751.12
266.591	1783.12
266.823	1811.12
267.055	1826.12
267.287	1827.12
267.52	1776.12
267.752	1825.12
267.984	1846.12
268.216	1877.12
268.448	1886.12
268.681	1923.12
268.913	2055.12
269.145	2211.12
269.377	2223.12
269.609	2132.12
269.841	2179.12
270.073	2220.12
270.306	2397.12
270.538	2509.12
270.77	2437.12
271.002	2366.12
271.234	2289.12
271.466	2459.12
271.698	2519.12
271.93	2541.12
272.162	2521.12
272.394	2452.12
272.626	2375.12
272.858	2259.12
273.09	2209.12
273.322	2221.12
273.553	2183.12
273.785	2158.12
274.017	2141.12
274.249	2203.12
274.481	2195.12
274.713	2188.12
274.945	2224.12
275.176	2227.12
275.408	2165.12
275.64	2219.12
275.872	2203.12
276.104	2244.12
276.335	2259.12
276.567	2333.12
276.799	2478.12
277.031	2637.12
277.262	2707.12
277.494	2644.12
277.726	2496.12
277.957	2476.12
278.189	2347.12
278.421	2375.12
278.652	2372.12
278.884	2332.12
279.115	2332.12
279.347	2340.12
279.579	2350.12
279.81	2326.12
280.042	2350.12
280.273	2422.12
280.505	2383.12
280.736	2397.12
280.968	2405.12
281.199	2432.12
281.431	2423.12
281.662	2417.12
281.894	2464.12
282.125	2486.12
282.356	2639.12
282.588	2774.12
282.819	2611.12
283.051	2522.12
283.282	2478.12
283.513	2499.12
283.745	2579.12
283.976	2539.12
284.207	2570.12
284.439	2591.12
284.67	2559.12
284.901	2521.12
285.132	2569.12
285.364	2554.12
285.595	2603.12
285.826	2627.12
286.057	2656.12
286.288	2655.12
286.52	2652.12
286.751	2681.12
286.982	2733.12
287.213	2632.12
287.444	2667.12
287.675	2793.12
287.906	2832.12
288.138	2889.12
288.369	2802.12
288.6	2809.12
288.831	2836.12
289.062	2751.12
289.293	2775.12
289.524	2768.12
289.755	2810.12
289.986	2805.12
290.217	2761.12
290.448	2769.12
290.679	2786.12
290.91	2792.12
291.141	2779.12
291.371	2773.12
291.602	2757.12
291.833	2737.12
292.064	2813.12
292.295	2827.12
292.526	2776.12
292.757	2780.12
292.987	2801.12
293.218	2777.12
293.449	2784.12
293.68	2825.12
293.91	2811.12
294.141	2795.12
294.372	2789.12
294.603	2823.12
294.833	2845.12
295.064	2860.12
295.295	2861.12
295.525	2799.12
295.756	2881.12
295.987	2945.12
296.217	3106.12
296.448	3088.12
296.679	2957.12
296.909	2941.12
297.14	2940.12
297.37	2995.12
297.601	2975.12
297.831	3012.12
298.062	3011.12
298.292	3009.12
298.523	3033.12
298.753	3028.12
298.984	3037.12
299.214	3083.12
299.445	3072.12
299.675	3096.12
299.905	3131.12
300.136	3073.12
300.366	3120.12
300.597	3162.12
300.827	3232.12
301.057	3281.12
301.288	3304.12
301.518	3285.12
301.748	3336.12
301.979	3397.12
302.209	3374.12
302.439	3306.12
302.669	3288.12
302.9	3259.12
303.13	3273.12
303.36	3265.12
303.59	3308.12
303.82	3359.12
304.051	3320.12
304.281	3313.12
304.511	3212.12
304.741	3202.12
304.971	3243.12
305.201	3228.12
305.431	3251.12
305.661	3291.12
305.891	3255.12
306.121	3209.12
306.352	3207.12
306.582	3266.12
306.812	3192.12
307.042	3220.12
307.272	3290.12
307.502	3277.12
307.731	3291.12
307.961	3273.12
308.191	3249.12
308.421	3228.12
308.651	3284.12
308.881	3340.12
309.111	3331.12
309.341	3336.12
309.571	3369.12
309.8	3467.12
310.03	3538.12
310.26	3596.12
310.49	3528.12
310.72	3652.12
310.949	3713.12
311.179	3620.12
311.409	3517.12
311.639	3533.12
311.868	3518.12
312.098	3631.12
312.328	3694.12
312.557	3810.12
312.787	3823.12
313.017	3779.12
313.246	3642.12
313.476	3638.12
313.706	3725.12
313.935	3774.12
314.165	3830.12
314.394	3842.12
314.624	3876.12
314.853	3775.12
315.083	3751.12
315.312	3659.12
315.542	3638.12
315.771	3600.12
316.001	3579.12
316.23	3667.12
316.46	3584.12
316.689	3657.12
316.919	3698.12
317.148	3736.12
317.377	3705.12
317.607	3665.12
317.836	3655.12
318.065	3620.12
318.295	3587.12
318.524	3603.12
318.753	3659.12
318.983	3617.12
319.212	3617.12
319.441	3650.12
319.67	3672.12
319.9	3664.12
320.129	3640.12
320.358	3683.12
320.587	3677.12
320.816	3804.12
321.046	3820.12
321.275	3808.12
321.504	3795.12
321.733	3841.12
321.962	3877.12
322.191	3928.12
322.42	4035.12
322.649	4039.12
322.878	4136.12
323.108	4188.12
323.337	4361.12
323.566	4551.12
323.795	4815.12
324.024	5331.12
324.253	6809.12
324.482	9983.12
324.71	14452.12
324.939	15621.12
325.168	10939.12
325.397	6124.12
325.626	5023.12
325.855	4697.12
326.084	4689.12
326.313	4664.12
326.542	4833.12
326.77	5350.12
326.999	6669.12
327.228	9511.12
327.457	13549.12
327.686	12491.12
327.914	6915.12
328.143	5767.12
328.372	5476.12
328.6	5249.12
328.829	5171.12
329.058	5238.12
329.287	5235.12
329.515	4985.12
329.744	4880.12
329.972	5208.12
330.201	5591.12
330.43	5962.12
330.658	5739.12
330.887	5701.12
331.115	5300.12
331.344	4943.12
331.572	4874.12
331.801	5002.12
332.03	4949.12
332.258	5025.12
332.486	5021.12
332.715	5066.12
332.943	5218.12
333.172	5427.12
333.4	5618.12
333.629	5770.12
333.857	5962.12
334.085	6192.12
334.314	6561.12
334.542	6925.12
334.771	6690.12
334.999	5736.12
335.227	5459.12
335.455	5275.12
335.684	5128.12
335.912	5052.12
336.14	4887.12
336.369	4989.12
336.597	5018.12
336.825	4896.12
337.053	4895.12
337.281	4740.12
337.51	4733.12
337.738	4689.12
337.966	4641.12
338.194	4685.12
338.422	4533.12
338.65	4525.12
338.878	4489.12
339.106	4473.12
339.334	4458.12
339.562	4369.12
339.79	4346.12
340.018	4335.12
340.246	4347.12
340.474	4313.12
340.702	4383.12
340.93	4365.12
341.158	4389.12
341.386	4347.12
341.614	4340.12
341.842	4256.12
342.07	4282.12
342.298	4310.12
342.526	4251.12
342.754	4320.12
342.981	4280.12
343.209	4437.12
343.437	4649.12
343.665	4891.12
343.893	5164.12
344.12	5152.12
344.348	4916.12
344.576	4712.12
344.804	4641.12
345.031	4593.12
345.259	4542.12
345.487	4394.12
345.714	4314.12
345.942	4231.12
346.17	4200.12
346.397	4165.12
346.625	4171.12
346.853	4131.12
347.08	4068.12
347.308	4174.12
347.535	4245.12
347.763	4229.12
347.99	4199.12
348.218	4296.12
348.445	4248.12
348.673	4155.12
348.9	4151.12
349.128	4072.12
349.355	4063.12
349.583	4045.12
349.81	3992.12
350.037	4016.12
350.265	4013.12
350.492	4036.12
350.72	4046.12
350.947	4105.12
351.174	4084.12
351.402	4128.12
351.629	4139.12
351.856	4129.12
352.083	4235.12
352.311	4155.12
352.538	4111.12
352.765	4124.12
352.992	4072.12
353.22	3999.12
353.447	4024.12
353.674	3990.12
353.901	3954.12
354.128	3949.12
354.355	3897.12
354.583	3924.12
354.81	3908.12
355.037	3959.12
355.264	3903.12
355.491	3913.12
355.718	3935.12
355.945	3937.12
356.172	3921.12
356.399	3953.12
356.626	3971.12
356.853	3927.12
357.08	3928.12
357.307	3928.12
357.534	3958.12
357.761	3928.12
357.988	3991.12
358.215	3888.12
358.441	4019.12
358.668	3935.12
358.895	4016.12
359.122	4016.12
359.349	4098.12
359.576	4181.12
359.802	4402.12
360.029	4473.12
360.256	4464.12
360.483	4281.12
360.709	4183.12
360.936	4163.12
361.163	4156.12
361.39	4119.12
361.616	4181.12
361.843	4169.12
362.07	4168.12
362.296	4193.12
362.523	4151.12
362.749	4091.12
362.976	4092.12
363.203	4090.12
363.429	3967.12
363.656	4033.12
363.882	4034.12
364.109	3976.12
364.335	4031.12
364.562	4002.12
364.788	3995.12
365.015	4027.12
365.241	4001.12
365.468	4011.12
365.694	4096.12
365.92	4056.12
366.147	4052.12
366.373	4037.12
366.599	3975.12
366.826	3998.12
367.052	3953.12
367.278	4008.12
367.505	4026.12
367.731	4049.12
367.957	4023.12
368.184	4115.12
368.41	4156.12
368.636	4221.12
368.862	4187.12
369.089	4099.12
369.315	4092.12
369.541	4036.12
369.767	4117.12
369.993	4159.12
370.219	4141.12
370.445	4200.12
370.672	4196.12
370.898	4216.12
371.124	4262.12
371.35	4239.12
371.576	4332.12
371.802	4272.12
372.028	4240.12
372.254	4252.12
372.48	4369.12
372.706	4423.12
372.932	4442.12
373.158	4404.12
373.384	4331.12
373.61	4269.12
373.835	4252.12
374.061	4360.12
374.287	4418.12
374.513	4451.12
374.739	4659.12
374.965	4760.12
375.191	4645.12
375.416	4650.12
375.642	4479.12
375.868	4431.12
376.094	4451.12
376.319	4328.12
376.545	4349.12
376.771	4327.12
376.997	4261.12
377.222	4295.12
377.448	4268.12
377.674	4271.12
377.899	4202.12
378.125	4202.12
378.35	4226.12
378.576	4202.12
378.802	4302.12
379.027	4244.12
379.253	4279.12
379.478	4187.12
379.704	4300.12
379.929	4237.12
380.155	4258.12
380.38	4244.12
380.606	4260.12
380.831	4241.12
381.057	4318.12
381.282	4300.12
381.507	4362.12
381.733	4304.12
381.958	4370.12
382.184	4363.12
382.409	4481.12
382.634	4482.12
382.86	4529.12
383.085	4583.12
383.31	4643.12
383.535	4687.12
383.761	4728.12
383.986	4861.12
384.211	4935.12
384.436	5021.12
384.662	5013.12
384.887	5151.12
385.112	5120.12
385.337	5209.12
385.562	5188.12
385.787	5200.12
386.013	5189.12
386.238	5300.12
386.463	5202.12
386.688	5237.12
386.913	5150.12
387.138	5099.12
387.363	5128.12
387.588	5132.12
387.813	5054.12
388.038	5106.12
388.263	5171.12
388.488	5122.12
388.713	5130.12
388.938	5095.12
389.163	5086.12
389.387	5106.12
389.612	4988.12
389.837	5132.12
390.062	5016.12
390.287	5127.12
390.512	5035.12
390.736	5181.12
390.961	5193.12
391.186	5329.12
391.411	5394.12
391.636	5578.12
391.86	5753.12
392.085	5860.12
392.31	5707.12
392.534	5565.12
392.759	5450.12
392.984	5291.12
393.208	5340.12
393.433	5298.12
393.658	5338.12
393.882	5322.12
394.107	5389.12
394.331	5474.12
394.556	5376.12
394.78	5473.12
395.005	5524.12
395.229	5566.12
395.454	5692.12
395.678	5791.12
395.903	5772.12
396.127	5806.12
396.352	5626.12
396.576	5419.12
396.801	5448.12
397.025	5595.12
397.249	5675.12
397.474	5760.12
397.698	5814.12
397.922	5997.12
398.147	6041.12
398.371	6140.12
398.595	6337.12
398.82	6604.12
399.044	7101.12
399.268	8029.12
399.492	8989.12
399.717	9579.12
399.941	9213.12
400.165	8598.12
400.389	7887.12
400.613	7196.12
400.837	6759.12
401.062	6687.12
401.286	6487.12
401.51	6579.12
401.734	6436.12
401.958	6585.12
402.182	6698.12
402.406	6763.12
402.63	6857.12
402.854	6959.12
403.078	7045.12
403.302	7250.12
403.526	7332.12
403.75	7353.12
403.974	7471.12
404.198	7469.12
404.422	7481.12
404.645	7457.12
404.869	7579.12
405.093	7868.12
405.317	8089.12
405.541	8044.12
405.765	7472.12
405.988	7329.12
406.212	7458.12
406.436	7571.12
406.66	7693.12
406.883	7705.12
407.107	8250.12
407.331	8763.12
407.555	9228.12
407.778	8883.12
408.002	8190.12
408.226	7805.12
408.449	7753.12
408.673	7542.12
408.896	7672.12
409.12	7844.12
409.344	7475.12
409.567	7152.12
409.791	7081.12
410.014	6976.12
410.238	7007.12
410.461	6947.12
410.685	6950.12
410.908	7062.12
411.132	7257.12
411.355	7282.12
411.578	7034.12
411.802	6766.12
412.025	6831.12
412.249	7095.12
412.472	7402.12
412.695	7661.12
412.919	7070.12
413.142	6785.12
413.365	6624.12
413.589	6556.12
413.812	6473.12
414.035	6352.12
414.258	6418.12
414.482	6508.12
414.705	6418.12
414.928	6349.12
415.151	6400.12
415.374	6476.12
415.597	6332.12
415.821	6267.12
416.044	6230.12
416.267	6308.12
416.49	6233.12
416.713	6240.12
416.936	6322.12
417.159	6307.12
417.382	6383.12
417.605	6427.12
417.828	6477.12
418.051	6636.12
418.274	6540.12
418.497	6394.12
418.72	6522.12
418.943	6421.12
419.166	6890.12
419.389	7190.12
419.611	7180.12
419.834	6916.12
420.057	6947.12
420.28	6895.12
420.503	6651.12
420.726	6748.12
420.948	6818.12
421.171	7024.12
421.394	6929.12
421.617	6609.12
421.839	6509.12
422.062	6562.12
422.285	6739.12
422.507	7293.12
422.73	7766.12
422.953	7251.12
423.175	6961.12
423.398	6938.12
423.621	6899.12
423.843	7170.12
424.066	7131.12
424.288	7038.12
424.511	7235.12
424.733	7543.12
424.956	8013.12
425.178	7528.12
425.401	7609.12
425.623	7514.12
425.846	6677.12
426.068	6564.12
426.291	6450.12
426.513	6462.12
426.735	6520.12
426.958	7001.12
427.18	7573.12
427.402	8603.12
427.625	8659.12
427.847	7586.12
428.069	7055.12
428.292	6445.12
428.514	6063.12
428.736	5887.12
428.958	5872.12
429.181	5723.12
429.403	5747.12
429.625	5888.12
429.847	6183.12
430.069	6507.12
430.292	6154.12
430.514	5789.12
430.736	5802.12
430.958	5685.12
431.18	5613.12
431.402	5561.12
431.624	5596.12
431.846	5755.12
432.068	5695.12
432.29	5759.12
432.512	5708.12
432.734	5721.12
432.956	5653.12
433.178	5805.12
433.4	5732.12
433.622	5682.12
433.844	5767.12
434.066	5691.12
434.287	5868.12
434.509	6018.12
434.731	6210.12
434.953	6343.12
435.175	6463.12
435.397	6548.12
435.618	6484.12
435.84	6829.12
436.062	7454.12
436.284	7413.12
436.505	6272.12
436.727	6071.12
436.949	5873.12
437.17	5689.12
437.392	5713.12
437.614	5835.12
437.835	6230.12
438.057	7001.12
438.278	7588.12
438.5	7446.12
438.721	8159.12
438.943	7257.12
439.165	6182.12
439.386	6043.12
439.608	6073.12
439.829	6175.12
440.05	6452.12
440.272	6754.12
440.493	6215.12
440.715	6044.12
440.936	6030.12
441.158	6088.12
441.379	6247.12
441.6	6526.12
441.822	6636.12
442.043	7053.12
442.264	7696.12
442.486	7460.12
442.707	6731.12
442.928	6614.12
443.149	6764.12
443.371	6909.12
443.592	7522.12
443.813	8331.12
444.034	8131.12
444.255	7356.12
444.476	7140.12
444.698	7499.12
444.919	7571.12
445.14	7284.12
445.361	7130.12
445.582	7239.12
445.803	7668.12
446.024	8147.12
446.245	7669.12
446.466	6991.12
446.687	6199.12
446.908	5988.12
447.129	5755.12
447.35	5596.12
447.571	5522.12
447.792	5411.12
448.013	5472.12
448.234	5704.12
448.455	6242.12
448.675	7296.12
448.896	7614.12
449.117	6468.12
449.338	6678.12
449.559	7749.12
449.779	7928.12
450	6195.12
450.221	5560.12
450.442	5406.12
450.662	5347.12
450.883	5427.12
451.104	5458.12
451.324	5428.12
451.545	5203.12
451.766	5088.12
451.986	5039.12
452.207	5020.12
452.428	4968.12
452.648	5057.12
452.869	4968.12
453.089	5104.12
453.31	5195.12
453.53	5011.12
453.751	4948.12
453.971	4984.12
454.192	5066.12
454.412	4892.12
454.633	4856.12
454.853	4844.12
455.073	4835.12
455.294	5179.12
455.514	5648.12
455.734	5220.12
455.955	4700.12
456.175	4641.12
456.395	4595.12
456.616	4610.12
456.836	4594.12
457.056	4634.12
457.276	4596.12
457.497	4611.12
457.717	4629.12
457.937	4752.12
458.157	4823.12
458.377	4900.12
458.598	5222.12
458.818	5789.12
459.038	6447.12
459.258	6426.12
459.478	5812.12
459.698	5771.12
459.918	5862.12
460.138	6052.12
460.358	6284.12
460.578	6270.12
460.798	6385.12
461.018	6355.12
461.238	6170.12
461.458	6202.12
461.678	6147.12
461.898	6323.12
462.118	6471.12
462.338	6724.12
462.558	6857.12
462.777	7119.12
462.997	7743.12
463.217	8129.12
463.437	7926.12
463.657	7330.12
463.876	7173.12
464.096	7211.12
464.316	7191.12
464.536	7164.12
464.755	6925.12
464.975	6799.12
465.195	6955.12
465.414	6893.12
465.634	6136.12
465.854	5774.12
466.073	5555.12
466.293	5451.12
466.512	5293.12
466.732	5151.12
466.951	5177.12
467.171	5227.12
467.391	5221.12
467.61	5272.12
467.829	5314.12
468.049	5299.12
468.268	5263.12
468.488	5098.12
468.707	4925.12
468.927	4993.12
469.146	4978.12
469.365	5028.12
469.585	4999.12
469.804	5208.12
470.023	5324.12
470.243	5348.12
470.462	5500.12
470.681	5563.12
470.901	5456.12
471.12	5327.12
471.339	5245.12
471.558	5266.12
471.777	5172.12
471.997	5149.12
472.216	5454.12
472.435	5915.12
472.654	5447.12
472.873	5134.12
473.092	5015.12
473.311	5086.12
473.53	5063.12
473.749	5142.12
473.968	5548.12
474.187	6333.12
474.406	5923.12
474.625	5148.12
474.844	5078.12
475.063	4994.12
475.282	5036.12
475.501	5072.12
475.72	5061.12
475.939	5130.12
476.158	5162.12
476.377	5090.12
476.596	5145.12
476.814	5276.12
477.033	5358.12
477.252	5445.12
477.471	5511.12
477.69	5705.12
477.908	5735.12
478.127	5915.12
478.346	6033.12
478.564	6148.12
478.783	6194.12
479.002	6284.12
479.22	6238.12
479.439	6311.12
479.658	6448.12
479.876	6575.12
480.095	6699.12
480.313	7194.12
480.532	7073.12
480.751	6935.12
480.969	7132.12
481.188	8126.12
481.406	7848.12
481.624	6884.12
481.843	6452.12
482.061	6223.12
482.28	6083.12
482.498	6015.12
482.717	5924.12
482.935	5954.12
483.153	5883.12
483.372	5835.12
483.59	5878.12
483.808	5889.12
484.027	5905.12
484.245	5989.12
484.463	5940.12
484.681	6025.12
484.9	6088.12
485.118	6092.12
485.336	6148.12
485.554	6265.12
485.772	6246.12
485.99	6220.12
486.209	6328.12
486.427	6366.12
486.645	6378.12
486.863	6427.12
487.081	6335.12
487.299	6287.12
487.517	6324.12
487.735	6324.12
487.953	6268.12
