Data from Circ_1994_H10_HRD10591_00068.txt Node
Date: Wed Jan 03 11:40:44 EST 2024
User: Yrep
Spectrometer: HR+D1059
Trigger mode: 1
Integration Time (sec): 1.000000E-1
Scans to average: 1
Electric dark correction enabled: true
Nonlinearity correction enabled: false
Boxcar width: 0
XAxis mode: Wavelengths
Number of Pixels in Spectrum: 2048
>>>>>Begin Spectral Data<<<<<
223.165	-6.5
223.4	-6.5
223.635	-6.5
223.869	-14.5
224.104	-25.5
224.338	-16.5
224.573	-27.5
224.808	-14.5
225.042	-16.5
225.277	-0.5
225.511	-9.5
225.746	7.5
225.98	9.5
226.215	9.5
226.449	21.5
226.683	22.5
226.918	26.5
227.152	34.5
227.387	31.5
227.621	54.5
227.856	53.5
228.09	40.5
228.324	60.5
228.559	62.5
228.793	77.5
229.027	66.5
229.262	63.5
229.496	71.5
229.73	76.5
229.964	71.5
230.199	78.5
230.433	77.5
230.667	86.5
230.901	86.5
231.136	78.5
231.37	70.5
231.604	81.5
231.838	95.5
232.072	76.5
232.306	90.5
232.541	85.5
232.775	91.5
233.009	83.5
233.243	79.5
233.477	75.5
233.711	77.5
233.945	79.5
234.179	83.5
234.413	77.5
234.647	75.5
234.881	83.5
235.115	89.5
235.349	92.5
235.583	82.5
235.817	67.5
236.051	69.5
236.285	81.5
236.519	84.5
236.753	84.5
236.987	83.5
237.221	71.5
237.455	73.5
237.689	75.5
237.922	82.5
238.156	91.5
238.39	65.5
238.624	80.5
238.858	79.5
239.091	89.5
239.325	83.5
239.559	86.5
239.793	83.5
240.027	67.5
240.26	87.5
240.494	74.5
240.728	70.5
240.961	84.5
241.195	85.5
241.429	88.5
241.662	86.5
241.896	76.5
242.13	73.5
242.363	74.5
242.597	82.5
242.83	82.5
243.064	67.5
243.298	79.5
243.531	80.5
243.765	89.5
243.998	85.5
244.232	85.5
244.465	83.5
244.699	87.5
244.932	76.5
245.166	68.5
245.399	71.5
245.633	68.5
245.866	77.5
246.099	85.5
246.333	79.5
246.566	92.5
246.8	77.5
247.033	70.5
247.266	84.5
247.5	68.5
247.733	61.5
247.966	85.5
248.2	92.5
248.433	90.5
248.666	90.5
248.899	82.5
249.133	84.5
249.366	88.5
249.599	100.5
249.832	87.5
250.066	68.5
250.299	77.5
250.532	79.5
250.765	84.5
250.998	86.5
251.231	79.5
251.465	83.5
251.698	69.5
251.931	76.5
252.164	86.5
252.397	92.5
252.63	77.5
252.863	91.5
253.096	83.5
253.329	64.5
253.562	71.5
253.795	69.5
254.028	87.5
254.261	79.5
254.494	78.5
254.727	91.5
254.96	86.5
255.193	91.5
255.426	88.5
255.659	81.5
255.892	73.5
256.124	87.5
256.357	73.5
256.59	77.5
256.823	77.5
257.056	81.5
257.289	78.5
257.521	89.5
257.754	92.5
257.987	66.5
258.22	74.5
258.452	68.5
258.685	90.5
258.918	79.5
259.151	79.5
259.383	86.5
259.616	82.5
259.849	78.5
260.081	80.5
260.314	81.5
260.547	76.5
260.779	82.5
261.012	79.5
261.244	73.5
261.477	90.5
261.71	85.5
261.942	108.5
262.175	102.5
262.407	86.5
262.64	91.5
262.872	83.5
263.105	92.5
263.337	92.5
263.57	82.5
263.802	92.5
264.035	82.5
264.267	81.5
264.499	82.5
264.732	86.5
264.964	86.5
265.197	92.5
265.429	93.5
265.661	91.5
265.894	91.5
266.126	81.5
266.358	84.5
266.591	81.5
266.823	86.5
267.055	78.5
267.287	85.5
267.52	74.5
267.752	86.5
267.984	95.5
268.216	71.5
268.448	98.5
268.681	91.5
268.913	80.5
269.145	89.5
269.377	101.5
269.609	87.5
269.841	90.5
270.073	81.5
270.306	74.5
270.538	86.5
270.77	95.5
271.002	81.5
271.234	84.5
271.466	90.5
271.698	84.5
271.93	93.5
272.162	95.5
272.394	80.5
272.626	75.5
272.858	90.5
273.09	82.5
273.322	102.5
273.553	80.5
273.785	93.5
274.017	84.5
274.249	83.5
274.481	86.5
274.713	76.5
274.945	89.5
275.176	77.5
275.408	96.5
275.64	76.5
275.872	86.5
276.104	89.5
276.335	81.5
276.567	102.5
276.799	115.5
277.031	99.5
277.262	105.5
277.494	100.5
277.726	73.5
277.957	78.5
278.189	87.5
278.421	92.5
278.652	85.5
278.884	87.5
279.115	94.5
279.347	93.5
279.579	93.5
279.81	86.5
280.042	93.5
280.273	95.5
280.505	92.5
280.736	97.5
280.968	85.5
281.199	88.5
281.431	96.5
281.662	87.5
281.894	99.5
282.125	97.5
282.356	94.5
282.588	125.5
282.819	115.5
283.051	86.5
283.282	78.5
283.513	91.5
283.745	95.5
283.976	82.5
284.207	94.5
284.439	70.5
284.67	91.5
284.901	98.5
285.132	81.5
285.364	101.5
285.595	81.5
285.826	90.5
286.057	95.5
286.288	90.5
286.52	89.5
286.751	85.5
286.982	79.5
287.213	90.5
287.444	94.5
287.675	101.5
287.906	79.5
288.138	85.5
288.369	82.5
288.6	82.5
288.831	90.5
289.062	103.5
289.293	94.5
289.524	97.5
289.755	84.5
289.986	70.5
290.217	85.5
290.448	90.5
290.679	75.5
290.91	92.5
291.141	80.5
291.371	91.5
291.602	91.5
291.833	81.5
292.064	74.5
292.295	89.5
292.526	112.5
292.757	107.5
292.987	88.5
293.218	95.5
293.449	85.5
293.68	84.5
293.91	93.5
294.141	103.5
294.372	87.5
294.603	89.5
294.833	86.5
295.064	80.5
295.295	79.5
295.525	91.5
295.756	98.5
295.987	113.5
296.217	128.5
296.448	103.5
296.679	86.5
296.909	99.5
297.14	82.5
297.37	81.5
297.601	91.5
297.831	91.5
298.062	100.5
298.292	80.5
298.523	90.5
298.753	92.5
298.984	83.5
299.214	91.5
299.445	99.5
299.675	97.5
299.905	86.5
300.136	99.5
300.366	93.5
300.597	98.5
300.827	89.5
301.057	109.5
301.288	93.5
301.518	83.5
301.748	84.5
301.979	96.5
302.209	84.5
302.439	92.5
302.669	84.5
302.9	101.5
303.13	81.5
303.36	93.5
303.59	110.5
303.82	112.5
304.051	84.5
304.281	101.5
304.511	91.5
304.741	85.5
304.971	103.5
305.201	81.5
305.431	87.5
305.661	99.5
305.891	78.5
306.121	94.5
306.352	88.5
306.582	99.5
306.812	81.5
307.042	86.5
307.272	80.5
307.502	90.5
307.731	95.5
307.961	86.5
308.191	84.5
308.421	90.5
308.651	95.5
308.881	103.5
309.111	85.5
309.341	92.5
309.571	105.5
309.8	101.5
310.03	97.5
310.26	93.5
310.49	98.5
310.72	100.5
310.949	89.5
311.179	100.5
311.409	108.5
311.639	99.5
311.868	96.5
312.098	96.5
312.328	104.5
312.557	106.5
312.787	111.5
313.017	94.5
313.246	99.5
313.476	77.5
313.706	107.5
313.935	95.5
314.165	103.5
314.394	110.5
314.624	102.5
314.853	93.5
315.083	98.5
315.312	92.5
315.542	96.5
315.771	102.5
316.001	85.5
316.23	102.5
316.46	95.5
316.689	96.5
316.919	98.5
317.148	86.5
317.377	101.5
317.607	82.5
317.836	86.5
318.065	91.5
318.295	90.5
318.524	93.5
318.753	91.5
318.983	102.5
319.212	106.5
319.441	106.5
319.67	103.5
319.9	98.5
320.129	95.5
320.358	105.5
320.587	95.5
320.816	86.5
321.046	112.5
321.275	95.5
321.504	110.5
321.733	89.5
321.962	92.5
322.191	109.5
322.42	97.5
322.649	100.5
322.878	99.5
323.108	123.5
323.337	112.5
323.566	128.5
323.795	129.5
324.024	189.5
324.253	358.5
324.482	711.5
324.71	1421.5
324.939	1851.5
325.168	725.5
325.397	222.5
325.626	149.5
325.855	137.5
326.084	109.5
326.313	128.5
326.542	131.5
326.77	204.5
326.999	407.5
327.228	793.5
327.457	1402.5
327.686	1109.5
327.914	331.5
328.143	201.5
328.372	171.5
328.6	133.5
328.829	119.5
329.058	120.5
329.287	116.5
329.515	121.5
329.744	101.5
329.972	114.5
330.201	163.5
330.43	188.5
330.658	139.5
330.887	134.5
331.115	119.5
331.344	108.5
331.572	100.5
331.801	99.5
332.03	101.5
332.258	92.5
332.486	94.5
332.715	93.5
332.943	92.5
333.172	110.5
333.4	96.5
333.629	105.5
333.857	117.5
334.085	122.5
334.314	149.5
334.542	207.5
334.771	210.5
334.999	114.5
335.227	86.5
335.455	94.5
335.684	103.5
335.912	95.5
336.14	86.5
336.369	101.5
336.597	114.5
336.825	90.5
337.053	94.5
337.281	101.5
337.51	100.5
337.738	99.5
337.966	97.5
338.194	105.5
338.422	103.5
338.65	102.5
338.878	95.5
339.106	93.5
339.334	98.5
339.562	108.5
339.79	88.5
340.018	101.5
340.246	86.5
340.474	100.5
340.702	95.5
340.93	90.5
341.158	90.5
341.386	101.5
341.614	98.5
341.842	95.5
342.07	93.5
342.298	90.5
342.526	91.5
342.754	105.5
342.981	88.5
343.209	93.5
343.437	99.5
343.665	95.5
343.893	83.5
344.12	99.5
344.348	77.5
344.576	94.5
344.804	106.5
345.031	81.5
345.259	89.5
345.487	105.5
345.714	94.5
345.942	89.5
346.17	89.5
346.397	106.5
346.625	93.5
346.853	85.5
347.08	100.5
347.308	98.5
347.535	101.5
347.763	113.5
347.99	103.5
348.218	111.5
348.445	104.5
348.673	95.5
348.9	93.5
349.128	90.5
349.355	108.5
349.583	113.5
349.81	101.5
350.037	101.5
350.265	96.5
350.492	82.5
350.72	92.5
350.947	100.5
351.174	104.5
351.402	99.5
351.629	99.5
351.856	103.5
352.083	104.5
352.311	124.5
352.538	101.5
352.765	93.5
352.992	122.5
353.22	103.5
353.447	100.5
353.674	109.5
353.901	90.5
354.128	106.5
354.355	93.5
354.583	99.5
354.81	102.5
355.037	93.5
355.264	98.5
355.491	92.5
355.718	97.5
355.945	99.5
356.172	83.5
356.399	93.5
356.626	93.5
356.853	92.5
357.08	97.5
357.307	103.5
357.534	86.5
357.761	83.5
357.988	93.5
358.215	85.5
358.441	94.5
358.668	85.5
358.895	76.5
359.122	96.5
359.349	84.5
359.576	91.5
359.802	86.5
360.029	111.5
360.256	110.5
360.483	100.5
360.709	95.5
360.936	85.5
361.163	87.5
361.39	97.5
361.616	95.5
361.843	94.5
362.07	104.5
362.296	97.5
362.523	87.5
362.749	103.5
362.976	76.5
363.203	85.5
363.429	86.5
363.656	86.5
363.882	92.5
364.109	97.5
364.335	93.5
364.562	94.5
364.788	94.5
365.015	100.5
365.241	103.5
365.468	121.5
365.694	104.5
365.92	91.5
366.147	85.5
366.373	83.5
366.599	74.5
366.826	86.5
367.052	85.5
367.278	89.5
367.505	87.5
367.731	91.5
367.957	86.5
368.184	90.5
368.41	101.5
368.636	100.5
368.862	110.5
369.089	102.5
369.315	91.5
369.541	96.5
369.767	84.5
369.993	89.5
370.219	86.5
370.445	91.5
370.672	83.5
370.898	90.5
371.124	80.5
371.35	79.5
371.576	95.5
371.802	85.5
372.028	90.5
372.254	85.5
372.48	93.5
372.706	87.5
372.932	112.5
373.158	92.5
373.384	90.5
373.61	102.5
373.835	94.5
374.061	84.5
374.287	91.5
374.513	79.5
374.739	96.5
374.965	86.5
375.191	81.5
375.416	102.5
375.642	102.5
375.868	82.5
376.094	95.5
376.319	85.5
376.545	89.5
376.771	81.5
376.997	97.5
377.222	81.5
377.448	91.5
377.674	88.5
377.899	69.5
378.125	94.5
378.35	96.5
378.576	88.5
378.802	89.5
379.027	80.5
379.253	96.5
379.478	102.5
379.704	96.5
379.929	107.5
380.155	83.5
380.38	78.5
380.606	98.5
380.831	93.5
381.057	100.5
381.282	86.5
381.507	113.5
381.733	97.5
381.958	93.5
382.184	105.5
382.409	82.5
382.634	96.5
382.86	109.5
383.085	92.5
383.31	114.5
383.535	95.5
383.761	87.5
383.986	106.5
384.211	101.5
384.436	79.5
384.662	93.5
384.887	109.5
385.112	100.5
385.337	101.5
385.562	86.5
385.787	90.5
386.013	107.5
386.238	84.5
386.463	99.5
386.688	107.5
386.913	99.5
387.138	118.5
387.363	101.5
387.588	102.5
387.813	106.5
388.038	88.5
388.263	84.5
388.488	96.5
388.713	94.5
388.938	98.5
389.163	109.5
389.387	90.5
389.612	95.5
389.837	89.5
390.062	84.5
390.287	90.5
390.512	82.5
390.736	87.5
390.961	99.5
391.186	107.5
391.411	90.5
391.636	101.5
391.86	99.5
392.085	88.5
392.31	86.5
392.534	84.5
392.759	90.5
392.984	86.5
393.208	91.5
393.433	93.5
393.658	89.5
393.882	83.5
394.107	96.5
394.331	84.5
394.556	93.5
394.78	95.5
395.005	98.5
395.229	78.5
395.454	88.5
395.678	102.5
395.903	92.5
396.127	80.5
396.352	89.5
396.576	94.5
396.801	93.5
397.025	103.5
397.249	78.5
397.474	92.5
397.698	88.5
397.922	100.5
398.147	90.5
398.371	78.5
398.595	78.5
398.82	97.5
399.044	78.5
399.268	99.5
399.492	80.5
399.717	87.5
399.941	85.5
400.165	87.5
400.389	89.5
400.613	81.5
400.837	78.5
401.062	84.5
401.286	96.5
401.51	106.5
401.734	79.5
401.958	89.5
402.182	110.5
402.406	156.5
402.63	103.5
402.854	79.5
403.078	84.5
403.302	88.5
403.526	84.5
403.75	94.5
403.974	82.5
404.198	87.5
404.422	89.5
404.645	86.5
404.869	91.5
405.093	94.5
405.317	92.5
405.541	90.5
405.765	88.5
405.988	107.5
406.212	147.5
406.436	217.5
406.66	145.5
406.883	80.5
407.107	107.5
407.331	91.5
407.555	90.5
407.778	85.5
408.002	107.5
408.226	99.5
408.449	78.5
408.673	97.5
408.896	101.5
409.12	92.5
409.344	91.5
409.567	89.5
409.791	89.5
410.014	110.5
410.238	85.5
410.461	90.5
410.685	105.5
410.908	83.5
411.132	103.5
411.355	89.5
411.578	101.5
411.802	69.5
412.025	86.5
412.249	89.5
412.472	94.5
412.695	90.5
412.919	100.5
413.142	81.5
413.365	80.5
413.589	93.5
413.812	90.5
414.035	98.5
414.258	91.5
414.482	86.5
414.705	86.5
414.928	94.5
415.151	96.5
415.374	90.5
415.597	94.5
415.821	77.5
416.044	81.5
416.267	85.5
416.49	88.5
416.713	85.5
416.936	104.5
417.159	93.5
417.382	89.5
417.605	84.5
417.828	80.5
418.051	85.5
418.274	92.5
418.497	84.5
418.72	87.5
418.943	84.5
419.166	82.5
419.389	84.5
419.611	103.5
419.834	92.5
420.057	101.5
420.28	91.5
420.503	91.5
420.726	95.5
420.948	81.5
421.171	85.5
421.394	95.5
421.617	94.5
421.839	84.5
422.062	88.5
422.285	99.5
422.507	105.5
422.73	100.5
422.953	92.5
423.175	99.5
423.398	81.5
423.621	94.5
423.843	99.5
424.066	93.5
424.288	75.5
424.511	97.5
424.733	103.5
424.956	83.5
425.178	97.5
425.401	95.5
425.623	84.5
425.846	87.5
426.068	95.5
426.291	89.5
426.513	103.5
426.735	90.5
426.958	87.5
427.18	107.5
427.402	126.5
427.625	163.5
427.847	131.5
428.069	104.5
428.292	88.5
428.514	86.5
428.736	85.5
428.958	94.5
429.181	80.5
429.403	89.5
429.625	97.5
429.847	103.5
430.069	98.5
430.292	100.5
430.514	92.5
430.736	96.5
430.958	83.5
431.18	93.5
431.402	77.5
431.624	89.5
431.846	91.5
432.068	101.5
432.29	78.5
432.512	84.5
432.734	75.5
432.956	99.5
433.178	98.5
433.4	75.5
433.622	93.5
433.844	87.5
434.066	81.5
434.287	106.5
434.509	98.5
434.731	77.5
434.953	99.5
435.175	83.5
435.397	87.5
435.618	94.5
435.84	96.5
436.062	99.5
436.284	102.5
436.505	91.5
436.727	108.5
436.949	93.5
437.17	98.5
437.392	91.5
437.614	98.5
437.835	108.5
438.057	101.5
438.278	103.5
438.5	113.5
438.721	114.5
438.943	90.5
439.165	74.5
439.386	78.5
439.608	92.5
439.829	98.5
440.05	112.5
440.272	143.5
440.493	97.5
440.715	79.5
440.936	91.5
441.158	95.5
441.379	82.5
441.6	92.5
441.822	97.5
442.043	95.5
442.264	93.5
442.486	98.5
442.707	94.5
442.928	96.5
443.149	130.5
443.371	113.5
443.592	115.5
443.813	105.5
444.034	92.5
444.255	100.5
444.476	96.5
444.698	77.5
444.919	85.5
445.14	125.5
445.361	111.5
445.582	124.5
445.803	127.5
446.024	125.5
446.245	139.5
446.466	120.5
446.687	82.5
446.908	84.5
447.129	74.5
447.35	91.5
447.571	94.5
447.792	86.5
448.013	103.5
448.234	102.5
448.455	104.5
448.675	99.5
448.896	104.5
449.117	97.5
449.338	108.5
449.559	118.5
449.779	110.5
450	90.5
450.221	77.5
450.442	76.5
450.662	110.5
450.883	103.5
451.104	103.5
451.324	84.5
451.545	99.5
451.766	85.5
451.986	91.5
452.207	77.5
452.428	82.5
452.648	102.5
452.869	103.5
453.089	95.5
453.31	118.5
453.53	102.5
453.751	82.5
453.971	117.5
454.192	106.5
454.412	81.5
454.633	76.5
454.853	80.5
455.073	93.5
455.294	89.5
455.514	98.5
455.734	81.5
455.955	89.5
456.175	80.5
456.395	85.5
456.616	72.5
456.836	87.5
457.056	85.5
457.276	86.5
457.497	80.5
457.717	99.5
457.937	86.5
458.157	72.5
458.377	68.5
458.598	105.5
458.818	124.5
459.038	143.5
459.258	111.5
459.478	101.5
459.698	84.5
459.918	87.5
460.138	87.5
460.358	83.5
460.578	81.5
460.798	79.5
461.018	89.5
461.238	90.5
461.458	92.5
461.678	89.5
461.898	95.5
462.118	67.5
462.338	74.5
462.558	91.5
462.777	93.5
462.997	87.5
463.217	74.5
463.437	95.5
463.657	83.5
463.876	93.5
464.096	90.5
464.316	91.5
464.536	85.5
464.755	88.5
464.975	106.5
465.195	146.5
465.414	147.5
465.634	91.5
465.854	77.5
466.073	91.5
466.293	85.5
466.512	89.5
466.732	90.5
466.951	68.5
467.171	90.5
467.391	101.5
467.61	89.5
467.829	85.5
468.049	112.5
468.268	123.5
468.488	88.5
468.707	86.5
468.927	94.5
469.146	86.5
469.365	89.5
469.585	89.5
469.804	90.5
470.023	94.5
470.243	81.5
470.462	95.5
470.681	91.5
470.901	95.5
471.12	98.5
471.339	103.5
471.558	102.5
471.777	95.5
471.997	101.5
472.216	150.5
472.435	229.5
472.654	124.5
472.873	97.5
473.092	89.5
473.311	87.5
473.53	82.5
473.749	81.5
473.968	102.5
474.187	106.5
474.406	92.5
474.625	93.5
474.844	84.5
475.063	88.5
475.282	90.5
475.501	83.5
475.72	91.5
475.939	87.5
476.158	100.5
476.377	81.5
476.596	104.5
476.814	97.5
477.033	101.5
477.252	84.5
477.471	82.5
477.69	94.5
477.908	97.5
478.127	91.5
478.346	83.5
478.564	95.5
478.783	91.5
479.002	95.5
479.22	91.5
479.439	106.5
479.658	98.5
479.876	106.5
480.095	100.5
480.313	96.5
480.532	97.5
480.751	119.5
480.969	161.5
481.188	401.5
481.406	262.5
481.624	105.5
481.843	99.5
482.061	90.5
482.28	105.5
482.498	100.5
482.717	79.5
482.935	89.5
483.153	85.5
483.372	93.5
483.59	81.5
483.808	89.5
484.027	83.5
484.245	100.5
484.463	91.5
484.681	83.5
484.9	86.5
485.118	96.5
485.336	101.5
485.554	101.5
485.772	85.5
485.99	98.5
486.209	94.5
486.427	92.5
486.645	115.5
486.863	118.5
487.081	98.5
487.299	94.5
487.517	82.5
487.735	95.5
487.953	79.5
488.171	94.5
488.389	105.5
488.607	104.5
488.825	81.5
489.043	82.5
489.261	93.5
489.479	84.5
489.696	95.5
489.914	105.5
490.132	107.5
490.35	98.5
490.568	94.5
490.786	94.5
491.003	81.5
491.221	85.5
491.439	91.5
491.657	105.5
491.874	103.5
492.092	87.5
492.31	81.5
492.527	107.5
492.745	87.5
492.963	100.5
493.18	89.5
493.398	106.5
493.615	98.5
493.833	95.5
494.05	90.5
494.268	115.5
494.485	105.5
494.703	83.5
494.92	85.5
495.138	86.5
495.355	85.5
495.573	95.5
495.79	94.5
496.008	84.5
496.225	85.5
496.442	105.5
496.66	98.5
496.877	86.5
497.094	70.5
497.312	93.5
497.529	97.5
497.746	85.5
497.963	92.5
498.181	95.5
498.398	96.5
498.615	97.5
498.832	86.5
499.049	100.5
499.267	108.5
499.484	91.5
499.701	90.5
499.918	96.5
500.135	96.5
500.352	93.5
500.569	87.5
500.786	91.5
501.003	91.5
501.22	76.5
501.437	91.5
501.654	89.5
501.871	88.5
502.088	86.5
502.305	91.5
502.522	107.5
502.739	82.5
502.956	93.5
503.172	86.5
503.389	85.5
503.606	113.5
503.823	96.5
504.04	105.5
504.256	86.5
504.473	94.5
504.69	96.5
504.907	85.5
505.123	102.5
505.34	81.5
505.557	86.5
505.773	91.5
505.99	87.5
506.207	92.5
506.423	80.5
506.64	99.5
506.856	93.5
507.073	86.5
507.289	89.5
507.506	97.5
507.722	120.5
507.939	103.5
508.155	93.5
508.372	92.5
508.588	91.5
508.805	89.5
509.021	113.5
509.238	95.5
509.454	100.5
509.67	101.5
509.887	97.5
510.103	123.5
510.319	223.5
510.536	747.5
510.752	2316.5
510.968	649.5
511.184	171.5
511.401	118.5
511.617	106.5
511.833	91.5
512.049	89.5
512.265	95.5
512.481	94.5
512.698	84.5
512.914	91.5
513.13	105.5
513.346	86.5
513.562	97.5
513.778	106.5
513.994	101.5
514.21	112.5
514.426	105.5
514.642	142.5
514.858	109.5
515.074	147.5
515.29	419.5
515.506	1339.5
515.721	500.5
515.937	151.5
516.153	108.5
516.369	83.5
516.585	91.5
516.801	103.5
517.016	95.5
517.232	88.5
517.448	95.5
517.664	97.5
517.879	98.5
518.095	95.5
518.311	106.5
518.527	95.5
518.742	95.5
518.958	99.5
519.173	93.5
519.389	99.5
519.605	80.5
519.82	80.5
520.036	101.5
520.251	113.5
520.467	103.5
520.682	109.5
520.898	106.5
521.113	113.5
521.329	119.5
521.544	199.5
521.76	518.5
521.975	2255.5
522.19	1351.5
522.406	296.5
522.621	111.5
522.836	91.5
523.052	111.5
523.267	101.5
523.482	104.5
523.698	103.5
523.913	98.5
524.128	102.5
524.343	104.5
524.559	93.5
524.774	96.5
524.989	90.5
525.204	92.5
525.419	87.5
525.634	102.5
525.849	98.5
526.064	90.5
526.28	83.5
526.495	85.5
526.71	87.5
526.925	88.5
527.14	82.5
527.355	89.5
527.57	98.5
527.785	89.5
527.999	87.5
528.214	92.5
528.429	101.5
528.644	104.5
528.859	94.5
529.074	104.5
529.289	132.5
529.503	160.5
529.718	109.5
529.933	91.5
530.148	89.5
530.363	98.5
530.577	82.5
530.792	91.5
531.007	91.5
531.221	96.5
531.436	83.5
531.651	97.5
531.865	101.5
532.08	111.5
532.295	99.5
532.509	93.5
532.724	87.5
532.938	82.5
533.153	87.5
533.367	83.5
533.582	87.5
533.796	101.5
534.011	111.5
534.225	99.5
534.44	83.5
534.654	82.5
534.868	90.5
