Data from Circ_1994_H10_HRD10591_00063.txt Node
Date: Wed Jan 03 11:40:43 EST 2024
User: Yrep
Spectrometer: HR+D1059
Trigger mode: 1
Integration Time (sec): 1.000000E-1
Scans to average: 1
Electric dark correction enabled: true
Nonlinearity correction enabled: false
Boxcar width: 0
XAxis mode: Wavelengths
Number of Pixels in Spectrum: 2048
>>>>>Begin Spectral Data<<<<<
223.165	-8.5
223.4	-8.5
223.635	-8.5
223.869	-6.5
224.104	-21.5
224.338	-6.5
224.573	-15.5
224.808	-20.5
225.042	2.5
225.277	-18.5
225.511	2.5
225.746	-6.5
225.98	9.5
226.215	10.5
226.449	18.5
226.683	12.5
226.918	26.5
227.152	21.5
227.387	31.5
227.621	42.5
227.856	45.5
228.09	62.5
228.324	49.5
228.559	63.5
228.793	59.5
229.027	71.5
229.262	60.5
229.496	75.5
229.73	81.5
229.964	94.5
230.199	79.5
230.433	80.5
230.667	72.5
230.901	80.5
231.136	57.5
231.37	75.5
231.604	79.5
231.838	78.5
232.072	91.5
232.306	90.5
232.541	75.5
232.775	82.5
233.009	85.5
233.243	67.5
233.477	81.5
233.711	81.5
233.945	79.5
234.179	80.5
234.413	91.5
234.647	78.5
234.881	81.5
235.115	68.5
235.349	81.5
235.583	91.5
235.817	75.5
236.051	76.5
236.285	94.5
236.519	89.5
236.753	84.5
236.987	73.5
237.221	67.5
237.455	88.5
237.689	74.5
237.922	71.5
238.156	75.5
238.39	74.5
238.624	84.5
238.858	75.5
239.091	87.5
239.325	87.5
239.559	63.5
239.793	76.5
240.027	63.5
240.26	77.5
240.494	80.5
240.728	84.5
240.961	83.5
241.195	73.5
241.429	77.5
241.662	77.5
241.896	89.5
242.13	81.5
242.363	77.5
242.597	86.5
242.83	83.5
243.064	82.5
243.298	88.5
243.531	77.5
243.765	81.5
243.998	77.5
244.232	67.5
244.465	80.5
244.699	76.5
244.932	85.5
245.166	96.5
245.399	84.5
245.633	80.5
245.866	71.5
246.099	67.5
246.333	83.5
246.566	71.5
246.8	73.5
247.033	92.5
247.266	77.5
247.5	75.5
247.733	82.5
247.966	66.5
248.2	72.5
248.433	79.5
248.666	76.5
248.899	82.5
249.133	81.5
249.366	88.5
249.599	101.5
249.832	77.5
250.066	90.5
250.299	84.5
250.532	77.5
250.765	83.5
250.998	75.5
251.231	59.5
251.465	69.5
251.698	89.5
251.931	75.5
252.164	87.5
252.397	83.5
252.63	71.5
252.863	87.5
253.096	87.5
253.329	87.5
253.562	87.5
253.795	88.5
254.028	86.5
254.261	82.5
254.494	69.5
254.727	88.5
254.96	63.5
255.193	95.5
255.426	75.5
255.659	80.5
255.892	79.5
256.124	93.5
256.357	91.5
256.59	88.5
256.823	78.5
257.056	73.5
257.289	76.5
257.521	84.5
257.754	85.5
257.987	79.5
258.22	95.5
258.452	93.5
258.685	90.5
258.918	88.5
259.151	88.5
259.383	92.5
259.616	75.5
259.849	89.5
260.081	88.5
260.314	80.5
260.547	88.5
260.779	84.5
261.012	84.5
261.244	69.5
261.477	77.5
261.71	84.5
261.942	111.5
262.175	120.5
262.407	104.5
262.64	90.5
262.872	89.5
263.105	82.5
263.337	87.5
263.57	82.5
263.802	75.5
264.035	73.5
264.267	90.5
264.499	76.5
264.732	87.5
264.964	80.5
265.197	82.5
265.429	76.5
265.661	92.5
265.894	95.5
266.126	73.5
266.358	89.5
266.591	81.5
266.823	91.5
267.055	84.5
267.287	68.5
267.52	72.5
267.752	81.5
267.984	96.5
268.216	88.5
268.448	66.5
268.681	79.5
268.913	80.5
269.145	91.5
269.377	85.5
269.609	87.5
269.841	84.5
270.073	83.5
270.306	81.5
270.538	78.5
270.77	84.5
271.002	93.5
271.234	81.5
271.466	83.5
271.698	92.5
271.93	77.5
272.162	82.5
272.394	88.5
272.626	93.5
272.858	73.5
273.09	96.5
273.322	90.5
273.553	95.5
273.785	80.5
274.017	88.5
274.249	78.5
274.481	84.5
274.713	90.5
274.945	96.5
275.176	89.5
275.408	77.5
275.64	94.5
275.872	81.5
276.104	87.5
276.335	91.5
276.567	103.5
276.799	103.5
277.031	97.5
277.262	98.5
277.494	89.5
277.726	97.5
277.957	80.5
278.189	85.5
278.421	78.5
278.652	92.5
278.884	87.5
279.115	85.5
279.347	92.5
279.579	97.5
279.81	96.5
280.042	82.5
280.273	108.5
280.505	93.5
280.736	102.5
280.968	74.5
281.199	87.5
281.431	74.5
281.662	93.5
281.894	90.5
282.125	106.5
282.356	128.5
282.588	135.5
282.819	116.5
283.051	79.5
283.282	82.5
283.513	92.5
283.745	77.5
283.976	90.5
284.207	80.5
284.439	78.5
284.67	83.5
284.901	80.5
285.132	82.5
285.364	84.5
285.595	81.5
285.826	88.5
286.057	90.5
286.288	85.5
286.52	81.5
286.751	86.5
286.982	80.5
287.213	90.5
287.444	95.5
287.675	98.5
287.906	90.5
288.138	85.5
288.369	108.5
288.6	93.5
288.831	85.5
289.062	96.5
289.293	91.5
289.524	88.5
289.755	87.5
289.986	94.5
290.217	96.5
290.448	79.5
290.679	75.5
290.91	91.5
291.141	95.5
291.371	88.5
291.602	87.5
291.833	86.5
292.064	80.5
292.295	91.5
292.526	77.5
292.757	81.5
292.987	91.5
293.218	80.5
293.449	75.5
293.68	89.5
293.91	89.5
294.141	91.5
294.372	93.5
294.603	84.5
294.833	88.5
295.064	84.5
295.295	77.5
295.525	93.5
295.756	98.5
295.987	116.5
296.217	138.5
296.448	115.5
296.679	87.5
296.909	92.5
297.14	91.5
297.37	76.5
297.601	73.5
297.831	80.5
298.062	97.5
298.292	83.5
298.523	99.5
298.753	77.5
298.984	107.5
299.214	91.5
299.445	95.5
299.675	93.5
299.905	83.5
300.136	100.5
300.366	92.5
300.597	88.5
300.827	93.5
301.057	97.5
301.288	108.5
301.518	95.5
301.748	97.5
301.979	96.5
302.209	103.5
302.439	85.5
302.669	86.5
302.9	93.5
303.13	83.5
303.36	92.5
303.59	109.5
303.82	115.5
304.051	93.5
304.281	88.5
304.511	79.5
304.741	80.5
304.971	101.5
305.201	96.5
305.431	76.5
305.661	99.5
305.891	81.5
306.121	92.5
306.352	97.5
306.582	104.5
306.812	97.5
307.042	101.5
307.272	106.5
307.502	97.5
307.731	96.5
307.961	89.5
308.191	82.5
308.421	97.5
308.651	109.5
308.881	98.5
309.111	95.5
309.341	93.5
309.571	101.5
309.8	94.5
310.03	107.5
310.26	92.5
310.49	83.5
310.72	98.5
310.949	107.5
311.179	100.5
311.409	99.5
311.639	112.5
311.868	85.5
312.098	93.5
312.328	92.5
312.557	109.5
312.787	110.5
313.017	99.5
313.246	89.5
313.476	91.5
313.706	82.5
313.935	91.5
314.165	82.5
314.394	99.5
314.624	100.5
314.853	93.5
315.083	84.5
315.312	87.5
315.542	95.5
315.771	87.5
316.001	83.5
316.23	90.5
316.46	97.5
316.689	90.5
316.919	79.5
317.148	82.5
317.377	84.5
317.607	112.5
317.836	101.5
318.065	91.5
318.295	97.5
318.524	89.5
318.753	96.5
318.983	107.5
319.212	102.5
319.441	99.5
319.67	123.5
319.9	95.5
320.129	92.5
320.358	91.5
320.587	85.5
320.816	99.5
321.046	81.5
321.275	98.5
321.504	89.5
321.733	95.5
321.962	93.5
322.191	106.5
322.42	95.5
322.649	104.5
322.878	102.5
323.108	126.5
323.337	124.5
323.566	133.5
323.795	139.5
324.024	187.5
324.253	361.5
324.482	735.5
324.71	1497.5
324.939	1981.5
325.168	738.5
325.397	207.5
325.626	151.5
325.855	154.5
326.084	122.5
326.313	122.5
326.542	146.5
326.77	227.5
326.999	429.5
327.228	823.5
327.457	1473.5
327.686	1148.5
327.914	349.5
328.143	197.5
328.372	171.5
328.6	127.5
328.829	120.5
329.058	115.5
329.287	121.5
329.515	116.5
329.744	103.5
329.972	115.5
330.201	143.5
330.43	181.5
330.658	128.5
330.887	148.5
331.115	114.5
331.344	95.5
331.572	108.5
331.801	90.5
332.03	115.5
332.258	89.5
332.486	92.5
332.715	87.5
332.943	93.5
333.172	93.5
333.4	92.5
333.629	119.5
333.857	128.5
334.085	124.5
334.314	135.5
334.542	193.5
334.771	193.5
334.999	115.5
335.227	93.5
335.455	79.5
335.684	90.5
335.912	95.5
336.14	105.5
336.369	95.5
336.597	109.5
336.825	118.5
337.053	88.5
337.281	93.5
337.51	93.5
337.738	103.5
337.966	90.5
338.194	79.5
338.422	87.5
338.65	86.5
338.878	96.5
339.106	99.5
339.334	93.5
339.562	88.5
339.79	81.5
340.018	89.5
340.246	91.5
340.474	87.5
340.702	76.5
340.93	97.5
341.158	97.5
341.386	116.5
341.614	97.5
341.842	93.5
342.07	87.5
342.298	84.5
342.526	93.5
342.754	89.5
342.981	94.5
343.209	95.5
343.437	91.5
343.665	91.5
343.893	87.5
344.12	92.5
344.348	96.5
344.576	102.5
344.804	84.5
345.031	80.5
345.259	99.5
345.487	106.5
345.714	103.5
345.942	87.5
346.17	85.5
346.397	99.5
346.625	100.5
346.853	93.5
347.08	82.5
347.308	95.5
347.535	104.5
347.763	110.5
347.99	91.5
348.218	107.5
348.445	98.5
348.673	96.5
348.9	90.5
349.128	83.5
349.355	90.5
349.583	97.5
349.81	95.5
350.037	93.5
350.265	90.5
350.492	84.5
350.72	87.5
350.947	108.5
351.174	100.5
351.402	109.5
351.629	110.5
351.856	101.5
352.083	91.5
352.311	99.5
352.538	111.5
352.765	112.5
352.992	120.5
353.22	111.5
353.447	102.5
353.674	105.5
353.901	104.5
354.128	89.5
354.355	98.5
354.583	98.5
354.81	105.5
355.037	103.5
355.264	106.5
355.491	94.5
355.718	106.5
355.945	102.5
356.172	96.5
356.399	99.5
356.626	91.5
356.853	98.5
357.08	87.5
357.307	98.5
357.534	81.5
357.761	99.5
357.988	77.5
358.215	100.5
358.441	90.5
358.668	103.5
358.895	81.5
359.122	93.5
359.349	79.5
359.576	104.5
359.802	98.5
360.029	110.5
360.256	109.5
360.483	102.5
360.709	81.5
360.936	103.5
361.163	106.5
361.39	91.5
361.616	91.5
361.843	84.5
362.07	93.5
362.296	96.5
362.523	105.5
362.749	76.5
362.976	84.5
363.203	89.5
363.429	102.5
363.656	81.5
363.882	83.5
364.109	95.5
364.335	79.5
364.562	93.5
364.788	102.5
365.015	96.5
365.241	92.5
365.468	109.5
365.694	107.5
365.92	88.5
366.147	90.5
366.373	96.5
366.599	97.5
366.826	82.5
367.052	85.5
367.278	87.5
367.505	101.5
367.731	112.5
367.957	92.5
368.184	91.5
368.41	98.5
368.636	112.5
368.862	107.5
369.089	106.5
369.315	91.5
369.541	94.5
369.767	77.5
369.993	80.5
370.219	78.5
370.445	73.5
370.672	84.5
370.898	91.5
371.124	85.5
371.35	81.5
371.576	96.5
371.802	89.5
372.028	80.5
372.254	101.5
372.48	78.5
372.706	87.5
372.932	89.5
373.158	81.5
373.384	90.5
373.61	92.5
373.835	79.5
374.061	79.5
374.287	86.5
374.513	82.5
374.739	87.5
374.965	105.5
375.191	86.5
375.416	94.5
375.642	102.5
375.868	107.5
376.094	98.5
376.319	99.5
376.545	88.5
376.771	92.5
376.997	82.5
377.222	83.5
377.448	90.5
377.674	96.5
377.899	93.5
378.125	98.5
378.35	86.5
378.576	80.5
378.802	86.5
379.027	89.5
379.253	103.5
379.478	107.5
379.704	88.5
379.929	98.5
380.155	79.5
380.38	93.5
380.606	87.5
380.831	105.5
381.057	88.5
381.282	87.5
381.507	97.5
381.733	97.5
381.958	85.5
382.184	93.5
382.409	108.5
382.634	90.5
382.86	96.5
383.085	91.5
383.31	91.5
383.535	100.5
383.761	95.5
383.986	99.5
384.211	99.5
384.436	99.5
384.662	84.5
384.887	96.5
385.112	107.5
385.337	98.5
385.562	99.5
385.787	95.5
386.013	106.5
386.238	103.5
386.463	106.5
386.688	107.5
386.913	105.5
387.138	90.5
387.363	104.5
387.588	99.5
387.813	87.5
388.038	86.5
388.263	104.5
388.488	100.5
388.713	95.5
388.938	86.5
389.163	76.5
389.387	83.5
389.612	97.5
389.837	88.5
390.062	93.5
390.287	95.5
390.512	95.5
390.736	96.5
390.961	101.5
391.186	90.5
391.411	79.5
391.636	95.5
391.86	102.5
392.085	73.5
392.31	84.5
392.534	81.5
392.759	88.5
392.984	81.5
393.208	87.5
393.433	88.5
393.658	91.5
393.882	84.5
394.107	91.5
394.331	83.5
394.556	81.5
394.78	93.5
395.005	94.5
395.229	92.5
395.454	78.5
395.678	83.5
395.903	81.5
396.127	98.5
396.352	108.5
396.576	81.5
396.801	90.5
397.025	82.5
397.249	89.5
397.474	74.5
397.698	82.5
397.922	89.5
398.147	80.5
398.371	84.5
398.595	80.5
398.82	76.5
399.044	76.5
399.268	80.5
399.492	83.5
399.717	89.5
399.941	82.5
400.165	90.5
400.389	95.5
400.613	82.5
400.837	93.5
401.062	89.5
401.286	91.5
401.51	73.5
401.734	89.5
401.958	102.5
402.182	148.5
402.406	155.5
402.63	117.5
402.854	91.5
403.078	94.5
403.302	89.5
403.526	79.5
403.75	96.5
403.974	88.5
404.198	84.5
404.422	94.5
404.645	81.5
404.869	87.5
405.093	92.5
405.317	105.5
405.541	98.5
405.765	87.5
405.988	111.5
406.212	176.5
406.436	234.5
406.66	151.5
406.883	95.5
407.107	78.5
407.331	85.5
407.555	103.5
407.778	107.5
408.002	101.5
408.226	89.5
408.449	95.5
408.673	81.5
408.896	87.5
409.12	81.5
409.344	95.5
409.567	87.5
409.791	90.5
410.014	75.5
410.238	88.5
410.461	85.5
410.685	106.5
410.908	92.5
411.132	77.5
411.355	85.5
411.578	65.5
411.802	98.5
412.025	79.5
412.249	101.5
412.472	95.5
412.695	99.5
412.919	99.5
413.142	79.5
413.365	81.5
413.589	91.5
413.812	83.5
414.035	98.5
414.258	98.5
414.482	79.5
414.705	98.5
414.928	88.5
415.151	75.5
415.374	99.5
415.597	105.5
415.821	88.5
416.044	106.5
416.267	96.5
416.49	76.5
416.713	82.5
416.936	84.5
417.159	91.5
417.382	84.5
417.605	94.5
417.828	87.5
418.051	87.5
418.274	82.5
418.497	97.5
418.72	89.5
418.943	82.5
419.166	81.5
419.389	79.5
419.611	81.5
419.834	90.5
420.057	84.5
420.28	80.5
420.503	72.5
420.726	75.5
420.948	104.5
421.171	101.5
421.394	88.5
421.617	96.5
421.839	90.5
422.062	92.5
422.285	93.5
422.507	104.5
422.73	104.5
422.953	98.5
423.175	79.5
423.398	83.5
423.621	79.5
423.843	77.5
424.066	80.5
424.288	80.5
424.511	96.5
424.733	92.5
424.956	94.5
425.178	94.5
425.401	100.5
425.623	94.5
425.846	101.5
426.068	86.5
426.291	96.5
426.513	81.5
426.735	100.5
426.958	88.5
427.18	115.5
427.402	131.5
427.625	168.5
427.847	127.5
428.069	125.5
428.292	91.5
428.514	88.5
428.736	87.5
428.958	83.5
429.181	91.5
429.403	92.5
429.625	82.5
429.847	90.5
430.069	97.5
430.292	94.5
430.514	88.5
430.736	82.5
430.958	76.5
431.18	75.5
431.402	75.5
431.624	79.5
431.846	90.5
432.068	95.5
432.29	83.5
432.512	85.5
432.734	92.5
432.956	96.5
433.178	92.5
433.4	77.5
433.622	99.5
433.844	93.5
434.066	73.5
434.287	90.5
434.509	92.5
434.731	83.5
434.953	84.5
435.175	89.5
435.397	91.5
435.618	88.5
435.84	101.5
436.062	120.5
436.284	105.5
436.505	94.5
436.727	90.5
436.949	77.5
437.17	81.5
437.392	87.5
437.614	84.5
437.835	106.5
438.057	111.5
438.278	103.5
438.5	103.5
438.721	106.5
438.943	108.5
439.165	91.5
439.386	89.5
439.608	97.5
439.829	101.5
440.05	116.5
440.272	135.5
440.493	103.5
440.715	83.5
440.936	93.5
441.158	78.5
441.379	89.5
441.6	91.5
441.822	78.5
442.043	98.5
442.264	98.5
442.486	103.5
442.707	80.5
442.928	108.5
443.149	121.5
443.371	106.5
443.592	110.5
443.813	113.5
444.034	106.5
444.255	95.5
444.476	83.5
444.698	92.5
444.919	103.5
445.14	132.5
445.361	117.5
445.582	116.5
445.803	137.5
446.024	123.5
446.245	120.5
446.466	94.5
446.687	96.5
446.908	85.5
447.129	90.5
447.35	83.5
447.571	98.5
447.792	98.5
448.013	82.5
448.234	109.5
448.455	101.5
448.675	108.5
448.896	109.5
449.117	105.5
449.338	89.5
449.559	129.5
449.779	122.5
450	80.5
450.221	79.5
450.442	93.5
450.662	91.5
450.883	108.5
451.104	122.5
451.324	91.5
451.545	94.5
451.766	96.5
451.986	82.5
452.207	105.5
452.428	86.5
452.648	107.5
452.869	109.5
453.089	110.5
453.31	122.5
453.53	102.5
453.751	81.5
453.971	98.5
454.192	97.5
454.412	75.5
454.633	76.5
454.853	83.5
455.073	87.5
455.294	92.5
455.514	89.5
455.734	84.5
455.955	75.5
456.175	93.5
456.395	76.5
456.616	90.5
456.836	72.5
457.056	73.5
457.276	92.5
457.497	74.5
457.717	90.5
457.937	99.5
458.157	80.5
458.377	97.5
458.598	93.5
458.818	138.5
459.038	160.5
459.258	131.5
459.478	90.5
459.698	87.5
459.918	79.5
460.138	95.5
460.358	74.5
460.578	101.5
460.798	99.5
461.018	76.5
461.238	85.5
461.458	92.5
461.678	106.5
461.898	102.5
462.118	88.5
462.338	78.5
462.558	89.5
462.777	98.5
462.997	89.5
463.217	87.5
463.437	80.5
463.657	80.5
463.876	86.5
464.096	85.5
464.316	89.5
464.536	91.5
464.755	99.5
464.975	108.5
465.195	173.5
465.414	163.5
465.634	108.5
465.854	88.5
466.073	92.5
466.293	88.5
466.512	92.5
466.732	91.5
466.951	93.5
467.171	98.5
467.391	90.5
467.61	101.5
467.829	92.5
468.049	119.5
468.268	131.5
468.488	71.5
468.707	85.5
468.927	94.5
469.146	93.5
469.365	83.5
469.585	92.5
469.804	92.5
470.023	92.5
470.243	96.5
470.462	87.5
470.681	111.5
470.901	96.5
471.12	80.5
471.339	90.5
471.558	73.5
471.777	91.5
471.997	103.5
472.216	171.5
472.435	246.5
472.654	112.5
472.873	82.5
473.092	72.5
473.311	97.5
473.53	74.5
473.749	75.5
473.968	106.5
474.187	99.5
474.406	88.5
474.625	87.5
474.844	81.5
475.063	93.5
475.282	98.5
475.501	86.5
475.72	92.5
475.939	81.5
476.158	85.5
476.377	79.5
476.596	91.5
476.814	84.5
477.033	84.5
477.252	89.5
477.471	83.5
477.69	79.5
477.908	72.5
478.127	68.5
478.346	90.5
478.564	93.5
478.783	97.5
479.002	93.5
479.22	105.5
479.439	115.5
479.658	115.5
479.876	99.5
480.095	85.5
480.313	88.5
480.532	108.5
480.751	108.5
480.969	166.5
481.188	368.5
481.406	249.5
481.624	113.5
481.843	89.5
482.061	72.5
482.28	87.5
482.498	107.5
482.717	73.5
482.935	94.5
483.153	87.5
483.372	88.5
483.59	101.5
483.808	93.5
484.027	90.5
484.245	89.5
484.463	79.5
484.681	102.5
484.9	70.5
485.118	82.5
485.336	93.5
485.554	91.5
485.772	103.5
485.99	102.5
486.209	90.5
486.427	93.5
486.645	99.5
486.863	97.5
487.081	104.5
487.299	99.5
487.517	90.5
487.735	78.5
487.953	100.5
488.171	74.5
488.389	92.5
488.607	104.5
488.825	98.5
489.043	82.5
489.261	83.5
489.479	80.5
489.696	100.5
489.914	75.5
490.132	80.5
490.35	76.5
490.568	92.5
490.786	76.5
491.003	87.5
491.221	87.5
491.439	93.5
491.657	99.5
491.874	96.5
492.092	90.5
492.31	77.5
492.527	91.5
492.745	101.5
492.963	94.5
493.18	92.5
493.398	90.5
493.615	95.5
493.833	104.5
494.05	95.5
494.268	91.5
494.485	85.5
494.703	84.5
494.92	94.5
495.138	87.5
495.355	67.5
495.573	82.5
495.79	81.5
496.008	87.5
496.225	96.5
496.442	75.5
496.66	92.5
496.877	87.5
497.094	102.5
497.312	97.5
497.529	81.5
497.746	101.5
497.963	94.5
498.181	87.5
498.398	105.5
498.615	99.5
498.832	97.5
499.049	73.5
499.267	110.5
499.484	92.5
499.701	93.5
499.918	92.5
500.135	91.5
500.352	87.5
500.569	95.5
500.786	98.5
501.003	99.5
501.22	84.5
501.437	88.5
501.654	93.5
501.871	113.5
502.088	87.5
502.305	93.5
502.522	87.5
502.739	89.5
502.956	84.5
503.172	96.5
503.389	96.5
503.606	111.5
503.823	91.5
504.04	79.5
504.256	75.5
504.473	72.5
504.69	70.5
504.907	81.5
505.123	87.5
505.34	99.5
505.557	83.5
505.773	93.5
505.99	105.5
506.207	102.5
506.423	89.5
506.64	91.5
506.856	75.5
507.073	97.5
507.289	87.5
507.506	83.5
507.722	112.5
507.939	98.5
508.155	97.5
508.372	87.5
508.588	95.5
508.805	87.5
509.021	88.5
509.238	95.5
509.454	87.5
509.67	82.5
509.887	112.5
510.103	120.5
510.319	218.5
510.536	843.5
510.752	2659.5
510.968	685.5
511.184	163.5
511.401	110.5
511.617	119.5
511.833	91.5
512.049	101.5
512.265	106.5
512.481	93.5
512.698	94.5
512.914	98.5
513.13	114.5
513.346	95.5
513.562	92.5
513.778	92.5
513.994	106.5
514.21	93.5
514.426	118.5
514.642	132.5
514.858	121.5
515.074	156.5
515.29	475.5
515.506	1590.5
515.721	553.5
515.937	161.5
516.153	115.5
516.369	105.5
516.585	83.5
516.801	105.5
517.016	93.5
517.232	92.5
517.448	101.5
517.664	93.5
517.879	93.5
518.095	88.5
518.311	100.5
518.527	97.5
518.742	94.5
518.958	89.5
519.173	85.5
519.389	83.5
519.605	93.5
519.82	100.5
520.036	111.5
520.251	123.5
520.467	110.5
520.682	111.5
520.898	108.5
521.113	132.5
521.329	138.5
521.544	200.5
521.76	585.5
521.975	2611.5
522.19	1527.5
522.406	315.5
522.621	101.5
522.836	105.5
523.052	97.5
523.267	95.5
523.482	98.5
523.698	95.5
523.913	110.5
524.128	110.5
524.343	76.5
524.559	87.5
524.774	87.5
524.989	87.5
525.204	97.5
525.419	85.5
525.634	98.5
525.849	79.5
526.064	109.5
526.28	81.5
526.495	90.5
526.71	89.5
526.925	81.5
527.14	91.5
527.355	98.5
527.57	90.5
527.785	99.5
527.999	105.5
528.214	83.5
528.429	100.5
528.644	96.5
528.859	95.5
529.074	92.5
529.289	129.5
529.503	190.5
529.718	114.5
529.933	88.5
530.148	89.5
530.363	78.5
530.577	91.5
530.792	99.5
531.007	86.5
531.221	96.5
531.436	82.5
531.651	97.5
531.865	87.5
532.08	82.5
532.295	85.5
532.509	96.5
532.724	87.5
532.938	105.5
533.153	108.5
533.367	89.5
533.582	94.5
533.796	84.5
534.011	84.5
534.225	84.5
534.44	93.5
534.654	85.5
534.868	91.5
535.083	92.5
535.297	80.5
535.511	108.5
