Data from Circ_1994_H10_HRD10591_00094.txt Node
Date: Wed Jan 03 11:40:49 EST 2024
User: Yrep
Spectrometer: HR+D1059
Trigger mode: 1
Integration Time (sec): 1.000000E-1
Scans to average: 1
Electric dark correction enabled: true
Nonlinearity correction enabled: false
Boxcar width: 0
XAxis mode: Wavelengths
Number of Pixels in Spectrum: 2048
>>>>>Begin Spectral Data<<<<<
223.165	-17.81
223.4	-17.81
223.635	-17.81
223.869	-18.81
224.104	-31.81
224.338	-9.81
224.573	-2.81
224.808	-10.81
225.042	2.19
225.277	-1.81
225.511	-2.81
225.746	5.19
225.98	-0.81
226.215	17.19
226.449	10.19
226.683	12.19
226.918	21.19
227.152	29.19
227.387	41.19
227.621	31.19
227.856	38.19
228.09	31.19
228.324	47.19
228.559	53.19
228.793	42.19
229.027	59.19
229.262	70.19
229.496	70.19
229.73	74.19
229.964	62.19
230.199	74.19
230.433	72.19
230.667	76.19
230.901	75.19
231.136	62.19
231.37	60.19
231.604	71.19
231.838	82.19
232.072	88.19
232.306	65.19
232.541	75.19
232.775	71.19
233.009	72.19
233.243	89.19
233.477	69.19
233.711	79.19
233.945	80.19
234.179	74.19
234.413	85.19
234.647	84.19
234.881	79.19
235.115	79.19
235.349	79.19
235.583	76.19
235.817	95.19
236.051	65.19
236.285	91.19
236.519	78.19
236.753	76.19
236.987	73.19
237.221	64.19
237.455	90.19
237.689	74.19
237.922	82.19
238.156	69.19
238.39	62.19
238.624	71.19
238.858	82.19
239.091	94.19
239.325	80.19
239.559	83.19
239.793	80.19
240.027	86.19
240.26	65.19
240.494	63.19
240.728	64.19
240.961	75.19
241.195	58.19
241.429	74.19
241.662	86.19
241.896	82.19
242.13	70.19
242.363	80.19
242.597	58.19
242.83	89.19
243.064	86.19
243.298	82.19
243.531	77.19
243.765	81.19
243.998	70.19
244.232	69.19
244.465	84.19
244.699	86.19
244.932	73.19
245.166	92.19
245.399	77.19
245.633	71.19
245.866	78.19
246.099	87.19
246.333	89.19
246.566	77.19
246.8	67.19
247.033	92.19
247.266	70.19
247.5	74.19
247.733	76.19
247.966	74.19
248.2	85.19
248.433	89.19
248.666	62.19
248.899	87.19
249.133	91.19
249.366	91.19
249.599	86.19
249.832	78.19
250.066	74.19
250.299	73.19
250.532	76.19
250.765	84.19
250.998	70.19
251.231	55.19
251.465	81.19
251.698	87.19
251.931	82.19
252.164	82.19
252.397	79.19
252.63	79.19
252.863	78.19
253.096	71.19
253.329	85.19
253.562	87.19
253.795	80.19
254.028	74.19
254.261	66.19
254.494	78.19
254.727	80.19
254.96	76.19
255.193	83.19
255.426	82.19
255.659	72.19
255.892	84.19
256.124	91.19
256.357	86.19
256.59	101.19
256.823	73.19
257.056	97.19
257.289	82.19
257.521	75.19
257.754	81.19
257.987	94.19
258.22	64.19
258.452	79.19
258.685	83.19
258.918	87.19
259.151	79.19
259.383	90.19
259.616	80.19
259.849	82.19
260.081	81.19
260.314	82.19
260.547	81.19
260.779	75.19
261.012	90.19
261.244	79.19
261.477	89.19
261.71	79.19
261.942	109.19
262.175	113.19
262.407	88.19
262.64	81.19
262.872	78.19
263.105	80.19
263.337	83.19
263.57	77.19
263.802	91.19
264.035	79.19
264.267	73.19
264.499	69.19
264.732	83.19
264.964	83.19
265.197	77.19
265.429	81.19
265.661	86.19
265.894	60.19
266.126	80.19
266.358	92.19
266.591	79.19
266.823	88.19
267.055	73.19
267.287	80.19
267.52	101.19
267.752	83.19
267.984	87.19
268.216	77.19
268.448	77.19
268.681	79.19
268.913	74.19
269.145	73.19
269.377	78.19
269.609	74.19
269.841	71.19
270.073	86.19
270.306	88.19
270.538	92.19
270.77	80.19
271.002	90.19
271.234	90.19
271.466	82.19
271.698	93.19
271.93	81.19
272.162	84.19
272.394	87.19
272.626	88.19
272.858	82.19
273.09	95.19
273.322	90.19
273.553	89.19
273.785	71.19
274.017	89.19
274.249	70.19
274.481	73.19
274.713	96.19
274.945	100.19
275.176	88.19
275.408	88.19
275.64	90.19
275.872	95.19
276.104	87.19
276.335	95.19
276.567	80.19
276.799	94.19
277.031	90.19
277.262	79.19
277.494	94.19
277.726	79.19
277.957	79.19
278.189	90.19
278.421	82.19
278.652	98.19
278.884	96.19
279.115	90.19
279.347	97.19
279.579	95.19
279.81	79.19
280.042	107.19
280.273	95.19
280.505	95.19
280.736	77.19
280.968	74.19
281.199	72.19
281.431	83.19
281.662	89.19
281.894	82.19
282.125	88.19
282.356	106.19
282.588	132.19
282.819	110.19
283.051	96.19
283.282	95.19
283.513	105.19
283.745	90.19
283.976	90.19
284.207	96.19
284.439	97.19
284.67	86.19
284.901	79.19
285.132	74.19
285.364	83.19
285.595	86.19
285.826	88.19
286.057	88.19
286.288	80.19
286.52	91.19
286.751	89.19
286.982	87.19
287.213	83.19
287.444	87.19
287.675	73.19
287.906	69.19
288.138	90.19
288.369	106.19
288.6	79.19
288.831	78.19
289.062	75.19
289.293	100.19
289.524	91.19
289.755	86.19
289.986	96.19
290.217	77.19
290.448	80.19
290.679	77.19
290.91	89.19
291.141	96.19
291.371	71.19
291.602	82.19
291.833	98.19
292.064	87.19
292.295	79.19
292.526	94.19
292.757	85.19
292.987	90.19
293.218	76.19
293.449	81.19
293.68	72.19
293.91	81.19
294.141	75.19
294.372	98.19
294.603	86.19
294.833	81.19
295.064	73.19
295.295	87.19
295.525	101.19
295.756	87.19
295.987	105.19
296.217	125.19
296.448	121.19
296.679	95.19
296.909	83.19
297.14	71.19
297.37	89.19
297.601	79.19
297.831	82.19
298.062	78.19
298.292	90.19
298.523	91.19
298.753	96.19
298.984	88.19
299.214	91.19
299.445	89.19
299.675	84.19
299.905	102.19
300.136	83.19
300.366	87.19
300.597	81.19
300.827	92.19
301.057	96.19
301.288	105.19
301.518	106.19
301.748	96.19
301.979	96.19
302.209	89.19
302.439	83.19
302.669	85.19
302.9	87.19
303.13	98.19
303.36	92.19
303.59	89.19
303.82	104.19
304.051	87.19
304.281	97.19
304.511	86.19
304.741	83.19
304.971	95.19
305.201	96.19
305.431	80.19
305.661	89.19
305.891	85.19
306.121	76.19
306.352	97.19
306.582	119.19
306.812	92.19
307.042	103.19
307.272	91.19
307.502	77.19
307.731	86.19
307.961	95.19
308.191	91.19
308.421	80.19
308.651	99.19
308.881	73.19
309.111	91.19
309.341	93.19
309.571	96.19
309.8	93.19
310.03	78.19
310.26	85.19
310.49	97.19
310.72	98.19
310.949	88.19
311.179	76.19
311.409	88.19
311.639	76.19
311.868	89.19
312.098	88.19
312.328	103.19
312.557	95.19
312.787	96.19
313.017	95.19
313.246	101.19
313.476	98.19
313.706	90.19
313.935	96.19
314.165	95.19
314.394	99.19
314.624	97.19
314.853	78.19
315.083	89.19
315.312	89.19
315.542	89.19
315.771	82.19
316.001	90.19
316.23	87.19
316.46	87.19
316.689	77.19
316.919	93.19
317.148	91.19
317.377	96.19
317.607	101.19
317.836	79.19
318.065	87.19
318.295	88.19
318.524	89.19
318.753	80.19
318.983	101.19
319.212	73.19
319.441	97.19
319.67	104.19
319.9	91.19
320.129	91.19
320.358	101.19
320.587	94.19
320.816	90.19
321.046	106.19
321.275	91.19
321.504	97.19
321.733	83.19
321.962	103.19
322.191	98.19
322.42	104.19
322.649	105.19
322.878	97.19
323.108	118.19
323.337	125.19
323.566	127.19
323.795	142.19
324.024	205.19
324.253	352.19
324.482	773.19
324.71	1579.19
324.939	2055.19
325.168	734.19
325.397	227.19
325.626	147.19
325.855	141.19
326.084	119.19
326.313	131.19
326.542	159.19
326.77	221.19
326.999	448.19
327.228	892.19
327.457	1602.19
327.686	1261.19
327.914	372.19
328.143	212.19
328.372	183.19
328.6	133.19
328.829	110.19
329.058	113.19
329.287	114.19
329.515	113.19
329.744	107.19
329.972	138.19
330.201	181.19
330.43	204.19
330.658	145.19
330.887	130.19
331.115	107.19
331.344	90.19
331.572	90.19
331.801	89.19
332.03	106.19
332.258	96.19
332.486	81.19
332.715	98.19
332.943	93.19
333.172	106.19
333.4	95.19
333.629	100.19
333.857	117.19
334.085	131.19
334.314	170.19
334.542	239.19
334.771	240.19
334.999	131.19
335.227	98.19
335.455	84.19
335.684	100.19
335.912	97.19
336.14	79.19
336.369	102.19
336.597	106.19
336.825	100.19
337.053	101.19
337.281	99.19
337.51	85.19
337.738	95.19
337.966	87.19
338.194	74.19
338.422	94.19
338.65	86.19
338.878	86.19
339.106	90.19
339.334	91.19
339.562	83.19
339.79	87.19
340.018	95.19
340.246	75.19
340.474	92.19
340.702	89.19
340.93	98.19
341.158	108.19
341.386	96.19
341.614	86.19
341.842	84.19
342.07	93.19
342.298	91.19
342.526	96.19
342.754	79.19
342.981	79.19
343.209	91.19
343.437	92.19
343.665	93.19
343.893	95.19
344.12	77.19
344.348	89.19
344.576	85.19
344.804	88.19
345.031	97.19
345.259	85.19
345.487	104.19
345.714	90.19
345.942	84.19
346.17	82.19
346.397	85.19
346.625	94.19
346.853	85.19
347.08	88.19
347.308	90.19
347.535	86.19
347.763	77.19
347.99	96.19
348.218	101.19
348.445	96.19
348.673	81.19
348.9	91.19
349.128	88.19
349.355	90.19
349.583	89.19
349.81	89.19
350.037	98.19
350.265	101.19
350.492	93.19
350.72	94.19
350.947	110.19
351.174	96.19
351.402	99.19
351.629	108.19
351.856	107.19
352.083	86.19
352.311	101.19
352.538	94.19
352.765	96.19
352.992	112.19
353.22	106.19
353.447	105.19
353.674	104.19
353.901	97.19
354.128	89.19
354.355	110.19
354.583	80.19
354.81	99.19
355.037	86.19
355.264	97.19
355.491	79.19
355.718	85.19
355.945	90.19
356.172	103.19
356.399	92.19
356.626	98.19
356.853	78.19
357.08	73.19
357.307	93.19
357.534	87.19
357.761	79.19
357.988	87.19
358.215	91.19
358.441	99.19
358.668	68.19
358.895	72.19
359.122	95.19
359.349	85.19
359.576	92.19
359.802	100.19
360.029	102.19
360.256	99.19
360.483	89.19
360.709	90.19
360.936	81.19
361.163	66.19
361.39	110.19
361.616	97.19
361.843	71.19
362.07	108.19
362.296	100.19
362.523	83.19
362.749	90.19
362.976	86.19
363.203	87.19
363.429	90.19
363.656	79.19
363.882	90.19
364.109	90.19
364.335	100.19
364.562	86.19
364.788	95.19
365.015	99.19
365.241	89.19
365.468	107.19
365.694	104.19
365.92	95.19
366.147	81.19
366.373	84.19
366.599	93.19
366.826	89.19
367.052	85.19
367.278	83.19
367.505	108.19
367.731	85.19
367.957	106.19
368.184	90.19
368.41	97.19
368.636	90.19
368.862	111.19
369.089	112.19
369.315	83.19
369.541	83.19
369.767	90.19
369.993	84.19
370.219	78.19
370.445	88.19
370.672	89.19
370.898	74.19
371.124	83.19
371.35	88.19
371.576	72.19
371.802	87.19
372.028	89.19
372.254	91.19
372.48	81.19
372.706	88.19
372.932	74.19
373.158	91.19
373.384	95.19
373.61	91.19
373.835	93.19
374.061	73.19
374.287	91.19
374.513	80.19
374.739	83.19
374.965	90.19
375.191	79.19
375.416	74.19
375.642	88.19
375.868	88.19
376.094	78.19
376.319	81.19
376.545	79.19
376.771	85.19
376.997	77.19
377.222	82.19
377.448	86.19
377.674	97.19
377.899	94.19
378.125	95.19
378.35	73.19
378.576	73.19
378.802	98.19
379.027	86.19
379.253	92.19
379.478	93.19
379.704	86.19
379.929	79.19
380.155	93.19
380.38	84.19
380.606	90.19
380.831	87.19
381.057	86.19
381.282	76.19
381.507	98.19
381.733	109.19
381.958	93.19
382.184	74.19
382.409	93.19
382.634	103.19
382.86	85.19
383.085	99.19
383.31	99.19
383.535	102.19
383.761	81.19
383.986	94.19
384.211	89.19
384.436	98.19
384.662	94.19
384.887	90.19
385.112	91.19
385.337	88.19
385.562	93.19
385.787	102.19
386.013	96.19
386.238	92.19
386.463	95.19
386.688	112.19
386.913	92.19
387.138	102.19
387.363	96.19
387.588	87.19
387.813	86.19
388.038	79.19
388.263	95.19
388.488	89.19
388.713	97.19
388.938	92.19
389.163	90.19
389.387	90.19
389.612	99.19
389.837	87.19
390.062	97.19
390.287	84.19
390.512	82.19
390.736	74.19
390.961	95.19
391.186	82.19
391.411	85.19
391.636	101.19
391.86	82.19
392.085	75.19
392.31	82.19
392.534	77.19
392.759	86.19
392.984	100.19
393.208	91.19
393.433	89.19
393.658	71.19
393.882	70.19
394.107	93.19
394.331	84.19
394.556	98.19
394.78	90.19
395.005	76.19
395.229	86.19
395.454	74.19
395.678	93.19
395.903	83.19
396.127	73.19
396.352	77.19
396.576	82.19
396.801	80.19
397.025	91.19
397.249	84.19
397.474	79.19
397.698	79.19
397.922	74.19
398.147	76.19
398.371	95.19
398.595	85.19
398.82	81.19
399.044	84.19
399.268	82.19
399.492	78.19
399.717	87.19
399.941	86.19
400.165	89.19
400.389	91.19
400.613	90.19
400.837	90.19
401.062	85.19
401.286	77.19
401.51	77.19
401.734	86.19
401.958	102.19
402.182	141.19
402.406	148.19
402.63	122.19
402.854	108.19
403.078	80.19
403.302	91.19
403.526	91.19
403.75	77.19
403.974	70.19
404.198	72.19
404.422	88.19
404.645	78.19
404.869	91.19
405.093	102.19
405.317	101.19
405.541	88.19
405.765	96.19
405.988	116.19
406.212	150.19
406.436	205.19
406.66	136.19
406.883	93.19
407.107	76.19
407.331	87.19
407.555	86.19
407.778	90.19
408.002	79.19
408.226	94.19
408.449	75.19
408.673	90.19
408.896	83.19
409.12	94.19
409.344	97.19
409.567	83.19
409.791	85.19
410.014	87.19
410.238	80.19
410.461	87.19
410.685	98.19
410.908	81.19
411.132	89.19
411.355	91.19
411.578	109.19
411.802	87.19
412.025	92.19
412.249	86.19
412.472	100.19
412.695	94.19
412.919	96.19
413.142	85.19
413.365	91.19
413.589	83.19
413.812	81.19
414.035	90.19
414.258	90.19
414.482	94.19
414.705	93.19
414.928	91.19
415.151	85.19
415.374	70.19
415.597	81.19
415.821	83.19
416.044	87.19
416.267	79.19
416.49	76.19
416.713	85.19
416.936	86.19
417.159	80.19
417.382	101.19
417.605	81.19
417.828	97.19
418.051	87.19
418.274	85.19
418.497	96.19
418.72	86.19
418.943	80.19
419.166	79.19
419.389	89.19
419.611	87.19
419.834	84.19
420.057	83.19
420.28	86.19
420.503	73.19
420.726	81.19
420.948	81.19
421.171	87.19
421.394	96.19
421.617	87.19
421.839	87.19
422.062	89.19
422.285	96.19
422.507	98.19
422.73	106.19
422.953	81.19
423.175	83.19
423.398	63.19
423.621	81.19
423.843	86.19
424.066	81.19
424.288	95.19
424.511	80.19
424.733	89.19
424.956	112.19
425.178	86.19
425.401	94.19
425.623	82.19
425.846	81.19
426.068	98.19
426.291	82.19
426.513	90.19
426.735	87.19
426.958	86.19
427.18	109.19
427.402	133.19
427.625	163.19
427.847	128.19
428.069	121.19
428.292	94.19
428.514	91.19
428.736	77.19
428.958	74.19
429.181	72.19
429.403	82.19
429.625	72.19
429.847	89.19
430.069	98.19
430.292	91.19
430.514	76.19
430.736	87.19
430.958	90.19
431.18	75.19
431.402	72.19
431.624	82.19
431.846	91.19
432.068	77.19
432.29	81.19
432.512	88.19
432.734	74.19
432.956	89.19
433.178	90.19
433.4	91.19
433.622	72.19
433.844	82.19
434.066	91.19
434.287	83.19
434.509	86.19
434.731	76.19
434.953	86.19
435.175	90.19
435.397	80.19
435.618	98.19
435.84	98.19
436.062	121.19
436.284	108.19
436.505	96.19
436.727	86.19
436.949	93.19
437.17	80.19
437.392	84.19
437.614	94.19
437.835	109.19
438.057	109.19
438.278	104.19
438.5	88.19
438.721	119.19
438.943	83.19
439.165	97.19
439.386	79.19
439.608	73.19
439.829	104.19
440.05	120.19
440.272	117.19
440.493	93.19
440.715	94.19
440.936	83.19
441.158	86.19
441.379	88.19
441.6	98.19
441.822	90.19
442.043	95.19
442.264	102.19
442.486	101.19
442.707	96.19
442.928	91.19
443.149	125.19
443.371	134.19
443.592	109.19
443.813	109.19
444.034	112.19
444.255	87.19
444.476	63.19
444.698	84.19
444.919	93.19
445.14	140.19
445.361	126.19
445.582	109.19
445.803	130.19
446.024	129.19
446.245	120.19
446.466	89.19
446.687	91.19
446.908	96.19
447.129	69.19
447.35	72.19
447.571	87.19
447.792	96.19
448.013	97.19
448.234	97.19
448.455	94.19
448.675	118.19
448.896	107.19
449.117	96.19
449.338	103.19
449.559	125.19
449.779	116.19
450	83.19
450.221	74.19
450.442	93.19
450.662	98.19
450.883	101.19
451.104	108.19
451.324	89.19
451.545	88.19
451.766	86.19
451.986	79.19
452.207	90.19
452.428	90.19
452.648	98.19
452.869	112.19
453.089	104.19
453.31	121.19
453.53	88.19
453.751	87.19
453.971	103.19
454.192	114.19
454.412	89.19
454.633	83.19
454.853	85.19
455.073	81.19
455.294	104.19
455.514	98.19
455.734	99.19
455.955	82.19
456.175	68.19
456.395	95.19
456.616	75.19
456.836	97.19
457.056	92.19
457.276	82.19
457.497	83.19
457.717	93.19
457.937	97.19
458.157	78.19
458.377	79.19
458.598	85.19
458.818	143.19
459.038	150.19
459.258	115.19
459.478	85.19
459.698	95.19
459.918	81.19
460.138	73.19
460.358	80.19
460.578	79.19
460.798	105.19
461.018	96.19
461.238	74.19
461.458	77.19
461.678	75.19
461.898	83.19
462.118	62.19
462.338	88.19
462.558	87.19
462.777	77.19
462.997	79.19
463.217	84.19
463.437	79.19
463.657	79.19
463.876	81.19
464.096	83.19
464.316	80.19
464.536	96.19
464.755	95.19
464.975	93.19
465.195	173.19
465.414	149.19
465.634	96.19
465.854	88.19
466.073	91.19
466.293	71.19
466.512	78.19
466.732	90.19
466.951	71.19
467.171	86.19
467.391	79.19
467.61	90.19
467.829	109.19
468.049	111.19
468.268	136.19
468.488	91.19
468.707	76.19
468.927	99.19
469.146	81.19
469.365	84.19
469.585	88.19
469.804	95.19
470.023	93.19
470.243	99.19
470.462	102.19
470.681	107.19
470.901	97.19
471.12	91.19
471.339	110.19
471.558	77.19
471.777	85.19
471.997	114.19
472.216	209.19
472.435	310.19
472.654	133.19
472.873	103.19
473.092	96.19
473.311	79.19
473.53	81.19
473.749	83.19
473.968	98.19
474.187	107.19
474.406	94.19
474.625	85.19
474.844	69.19
475.063	87.19
475.282	81.19
475.501	77.19
475.72	99.19
475.939	96.19
476.158	88.19
476.377	82.19
476.596	82.19
476.814	90.19
477.033	83.19
477.252	97.19
477.471	90.19
477.69	96.19
477.908	100.19
478.127	102.19
478.346	101.19
478.564	96.19
478.783	91.19
479.002	89.19
479.22	87.19
479.439	86.19
479.658	86.19
479.876	83.19
480.095	90.19
480.313	96.19
480.532	94.19
480.751	107.19
480.969	190.19
481.188	502.19
481.406	325.19
481.624	101.19
481.843	93.19
482.061	89.19
482.28	87.19
482.498	83.19
482.717	85.19
482.935	91.19
483.153	87.19
483.372	86.19
483.59	91.19
483.808	97.19
484.027	100.19
484.245	101.19
484.463	83.19
484.681	87.19
484.9	100.19
485.118	77.19
485.336	89.19
485.554	93.19
485.772	88.19
485.99	92.19
486.209	103.19
486.427	99.19
486.645	101.19
486.863	109.19
487.081	102.19
487.299	105.19
487.517	77.19
487.735	92.19
487.953	90.19
488.171	82.19
488.389	95.19
488.607	98.19
488.825	93.19
489.043	82.19
489.261	88.19
489.479	90.19
489.696	86.19
489.914	92.19
490.132	94.19
490.35	74.19
490.568	75.19
490.786	82.19
491.003	71.19
491.221	78.19
491.439	101.19
491.657	89.19
491.874	101.19
492.092	82.19
492.31	73.19
492.527	86.19
492.745	83.19
492.963	94.19
493.18	95.19
493.398	84.19
493.615	93.19
493.833	98.19
494.05	93.19
494.268	82.19
494.485	96.19
494.703	93.19
494.92	90.19
495.138	81.19
495.355	87.19
495.573	93.19
495.79	89.19
496.008	87.19
496.225	88.19
496.442	79.19
496.66	85.19
496.877	90.19
497.094	86.19
497.312	80.19
497.529	91.19
497.746	90.19
497.963	87.19
498.181	71.19
498.398	99.19
498.615	96.19
498.832	98.19
499.049	87.19
499.267	86.19
499.484	86.19
499.701	71.19
499.918	91.19
500.135	91.19
500.352	89.19
500.569	87.19
500.786	77.19
501.003	82.19
501.22	80.19
501.437	89.19
501.654	91.19
501.871	97.19
502.088	83.19
502.305	88.19
502.522	96.19
502.739	86.19
502.956	85.19
503.172	82.19
503.389	89.19
503.606	108.19
503.823	89.19
504.04	91.19
504.256	86.19
504.473	91.19
504.69	93.19
504.907	84.19
505.123	74.19
505.34	89.19
505.557	85.19
505.773	87.19
505.99	88.19
506.207	92.19
506.423	89.19
506.64	84.19
506.856	87.19
507.073	88.19
507.289	88.19
507.506	83.19
507.722	99.19
507.939	91.19
508.155	89.19
508.372	88.19
508.588	82.19
508.805	85.19
509.021	100.19
509.238	102.19
509.454	107.19
509.67	105.19
509.887	93.19
510.103	126.19
510.319	225.19
510.536	747.19
510.752	2382.19
510.968	639.19
511.184	152.19
511.401	112.19
511.617	91.19
511.833	97.19
512.049	95.19
512.265	90.19
512.481	87.19
512.698	88.19
512.914	91.19
513.13	92.19
513.346	86.19
513.562	96.19
513.778	102.19
513.994	103.19
514.21	84.19
514.426	107.19
514.642	118.19
514.858	116.19
515.074	168.19
515.29	449.19
515.506	1461.19
515.721	524.19
515.937	137.19
516.153	105.19
516.369	103.19
516.585	90.19
516.801	98.19
