Data from Circ_1994_H10_HRD10591_00030.txt Node
Date: Wed Jan 03 11:40:36 EST 2024
User: Yrep
Spectrometer: HR+D1059
Trigger mode: 1
Integration Time (sec): 1.000000E-1
Scans to average: 1
Electric dark correction enabled: true
Nonlinearity correction enabled: false
Boxcar width: 0
XAxis mode: Wavelengths
Number of Pixels in Spectrum: 2048
>>>>>Begin Spectral Data<<<<<
223.165	-25
223.4	-25
223.635	-25
223.869	-9
224.104	-21
224.338	-13
224.573	-23
224.808	-10
225.042	-11
225.277	0
225.511	-17
225.746	7
225.98	8
226.215	5
226.449	28
226.683	23
226.918	23
227.152	35
227.387	27
227.621	36
227.856	38
228.09	40
228.324	31
228.559	70
228.793	54
229.027	69
229.262	67
229.496	81
229.73	83
229.964	77
230.199	61
230.433	75
230.667	63
230.901	79
231.136	74
231.37	92
231.604	88
231.838	85
232.072	78
232.306	62
232.541	69
232.775	71
233.009	79
233.243	73
233.477	84
233.711	79
233.945	87
234.179	84
234.413	82
234.647	85
234.881	69
235.115	77
235.349	73
235.583	81
235.817	65
236.051	79
236.285	70
236.519	77
236.753	90
236.987	87
237.221	87
237.455	78
237.689	78
237.922	70
238.156	78
238.39	77
238.624	73
238.858	81
239.091	81
239.325	75
239.559	78
239.793	64
240.027	73
240.26	87
240.494	64
240.728	73
240.961	67
241.195	74
241.429	78
241.662	73
241.896	69
242.13	68
242.363	71
242.597	75
242.83	86
243.064	68
243.298	81
243.531	66
243.765	81
243.998	69
244.232	81
244.465	83
244.699	73
244.932	72
245.166	73
245.399	85
245.633	80
245.866	75
246.099	59
246.333	66
246.566	65
246.8	80
247.033	71
247.266	70
247.5	78
247.733	71
247.966	89
248.2	69
248.433	66
248.666	77
248.899	77
249.133	71
249.366	91
249.599	98
249.832	84
250.066	78
250.299	75
250.532	74
250.765	80
250.998	85
251.231	62
251.465	76
251.698	83
251.931	79
252.164	85
252.397	91
252.63	70
252.863	89
253.096	74
253.329	82
253.562	80
253.795	66
254.028	88
254.261	72
254.494	78
254.727	72
254.96	75
255.193	68
255.426	83
255.659	74
255.892	85
256.124	82
256.357	83
256.59	90
256.823	73
257.056	90
257.289	80
257.521	71
257.754	72
257.987	84
258.22	66
258.452	65
258.685	73
258.918	78
259.151	77
259.383	87
259.616	76
259.849	85
260.081	99
260.314	76
260.547	73
260.779	84
261.012	82
261.244	77
261.477	91
261.71	89
261.942	106
262.175	101
262.407	84
262.64	85
262.872	81
263.105	84
263.337	85
263.57	74
263.802	85
264.035	66
264.267	64
264.499	63
264.732	79
264.964	87
265.197	84
265.429	90
265.661	88
265.894	80
266.126	80
266.358	74
266.591	98
266.823	88
267.055	82
267.287	77
267.52	75
267.752	105
267.984	94
268.216	85
268.448	84
268.681	80
268.913	61
269.145	89
269.377	81
269.609	73
269.841	87
270.073	80
270.306	78
270.538	75
270.77	73
271.002	66
271.234	76
271.466	93
271.698	73
271.93	77
272.162	79
272.394	89
272.626	93
272.858	80
273.09	69
273.322	74
273.553	81
273.785	84
274.017	71
274.249	69
274.481	70
274.713	90
274.945	87
275.176	86
275.408	70
275.64	73
275.872	65
276.104	94
276.335	111
276.567	98
276.799	87
277.031	99
277.262	82
277.494	80
277.726	89
277.957	87
278.189	93
278.421	78
278.652	83
278.884	78
279.115	68
279.347	82
279.579	94
279.81	88
280.042	77
280.273	86
280.505	75
280.736	77
280.968	80
281.199	70
281.431	82
281.662	72
281.894	84
282.125	99
282.356	120
282.588	123
282.819	117
283.051	88
283.282	83
283.513	77
283.745	67
283.976	93
284.207	78
284.439	77
284.67	85
284.901	95
285.132	96
285.364	84
285.595	91
285.826	72
286.057	92
286.288	71
286.52	87
286.751	82
286.982	87
287.213	66
287.444	91
287.675	83
287.906	84
288.138	83
288.369	83
288.6	88
288.831	78
289.062	65
289.293	92
289.524	85
289.755	81
289.986	74
290.217	83
290.448	84
290.679	82
290.91	87
291.141	82
291.371	83
291.602	87
291.833	95
292.064	83
292.295	82
292.526	73
292.757	84
292.987	76
293.218	91
293.449	87
293.68	85
293.91	78
294.141	94
294.372	85
294.603	105
294.833	82
295.064	93
295.295	94
295.525	73
295.756	98
295.987	114
296.217	117
296.448	102
296.679	89
296.909	88
297.14	75
297.37	77
297.601	89
297.831	82
298.062	69
298.292	66
298.523	83
298.753	83
298.984	86
299.214	80
299.445	81
299.675	86
299.905	99
300.136	90
300.366	88
300.597	81
300.827	90
301.057	95
301.288	83
301.518	93
301.748	80
301.979	103
302.209	93
302.439	81
302.669	82
302.9	78
303.13	89
303.36	97
303.59	97
303.82	94
304.051	90
304.281	94
304.511	71
304.741	88
304.971	80
305.201	91
305.431	64
305.661	81
305.891	82
306.121	88
306.352	91
306.582	88
306.812	86
307.042	91
307.272	86
307.502	88
307.731	109
307.961	88
308.191	90
308.421	94
308.651	83
308.881	91
309.111	80
309.341	85
309.571	85
309.8	87
310.03	98
310.26	96
310.49	103
310.72	82
310.949	94
311.179	118
311.409	81
311.639	79
311.868	105
312.098	89
312.328	82
312.557	101
312.787	96
313.017	85
313.246	102
313.476	88
313.706	78
313.935	79
314.165	91
314.394	103
314.624	101
314.853	98
315.083	92
315.312	94
315.542	87
315.771	78
316.001	94
316.23	85
316.46	85
316.689	93
316.919	97
317.148	95
317.377	94
317.607	94
317.836	84
318.065	108
318.295	95
318.524	91
318.753	78
318.983	98
319.212	91
319.441	83
319.67	101
319.9	90
320.129	81
320.358	79
320.587	92
320.816	97
321.046	91
321.275	89
321.504	96
321.733	96
321.962	84
322.191	93
322.42	110
322.649	112
322.878	113
323.108	90
323.337	118
323.566	117
323.795	134
324.024	189
324.253	338
324.482	735
324.71	1482
324.939	1890
325.168	728
325.397	224
325.626	134
325.855	116
326.084	110
326.313	135
326.542	153
326.77	222
326.999	419
327.228	801
327.457	1505
327.686	1160
327.914	319
328.143	165
328.372	145
328.6	118
328.829	111
329.058	133
329.287	136
329.515	106
329.744	94
329.972	97
330.201	118
330.43	123
330.658	120
330.887	133
331.115	117
331.344	101
331.572	107
331.801	95
332.03	81
332.258	79
332.486	88
332.715	90
332.943	94
333.172	86
333.4	90
333.629	95
333.857	90
334.085	99
334.314	128
334.542	135
334.771	131
334.999	103
335.227	103
335.455	102
335.684	91
335.912	97
336.14	95
336.369	87
336.597	89
336.825	94
337.053	84
337.281	90
337.51	89
337.738	91
337.966	92
338.194	90
338.422	86
338.65	89
338.878	83
339.106	82
339.334	89
339.562	70
339.79	98
340.018	76
340.246	92
340.474	88
340.702	86
340.93	92
341.158	85
341.386	95
341.614	89
341.842	92
342.07	75
342.298	93
342.526	82
342.754	94
342.981	85
343.209	94
343.437	77
343.665	86
343.893	94
344.12	107
344.348	81
344.576	73
344.804	99
345.031	98
345.259	97
345.487	73
345.714	96
345.942	94
346.17	93
346.397	104
346.625	93
346.853	97
347.08	86
347.308	94
347.535	89
347.763	97
347.99	91
348.218	108
348.445	104
348.673	114
348.9	97
349.128	90
349.355	93
349.583	85
349.81	84
350.037	74
350.265	100
350.492	96
350.72	109
350.947	99
351.174	98
351.402	106
351.629	98
351.856	97
352.083	86
352.311	96
352.538	105
352.765	122
352.992	106
353.22	111
353.447	92
353.674	102
353.901	89
354.128	95
354.355	101
354.583	100
354.81	100
355.037	102
355.264	91
355.491	87
355.718	96
355.945	89
356.172	95
356.399	98
356.626	103
356.853	99
357.08	90
357.307	98
357.534	90
357.761	97
357.988	103
358.215	97
358.441	79
358.668	92
358.895	91
359.122	90
359.349	80
359.576	94
359.802	97
360.029	94
360.256	93
360.483	104
360.709	86
360.936	93
361.163	93
361.39	91
361.616	80
361.843	103
362.07	115
362.296	94
362.523	91
362.749	83
362.976	80
363.203	81
363.429	84
363.656	93
363.882	84
364.109	77
364.335	83
364.562	80
364.788	88
365.015	90
365.241	98
365.468	84
365.694	97
365.92	93
366.147	96
366.373	89
366.599	89
366.826	94
367.052	84
367.278	87
367.505	94
367.731	104
367.957	87
368.184	78
368.41	92
368.636	100
368.862	132
369.089	101
369.315	81
369.541	77
369.767	68
369.993	88
370.219	85
370.445	81
370.672	71
370.898	85
371.124	89
371.35	88
371.576	85
371.802	79
372.028	70
372.254	84
372.48	91
372.706	77
372.932	85
373.158	80
373.384	78
373.61	85
373.835	83
374.061	90
374.287	87
374.513	88
374.739	88
374.965	80
375.191	98
375.416	86
375.642	90
375.868	93
376.094	87
376.319	77
376.545	100
376.771	63
376.997	77
377.222	95
377.448	96
377.674	98
377.899	83
378.125	89
378.35	83
378.576	98
378.802	88
379.027	79
379.253	91
379.478	85
379.704	80
379.929	85
380.155	84
380.38	88
380.606	99
380.831	82
381.057	96
381.282	90
381.507	96
381.733	86
381.958	81
382.184	85
382.409	89
382.634	110
382.86	99
383.085	103
383.31	93
383.535	81
383.761	96
383.986	111
384.211	98
384.436	89
384.662	92
384.887	94
385.112	97
385.337	83
385.562	94
385.787	97
386.013	117
386.238	101
386.463	104
386.688	102
386.913	92
387.138	77
387.363	90
387.588	92
387.813	87
388.038	100
388.263	107
388.488	105
388.713	110
388.938	91
389.163	103
389.387	88
389.612	93
389.837	98
390.062	85
390.287	94
390.512	82
390.736	81
390.961	97
391.186	99
391.411	106
391.636	91
391.86	81
392.085	94
392.31	86
392.534	87
392.759	95
392.984	87
393.208	104
393.433	98
393.658	89
393.882	78
394.107	87
394.331	96
394.556	96
394.78	82
395.005	81
395.229	91
395.454	99
395.678	82
395.903	94
396.127	95
396.352	89
396.576	93
396.801	81
397.025	82
397.249	78
397.474	83
397.698	88
397.922	89
398.147	92
398.371	78
398.595	92
398.82	82
399.044	94
399.268	90
399.492	82
399.717	102
399.941	92
400.165	80
400.389	98
400.613	93
400.837	90
401.062	101
401.286	77
401.51	87
401.734	89
401.958	98
402.182	118
402.406	136
402.63	112
402.854	76
403.078	83
403.302	80
403.526	95
403.75	85
403.974	93
404.198	99
404.422	93
404.645	85
404.869	76
405.093	92
405.317	81
405.541	94
405.765	91
405.988	103
406.212	153
406.436	218
406.66	133
406.883	92
407.107	95
407.331	93
407.555	103
407.778	95
408.002	98
408.226	91
408.449	91
408.673	83
408.896	96
409.12	96
409.344	85
409.567	87
409.791	89
410.014	104
410.238	99
410.461	78
410.685	95
410.908	87
411.132	100
411.355	109
411.578	89
411.802	83
412.025	86
412.249	80
412.472	88
412.695	87
412.919	89
413.142	91
413.365	95
413.589	90
413.812	89
414.035	95
414.258	95
414.482	86
414.705	80
414.928	77
415.151	83
415.374	89
415.597	81
415.821	82
416.044	82
416.267	86
416.49	85
416.713	97
416.936	94
417.159	88
417.382	94
417.605	86
417.828	85
418.051	82
418.274	90
418.497	78
418.72	86
418.943	81
419.166	85
419.389	88
419.611	78
419.834	84
420.057	97
420.28	92
420.503	82
420.726	78
420.948	104
421.171	85
421.394	93
421.617	86
421.839	81
422.062	82
422.285	94
422.507	91
422.73	108
422.953	89
423.175	93
423.398	81
423.621	89
423.843	98
424.066	87
424.288	95
424.511	92
424.733	107
424.956	96
425.178	95
425.401	93
425.623	100
425.846	86
426.068	98
426.291	88
426.513	99
426.735	85
426.958	76
427.18	112
427.402	125
427.625	132
427.847	117
428.069	94
428.292	77
428.514	62
428.736	86
428.958	83
429.181	76
429.403	86
429.625	82
429.847	84
430.069	77
430.292	93
430.514	87
430.736	88
430.958	88
431.18	83
431.402	89
431.624	80
431.846	92
432.068	92
432.29	78
432.512	87
432.734	96
432.956	96
433.178	94
433.4	84
433.622	88
433.844	84
434.066	81
434.287	94
434.509	91
434.731	92
434.953	76
435.175	90
435.397	87
435.618	85
435.84	92
436.062	107
436.284	108
436.505	89
436.727	102
436.949	89
437.17	94
437.392	85
437.614	84
437.835	111
438.057	109
438.278	95
438.5	88
438.721	119
438.943	103
439.165	82
439.386	83
439.608	80
439.829	93
440.05	112
440.272	118
440.493	92
440.715	84
440.936	90
441.158	78
441.379	90
441.6	96
441.822	85
442.043	83
442.264	89
442.486	90
442.707	107
442.928	95
443.149	111
443.371	126
443.592	95
443.813	92
444.034	103
444.255	87
444.476	84
444.698	89
444.919	92
445.14	129
445.361	105
445.582	107
445.803	106
446.024	109
446.245	117
446.466	107
446.687	99
446.908	99
447.129	92
447.35	99
447.571	93
447.792	95
448.013	89
448.234	95
448.455	91
448.675	114
448.896	104
449.117	98
449.338	97
449.559	107
449.779	129
450	98
450.221	80
450.442	83
450.662	80
450.883	102
451.104	121
451.324	91
451.545	76
451.766	80
451.986	85
452.207	86
452.428	92
452.648	97
452.869	103
453.089	110
453.31	119
453.53	92
453.751	92
453.971	102
454.192	86
454.412	105
454.633	88
454.853	90
455.073	93
455.294	74
455.514	75
455.734	88
455.955	102
456.175	79
456.395	73
456.616	80
456.836	82
457.056	87
457.276	83
457.497	77
457.717	79
457.937	77
458.157	82
458.377	98
458.598	113
458.818	127
459.038	142
459.258	104
459.478	85
459.698	85
459.918	93
460.138	89
460.358	93
460.578	88
460.798	90
461.018	97
461.238	89
461.458	95
461.678	81
461.898	89
462.118	84
462.338	73
462.558	95
462.777	95
462.997	91
463.217	82
463.437	96
463.657	81
463.876	82
464.096	88
464.316	83
464.536	97
464.755	80
464.975	98
465.195	155
465.414	146
465.634	89
465.854	94
466.073	80
466.293	83
466.512	85
466.732	95
466.951	65
467.171	91
467.391	97
467.61	111
467.829	94
468.049	80
468.268	98
468.488	83
468.707	76
468.927	92
469.146	77
469.365	85
469.585	73
469.804	79
470.023	92
470.243	79
470.462	97
470.681	98
470.901	94
471.12	81
471.339	80
471.558	80
471.777	78
471.997	102
472.216	103
472.435	147
472.654	94
472.873	88
473.092	98
473.311	76
473.53	88
473.749	82
473.968	87
474.187	95
474.406	81
474.625	85
474.844	97
475.063	72
475.282	93
475.501	86
475.72	107
475.939	89
476.158	84
476.377	86
476.596	79
476.814	74
477.033	86
477.252	82
477.471	70
477.69	85
477.908	81
478.127	73
478.346	81
478.564	95
478.783	89
479.002	82
479.22	95
479.439	94
479.658	105
479.876	93
480.095	64
480.313	78
480.532	77
480.751	84
480.969	134
481.188	200
481.406	163
481.624	94
481.843	86
482.061	98
482.28	74
482.498	104
482.717	87
482.935	93
483.153	89
483.372	84
483.59	79
483.808	81
484.027	91
484.245	81
484.463	97
484.681	106
484.9	82
485.118	90
485.336	98
485.554	109
485.772	92
485.99	101
486.209	93
486.427	87
486.645	103
486.863	106
487.081	101
487.299	87
487.517	97
487.735	93
487.953	93
488.171	97
488.389	80
488.607	96
488.825	88
489.043	93
489.261	94
489.479	85
489.696	91
489.914	87
490.132	78
490.35	83
490.568	76
490.786	83
491.003	76
491.221	87
491.439	103
491.657	96
491.874	91
492.092	88
492.31	90
492.527	89
492.745	86
492.963	85
493.18	91
493.398	76
493.615	76
493.833	82
494.05	100
494.268	90
494.485	91
494.703	91
494.92	90
495.138	82
495.355	81
495.573	77
495.79	87
496.008	94
496.225	64
496.442	89
496.66	87
496.877	97
497.094	85
497.312	97
497.529	75
497.746	76
497.963	94
498.181	91
498.398	93
498.615	103
498.832	96
499.049	85
499.267	64
499.484	90
499.701	87
499.918	90
500.135	73
500.352	87
500.569	97
500.786	87
501.003	93
501.22	82
501.437	100
501.654	95
501.871	97
502.088	85
502.305	90
502.522	72
502.739	85
502.956	83
503.172	82
503.389	85
503.606	86
503.823	91
504.04	88
504.256	99
504.473	79
504.69	91
504.907	99
505.123	94
505.34	75
505.557	99
505.773	73
505.99	82
506.207	83
506.423	90
506.64	83
506.856	77
507.073	86
507.289	94
507.506	87
507.722	105
507.939	99
508.155	83
508.372	91
508.588	90
508.805	92
509.021	99
509.238	100
509.454	110
509.67	108
509.887	92
510.103	133
510.319	213
510.536	743
510.752	2300
510.968	629
511.184	153
511.401	99
511.617	99
511.833	94
512.049	95
512.265	83
512.481	91
512.698	94
512.914	83
513.13	103
513.346	93
513.562	82
513.778	91
513.994	84
514.21	90
514.426	110
514.642	103
514.858	119
515.074	147
515.29	405
515.506	1331
515.721	498
515.937	142
516.153	99
516.369	102
516.585	89
516.801	80
517.016	86
517.232	93
517.448	91
517.664	97
517.879	90
518.095	88
518.311	95
518.527	85
518.742	94
518.958	92
519.173	99
519.389	84
519.605	104
519.82	91
520.036	91
520.251	117
520.467	91
520.682	96
520.898	99
521.113	93
521.329	117
521.544	199
521.76	498
521.975	2261
522.19	1285
522.406	275
522.621	109
522.836	105
523.052	96
523.267	98
523.482	96
523.698	97
523.913	98
524.128	91
524.343	93
524.559	94
524.774	82
524.989	96
525.204	81
525.419	89
525.634	97
525.849	94
526.064	96
526.28	88
526.495	81
526.71	85
526.925	81
527.14	102
527.355	97
527.57	77
527.785	84
527.999	89
528.214	101
528.429	104
528.644	96
528.859	103
529.074	93
529.289	122
529.503	155
529.718	99
529.933	76
530.148	79
530.363	103
530.577	86
530.792	85
531.007	76
531.221	89
531.436	90
531.651	78
531.865	99
532.08	101
532.295	89
532.509	94
532.724	90
532.938	87
533.153	108
533.367	85
533.582	95
533.796	97
534.011	96
534.225	99
534.44	82
534.654	83
534.868	88
535.083	86
535.297	97
535.511	105
535.726	98
535.94	113
536.154	101
536.369	101
536.583	99
536.797	91
537.011	87
537.225	76
537.44	89
537.654	80
537.868	93
538.082	85
538.296	82
538.51	96
538.724	86
538.938	81
539.153	75
539.367	96
539.581	94
539.795	83
540.009	87
540.222	82
540.436	90
540.65	90
540.864	99
541.078	94
541.292	81
541.506	104
541.72	91
541.934	81
542.147	85
542.361	79
542.575	97
542.789	96
543.002	96
543.216	84
543.43	89
543.644	87
543.857	93
544.071	94
544.285	98
544.498	93
544.712	69
544.925	93
545.139	73
545.352	75
545.566	98
545.779	104
545.993	75
546.206	96
546.42	79
546.633	85
546.847	104
547.06	91
547.274	84
547.487	85
547.7	86
547.914	81
548.127	84
548.34	85
548.554	75
548.767	88
548.98	80
549.193	81
549.407	81
549.62	80
549.833	93
550.046	87
550.259	86
550.473	77
550.686	76
550.899	80
551.112	77
551.325	71
551.538	86
551.751	88
551.964	83
552.177	98
552.39	87
552.603	90
552.816	98
553.029	89
553.242	81
553.455	83
553.667	99
553.88	95
554.093	85
554.306	85
554.519	82
554.732	87
554.944	95
555.157	99
555.37	82
555.583	94
555.795	107
556.008	89
556.221	86
556.433	85
556.646	104
556.859	87
557.071	87
557.284	96
557.496	77
557.709	74
557.921	95
558.134	86
558.346	85
558.559	79
558.771	83
558.984	100
559.196	98
559.409	83
559.621	96
559.833	98
560.046	88
560.258	95
560.47	95
560.683	91
560.895	88
561.107	78
561.32	93
561.532	99
561.744	94
561.956	81
562.168	91
562.381	77
562.593	77
562.805	84
563.017	79
563.229	98
563.441	73
563.653	82
563.865	91
564.077	89
564.289	85
564.501	75
564.713	89
564.925	96
565.137	96
565.349	83
565.561	87
565.773	72
565.985	87
566.197	77
566.408	83
566.62	80
566.832	85
567.044	84
567.255	89
567.467	89
567.679	87
567.891	72
568.102	86
568.314	101
568.526	82
568.737	85
568.949	73
569.161	89
569.372	67
569.584	90
569.795	99
570.007	121
570.218	237
570.43	118
570.641	90
570.853	87
571.064	87
571.276	89
571.487	85
571.698	92
571.91	82
572.121	80
572.333	78
572.544	89
572.755	82
572.966	86
573.178	76
573.389	79
573.6	101
573.811	78
574.023	79
574.234	79
574.445	73
574.656	71
574.867	94
575.078	78
575.289	90
575.501	97
575.712	91
575.923	84
576.134	89
576.345	81
576.556	91
576.767	86
576.978	73
577.188	90
577.399	90
577.61	86
577.821	87
578.032	121
578.243	255
578.454	716
578.665	193
578.875	100
579.086	91
579.297	93
579.508	88
579.718	85
579.929	85
580.14	97
580.35	70
580.561	91
580.772	80
580.982	61
581.193	75
581.403	94
581.614	83
581.825	80
582.035	75
582.246	86
582.456	86
582.667	88
582.877	80
583.087	84
583.298	88
583.508	83
583.719	94
583.929	79
584.139	91
584.35	88
584.56	77
584.77	73
584.981	91
585.191	90
585.401	94
585.611	90
585.821	87
586.032	88
586.242	85
586.452	80
586.662	75
