Data from Circ_1994_H10_HRD10591_00051.txt Node
Date: Wed Jan 03 11:40:40 EST 2024
User: Yrep
Spectrometer: HR+D1059
Trigger mode: 1
Integration Time (sec): 1.000000E-1
Scans to average: 1
Electric dark correction enabled: true
Nonlinearity correction enabled: false
Boxcar width: 0
XAxis mode: Wavelengths
Number of Pixels in Spectrum: 2048
>>>>>Begin Spectral Data<<<<<
223.165	-8.25
223.4	-8.25
223.635	-8.25
223.869	-10.25
224.104	-14.25
224.338	-23.25
224.573	-19.25
224.808	-26.25
225.042	-2.25
225.277	-0.25
225.511	4.75
225.746	5.75
225.98	7.75
226.215	1.75
226.449	15.75
226.683	17.75
226.918	17.75
227.152	32.75
227.387	23.75
227.621	30.75
227.856	43.75
228.09	50.75
228.324	45.75
228.559	60.75
228.793	55.75
229.027	63.75
229.262	58.75
229.496	67.75
229.73	80.75
229.964	73.75
230.199	69.75
230.433	82.75
230.667	71.75
230.901	84.75
231.136	76.75
231.37	77.75
231.604	69.75
231.838	93.75
232.072	77.75
232.306	67.75
232.541	87.75
232.775	78.75
233.009	81.75
233.243	84.75
233.477	81.75
233.711	92.75
233.945	94.75
234.179	81.75
234.413	67.75
234.647	85.75
234.881	69.75
235.115	72.75
235.349	81.75
235.583	91.75
235.817	68.75
236.051	84.75
236.285	68.75
236.519	77.75
236.753	75.75
236.987	81.75
237.221	88.75
237.455	89.75
237.689	76.75
237.922	78.75
238.156	72.75
238.39	71.75
238.624	73.75
238.858	79.75
239.091	68.75
239.325	81.75
239.559	80.75
239.793	79.75
240.027	68.75
240.26	78.75
240.494	83.75
240.728	77.75
240.961	71.75
241.195	85.75
241.429	93.75
241.662	81.75
241.896	83.75
242.13	80.75
242.363	76.75
242.597	77.75
242.83	66.75
243.064	64.75
243.298	79.75
243.531	67.75
243.765	65.75
243.998	77.75
244.232	73.75
244.465	78.75
244.699	88.75
244.932	77.75
245.166	83.75
245.399	79.75
245.633	75.75
245.866	82.75
246.099	65.75
246.333	79.75
246.566	61.75
246.8	77.75
247.033	79.75
247.266	75.75
247.5	53.75
247.733	87.75
247.966	81.75
248.2	80.75
248.433	69.75
248.666	73.75
248.899	71.75
249.133	77.75
249.366	88.75
249.599	91.75
249.832	81.75
250.066	79.75
250.299	76.75
250.532	84.75
250.765	81.75
250.998	76.75
251.231	73.75
251.465	75.75
251.698	75.75
251.931	90.75
252.164	97.75
252.397	74.75
252.63	79.75
252.863	78.75
253.096	87.75
253.329	82.75
253.562	82.75
253.795	86.75
254.028	81.75
254.261	73.75
254.494	84.75
254.727	82.75
254.96	76.75
255.193	61.75
255.426	98.75
255.659	80.75
255.892	97.75
256.124	82.75
256.357	90.75
256.59	99.75
256.823	81.75
257.056	78.75
257.289	87.75
257.521	96.75
257.754	83.75
257.987	88.75
258.22	84.75
258.452	75.75
258.685	92.75
258.918	83.75
259.151	87.75
259.383	84.75
259.616	81.75
259.849	77.75
260.081	86.75
260.314	87.75
260.547	85.75
260.779	73.75
261.012	79.75
261.244	84.75
261.477	80.75
261.71	89.75
261.942	101.75
262.175	97.75
262.407	90.75
262.64	92.75
262.872	83.75
263.105	71.75
263.337	76.75
263.57	67.75
263.802	79.75
264.035	84.75
264.267	79.75
264.499	95.75
264.732	89.75
264.964	99.75
265.197	82.75
265.429	71.75
265.661	67.75
265.894	96.75
266.126	71.75
266.358	97.75
266.591	80.75
266.823	78.75
267.055	92.75
267.287	79.75
267.52	89.75
267.752	77.75
267.984	83.75
268.216	80.75
268.448	87.75
268.681	89.75
268.913	104.75
269.145	77.75
269.377	85.75
269.609	82.75
269.841	84.75
270.073	100.75
270.306	93.75
270.538	79.75
270.77	82.75
271.002	91.75
271.234	71.75
271.466	83.75
271.698	74.75
271.93	83.75
272.162	84.75
272.394	77.75
272.626	88.75
272.858	90.75
273.09	93.75
273.322	80.75
273.553	92.75
273.785	79.75
274.017	92.75
274.249	89.75
274.481	88.75
274.713	79.75
274.945	93.75
275.176	88.75
275.408	66.75
275.64	89.75
275.872	71.75
276.104	83.75
276.335	96.75
276.567	100.75
276.799	92.75
277.031	103.75
277.262	86.75
277.494	65.75
277.726	95.75
277.957	89.75
278.189	82.75
278.421	84.75
278.652	83.75
278.884	85.75
279.115	83.75
279.347	83.75
279.579	102.75
279.81	100.75
280.042	93.75
280.273	101.75
280.505	89.75
280.736	85.75
280.968	86.75
281.199	78.75
281.431	82.75
281.662	91.75
281.894	96.75
282.125	99.75
282.356	114.75
282.588	135.75
282.819	105.75
283.051	79.75
283.282	75.75
283.513	86.75
283.745	95.75
283.976	83.75
284.207	91.75
284.439	95.75
284.67	89.75
284.901	85.75
285.132	92.75
285.364	75.75
285.595	75.75
285.826	100.75
286.057	90.75
286.288	87.75
286.52	89.75
286.751	88.75
286.982	95.75
287.213	81.75
287.444	83.75
287.675	87.75
287.906	87.75
288.138	93.75
288.369	100.75
288.6	89.75
288.831	79.75
289.062	89.75
289.293	88.75
289.524	77.75
289.755	79.75
289.986	85.75
290.217	89.75
290.448	81.75
290.679	92.75
290.91	84.75
291.141	82.75
291.371	93.75
291.602	82.75
291.833	71.75
292.064	74.75
292.295	82.75
292.526	83.75
292.757	73.75
292.987	87.75
293.218	91.75
293.449	72.75
293.68	73.75
293.91	93.75
294.141	84.75
294.372	84.75
294.603	89.75
294.833	99.75
295.064	72.75
295.295	89.75
295.525	88.75
295.756	96.75
295.987	100.75
296.217	127.75
296.448	117.75
296.679	83.75
296.909	90.75
297.14	77.75
297.37	73.75
297.601	90.75
297.831	77.75
298.062	83.75
298.292	76.75
298.523	87.75
298.753	87.75
298.984	88.75
299.214	91.75
299.445	90.75
299.675	88.75
299.905	84.75
300.136	86.75
300.366	89.75
300.597	90.75
300.827	89.75
301.057	110.75
301.288	87.75
301.518	85.75
301.748	89.75
301.979	88.75
302.209	93.75
302.439	91.75
302.669	79.75
302.9	98.75
303.13	106.75
303.36	90.75
303.59	96.75
303.82	109.75
304.051	95.75
304.281	94.75
304.511	86.75
304.741	90.75
304.971	89.75
305.201	81.75
305.431	85.75
305.661	79.75
305.891	95.75
306.121	94.75
306.352	88.75
306.582	110.75
306.812	75.75
307.042	94.75
307.272	74.75
307.502	80.75
307.731	81.75
307.961	88.75
308.191	77.75
308.421	94.75
308.651	83.75
308.881	89.75
309.111	100.75
309.341	86.75
309.571	102.75
309.8	91.75
310.03	93.75
310.26	80.75
310.49	92.75
310.72	93.75
310.949	86.75
311.179	99.75
311.409	89.75
311.639	93.75
311.868	88.75
312.098	88.75
312.328	95.75
312.557	100.75
312.787	99.75
313.017	109.75
313.246	96.75
313.476	85.75
313.706	97.75
313.935	88.75
314.165	97.75
314.394	91.75
314.624	97.75
314.853	86.75
315.083	84.75
315.312	99.75
315.542	89.75
315.771	84.75
316.001	90.75
316.23	83.75
316.46	69.75
316.689	95.75
316.919	89.75
317.148	92.75
317.377	91.75
317.607	87.75
317.836	95.75
318.065	106.75
318.295	85.75
318.524	82.75
318.753	90.75
318.983	84.75
319.212	90.75
319.441	107.75
319.67	87.75
319.9	81.75
320.129	82.75
320.358	99.75
320.587	100.75
320.816	91.75
321.046	92.75
321.275	100.75
321.504	101.75
321.733	81.75
321.962	98.75
322.191	84.75
322.42	93.75
322.649	105.75
322.878	91.75
323.108	108.75
323.337	113.75
323.566	114.75
323.795	145.75
324.024	190.75
324.253	347.75
324.482	720.75
324.71	1460.75
324.939	1898.75
325.168	695.75
325.397	213.75
325.626	141.75
325.855	125.75
326.084	132.75
326.313	116.75
326.542	139.75
326.77	205.75
326.999	412.75
327.228	794.75
327.457	1427.75
327.686	1145.75
327.914	337.75
328.143	175.75
328.372	153.75
328.6	126.75
328.829	106.75
329.058	124.75
329.287	130.75
329.515	98.75
329.744	105.75
329.972	109.75
330.201	127.75
330.43	167.75
330.658	143.75
330.887	136.75
331.115	137.75
331.344	94.75
331.572	99.75
331.801	105.75
332.03	89.75
332.258	91.75
332.486	85.75
332.715	88.75
332.943	90.75
333.172	88.75
333.4	109.75
333.629	100.75
333.857	115.75
334.085	108.75
334.314	133.75
334.542	162.75
334.771	162.75
334.999	108.75
335.227	114.75
335.455	100.75
335.684	107.75
335.912	98.75
336.14	95.75
336.369	91.75
336.597	104.75
336.825	100.75
337.053	102.75
337.281	91.75
337.51	91.75
337.738	94.75
337.966	100.75
338.194	97.75
338.422	105.75
338.65	103.75
338.878	85.75
339.106	104.75
339.334	107.75
339.562	87.75
339.79	68.75
340.018	95.75
340.246	85.75
340.474	95.75
340.702	88.75
340.93	88.75
341.158	95.75
341.386	83.75
341.614	98.75
341.842	87.75
342.07	86.75
342.298	107.75
342.526	92.75
342.754	91.75
342.981	98.75
343.209	99.75
343.437	111.75
343.665	90.75
343.893	82.75
344.12	91.75
344.348	97.75
344.576	87.75
344.804	80.75
345.031	92.75
345.259	101.75
345.487	96.75
345.714	85.75
345.942	89.75
346.17	113.75
346.397	97.75
346.625	99.75
346.853	86.75
347.08	90.75
347.308	94.75
347.535	84.75
347.763	82.75
347.99	105.75
348.218	95.75
348.445	96.75
348.673	97.75
348.9	91.75
349.128	97.75
349.355	87.75
349.583	84.75
349.81	94.75
350.037	100.75
350.265	95.75
350.492	98.75
350.72	90.75
350.947	96.75
351.174	100.75
351.402	106.75
351.629	98.75
351.856	96.75
352.083	111.75
352.311	100.75
352.538	98.75
352.765	105.75
352.992	107.75
353.22	99.75
353.447	93.75
353.674	97.75
353.901	103.75
354.128	94.75
354.355	103.75
354.583	91.75
354.81	96.75
355.037	98.75
355.264	88.75
355.491	92.75
355.718	68.75
355.945	103.75
356.172	83.75
356.399	96.75
356.626	97.75
356.853	88.75
357.08	76.75
357.307	98.75
357.534	99.75
357.761	82.75
357.988	80.75
358.215	99.75
358.441	92.75
358.668	98.75
358.895	103.75
359.122	87.75
359.349	77.75
359.576	95.75
359.802	111.75
360.029	106.75
360.256	97.75
360.483	89.75
360.709	90.75
360.936	89.75
361.163	85.75
361.39	84.75
361.616	88.75
361.843	84.75
362.07	91.75
362.296	101.75
362.523	80.75
362.749	91.75
362.976	100.75
363.203	74.75
363.429	91.75
363.656	88.75
363.882	76.75
364.109	88.75
364.335	97.75
364.562	85.75
364.788	87.75
365.015	98.75
365.241	95.75
365.468	87.75
365.694	106.75
365.92	90.75
366.147	78.75
366.373	73.75
366.599	93.75
366.826	91.75
367.052	93.75
367.278	90.75
367.505	104.75
367.731	78.75
367.957	81.75
368.184	101.75
368.41	90.75
368.636	93.75
368.862	112.75
369.089	100.75
369.315	83.75
369.541	73.75
369.767	91.75
369.993	95.75
370.219	78.75
370.445	80.75
370.672	103.75
370.898	91.75
371.124	88.75
371.35	92.75
371.576	79.75
371.802	92.75
372.028	79.75
372.254	103.75
372.48	93.75
372.706	88.75
372.932	87.75
373.158	69.75
373.384	82.75
373.61	91.75
373.835	84.75
374.061	84.75
374.287	92.75
374.513	81.75
374.739	85.75
374.965	92.75
375.191	83.75
375.416	95.75
375.642	73.75
375.868	99.75
376.094	94.75
376.319	102.75
376.545	89.75
376.771	100.75
376.997	91.75
377.222	100.75
377.448	79.75
377.674	87.75
377.899	81.75
378.125	78.75
378.35	94.75
378.576	101.75
378.802	83.75
379.027	88.75
379.253	95.75
379.478	83.75
379.704	92.75
379.929	83.75
380.155	102.75
380.38	87.75
380.606	91.75
380.831	91.75
381.057	86.75
381.282	81.75
381.507	82.75
381.733	88.75
381.958	84.75
382.184	105.75
382.409	83.75
382.634	88.75
382.86	91.75
383.085	108.75
383.31	97.75
383.535	103.75
383.761	103.75
383.986	89.75
384.211	91.75
384.436	89.75
384.662	88.75
384.887	98.75
385.112	102.75
385.337	92.75
385.562	96.75
385.787	82.75
386.013	107.75
386.238	116.75
386.463	109.75
386.688	101.75
386.913	105.75
387.138	91.75
387.363	79.75
387.588	107.75
387.813	99.75
388.038	78.75
388.263	101.75
388.488	107.75
388.713	89.75
388.938	108.75
389.163	87.75
389.387	87.75
389.612	79.75
389.837	107.75
390.062	87.75
390.287	106.75
390.512	94.75
390.736	79.75
390.961	89.75
391.186	80.75
391.411	87.75
391.636	104.75
391.86	77.75
392.085	92.75
392.31	68.75
392.534	87.75
392.759	103.75
392.984	88.75
393.208	88.75
393.433	99.75
393.658	96.75
393.882	74.75
394.107	85.75
394.331	88.75
394.556	91.75
394.78	92.75
395.005	79.75
395.229	76.75
395.454	79.75
395.678	73.75
395.903	74.75
396.127	65.75
396.352	95.75
396.576	81.75
396.801	65.75
397.025	79.75
397.249	87.75
397.474	85.75
397.698	95.75
397.922	93.75
398.147	96.75
398.371	82.75
398.595	107.75
398.82	81.75
399.044	75.75
399.268	91.75
399.492	73.75
399.717	82.75
399.941	91.75
400.165	91.75
400.389	91.75
400.613	84.75
400.837	77.75
401.062	91.75
401.286	86.75
401.51	84.75
401.734	78.75
401.958	101.75
402.182	116.75
402.406	151.75
402.63	119.75
402.854	95.75
403.078	84.75
403.302	90.75
403.526	87.75
403.75	92.75
403.974	87.75
404.198	98.75
404.422	84.75
404.645	75.75
404.869	79.75
405.093	92.75
405.317	88.75
405.541	84.75
405.765	98.75
405.988	114.75
406.212	172.75
406.436	214.75
406.66	125.75
406.883	91.75
407.107	87.75
407.331	84.75
407.555	96.75
407.778	112.75
408.002	89.75
408.226	89.75
408.449	87.75
408.673	83.75
408.896	92.75
409.12	113.75
409.344	100.75
409.567	89.75
409.791	87.75
410.014	83.75
410.238	97.75
410.461	83.75
410.685	88.75
410.908	90.75
411.132	104.75
411.355	92.75
411.578	92.75
411.802	92.75
412.025	93.75
412.249	97.75
412.472	83.75
412.695	103.75
412.919	91.75
413.142	93.75
413.365	69.75
413.589	94.75
413.812	92.75
414.035	92.75
414.258	91.75
414.482	83.75
414.705	90.75
414.928	88.75
415.151	89.75
415.374	83.75
415.597	83.75
415.821	78.75
416.044	73.75
416.267	90.75
416.49	87.75
416.713	95.75
416.936	83.75
417.159	81.75
417.382	92.75
417.605	87.75
417.828	104.75
418.051	98.75
418.274	84.75
418.497	84.75
418.72	93.75
418.943	95.75
419.166	81.75
419.389	95.75
419.611	88.75
419.834	98.75
420.057	85.75
420.28	96.75
420.503	92.75
420.726	71.75
420.948	88.75
421.171	88.75
421.394	93.75
421.617	100.75
421.839	98.75
422.062	82.75
422.285	87.75
422.507	80.75
422.73	96.75
422.953	93.75
423.175	88.75
423.398	85.75
423.621	71.75
423.843	91.75
424.066	83.75
424.288	96.75
424.511	88.75
424.733	74.75
424.956	103.75
425.178	99.75
425.401	108.75
425.623	113.75
425.846	90.75
426.068	97.75
426.291	100.75
426.513	108.75
426.735	92.75
426.958	92.75
427.18	93.75
427.402	116.75
427.625	156.75
427.847	126.75
428.069	114.75
428.292	93.75
428.514	106.75
428.736	89.75
428.958	85.75
429.181	89.75
429.403	90.75
429.625	94.75
429.847	98.75
430.069	95.75
430.292	104.75
430.514	75.75
430.736	81.75
430.958	83.75
431.18	82.75
431.402	83.75
431.624	71.75
431.846	93.75
432.068	81.75
432.29	85.75
432.512	88.75
432.734	100.75
432.956	80.75
433.178	109.75
433.4	89.75
433.622	84.75
433.844	95.75
434.066	92.75
434.287	85.75
434.509	87.75
434.731	82.75
434.953	99.75
435.175	93.75
435.397	87.75
435.618	91.75
435.84	100.75
436.062	99.75
436.284	115.75
436.505	97.75
436.727	107.75
436.949	87.75
437.17	88.75
437.392	80.75
437.614	84.75
437.835	93.75
438.057	98.75
438.278	91.75
438.5	95.75
438.721	95.75
438.943	97.75
439.165	104.75
439.386	83.75
439.608	87.75
439.829	108.75
440.05	117.75
440.272	117.75
440.493	88.75
440.715	95.75
440.936	90.75
441.158	84.75
441.379	85.75
441.6	91.75
441.822	78.75
442.043	85.75
442.264	81.75
442.486	96.75
442.707	80.75
442.928	100.75
443.149	108.75
443.371	108.75
443.592	107.75
443.813	98.75
444.034	95.75
444.255	92.75
444.476	80.75
444.698	87.75
444.919	89.75
445.14	122.75
445.361	113.75
445.582	116.75
445.803	131.75
446.024	103.75
446.245	123.75
446.466	111.75
446.687	92.75
446.908	80.75
447.129	95.75
447.35	89.75
447.571	90.75
447.792	77.75
448.013	103.75
448.234	96.75
448.455	100.75
448.675	104.75
448.896	115.75
449.117	111.75
449.338	107.75
449.559	113.75
449.779	141.75
450	92.75
450.221	85.75
450.442	84.75
450.662	95.75
450.883	100.75
451.104	115.75
451.324	86.75
451.545	88.75
451.766	77.75
451.986	95.75
452.207	79.75
452.428	86.75
452.648	96.75
452.869	100.75
453.089	118.75
453.31	110.75
453.53	94.75
453.751	80.75
453.971	93.75
454.192	101.75
454.412	87.75
454.633	87.75
454.853	89.75
455.073	74.75
455.294	84.75
455.514	78.75
455.734	95.75
455.955	91.75
456.175	88.75
456.395	78.75
456.616	92.75
456.836	94.75
457.056	83.75
457.276	94.75
457.497	76.75
457.717	85.75
457.937	96.75
458.157	86.75
458.377	93.75
458.598	97.75
458.818	128.75
459.038	145.75
459.258	106.75
459.478	85.75
459.698	88.75
459.918	98.75
460.138	90.75
460.358	88.75
460.578	85.75
460.798	79.75
461.018	90.75
461.238	92.75
461.458	95.75
461.678	84.75
461.898	84.75
462.118	84.75
462.338	81.75
462.558	72.75
462.777	82.75
462.997	93.75
463.217	85.75
463.437	103.75
463.657	87.75
463.876	94.75
464.096	101.75
464.316	97.75
464.536	89.75
464.755	82.75
464.975	92.75
465.195	140.75
465.414	151.75
465.634	99.75
465.854	85.75
466.073	94.75
466.293	96.75
466.512	88.75
466.732	99.75
466.951	103.75
467.171	96.75
467.391	106.75
467.61	99.75
467.829	92.75
468.049	112.75
468.268	114.75
468.488	82.75
468.707	76.75
468.927	73.75
469.146	76.75
469.365	91.75
469.585	79.75
469.804	88.75
470.023	99.75
470.243	90.75
470.462	98.75
470.681	106.75
470.901	91.75
471.12	84.75
471.339	105.75
471.558	112.75
471.777	79.75
471.997	95.75
472.216	114.75
472.435	177.75
472.654	97.75
472.873	88.75
473.092	70.75
473.311	77.75
473.53	85.75
473.749	95.75
473.968	78.75
474.187	121.75
474.406	109.75
474.625	76.75
474.844	87.75
475.063	87.75
475.282	93.75
475.501	91.75
475.72	89.75
475.939	86.75
476.158	88.75
476.377	100.75
476.596	73.75
476.814	89.75
477.033	95.75
477.252	89.75
477.471	84.75
477.69	86.75
477.908	83.75
478.127	90.75
478.346	84.75
478.564	99.75
478.783	87.75
479.002	84.75
479.22	97.75
479.439	106.75
479.658	114.75
479.876	96.75
480.095	86.75
480.313	92.75
480.532	92.75
480.751	97.75
480.969	141.75
481.188	276.75
481.406	204.75
481.624	97.75
481.843	93.75
482.061	89.75
482.28	95.75
482.498	86.75
482.717	97.75
482.935	88.75
483.153	99.75
483.372	80.75
483.59	93.75
483.808	93.75
484.027	94.75
484.245	88.75
484.463	100.75
484.681	91.75
484.9	84.75
485.118	92.75
485.336	93.75
485.554	89.75
485.772	102.75
485.99	109.75
486.209	105.75
486.427	102.75
486.645	110.75
486.863	119.75
487.081	95.75
487.299	112.75
487.517	91.75
487.735	95.75
487.953	91.75
488.171	91.75
488.389	95.75
488.607	99.75
488.825	87.75
489.043	87.75
489.261	84.75
489.479	90.75
489.696	85.75
489.914	96.75
490.132	95.75
490.35	86.75
490.568	94.75
490.786	89.75
491.003	91.75
491.221	94.75
491.439	93.75
491.657	88.75
491.874	80.75
492.092	87.75
492.31	93.75
492.527	81.75
492.745	99.75
492.963	79.75
493.18	100.75
493.398	104.75
493.615	101.75
493.833	86.75
494.05	82.75
494.268	84.75
494.485	92.75
494.703	87.75
494.92	90.75
495.138	91.75
495.355	89.75
495.573	87.75
495.79	80.75
496.008	98.75
496.225	89.75
496.442	96.75
496.66	77.75
496.877	82.75
497.094	76.75
497.312	99.75
497.529	91.75
497.746	85.75
497.963	104.75
498.181	97.75
498.398	87.75
498.615	112.75
498.832	83.75
499.049	87.75
499.267	89.75
499.484	83.75
499.701	74.75
499.918	104.75
500.135	85.75
500.352	91.75
500.569	88.75
500.786	102.75
501.003	96.75
501.22	83.75
501.437	80.75
501.654	90.75
501.871	112.75
502.088	79.75
502.305	91.75
502.522	107.75
502.739	85.75
502.956	105.75
503.172	96.75
503.389	99.75
503.606	92.75
503.823	101.75
504.04	104.75
504.256	92.75
504.473	77.75
504.69	83.75
504.907	84.75
505.123	90.75
505.34	94.75
505.557	88.75
505.773	75.75
505.99	85.75
506.207	81.75
506.423	84.75
506.64	87.75
506.856	85.75
507.073	88.75
507.289	88.75
507.506	99.75
507.722	107.75
507.939	110.75
508.155	98.75
508.372	89.75
508.588	85.75
508.805	114.75
509.021	91.75
509.238	99.75
509.454	101.75
509.67	99.75
509.887	95.75
510.103	130.75
510.319	201.75
510.536	743.75
510.752	2287.75
510.968	619.75
511.184	147.75
511.401	94.75
511.617	89.75
511.833	104.75
512.049	85.75
512.265	112.75
512.481	93.75
512.698	98.75
512.914	90.75
513.13	97.75
513.346	79.75
513.562	99.75
513.778	100.75
513.994	100.75
514.21	101.75
514.426	113.75
514.642	125.75
514.858	111.75
515.074	161.75
515.29	429.75
515.506	1327.75
515.721	498.75
515.937	130.75
516.153	118.75
516.369	103.75
