Data from Circ_1994_H10_HRD10591_00020.txt Node
Date: Wed Jan 03 11:40:34 EST 2024
User: Yrep
Spectrometer: HR+D1059
Trigger mode: 1
Integration Time (sec): 1.000000E-1
Scans to average: 1
Electric dark correction enabled: true
Nonlinearity correction enabled: false
Boxcar width: 0
XAxis mode: Wavelengths
Number of Pixels in Spectrum: 2048
>>>>>Begin Spectral Data<<<<<
223.165	-33.94
223.4	-33.94
223.635	-33.94
223.869	-17.94
224.104	-17.94
224.338	-12.94
224.573	-25.94
224.808	-13.94
225.042	14.06
225.277	-4.94
225.511	-5.94
225.746	10.06
225.98	-0.94
226.215	13.06
226.449	22.06
226.683	10.06
226.918	30.06
227.152	35.06
227.387	32.06
227.621	25.06
227.856	49.06
228.09	46.06
228.324	43.06
228.559	50.06
228.793	57.06
229.027	68.06
229.262	63.06
229.496	51.06
229.73	78.06
229.964	65.06
230.199	78.06
230.433	62.06
230.667	76.06
230.901	74.06
231.136	80.06
231.37	82.06
231.604	89.06
231.838	82.06
232.072	91.06
232.306	91.06
232.541	79.06
232.775	71.06
233.009	73.06
233.243	78.06
233.477	91.06
233.711	84.06
233.945	72.06
234.179	82.06
234.413	70.06
234.647	67.06
234.881	79.06
235.115	81.06
235.349	89.06
235.583	73.06
235.817	71.06
236.051	81.06
236.285	84.06
236.519	68.06
236.753	71.06
236.987	66.06
237.221	72.06
237.455	72.06
237.689	58.06
237.922	83.06
238.156	70.06
238.39	77.06
238.624	69.06
238.858	76.06
239.091	72.06
239.325	65.06
239.559	70.06
239.793	75.06
240.027	82.06
240.26	67.06
240.494	76.06
240.728	72.06
240.961	89.06
241.195	80.06
241.429	81.06
241.662	66.06
241.896	83.06
242.13	86.06
242.363	74.06
242.597	75.06
242.83	79.06
243.064	78.06
243.298	81.06
243.531	73.06
243.765	68.06
243.998	74.06
244.232	77.06
244.465	92.06
244.699	61.06
244.932	80.06
245.166	76.06
245.399	66.06
245.633	77.06
245.866	58.06
246.099	75.06
246.333	60.06
246.566	73.06
246.8	74.06
247.033	76.06
247.266	48.06
247.5	76.06
247.733	76.06
247.966	89.06
248.2	87.06
248.433	95.06
248.666	71.06
248.899	50.06
249.133	82.06
249.366	99.06
249.599	76.06
249.832	91.06
250.066	81.06
250.299	93.06
250.532	102.06
250.765	60.06
250.998	70.06
251.231	80.06
251.465	87.06
251.698	70.06
251.931	88.06
252.164	82.06
252.397	73.06
252.63	61.06
252.863	82.06
253.096	83.06
253.329	88.06
253.562	79.06
253.795	70.06
254.028	81.06
254.261	94.06
254.494	62.06
254.727	84.06
254.96	79.06
255.193	83.06
255.426	72.06
255.659	81.06
255.892	80.06
256.124	71.06
256.357	75.06
256.59	80.06
256.823	76.06
257.056	77.06
257.289	88.06
257.521	82.06
257.754	87.06
257.987	70.06
258.22	83.06
258.452	81.06
258.685	74.06
258.918	65.06
259.151	79.06
259.383	92.06
259.616	76.06
259.849	86.06
260.081	90.06
260.314	76.06
260.547	78.06
260.779	92.06
261.012	101.06
261.244	88.06
261.477	82.06
261.71	83.06
261.942	106.06
262.175	91.06
262.407	93.06
262.64	77.06
262.872	72.06
263.105	84.06
263.337	74.06
263.57	76.06
263.802	70.06
264.035	91.06
264.267	75.06
264.499	84.06
264.732	91.06
264.964	79.06
265.197	91.06
265.429	85.06
265.661	85.06
265.894	76.06
266.126	85.06
266.358	70.06
266.591	84.06
266.823	74.06
267.055	84.06
267.287	80.06
267.52	77.06
267.752	83.06
267.984	73.06
268.216	79.06
268.448	97.06
268.681	86.06
268.913	84.06
269.145	82.06
269.377	89.06
269.609	70.06
269.841	76.06
270.073	80.06
270.306	92.06
270.538	75.06
270.77	89.06
271.002	81.06
271.234	87.06
271.466	84.06
271.698	81.06
271.93	95.06
272.162	78.06
272.394	72.06
272.626	70.06
272.858	76.06
273.09	85.06
273.322	74.06
273.553	81.06
273.785	90.06
274.017	87.06
274.249	88.06
274.481	73.06
274.713	78.06
274.945	91.06
275.176	72.06
275.408	87.06
275.64	78.06
275.872	74.06
276.104	92.06
276.335	80.06
276.567	91.06
276.799	91.06
277.031	90.06
277.262	94.06
277.494	84.06
277.726	83.06
277.957	75.06
278.189	76.06
278.421	84.06
278.652	79.06
278.884	92.06
279.115	100.06
279.347	72.06
279.579	88.06
279.81	83.06
280.042	81.06
280.273	75.06
280.505	91.06
280.736	73.06
280.968	78.06
281.199	73.06
281.431	87.06
281.662	86.06
281.894	83.06
282.125	87.06
282.356	112.06
282.588	112.06
282.819	109.06
283.051	108.06
283.282	83.06
283.513	95.06
283.745	77.06
283.976	84.06
284.207	83.06
284.439	85.06
284.67	89.06
284.901	90.06
285.132	81.06
285.364	80.06
285.595	84.06
285.826	80.06
286.057	76.06
286.288	74.06
286.52	94.06
286.751	82.06
286.982	96.06
287.213	90.06
287.444	93.06
287.675	96.06
287.906	79.06
288.138	83.06
288.369	77.06
288.6	92.06
288.831	94.06
289.062	90.06
289.293	93.06
289.524	89.06
289.755	70.06
289.986	83.06
290.217	80.06
290.448	93.06
290.679	83.06
290.91	104.06
291.141	79.06
291.371	78.06
291.602	103.06
291.833	91.06
292.064	76.06
292.295	90.06
292.526	84.06
292.757	86.06
292.987	88.06
293.218	65.06
293.449	82.06
293.68	80.06
293.91	80.06
294.141	90.06
294.372	85.06
294.603	90.06
294.833	97.06
295.064	85.06
295.295	87.06
295.525	68.06
295.756	72.06
295.987	115.06
296.217	131.06
296.448	106.06
296.679	98.06
296.909	93.06
297.14	86.06
297.37	74.06
297.601	94.06
297.831	83.06
298.062	84.06
298.292	93.06
298.523	97.06
298.753	88.06
298.984	83.06
299.214	88.06
299.445	87.06
299.675	96.06
299.905	91.06
300.136	99.06
300.366	100.06
300.597	82.06
300.827	93.06
301.057	103.06
301.288	100.06
301.518	87.06
301.748	103.06
301.979	120.06
302.209	91.06
302.439	71.06
302.669	86.06
302.9	78.06
303.13	73.06
303.36	100.06
303.59	100.06
303.82	89.06
304.051	83.06
304.281	93.06
304.511	85.06
304.741	96.06
304.971	82.06
305.201	88.06
305.431	96.06
305.661	98.06
305.891	84.06
306.121	92.06
306.352	101.06
306.582	82.06
306.812	92.06
307.042	98.06
307.272	89.06
307.502	108.06
307.731	84.06
307.961	75.06
308.191	92.06
308.421	88.06
308.651	89.06
308.881	94.06
309.111	83.06
309.341	94.06
309.571	95.06
309.8	100.06
310.03	100.06
310.26	107.06
310.49	88.06
310.72	88.06
310.949	106.06
311.179	91.06
311.409	87.06
311.639	95.06
311.868	79.06
312.098	70.06
312.328	96.06
312.557	97.06
312.787	95.06
313.017	92.06
313.246	103.06
313.476	95.06
313.706	74.06
313.935	82.06
314.165	92.06
314.394	99.06
314.624	100.06
314.853	111.06
315.083	86.06
315.312	86.06
315.542	97.06
315.771	95.06
316.001	88.06
316.23	92.06
316.46	82.06
316.689	90.06
316.919	82.06
317.148	79.06
317.377	97.06
317.607	94.06
317.836	86.06
318.065	96.06
318.295	91.06
318.524	80.06
318.753	94.06
318.983	84.06
319.212	105.06
319.441	80.06
319.67	94.06
319.9	88.06
320.129	89.06
320.358	109.06
320.587	97.06
320.816	97.06
321.046	81.06
321.275	103.06
321.504	87.06
321.733	98.06
321.962	81.06
322.191	84.06
322.42	97.06
322.649	77.06
322.878	106.06
323.108	102.06
323.337	116.06
323.566	139.06
323.795	139.06
324.024	184.06
324.253	342.06
324.482	691.06
324.71	1414.06
324.939	1831.06
325.168	667.06
325.397	219.06
325.626	140.06
325.855	119.06
326.084	118.06
326.313	126.06
326.542	136.06
326.77	200.06
326.999	395.06
327.228	792.06
327.457	1367.06
327.686	1123.06
327.914	308.06
328.143	186.06
328.372	149.06
328.6	122.06
328.829	110.06
329.058	134.06
329.287	115.06
329.515	113.06
329.744	104.06
329.972	100.06
330.201	114.06
330.43	129.06
330.658	129.06
330.887	137.06
331.115	121.06
331.344	105.06
331.572	97.06
331.801	104.06
332.03	96.06
332.258	74.06
332.486	86.06
332.715	100.06
332.943	96.06
333.172	96.06
333.4	96.06
333.629	93.06
333.857	114.06
334.085	95.06
334.314	108.06
334.542	127.06
334.771	114.06
334.999	91.06
335.227	97.06
335.455	83.06
335.684	99.06
335.912	100.06
336.14	107.06
336.369	99.06
336.597	91.06
336.825	82.06
337.053	104.06
337.281	104.06
337.51	84.06
337.738	86.06
337.966	92.06
338.194	103.06
338.422	98.06
338.65	82.06
338.878	88.06
339.106	96.06
339.334	96.06
339.562	100.06
339.79	107.06
340.018	93.06
340.246	72.06
340.474	80.06
340.702	82.06
340.93	94.06
341.158	94.06
341.386	83.06
341.614	97.06
341.842	99.06
342.07	89.06
342.298	94.06
342.526	98.06
342.754	87.06
342.981	84.06
343.209	79.06
343.437	87.06
343.665	80.06
343.893	84.06
344.12	80.06
344.348	93.06
344.576	99.06
344.804	85.06
345.031	107.06
345.259	99.06
345.487	86.06
345.714	91.06
345.942	95.06
346.17	90.06
346.397	94.06
346.625	91.06
346.853	81.06
347.08	81.06
347.308	89.06
347.535	95.06
347.763	92.06
347.99	103.06
348.218	104.06
348.445	99.06
348.673	100.06
348.9	83.06
349.128	96.06
349.355	86.06
349.583	94.06
349.81	83.06
350.037	86.06
350.265	94.06
350.492	87.06
350.72	101.06
350.947	106.06
351.174	90.06
351.402	117.06
351.629	91.06
351.856	90.06
352.083	99.06
352.311	104.06
352.538	115.06
352.765	106.06
352.992	116.06
353.22	119.06
353.447	100.06
353.674	89.06
353.901	100.06
354.128	96.06
354.355	96.06
354.583	86.06
354.81	92.06
355.037	95.06
355.264	82.06
355.491	87.06
355.718	95.06
355.945	106.06
356.172	96.06
356.399	94.06
356.626	98.06
356.853	110.06
357.08	88.06
357.307	78.06
357.534	94.06
357.761	80.06
357.988	81.06
358.215	100.06
358.441	95.06
358.668	83.06
358.895	95.06
359.122	83.06
359.349	82.06
359.576	81.06
359.802	81.06
360.029	110.06
360.256	99.06
360.483	98.06
360.709	87.06
360.936	90.06
361.163	88.06
361.39	99.06
361.616	101.06
361.843	86.06
362.07	90.06
362.296	97.06
362.523	97.06
362.749	80.06
362.976	83.06
363.203	99.06
363.429	88.06
363.656	90.06
363.882	89.06
364.109	87.06
364.335	89.06
364.562	94.06
364.788	87.06
365.015	95.06
365.241	97.06
365.468	104.06
365.694	90.06
365.92	99.06
366.147	86.06
366.373	74.06
366.599	88.06
366.826	83.06
367.052	81.06
367.278	79.06
367.505	91.06
367.731	91.06
367.957	82.06
368.184	84.06
368.41	83.06
368.636	95.06
368.862	110.06
369.089	109.06
369.315	89.06
369.541	74.06
369.767	96.06
369.993	80.06
370.219	100.06
370.445	102.06
370.672	90.06
370.898	87.06
371.124	88.06
371.35	92.06
371.576	89.06
371.802	78.06
372.028	84.06
372.254	90.06
372.48	81.06
372.706	81.06
372.932	86.06
373.158	79.06
373.384	87.06
373.61	81.06
373.835	83.06
374.061	85.06
374.287	87.06
374.513	81.06
374.739	82.06
374.965	86.06
375.191	77.06
375.416	80.06
375.642	91.06
375.868	89.06
376.094	84.06
376.319	80.06
376.545	80.06
376.771	94.06
376.997	75.06
377.222	86.06
377.448	90.06
377.674	84.06
377.899	85.06
378.125	89.06
378.35	95.06
378.576	109.06
378.802	92.06
379.027	107.06
379.253	101.06
379.478	81.06
379.704	96.06
379.929	90.06
380.155	91.06
380.38	83.06
380.606	100.06
380.831	82.06
381.057	88.06
381.282	92.06
381.507	96.06
381.733	88.06
381.958	97.06
382.184	89.06
382.409	99.06
382.634	96.06
382.86	89.06
383.085	103.06
383.31	100.06
383.535	114.06
383.761	111.06
383.986	108.06
384.211	78.06
384.436	95.06
384.662	92.06
384.887	102.06
385.112	105.06
385.337	103.06
385.562	97.06
385.787	95.06
386.013	86.06
386.238	106.06
386.463	101.06
386.688	104.06
386.913	100.06
387.138	104.06
387.363	88.06
387.588	96.06
387.813	93.06
388.038	106.06
388.263	102.06
388.488	95.06
388.713	88.06
388.938	89.06
389.163	100.06
389.387	96.06
389.612	102.06
389.837	93.06
390.062	90.06
390.287	76.06
390.512	88.06
390.736	83.06
390.961	88.06
391.186	86.06
391.411	78.06
391.636	92.06
391.86	83.06
392.085	90.06
392.31	78.06
392.534	96.06
392.759	87.06
392.984	93.06
393.208	100.06
393.433	99.06
393.658	89.06
393.882	87.06
394.107	89.06
394.331	67.06
394.556	76.06
394.78	91.06
395.005	91.06
395.229	91.06
395.454	91.06
395.678	86.06
395.903	75.06
396.127	71.06
396.352	86.06
396.576	94.06
396.801	94.06
397.025	76.06
397.249	82.06
397.474	79.06
397.698	94.06
397.922	78.06
398.147	102.06
398.371	83.06
398.595	79.06
398.82	88.06
399.044	89.06
399.268	90.06
399.492	90.06
399.717	76.06
399.941	78.06
400.165	78.06
400.389	87.06
400.613	84.06
400.837	74.06
401.062	88.06
401.286	92.06
401.51	87.06
401.734	86.06
401.958	93.06
402.182	108.06
402.406	140.06
402.63	104.06
402.854	98.06
403.078	89.06
403.302	91.06
403.526	80.06
403.75	80.06
403.974	86.06
404.198	79.06
404.422	104.06
404.645	86.06
404.869	96.06
405.093	90.06
405.317	87.06
405.541	80.06
405.765	103.06
405.988	95.06
406.212	149.06
406.436	210.06
406.66	129.06
406.883	106.06
407.107	75.06
407.331	99.06
407.555	88.06
407.778	98.06
408.002	86.06
408.226	90.06
408.449	86.06
408.673	84.06
408.896	95.06
409.12	80.06
409.344	80.06
409.567	91.06
409.791	78.06
410.014	88.06
410.238	85.06
410.461	100.06
410.685	94.06
410.908	102.06
411.132	97.06
411.355	89.06
411.578	77.06
411.802	87.06
412.025	94.06
412.249	95.06
412.472	83.06
412.695	95.06
412.919	86.06
413.142	100.06
413.365	99.06
413.589	87.06
413.812	86.06
414.035	104.06
414.258	89.06
414.482	81.06
414.705	99.06
414.928	79.06
415.151	93.06
415.374	76.06
415.597	88.06
415.821	97.06
416.044	98.06
416.267	87.06
416.49	79.06
416.713	71.06
416.936	91.06
417.159	75.06
417.382	86.06
417.605	93.06
417.828	110.06
418.051	95.06
418.274	91.06
418.497	75.06
418.72	80.06
418.943	88.06
419.166	87.06
419.389	95.06
419.611	81.06
419.834	95.06
420.057	90.06
420.28	78.06
420.503	98.06
420.726	94.06
420.948	85.06
421.171	87.06
421.394	87.06
421.617	94.06
421.839	78.06
422.062	83.06
422.285	76.06
422.507	87.06
422.73	89.06
422.953	100.06
423.175	80.06
423.398	82.06
423.621	93.06
423.843	79.06
424.066	87.06
424.288	81.06
424.511	89.06
424.733	84.06
424.956	98.06
425.178	93.06
425.401	96.06
425.623	91.06
425.846	88.06
426.068	85.06
426.291	74.06
426.513	90.06
426.735	92.06
426.958	76.06
427.18	97.06
427.402	129.06
427.625	147.06
427.847	127.06
428.069	106.06
428.292	78.06
428.514	81.06
428.736	71.06
428.958	78.06
429.181	88.06
429.403	82.06
429.625	76.06
429.847	86.06
430.069	89.06
430.292	96.06
430.514	77.06
430.736	91.06
430.958	94.06
431.18	98.06
431.402	82.06
431.624	91.06
431.846	82.06
432.068	88.06
432.29	86.06
432.512	77.06
432.734	59.06
432.956	107.06
433.178	88.06
433.4	87.06
433.622	82.06
433.844	76.06
434.066	97.06
434.287	97.06
434.509	77.06
434.731	82.06
434.953	87.06
435.175	88.06
435.397	81.06
435.618	92.06
435.84	90.06
436.062	96.06
436.284	99.06
436.505	91.06
436.727	97.06
436.949	75.06
437.17	79.06
437.392	107.06
437.614	88.06
437.835	104.06
438.057	92.06
438.278	113.06
438.5	81.06
438.721	99.06
438.943	95.06
439.165	88.06
439.386	92.06
439.608	80.06
439.829	92.06
440.05	101.06
440.272	116.06
440.493	89.06
440.715	88.06
440.936	87.06
441.158	89.06
441.379	77.06
441.6	91.06
441.822	90.06
442.043	94.06
442.264	96.06
442.486	106.06
442.707	88.06
442.928	106.06
443.149	120.06
443.371	111.06
443.592	100.06
443.813	97.06
444.034	99.06
444.255	99.06
444.476	84.06
444.698	83.06
444.919	84.06
445.14	132.06
445.361	103.06
445.582	92.06
445.803	118.06
446.024	120.06
446.245	108.06
446.466	109.06
446.687	76.06
446.908	94.06
447.129	88.06
447.35	76.06
447.571	79.06
447.792	94.06
448.013	89.06
448.234	98.06
448.455	86.06
448.675	107.06
448.896	117.06
449.117	98.06
449.338	107.06
449.559	113.06
449.779	113.06
450	76.06
450.221	90.06
450.442	84.06
450.662	93.06
450.883	106.06
451.104	95.06
451.324	88.06
451.545	92.06
451.766	84.06
451.986	91.06
452.207	97.06
452.428	83.06
452.648	103.06
452.869	86.06
453.089	100.06
453.31	103.06
453.53	89.06
453.751	97.06
453.971	95.06
454.192	99.06
454.412	91.06
454.633	84.06
454.853	83.06
455.073	81.06
455.294	67.06
455.514	81.06
455.734	99.06
455.955	91.06
456.175	84.06
456.395	74.06
456.616	76.06
456.836	71.06
457.056	75.06
457.276	76.06
457.497	71.06
457.717	98.06
457.937	88.06
458.157	87.06
458.377	91.06
458.598	97.06
458.818	129.06
459.038	137.06
459.258	106.06
459.478	96.06
459.698	88.06
459.918	85.06
460.138	72.06
460.358	91.06
460.578	90.06
460.798	90.06
461.018	77.06
461.238	85.06
461.458	94.06
461.678	87.06
461.898	82.06
462.118	85.06
462.338	85.06
462.558	84.06
462.777	98.06
462.997	75.06
463.217	81.06
463.437	83.06
463.657	86.06
463.876	79.06
464.096	88.06
464.316	64.06
464.536	73.06
464.755	72.06
464.975	99.06
465.195	153.06
465.414	148.06
465.634	93.06
465.854	92.06
466.073	90.06
466.293	81.06
466.512	86.06
466.732	103.06
466.951	90.06
467.171	99.06
467.391	90.06
467.61	94.06
467.829	82.06
468.049	94.06
468.268	90.06
468.488	83.06
468.707	78.06
468.927	65.06
469.146	79.06
469.365	83.06
469.585	91.06
469.804	85.06
470.023	79.06
470.243	87.06
470.462	97.06
470.681	109.06
470.901	87.06
471.12	77.06
471.339	72.06
471.558	79.06
471.777	83.06
471.997	94.06
472.216	105.06
472.435	117.06
472.654	88.06
472.873	92.06
473.092	87.06
473.311	82.06
473.53	92.06
473.749	86.06
473.968	76.06
474.187	79.06
474.406	78.06
474.625	90.06
474.844	76.06
475.063	79.06
475.282	89.06
475.501	68.06
475.72	83.06
475.939	78.06
476.158	89.06
476.377	92.06
476.596	88.06
476.814	83.06
477.033	96.06
477.252	93.06
477.471	78.06
477.69	79.06
477.908	87.06
478.127	83.06
478.346	76.06
478.564	96.06
478.783	97.06
479.002	83.06
479.22	88.06
479.439	97.06
479.658	95.06
479.876	86.06
480.095	78.06
480.313	76.06
480.532	97.06
480.751	82.06
480.969	120.06
481.188	185.06
481.406	140.06
481.624	77.06
481.843	71.06
482.061	89.06
482.28	80.06
482.498	83.06
482.717	95.06
482.935	96.06
483.153	90.06
483.372	97.06
483.59	87.06
483.808	91.06
484.027	84.06
484.245	89.06
484.463	100.06
484.681	95.06
484.9	70.06
485.118	93.06
485.336	99.06
485.554	94.06
485.772	95.06
485.99	96.06
486.209	94.06
486.427	112.06
486.645	102.06
486.863	109.06
487.081	99.06
487.299	84.06
487.517	94.06
487.735	84.06
487.953	90.06
488.171	86.06
488.389	103.06
488.607	94.06
488.825	94.06
489.043	97.06
489.261	84.06
489.479	79.06
489.696	87.06
489.914	87.06
490.132	87.06
490.35	97.06
490.568	88.06
490.786	70.06
491.003	81.06
491.221	86.06
491.439	97.06
491.657	80.06
491.874	89.06
492.092	81.06
492.31	80.06
492.527	87.06
492.745	88.06
492.963	83.06
493.18	78.06
493.398	95.06
493.615	93.06
493.833	91.06
494.05	87.06
494.268	88.06
494.485	90.06
494.703	87.06
494.92	99.06
495.138	86.06
495.355	97.06
495.573	82.06
495.79	81.06
496.008	90.06
496.225	85.06
496.442	84.06
496.66	90.06
496.877	85.06
497.094	81.06
497.312	82.06
497.529	86.06
497.746	102.06
497.963	86.06
498.181	95.06
498.398	90.06
498.615	101.06
498.832	94.06
499.049	78.06
499.267	86.06
499.484	83.06
499.701	87.06
499.918	96.06
500.135	94.06
500.352	91.06
500.569	92.06
500.786	85.06
501.003	92.06
501.22	96.06
501.437	77.06
501.654	91.06
501.871	100.06
502.088	87.06
502.305	90.06
502.522	92.06
502.739	90.06
502.956	82.06
503.172	103.06
503.389	93.06
503.606	103.06
503.823	92.06
504.04	92.06
504.256	99.06
504.473	89.06
504.69	109.06
504.907	88.06
505.123	93.06
505.34	92.06
505.557	80.06
505.773	98.06
505.99	91.06
506.207	88.06
506.423	94.06
506.64	94.06
506.856	87.06
507.073	93.06
507.289	105.06
507.506	106.06
507.722	113.06
507.939	96.06
508.155	97.06
508.372	98.06
508.588	79.06
508.805	95.06
509.021	84.06
509.238	91.06
509.454	79.06
509.67	98.06
509.887	94.06
510.103	112.06
510.319	186.06
510.536	697.06
510.752	2182.06
510.968	618.06
511.184	150.06
511.401	96.06
511.617	92.06
511.833	84.06
512.049	85.06
512.265	92.06
512.481	94.06
512.698	100.06
512.914	88.06
513.13	88.06
513.346	75.06
513.562	84.06
513.778	77.06
513.994	91.06
514.21	105.06
514.426	124.06
514.642	120.06
514.858	118.06
515.074	156.06
515.29	379.06
515.506	1243.06
515.721	457.06
515.937	135.06
516.153	114.06
516.369	96.06
516.585	86.06
516.801	97.06
517.016	84.06
