Data from Circ_1994_H10_HRD10591_00041.txt Node
Date: Wed Jan 03 11:40:38 EST 2024
User: Yrep
Spectrometer: HR+D1059
Trigger mode: 1
Integration Time (sec): 1.000000E-1
Scans to average: 1
Electric dark correction enabled: true
Nonlinearity correction enabled: false
Boxcar width: 0
XAxis mode: Wavelengths
Number of Pixels in Spectrum: 2048
>>>>>Begin Spectral Data<<<<<
223.165	0.38
223.4	0.38
223.635	0.38
223.869	-44.62
224.104	-23.62
224.338	-15.62
224.573	-2.62
224.808	-4.62
225.042	8.38
225.277	-7.62
225.511	-5.62
225.746	5.38
225.98	-0.62
226.215	10.38
226.449	16.38
226.683	22.38
226.918	23.38
227.152	18.38
227.387	27.38
227.621	33.38
227.856	54.38
228.09	48.38
228.324	49.38
228.559	42.38
228.793	58.38
229.027	64.38
229.262	58.38
229.496	56.38
229.73	96.38
229.964	79.38
230.199	80.38
230.433	74.38
230.667	73.38
230.901	72.38
231.136	62.38
231.37	77.38
231.604	94.38
231.838	79.38
232.072	92.38
232.306	82.38
232.541	94.38
232.775	84.38
233.009	83.38
233.243	85.38
233.477	78.38
233.711	82.38
233.945	68.38
234.179	78.38
234.413	69.38
234.647	73.38
234.881	73.38
235.115	66.38
235.349	84.38
235.583	90.38
235.817	91.38
236.051	85.38
236.285	75.38
236.519	82.38
236.753	79.38
236.987	74.38
237.221	97.38
237.455	69.38
237.689	75.38
237.922	82.38
238.156	63.38
238.39	70.38
238.624	61.38
238.858	75.38
239.091	72.38
239.325	78.38
239.559	75.38
239.793	83.38
240.027	70.38
240.26	86.38
240.494	89.38
240.728	82.38
240.961	77.38
241.195	81.38
241.429	82.38
241.662	80.38
241.896	67.38
242.13	75.38
242.363	77.38
242.597	77.38
242.83	74.38
243.064	79.38
243.298	81.38
243.531	83.38
243.765	86.38
243.998	61.38
244.232	90.38
244.465	85.38
244.699	83.38
244.932	79.38
245.166	80.38
245.399	73.38
245.633	72.38
245.866	83.38
246.099	76.38
246.333	69.38
246.566	83.38
246.8	81.38
247.033	71.38
247.266	78.38
247.5	85.38
247.733	73.38
247.966	76.38
248.2	68.38
248.433	82.38
248.666	70.38
248.899	75.38
249.133	66.38
249.366	87.38
249.599	80.38
249.832	84.38
250.066	88.38
250.299	73.38
250.532	73.38
250.765	71.38
250.998	86.38
251.231	53.38
251.465	81.38
251.698	71.38
251.931	73.38
252.164	76.38
252.397	63.38
252.63	79.38
252.863	71.38
253.096	80.38
253.329	75.38
253.562	76.38
253.795	85.38
254.028	78.38
254.261	95.38
254.494	84.38
254.727	79.38
254.96	85.38
255.193	63.38
255.426	73.38
255.659	69.38
255.892	77.38
256.124	73.38
256.357	79.38
256.59	71.38
256.823	81.38
257.056	80.38
257.289	70.38
257.521	64.38
257.754	75.38
257.987	87.38
258.22	74.38
258.452	65.38
258.685	82.38
258.918	77.38
259.151	79.38
259.383	77.38
259.616	79.38
259.849	86.38
260.081	91.38
260.314	73.38
260.547	86.38
260.779	73.38
261.012	86.38
261.244	79.38
261.477	84.38
261.71	79.38
261.942	102.38
262.175	105.38
262.407	80.38
262.64	78.38
262.872	79.38
263.105	84.38
263.337	86.38
263.57	72.38
263.802	66.38
264.035	75.38
264.267	87.38
264.499	84.38
264.732	80.38
264.964	91.38
265.197	82.38
265.429	81.38
265.661	70.38
265.894	82.38
266.126	84.38
266.358	82.38
266.591	88.38
266.823	71.38
267.055	85.38
267.287	93.38
267.52	87.38
267.752	87.38
267.984	87.38
268.216	77.38
268.448	82.38
268.681	83.38
268.913	90.38
269.145	83.38
269.377	72.38
269.609	64.38
269.841	82.38
270.073	81.38
270.306	101.38
270.538	78.38
270.77	83.38
271.002	86.38
271.234	81.38
271.466	82.38
271.698	77.38
271.93	89.38
272.162	85.38
272.394	70.38
272.626	86.38
272.858	74.38
273.09	86.38
273.322	74.38
273.553	80.38
273.785	73.38
274.017	71.38
274.249	69.38
274.481	78.38
274.713	90.38
274.945	76.38
275.176	71.38
275.408	98.38
275.64	84.38
275.872	89.38
276.104	85.38
276.335	88.38
276.567	97.38
276.799	96.38
277.031	104.38
277.262	85.38
277.494	82.38
277.726	81.38
277.957	86.38
278.189	88.38
278.421	90.38
278.652	81.38
278.884	87.38
279.115	81.38
279.347	99.38
279.579	79.38
279.81	87.38
280.042	94.38
280.273	91.38
280.505	82.38
280.736	80.38
280.968	84.38
281.199	78.38
281.431	77.38
281.662	85.38
281.894	94.38
282.125	74.38
282.356	112.38
282.588	147.38
282.819	107.38
283.051	93.38
283.282	80.38
283.513	79.38
283.745	73.38
283.976	90.38
284.207	89.38
284.439	84.38
284.67	83.38
284.901	81.38
285.132	89.38
285.364	90.38
285.595	93.38
285.826	82.38
286.057	92.38
286.288	73.38
286.52	85.38
286.751	74.38
286.982	91.38
287.213	90.38
287.444	89.38
287.675	94.38
287.906	87.38
288.138	88.38
288.369	92.38
288.6	93.38
288.831	91.38
289.062	93.38
289.293	86.38
289.524	85.38
289.755	85.38
289.986	75.38
290.217	96.38
290.448	83.38
290.679	89.38
290.91	95.38
291.141	80.38
291.371	81.38
291.602	86.38
291.833	94.38
292.064	87.38
292.295	88.38
292.526	90.38
292.757	84.38
292.987	90.38
293.218	89.38
293.449	77.38
293.68	81.38
293.91	89.38
294.141	87.38
294.372	85.38
294.603	72.38
294.833	83.38
295.064	88.38
295.295	102.38
295.525	96.38
295.756	90.38
295.987	101.38
296.217	141.38
296.448	107.38
296.679	83.38
296.909	84.38
297.14	77.38
297.37	88.38
297.601	83.38
297.831	88.38
298.062	93.38
298.292	88.38
298.523	110.38
298.753	97.38
298.984	83.38
299.214	90.38
299.445	91.38
299.675	86.38
299.905	104.38
300.136	87.38
300.366	85.38
300.597	80.38
300.827	82.38
301.057	106.38
301.288	89.38
301.518	92.38
301.748	81.38
301.979	95.38
302.209	96.38
302.439	79.38
302.669	94.38
302.9	89.38
303.13	94.38
303.36	97.38
303.59	109.38
303.82	114.38
304.051	94.38
304.281	88.38
304.511	100.38
304.741	73.38
304.971	77.38
305.201	81.38
305.431	82.38
305.661	101.38
305.891	77.38
306.121	100.38
306.352	99.38
306.582	96.38
306.812	87.38
307.042	97.38
307.272	100.38
307.502	89.38
307.731	94.38
307.961	75.38
308.191	83.38
308.421	93.38
308.651	94.38
308.881	84.38
309.111	94.38
309.341	84.38
309.571	86.38
309.8	80.38
310.03	99.38
310.26	102.38
310.49	95.38
310.72	105.38
310.949	97.38
311.179	95.38
311.409	82.38
311.639	98.38
311.868	92.38
312.098	95.38
312.328	86.38
312.557	96.38
312.787	105.38
313.017	91.38
313.246	92.38
313.476	91.38
313.706	94.38
313.935	81.38
314.165	91.38
314.394	92.38
314.624	89.38
314.853	94.38
315.083	102.38
315.312	101.38
315.542	78.38
315.771	91.38
316.001	77.38
316.23	87.38
316.46	94.38
316.689	92.38
316.919	97.38
317.148	98.38
317.377	93.38
317.607	97.38
317.836	86.38
318.065	96.38
318.295	81.38
318.524	100.38
318.753	103.38
318.983	92.38
319.212	97.38
319.441	96.38
319.67	111.38
319.9	105.38
320.129	79.38
320.358	90.38
320.587	75.38
320.816	104.38
321.046	93.38
321.275	101.38
321.504	94.38
321.733	93.38
321.962	105.38
322.191	108.38
322.42	101.38
322.649	113.38
322.878	114.38
323.108	96.38
323.337	125.38
323.566	124.38
323.795	139.38
324.024	171.38
324.253	366.38
324.482	726.38
324.71	1495.38
324.939	1958.38
325.168	714.38
325.397	223.38
325.626	151.38
325.855	113.38
326.084	104.38
326.313	105.38
326.542	135.38
326.77	209.38
326.999	416.38
327.228	841.38
327.457	1517.38
327.686	1193.38
327.914	335.38
328.143	176.38
328.372	149.38
328.6	119.38
328.829	122.38
329.058	117.38
329.287	115.38
329.515	108.38
329.744	107.38
329.972	109.38
330.201	128.38
330.43	139.38
330.658	137.38
330.887	139.38
331.115	113.38
331.344	95.38
331.572	92.38
331.801	98.38
332.03	103.38
332.258	94.38
332.486	80.38
332.715	91.38
332.943	89.38
333.172	85.38
333.4	91.38
333.629	100.38
333.857	102.38
334.085	93.38
334.314	116.38
334.542	141.38
334.771	139.38
334.999	89.38
335.227	99.38
335.455	92.38
335.684	90.38
335.912	103.38
336.14	107.38
336.369	97.38
336.597	96.38
336.825	91.38
337.053	94.38
337.281	97.38
337.51	87.38
337.738	81.38
337.966	82.38
338.194	85.38
338.422	82.38
338.65	93.38
338.878	102.38
339.106	95.38
339.334	87.38
339.562	80.38
339.79	91.38
340.018	97.38
340.246	69.38
340.474	93.38
340.702	87.38
340.93	96.38
341.158	82.38
341.386	95.38
341.614	86.38
341.842	104.38
342.07	92.38
342.298	89.38
342.526	86.38
342.754	92.38
342.981	85.38
343.209	83.38
343.437	104.38
343.665	97.38
343.893	89.38
344.12	96.38
344.348	83.38
344.576	89.38
344.804	89.38
345.031	84.38
345.259	93.38
345.487	100.38
345.714	104.38
345.942	84.38
346.17	82.38
346.397	92.38
346.625	85.38
346.853	81.38
347.08	92.38
347.308	87.38
347.535	103.38
347.763	89.38
347.99	78.38
348.218	105.38
348.445	95.38
348.673	86.38
348.9	93.38
349.128	86.38
349.355	81.38
349.583	86.38
349.81	77.38
350.037	113.38
350.265	91.38
350.492	83.38
350.72	104.38
350.947	96.38
351.174	104.38
351.402	102.38
351.629	94.38
351.856	89.38
352.083	97.38
352.311	112.38
352.538	95.38
352.765	99.38
352.992	98.38
353.22	119.38
353.447	91.38
353.674	100.38
353.901	110.38
354.128	94.38
354.355	104.38
354.583	90.38
354.81	107.38
355.037	83.38
355.264	100.38
355.491	84.38
355.718	82.38
355.945	103.38
356.172	86.38
356.399	91.38
356.626	85.38
356.853	98.38
357.08	81.38
357.307	95.38
357.534	89.38
357.761	88.38
357.988	90.38
358.215	101.38
358.441	71.38
358.668	78.38
358.895	96.38
359.122	81.38
359.349	90.38
359.576	82.38
359.802	88.38
360.029	110.38
360.256	107.38
360.483	103.38
360.709	99.38
360.936	94.38
361.163	83.38
361.39	94.38
361.616	81.38
361.843	82.38
362.07	82.38
362.296	98.38
362.523	78.38
362.749	87.38
362.976	75.38
363.203	90.38
363.429	85.38
363.656	90.38
363.882	87.38
364.109	92.38
364.335	96.38
364.562	84.38
364.788	87.38
365.015	90.38
365.241	94.38
365.468	89.38
365.694	96.38
365.92	89.38
366.147	73.38
366.373	80.38
366.599	107.38
366.826	86.38
367.052	72.38
367.278	88.38
367.505	91.38
367.731	80.38
367.957	82.38
368.184	97.38
368.41	91.38
368.636	111.38
368.862	123.38
369.089	109.38
369.315	81.38
369.541	86.38
369.767	79.38
369.993	75.38
370.219	96.38
370.445	88.38
370.672	90.38
370.898	70.38
371.124	86.38
371.35	81.38
371.576	81.38
371.802	75.38
372.028	81.38
372.254	79.38
372.48	77.38
372.706	97.38
372.932	87.38
373.158	90.38
373.384	88.38
373.61	90.38
373.835	90.38
374.061	79.38
374.287	90.38
374.513	91.38
374.739	85.38
374.965	86.38
375.191	72.38
375.416	83.38
375.642	81.38
375.868	81.38
376.094	85.38
376.319	90.38
376.545	95.38
376.771	98.38
376.997	89.38
377.222	88.38
377.448	105.38
377.674	88.38
377.899	73.38
378.125	78.38
378.35	89.38
378.576	85.38
378.802	82.38
379.027	85.38
379.253	81.38
379.478	76.38
379.704	85.38
379.929	93.38
380.155	95.38
380.38	88.38
380.606	88.38
380.831	93.38
381.057	86.38
381.282	96.38
381.507	93.38
381.733	99.38
381.958	92.38
382.184	99.38
382.409	97.38
382.634	86.38
382.86	103.38
383.085	87.38
383.31	110.38
383.535	101.38
383.761	101.38
383.986	85.38
384.211	96.38
384.436	94.38
384.662	106.38
384.887	88.38
385.112	106.38
385.337	96.38
385.562	103.38
385.787	103.38
386.013	97.38
386.238	93.38
386.463	82.38
386.688	101.38
386.913	105.38
387.138	117.38
387.363	79.38
387.588	90.38
387.813	102.38
388.038	92.38
388.263	115.38
388.488	91.38
388.713	90.38
388.938	93.38
389.163	87.38
389.387	99.38
389.612	90.38
389.837	95.38
390.062	71.38
390.287	77.38
390.512	82.38
390.736	77.38
390.961	72.38
391.186	100.38
391.411	98.38
391.636	82.38
391.86	77.38
392.085	87.38
392.31	90.38
392.534	89.38
392.759	91.38
392.984	83.38
393.208	90.38
393.433	90.38
393.658	86.38
393.882	93.38
394.107	89.38
394.331	96.38
394.556	98.38
394.78	90.38
395.005	91.38
395.229	78.38
395.454	69.38
395.678	83.38
395.903	93.38
396.127	92.38
396.352	88.38
396.576	85.38
396.801	97.38
397.025	90.38
397.249	85.38
397.474	77.38
397.698	93.38
397.922	86.38
398.147	88.38
398.371	97.38
398.595	92.38
398.82	83.38
399.044	66.38
399.268	82.38
399.492	88.38
399.717	98.38
399.941	93.38
400.165	83.38
400.389	82.38
400.613	82.38
400.837	90.38
401.062	95.38
401.286	87.38
401.51	89.38
401.734	73.38
401.958	101.38
402.182	107.38
402.406	152.38
402.63	97.38
402.854	106.38
403.078	73.38
403.302	81.38
403.526	95.38
403.75	85.38
403.974	86.38
404.198	91.38
404.422	81.38
404.645	85.38
404.869	75.38
405.093	84.38
405.317	104.38
405.541	97.38
405.765	85.38
405.988	115.38
406.212	141.38
406.436	221.38
406.66	134.38
406.883	105.38
407.107	90.38
407.331	93.38
407.555	82.38
407.778	82.38
408.002	96.38
408.226	88.38
408.449	72.38
408.673	95.38
408.896	103.38
409.12	81.38
409.344	89.38
409.567	82.38
409.791	97.38
410.014	101.38
410.238	90.38
410.461	87.38
410.685	83.38
410.908	101.38
411.132	86.38
411.355	85.38
411.578	98.38
411.802	81.38
412.025	85.38
412.249	96.38
412.472	89.38
412.695	94.38
412.919	79.38
413.142	91.38
413.365	77.38
413.589	89.38
413.812	76.38
414.035	102.38
414.258	93.38
414.482	92.38
414.705	87.38
414.928	76.38
415.151	71.38
415.374	81.38
415.597	91.38
415.821	87.38
416.044	101.38
416.267	87.38
416.49	77.38
416.713	75.38
416.936	82.38
417.159	74.38
417.382	89.38
417.605	85.38
417.828	87.38
418.051	82.38
418.274	89.38
418.497	84.38
418.72	71.38
418.943	82.38
419.166	73.38
419.389	71.38
419.611	80.38
419.834	83.38
420.057	77.38
420.28	85.38
420.503	80.38
420.726	86.38
420.948	81.38
421.171	87.38
421.394	77.38
421.617	87.38
421.839	93.38
422.062	84.38
422.285	82.38
422.507	95.38
422.73	95.38
422.953	92.38
423.175	88.38
423.398	79.38
423.621	81.38
423.843	81.38
424.066	86.38
424.288	87.38
424.511	85.38
424.733	82.38
424.956	91.38
425.178	83.38
425.401	95.38
425.623	91.38
425.846	88.38
426.068	80.38
426.291	95.38
426.513	96.38
426.735	95.38
426.958	86.38
427.18	103.38
427.402	126.38
427.625	151.38
427.847	120.38
428.069	101.38
428.292	79.38
428.514	87.38
428.736	75.38
428.958	78.38
429.181	85.38
429.403	74.38
429.625	80.38
429.847	108.38
430.069	85.38
430.292	84.38
430.514	97.38
430.736	77.38
430.958	76.38
431.18	74.38
431.402	85.38
431.624	93.38
431.846	73.38
432.068	82.38
432.29	78.38
432.512	71.38
432.734	87.38
432.956	93.38
433.178	88.38
433.4	93.38
433.622	70.38
433.844	95.38
434.066	94.38
434.287	99.38
434.509	77.38
434.731	89.38
434.953	86.38
435.175	74.38
435.397	77.38
435.618	93.38
435.84	105.38
436.062	112.38
436.284	97.38
436.505	100.38
436.727	84.38
436.949	90.38
437.17	79.38
437.392	85.38
437.614	103.38
437.835	99.38
438.057	99.38
438.278	94.38
438.5	97.38
438.721	103.38
438.943	96.38
439.165	87.38
439.386	91.38
439.608	83.38
439.829	88.38
440.05	98.38
440.272	129.38
440.493	78.38
440.715	85.38
440.936	81.38
441.158	87.38
441.379	85.38
441.6	87.38
441.822	85.38
442.043	82.38
442.264	95.38
442.486	84.38
442.707	71.38
442.928	109.38
443.149	117.38
443.371	115.38
443.592	109.38
443.813	106.38
444.034	110.38
444.255	87.38
444.476	93.38
444.698	82.38
444.919	80.38
445.14	122.38
445.361	111.38
445.582	107.38
445.803	100.38
446.024	126.38
446.245	115.38
446.466	90.38
446.687	77.38
446.908	73.38
447.129	85.38
447.35	79.38
447.571	77.38
447.792	91.38
448.013	106.38
448.234	90.38
448.455	94.38
448.675	106.38
448.896	103.38
449.117	102.38
449.338	94.38
449.559	119.38
449.779	118.38
450	108.38
450.221	79.38
450.442	79.38
450.662	107.38
450.883	108.38
451.104	103.38
451.324	99.38
451.545	79.38
451.766	77.38
451.986	86.38
452.207	86.38
452.428	93.38
452.648	100.38
452.869	98.38
453.089	90.38
453.31	105.38
453.53	82.38
453.751	92.38
453.971	102.38
454.192	99.38
454.412	94.38
454.633	82.38
454.853	88.38
455.073	80.38
455.294	72.38
455.514	94.38
455.734	76.38
455.955	91.38
456.175	71.38
456.395	94.38
456.616	93.38
456.836	81.38
457.056	66.38
457.276	73.38
457.497	82.38
457.717	79.38
457.937	91.38
458.157	103.38
458.377	87.38
458.598	104.38
458.818	128.38
459.038	139.38
459.258	110.38
459.478	85.38
459.698	87.38
459.918	89.38
460.138	83.38
460.358	67.38
460.578	92.38
460.798	85.38
461.018	82.38
461.238	87.38
461.458	88.38
461.678	81.38
461.898	82.38
462.118	90.38
462.338	67.38
462.558	87.38
462.777	85.38
462.997	82.38
463.217	78.38
463.437	91.38
463.657	81.38
463.876	83.38
464.096	87.38
464.316	88.38
464.536	89.38
464.755	89.38
464.975	91.38
465.195	161.38
465.414	146.38
465.634	89.38
465.854	91.38
466.073	86.38
466.293	95.38
466.512	95.38
466.732	85.38
466.951	93.38
467.171	80.38
467.391	89.38
467.61	90.38
467.829	85.38
468.049	102.38
468.268	113.38
468.488	89.38
468.707	75.38
468.927	81.38
469.146	87.38
469.365	81.38
469.585	75.38
469.804	78.38
470.023	92.38
470.243	92.38
470.462	92.38
470.681	90.38
470.901	89.38
471.12	76.38
471.339	76.38
471.558	101.38
471.777	92.38
471.997	83.38
472.216	121.38
472.435	165.38
472.654	99.38
472.873	98.38
473.092	81.38
473.311	90.38
473.53	95.38
473.749	82.38
473.968	101.38
474.187	107.38
474.406	69.38
474.625	92.38
474.844	76.38
475.063	86.38
475.282	78.38
475.501	84.38
475.72	89.38
475.939	73.38
476.158	88.38
476.377	80.38
476.596	89.38
476.814	104.38
477.033	83.38
477.252	69.38
477.471	85.38
477.69	85.38
477.908	97.38
478.127	88.38
478.346	77.38
478.564	92.38
478.783	89.38
479.002	94.38
479.22	89.38
479.439	91.38
479.658	104.38
479.876	94.38
480.095	82.38
480.313	88.38
480.532	96.38
480.751	87.38
480.969	129.38
481.188	253.38
481.406	170.38
481.624	91.38
481.843	97.38
482.061	80.38
482.28	90.38
482.498	80.38
482.717	91.38
482.935	92.38
483.153	93.38
483.372	97.38
483.59	89.38
483.808	84.38
484.027	78.38
484.245	82.38
484.463	89.38
484.681	98.38
484.9	89.38
485.118	94.38
485.336	77.38
485.554	102.38
485.772	103.38
485.99	106.38
486.209	108.38
486.427	98.38
486.645	105.38
486.863	109.38
487.081	97.38
487.299	96.38
487.517	88.38
487.735	88.38
487.953	91.38
488.171	86.38
488.389	95.38
488.607	102.38
488.825	101.38
489.043	80.38
489.261	83.38
489.479	92.38
489.696	94.38
489.914	83.38
490.132	80.38
490.35	90.38
490.568	87.38
490.786	78.38
491.003	91.38
491.221	89.38
491.439	81.38
491.657	69.38
491.874	89.38
492.092	89.38
492.31	91.38
492.527	90.38
492.745	85.38
492.963	91.38
493.18	95.38
493.398	87.38
493.615	81.38
493.833	89.38
494.05	101.38
494.268	79.38
494.485	82.38
494.703	90.38
494.92	82.38
495.138	93.38
495.355	95.38
495.573	83.38
495.79	82.38
496.008	89.38
496.225	82.38
496.442	78.38
496.66	97.38
496.877	71.38
497.094	77.38
497.312	75.38
497.529	81.38
497.746	84.38
497.963	84.38
498.181	74.38
498.398	82.38
498.615	103.38
498.832	101.38
499.049	80.38
499.267	97.38
499.484	75.38
499.701	83.38
499.918	88.38
500.135	93.38
500.352	79.38
500.569	90.38
500.786	95.38
501.003	98.38
501.22	89.38
501.437	84.38
501.654	93.38
501.871	106.38
502.088	86.38
502.305	86.38
502.522	91.38
502.739	79.38
502.956	90.38
503.172	85.38
503.389	93.38
503.606	105.38
503.823	90.38
504.04	90.38
504.256	89.38
504.473	91.38
504.69	89.38
504.907	91.38
505.123	86.38
505.34	94.38
505.557	89.38
505.773	87.38
505.99	83.38
506.207	81.38
506.423	92.38
506.64	83.38
506.856	93.38
507.073	86.38
507.289	90.38
507.506	86.38
507.722	92.38
507.939	109.38
508.155	96.38
508.372	75.38
508.588	91.38
508.805	101.38
509.021	85.38
509.238	97.38
509.454	90.38
509.67	108.38
509.887	107.38
510.103	112.38
510.319	205.38
510.536	755.38
510.752	2375.38
510.968	641.38
511.184	150.38
511.401	105.38
511.617	106.38
511.833	98.38
512.049	99.38
512.265	82.38
512.481	88.38
512.698	90.38
512.914	81.38
513.13	90.38
513.346	77.38
513.562	88.38
513.778	97.38
513.994	82.38
514.21	88.38
514.426	102.38
514.642	141.38
514.858	123.38
515.074	143.38
515.29	435.38
515.506	1355.38
515.721	497.38
515.937	143.38
516.153	98.38
516.369	77.38
516.585	81.38
516.801	70.38
517.016	102.38
