Data from Circ_1994_H10_HRD10591_00098.txt Node
Date: Wed Jan 03 11:40:50 EST 2024
User: Yrep
Spectrometer: HR+D1059
Trigger mode: 1
Integration Time (sec): 1.000000E-1
Scans to average: 1
Electric dark correction enabled: true
Nonlinearity correction enabled: false
Boxcar width: 0
XAxis mode: Wavelengths
Number of Pixels in Spectrum: 2048
>>>>>Begin Spectral Data<<<<<
223.165	-11.69
223.4	-11.69
223.635	-11.69
223.869	-21.69
224.104	-19.69
224.338	-22.69
224.573	-15.69
224.808	-25.69
225.042	-2.69
225.277	-6.69
225.511	-5.69
225.746	8.31
225.98	4.31
226.215	13.31
226.449	13.31
226.683	33.31
226.918	26.31
227.152	33.31
227.387	41.31
227.621	59.31
227.856	45.31
228.09	41.31
228.324	42.31
228.559	59.31
228.793	65.31
229.027	65.31
229.262	71.31
229.496	70.31
229.73	78.31
229.964	71.31
230.199	59.31
230.433	74.31
230.667	83.31
230.901	74.31
231.136	75.31
231.37	83.31
231.604	86.31
231.838	77.31
232.072	78.31
232.306	82.31
232.541	95.31
232.775	84.31
233.009	89.31
233.243	75.31
233.477	68.31
233.711	81.31
233.945	76.31
234.179	82.31
234.413	77.31
234.647	75.31
234.881	90.31
235.115	94.31
235.349	82.31
235.583	73.31
235.817	70.31
236.051	75.31
236.285	68.31
236.519	69.31
236.753	78.31
236.987	89.31
237.221	87.31
237.455	99.31
237.689	77.31
237.922	73.31
238.156	70.31
238.39	88.31
238.624	69.31
238.858	79.31
239.091	89.31
239.325	74.31
239.559	82.31
239.793	74.31
240.027	73.31
240.26	81.31
240.494	69.31
240.728	73.31
240.961	67.31
241.195	70.31
241.429	68.31
241.662	66.31
241.896	75.31
242.13	85.31
242.363	88.31
242.597	79.31
242.83	86.31
243.064	76.31
243.298	68.31
243.531	71.31
243.765	78.31
243.998	73.31
244.232	94.31
244.465	78.31
244.699	73.31
244.932	66.31
245.166	83.31
245.399	82.31
245.633	68.31
245.866	83.31
246.099	83.31
246.333	62.31
246.566	87.31
246.8	101.31
247.033	67.31
247.266	80.31
247.5	79.31
247.733	91.31
247.966	83.31
248.2	63.31
248.433	82.31
248.666	89.31
248.899	89.31
249.133	82.31
249.366	104.31
249.599	90.31
249.832	77.31
250.066	82.31
250.299	65.31
250.532	74.31
250.765	79.31
250.998	70.31
251.231	71.31
251.465	71.31
251.698	81.31
251.931	80.31
252.164	90.31
252.397	78.31
252.63	85.31
252.863	65.31
253.096	85.31
253.329	78.31
253.562	90.31
253.795	76.31
254.028	91.31
254.261	79.31
254.494	79.31
254.727	93.31
254.96	101.31
255.193	85.31
255.426	82.31
255.659	85.31
255.892	66.31
256.124	77.31
256.357	85.31
256.59	88.31
256.823	80.31
257.056	83.31
257.289	86.31
257.521	88.31
257.754	81.31
257.987	62.31
258.22	86.31
258.452	93.31
258.685	82.31
258.918	76.31
259.151	95.31
259.383	88.31
259.616	85.31
259.849	94.31
260.081	81.31
260.314	79.31
260.547	65.31
260.779	83.31
261.012	76.31
261.244	89.31
261.477	83.31
261.71	92.31
261.942	97.31
262.175	119.31
262.407	98.31
262.64	86.31
262.872	80.31
263.105	77.31
263.337	82.31
263.57	93.31
263.802	78.31
264.035	69.31
264.267	69.31
264.499	73.31
264.732	98.31
264.964	103.31
265.197	84.31
265.429	73.31
265.661	80.31
265.894	91.31
266.126	103.31
266.358	88.31
266.591	87.31
266.823	88.31
267.055	75.31
267.287	91.31
267.52	67.31
267.752	71.31
267.984	98.31
268.216	75.31
268.448	74.31
268.681	87.31
268.913	96.31
269.145	77.31
269.377	94.31
269.609	85.31
269.841	94.31
270.073	97.31
270.306	82.31
270.538	85.31
270.77	100.31
271.002	80.31
271.234	88.31
271.466	86.31
271.698	77.31
271.93	85.31
272.162	82.31
272.394	102.31
272.626	77.31
272.858	73.31
273.09	86.31
273.322	93.31
273.553	80.31
273.785	75.31
274.017	98.31
274.249	70.31
274.481	101.31
274.713	96.31
274.945	102.31
275.176	101.31
275.408	86.31
275.64	92.31
275.872	80.31
276.104	90.31
276.335	104.31
276.567	99.31
276.799	110.31
277.031	112.31
277.262	103.31
277.494	83.31
277.726	88.31
277.957	105.31
278.189	81.31
278.421	69.31
278.652	81.31
278.884	93.31
279.115	86.31
279.347	88.31
279.579	79.31
279.81	95.31
280.042	93.31
280.273	108.31
280.505	101.31
280.736	78.31
280.968	93.31
281.199	89.31
281.431	83.31
281.662	81.31
281.894	85.31
282.125	100.31
282.356	111.31
282.588	144.31
282.819	100.31
283.051	88.31
283.282	95.31
283.513	81.31
283.745	70.31
283.976	99.31
284.207	84.31
284.439	90.31
284.67	89.31
284.901	92.31
285.132	78.31
285.364	86.31
285.595	86.31
285.826	75.31
286.057	98.31
286.288	93.31
286.52	97.31
286.751	94.31
286.982	84.31
287.213	95.31
287.444	70.31
287.675	94.31
287.906	84.31
288.138	90.31
288.369	96.31
288.6	97.31
288.831	83.31
289.062	87.31
289.293	85.31
289.524	76.31
289.755	90.31
289.986	81.31
290.217	98.31
290.448	82.31
290.679	82.31
290.91	98.31
291.141	94.31
291.371	93.31
291.602	90.31
291.833	87.31
292.064	71.31
292.295	87.31
292.526	89.31
292.757	83.31
292.987	84.31
293.218	84.31
293.449	91.31
293.68	85.31
293.91	88.31
294.141	86.31
294.372	98.31
294.603	101.31
294.833	101.31
295.064	84.31
295.295	87.31
295.525	84.31
295.756	96.31
295.987	111.31
296.217	129.31
296.448	126.31
296.679	89.31
296.909	95.31
297.14	101.31
297.37	84.31
297.601	91.31
297.831	85.31
298.062	84.31
298.292	98.31
298.523	97.31
298.753	92.31
298.984	81.31
299.214	97.31
299.445	91.31
299.675	108.31
299.905	86.31
300.136	97.31
300.366	107.31
300.597	93.31
300.827	105.31
301.057	91.31
301.288	95.31
301.518	92.31
301.748	98.31
301.979	100.31
302.209	78.31
302.439	81.31
302.669	73.31
302.9	98.31
303.13	87.31
303.36	85.31
303.59	103.31
303.82	115.31
304.051	86.31
304.281	84.31
304.511	82.31
304.741	90.31
304.971	96.31
305.201	91.31
305.431	90.31
305.661	84.31
305.891	89.31
306.121	91.31
306.352	107.31
306.582	117.31
306.812	75.31
307.042	95.31
307.272	96.31
307.502	104.31
307.731	108.31
307.961	110.31
308.191	78.31
308.421	87.31
308.651	83.31
308.881	87.31
309.111	97.31
309.341	105.31
309.571	92.31
309.8	88.31
310.03	83.31
310.26	89.31
310.49	96.31
310.72	105.31
310.949	114.31
311.179	103.31
311.409	98.31
311.639	76.31
311.868	104.31
312.098	95.31
312.328	102.31
312.557	107.31
312.787	103.31
313.017	96.31
313.246	94.31
313.476	101.31
313.706	96.31
313.935	86.31
314.165	101.31
314.394	102.31
314.624	101.31
314.853	97.31
315.083	98.31
315.312	84.31
315.542	96.31
315.771	97.31
316.001	86.31
316.23	93.31
316.46	91.31
316.689	86.31
316.919	98.31
317.148	97.31
317.377	95.31
317.607	99.31
317.836	87.31
318.065	84.31
318.295	84.31
318.524	74.31
318.753	96.31
318.983	86.31
319.212	103.31
319.441	114.31
319.67	109.31
319.9	97.31
320.129	94.31
320.358	99.31
320.587	99.31
320.816	97.31
321.046	105.31
321.275	93.31
321.504	87.31
321.733	107.31
321.962	106.31
322.191	103.31
322.42	110.31
322.649	117.31
322.878	100.31
323.108	114.31
323.337	119.31
323.566	129.31
323.795	146.31
324.024	197.31
324.253	358.31
324.482	708.31
324.71	1435.31
324.939	1857.31
325.168	704.31
325.397	224.31
325.626	138.31
325.855	123.31
326.084	122.31
326.313	124.31
326.542	154.31
326.77	197.31
326.999	378.31
327.228	822.31
327.457	1457.31
327.686	1124.31
327.914	337.31
328.143	191.31
328.372	128.31
328.6	137.31
328.829	108.31
329.058	118.31
329.287	123.31
329.515	106.31
329.744	101.31
329.972	131.31
330.201	185.31
330.43	195.31
330.658	155.31
330.887	150.31
331.115	126.31
331.344	109.31
331.572	85.31
331.801	90.31
332.03	88.31
332.258	109.31
332.486	101.31
332.715	90.31
332.943	94.31
333.172	95.31
333.4	100.31
333.629	103.31
333.857	122.31
334.085	139.31
334.314	193.31
334.542	261.31
334.771	233.31
334.999	105.31
335.227	100.31
335.455	103.31
335.684	90.31
335.912	107.31
336.14	106.31
336.369	101.31
336.597	96.31
336.825	89.31
337.053	95.31
337.281	104.31
337.51	81.31
337.738	92.31
337.966	101.31
338.194	115.31
338.422	95.31
338.65	96.31
338.878	91.31
339.106	88.31
339.334	83.31
339.562	94.31
339.79	82.31
340.018	110.31
340.246	98.31
340.474	96.31
340.702	82.31
340.93	90.31
341.158	97.31
341.386	106.31
341.614	99.31
341.842	103.31
342.07	87.31
342.298	100.31
342.526	87.31
342.754	96.31
342.981	98.31
343.209	100.31
343.437	88.31
343.665	92.31
343.893	83.31
344.12	101.31
344.348	88.31
344.576	77.31
344.804	86.31
345.031	93.31
345.259	102.31
345.487	91.31
345.714	90.31
345.942	93.31
346.17	96.31
346.397	82.31
346.625	76.31
346.853	93.31
347.08	85.31
347.308	92.31
347.535	97.31
347.763	85.31
347.99	96.31
348.218	103.31
348.445	102.31
348.673	90.31
348.9	102.31
349.128	86.31
349.355	87.31
349.583	106.31
349.81	92.31
350.037	85.31
350.265	86.31
350.492	101.31
350.72	90.31
350.947	97.31
351.174	109.31
351.402	106.31
351.629	110.31
351.856	100.31
352.083	98.31
352.311	111.31
352.538	106.31
352.765	114.31
352.992	112.31
353.22	102.31
353.447	113.31
353.674	105.31
353.901	101.31
354.128	82.31
354.355	101.31
354.583	93.31
354.81	102.31
355.037	103.31
355.264	90.31
355.491	97.31
355.718	87.31
355.945	86.31
356.172	80.31
356.399	102.31
356.626	85.31
356.853	100.31
357.08	94.31
357.307	97.31
357.534	95.31
357.761	97.31
357.988	75.31
358.215	95.31
358.441	89.31
358.668	86.31
358.895	95.31
359.122	85.31
359.349	102.31
359.576	92.31
359.802	111.31
360.029	108.31
360.256	83.31
360.483	101.31
360.709	91.31
360.936	91.31
361.163	87.31
361.39	97.31
361.616	85.31
361.843	94.31
362.07	95.31
362.296	99.31
362.523	102.31
362.749	95.31
362.976	80.31
363.203	85.31
363.429	100.31
363.656	83.31
363.882	86.31
364.109	87.31
364.335	97.31
364.562	80.31
364.788	81.31
365.015	85.31
365.241	98.31
365.468	97.31
365.694	103.31
365.92	91.31
366.147	85.31
366.373	74.31
366.599	85.31
366.826	99.31
367.052	85.31
367.278	92.31
367.505	87.31
367.731	107.31
367.957	82.31
368.184	93.31
368.41	91.31
368.636	106.31
368.862	113.31
369.089	108.31
369.315	93.31
369.541	89.31
369.767	94.31
369.993	103.31
370.219	82.31
370.445	86.31
370.672	96.31
370.898	92.31
371.124	89.31
371.35	101.31
371.576	90.31
371.802	87.31
372.028	81.31
372.254	89.31
372.48	91.31
372.706	86.31
372.932	94.31
373.158	87.31
373.384	89.31
373.61	90.31
373.835	83.31
374.061	95.31
374.287	88.31
374.513	92.31
374.739	90.31
374.965	80.31
375.191	78.31
375.416	85.31
375.642	91.31
375.868	92.31
376.094	89.31
376.319	89.31
376.545	98.31
376.771	102.31
376.997	88.31
377.222	94.31
377.448	79.31
377.674	96.31
377.899	80.31
378.125	69.31
378.35	85.31
378.576	88.31
378.802	100.31
379.027	93.31
379.253	91.31
379.478	90.31
379.704	96.31
379.929	96.31
380.155	78.31
380.38	100.31
380.606	86.31
380.831	78.31
381.057	102.31
381.282	95.31
381.507	91.31
381.733	94.31
381.958	93.31
382.184	90.31
382.409	85.31
382.634	101.31
382.86	90.31
383.085	91.31
383.31	103.31
383.535	73.31
383.761	97.31
383.986	72.31
384.211	85.31
384.436	98.31
384.662	109.31
384.887	95.31
385.112	90.31
385.337	113.31
385.562	95.31
385.787	91.31
386.013	117.31
386.238	108.31
386.463	103.31
386.688	113.31
386.913	82.31
387.138	93.31
387.363	92.31
387.588	86.31
387.813	91.31
388.038	101.31
388.263	95.31
388.488	110.31
388.713	91.31
388.938	97.31
389.163	80.31
389.387	100.31
389.612	93.31
389.837	110.31
390.062	100.31
390.287	90.31
390.512	98.31
390.736	82.31
390.961	83.31
391.186	90.31
391.411	84.31
391.636	107.31
391.86	86.31
392.085	80.31
392.31	75.31
392.534	93.31
392.759	77.31
392.984	93.31
393.208	94.31
393.433	96.31
393.658	79.31
393.882	92.31
394.107	86.31
394.331	85.31
394.556	97.31
394.78	69.31
395.005	87.31
395.229	73.31
395.454	84.31
395.678	85.31
395.903	80.31
396.127	97.31
396.352	90.31
396.576	81.31
396.801	85.31
397.025	84.31
397.249	88.31
397.474	95.31
397.698	74.31
397.922	92.31
398.147	90.31
398.371	79.31
398.595	95.31
398.82	93.31
399.044	101.31
399.268	77.31
399.492	75.31
399.717	85.31
399.941	91.31
400.165	77.31
400.389	84.31
400.613	95.31
400.837	100.31
401.062	109.31
401.286	81.31
401.51	84.31
401.734	99.31
401.958	96.31
402.182	109.31
402.406	166.31
402.63	135.31
402.854	86.31
403.078	76.31
403.302	81.31
403.526	90.31
403.75	93.31
403.974	77.31
404.198	85.31
404.422	86.31
404.645	100.31
404.869	98.31
405.093	94.31
405.317	90.31
405.541	89.31
405.765	106.31
405.988	108.31
406.212	157.31
406.436	207.31
406.66	140.31
406.883	95.31
407.107	97.31
407.331	106.31
407.555	101.31
407.778	96.31
408.002	99.31
408.226	92.31
408.449	85.31
408.673	78.31
408.896	92.31
409.12	99.31
409.344	95.31
409.567	71.31
409.791	95.31
410.014	101.31
410.238	95.31
410.461	102.31
410.685	103.31
410.908	89.31
411.132	92.31
411.355	90.31
411.578	85.31
411.802	99.31
412.025	83.31
412.249	79.31
412.472	92.31
412.695	100.31
412.919	95.31
413.142	90.31
413.365	103.31
413.589	94.31
413.812	91.31
414.035	93.31
414.258	89.31
414.482	87.31
414.705	98.31
414.928	84.31
415.151	87.31
415.374	105.31
415.597	87.31
415.821	85.31
416.044	79.31
416.267	62.31
416.49	92.31
416.713	86.31
416.936	92.31
417.159	89.31
417.382	96.31
417.605	93.31
417.828	97.31
418.051	86.31
418.274	85.31
418.497	82.31
418.72	92.31
418.943	81.31
419.166	87.31
419.389	78.31
419.611	68.31
419.834	86.31
420.057	103.31
420.28	91.31
420.503	92.31
420.726	87.31
420.948	85.31
421.171	90.31
421.394	97.31
421.617	73.31
421.839	90.31
422.062	103.31
422.285	93.31
422.507	95.31
422.73	100.31
422.953	94.31
423.175	75.31
423.398	105.31
423.621	87.31
423.843	91.31
424.066	93.31
424.288	97.31
424.511	90.31
424.733	86.31
424.956	109.31
425.178	106.31
425.401	100.31
425.623	93.31
425.846	94.31
426.068	88.31
426.291	99.31
426.513	83.31
426.735	92.31
426.958	87.31
427.18	100.31
427.402	117.31
427.625	164.31
427.847	134.31
428.069	106.31
428.292	103.31
428.514	91.31
428.736	83.31
428.958	104.31
429.181	85.31
429.403	83.31
429.625	105.31
429.847	91.31
430.069	99.31
430.292	94.31
430.514	90.31
430.736	85.31
430.958	89.31
431.18	89.31
431.402	98.31
431.624	85.31
431.846	81.31
432.068	88.31
432.29	87.31
432.512	86.31
432.734	92.31
432.956	91.31
433.178	94.31
433.4	85.31
433.622	79.31
433.844	88.31
434.066	88.31
434.287	95.31
434.509	97.31
434.731	80.31
434.953	98.31
435.175	82.31
435.397	87.31
435.618	92.31
435.84	93.31
436.062	93.31
436.284	116.31
436.505	98.31
436.727	91.31
436.949	93.31
437.17	85.31
437.392	98.31
437.614	91.31
437.835	100.31
438.057	106.31
438.278	97.31
438.5	92.31
438.721	93.31
438.943	87.31
439.165	89.31
439.386	86.31
439.608	89.31
439.829	94.31
440.05	109.31
440.272	126.31
440.493	95.31
440.715	77.31
440.936	74.31
441.158	89.31
441.379	86.31
441.6	79.31
441.822	97.31
442.043	86.31
442.264	96.31
442.486	86.31
442.707	85.31
442.928	91.31
443.149	121.31
443.371	113.31
443.592	101.31
443.813	116.31
444.034	104.31
444.255	85.31
444.476	85.31
444.698	83.31
444.919	90.31
445.14	130.31
445.361	118.31
445.582	105.31
445.803	119.31
446.024	115.31
446.245	119.31
446.466	94.31
446.687	84.31
446.908	92.31
447.129	85.31
447.35	97.31
447.571	84.31
447.792	112.31
448.013	110.31
448.234	94.31
448.455	110.31
448.675	99.31
448.896	108.31
449.117	91.31
449.338	103.31
449.559	121.31
449.779	115.31
450	85.31
450.221	77.31
450.442	90.31
450.662	95.31
450.883	91.31
451.104	111.31
451.324	94.31
451.545	98.31
451.766	93.31
451.986	78.31
452.207	100.31
452.428	83.31
452.648	95.31
452.869	117.31
453.089	121.31
453.31	126.31
453.53	95.31
453.751	93.31
453.971	93.31
454.192	104.31
454.412	84.31
454.633	83.31
454.853	78.31
455.073	93.31
455.294	98.31
455.514	105.31
455.734	94.31
455.955	74.31
456.175	73.31
456.395	81.31
456.616	81.31
456.836	95.31
457.056	83.31
457.276	84.31
457.497	93.31
457.717	89.31
457.937	99.31
458.157	82.31
458.377	83.31
458.598	99.31
458.818	138.31
459.038	158.31
459.258	118.31
459.478	93.31
459.698	85.31
459.918	86.31
460.138	93.31
460.358	103.31
460.578	104.31
460.798	92.31
461.018	79.31
461.238	100.31
461.458	85.31
461.678	75.31
461.898	86.31
462.118	87.31
462.338	87.31
462.558	93.31
462.777	86.31
462.997	93.31
463.217	95.31
463.437	87.31
463.657	91.31
463.876	93.31
464.096	76.31
464.316	88.31
464.536	90.31
464.755	87.31
464.975	119.31
465.195	158.31
465.414	134.31
465.634	94.31
465.854	81.31
466.073	84.31
466.293	85.31
466.512	74.31
466.732	89.31
466.951	93.31
467.171	92.31
467.391	90.31
467.61	102.31
467.829	91.31
468.049	121.31
468.268	152.31
468.488	99.31
468.707	89.31
468.927	77.31
469.146	87.31
469.365	76.31
469.585	89.31
469.804	93.31
470.023	93.31
470.243	86.31
470.462	99.31
470.681	106.31
470.901	97.31
471.12	85.31
471.339	95.31
471.558	73.31
471.777	103.31
471.997	120.31
472.216	187.31
472.435	300.31
472.654	131.31
472.873	95.31
473.092	93.31
473.311	85.31
473.53	93.31
473.749	92.31
473.968	89.31
474.187	103.31
474.406	107.31
474.625	93.31
474.844	93.31
475.063	85.31
475.282	87.31
475.501	86.31
475.72	89.31
475.939	79.31
476.158	85.31
476.377	98.31
476.596	88.31
476.814	84.31
477.033	90.31
477.252	89.31
477.471	78.31
477.69	73.31
477.908	97.31
478.127	73.31
478.346	90.31
478.564	84.31
478.783	97.31
479.002	87.31
479.22	90.31
479.439	106.31
479.658	102.31
479.876	85.31
480.095	92.31
480.313	89.31
480.532	84.31
480.751	95.31
480.969	190.31
481.188	533.31
481.406	326.31
481.624	117.31
481.843	93.31
482.061	100.31
482.28	77.31
482.498	94.31
482.717	89.31
482.935	97.31
483.153	79.31
483.372	96.31
483.59	86.31
483.808	95.31
484.027	92.31
484.245	98.31
484.463	89.31
484.681	98.31
484.9	88.31
485.118	94.31
485.336	87.31
485.554	90.31
485.772	78.31
485.99	87.31
486.209	90.31
486.427	102.31
486.645	111.31
486.863	93.31
487.081	108.31
487.299	102.31
487.517	98.31
487.735	91.31
487.953	106.31
488.171	95.31
488.389	93.31
488.607	106.31
488.825	65.31
489.043	87.31
489.261	90.31
489.479	73.31
489.696	89.31
489.914	87.31
490.132	101.31
490.35	95.31
490.568	92.31
490.786	82.31
491.003	78.31
491.221	84.31
491.439	80.31
491.657	94.31
491.874	93.31
492.092	87.31
492.31	96.31
492.527	86.31
492.745	84.31
492.963	92.31
493.18	91.31
493.398	103.31
493.615	97.31
493.833	91.31
494.05	77.31
494.268	93.31
494.485	96.31
494.703	90.31
494.92	99.31
495.138	91.31
495.355	82.31
495.573	89.31
495.79	76.31
496.008	84.31
496.225	94.31
496.442	103.31
496.66	79.31
496.877	96.31
497.094	99.31
497.312	89.31
497.529	87.31
497.746	93.31
497.963	80.31
498.181	98.31
498.398	94.31
498.615	97.31
498.832	106.31
499.049	95.31
499.267	89.31
499.484	77.31
499.701	93.31
499.918	86.31
500.135	92.31
500.352	86.31
500.569	85.31
500.786	86.31
501.003	100.31
501.22	88.31
501.437	97.31
501.654	86.31
501.871	98.31
502.088	90.31
502.305	94.31
502.522	99.31
502.739	87.31
502.956	107.31
503.172	97.31
503.389	104.31
503.606	110.31
503.823	92.31
504.04	81.31
504.256	96.31
504.473	85.31
504.69	98.31
504.907	111.31
505.123	98.31
505.34	104.31
505.557	98.31
505.773	83.31
505.99	68.31
506.207	102.31
506.423	87.31
506.64	88.31
506.856	97.31
507.073	94.31
507.289	94.31
507.506	102.31
507.722	106.31
507.939	102.31
508.155	105.31
508.372	95.31
508.588	84.31
508.805	108.31
509.021	102.31
509.238	101.31
509.454	105.31
509.67	88.31
509.887	109.31
510.103	126.31
510.319	215.31
510.536	734.31
510.752	2312.31
510.968	635.31
511.184	144.31
511.401	101.31
511.617	91.31
511.833	78.31
512.049	92.31
512.265	97.31
512.481	89.31
512.698	80.31
512.914	103.31
513.13	95.31
513.346	99.31
513.562	114.31
513.778	97.31
513.994	106.31
514.21	98.31
514.426	109.31
514.642	130.31
514.858	126.31
515.074	147.31
515.29	399.31
515.506	1333.31
515.721	482.31
