Data from Circ_1994_H10_HRD10591_00083.txt Node
Date: Wed Jan 03 11:40:47 EST 2024
User: Yrep
Spectrometer: HR+D1059
Trigger mode: 1
Integration Time (sec): 1.000000E-1
Scans to average: 1
Electric dark correction enabled: true
Nonlinearity correction enabled: false
Boxcar width: 0
XAxis mode: Wavelengths
Number of Pixels in Spectrum: 2048
>>>>>Begin Spectral Data<<<<<
223.165	-20.88
223.4	-20.88
223.635	-20.88
223.869	-17.88
224.104	-10.88
224.338	-16.88
224.573	-20.88
224.808	-17.88
225.042	3.12
225.277	-0.88
225.511	-2.88
225.746	3.12
225.98	1.12
226.215	2.12
226.449	20.12
226.683	21.12
226.918	24.12
227.152	34.12
227.387	33.12
227.621	41.12
227.856	47.12
228.09	54.12
228.324	50.12
228.559	59.12
228.793	58.12
229.027	57.12
229.262	70.12
229.496	61.12
229.73	77.12
229.964	86.12
230.199	71.12
230.433	77.12
230.667	79.12
230.901	71.12
231.136	82.12
231.37	92.12
231.604	69.12
231.838	91.12
232.072	75.12
232.306	80.12
232.541	82.12
232.775	91.12
233.009	80.12
233.243	65.12
233.477	86.12
233.711	74.12
233.945	84.12
234.179	85.12
234.413	77.12
234.647	84.12
234.881	71.12
235.115	85.12
235.349	90.12
235.583	70.12
235.817	64.12
236.051	76.12
236.285	74.12
236.519	80.12
236.753	86.12
236.987	75.12
237.221	85.12
237.455	87.12
237.689	85.12
237.922	86.12
238.156	70.12
238.39	86.12
238.624	75.12
238.858	81.12
239.091	79.12
239.325	68.12
239.559	79.12
239.793	76.12
240.027	69.12
240.26	77.12
240.494	76.12
240.728	68.12
240.961	74.12
241.195	89.12
241.429	76.12
241.662	74.12
241.896	69.12
242.13	89.12
242.363	73.12
242.597	74.12
242.83	85.12
243.064	81.12
243.298	77.12
243.531	81.12
243.765	78.12
243.998	82.12
244.232	75.12
244.465	85.12
244.699	84.12
244.932	77.12
245.166	79.12
245.399	81.12
245.633	81.12
245.866	84.12
246.099	90.12
246.333	80.12
246.566	68.12
246.8	80.12
247.033	84.12
247.266	85.12
247.5	83.12
247.733	73.12
247.966	89.12
248.2	95.12
248.433	86.12
248.666	68.12
248.899	97.12
249.133	88.12
249.366	117.12
249.599	89.12
249.832	85.12
250.066	90.12
250.299	77.12
250.532	75.12
250.765	87.12
250.998	79.12
251.231	67.12
251.465	75.12
251.698	99.12
251.931	83.12
252.164	86.12
252.397	83.12
252.63	86.12
252.863	68.12
253.096	77.12
253.329	90.12
253.562	75.12
253.795	82.12
254.028	76.12
254.261	75.12
254.494	81.12
254.727	86.12
254.96	87.12
255.193	83.12
255.426	76.12
255.659	93.12
255.892	87.12
256.124	75.12
256.357	84.12
256.59	81.12
256.823	73.12
257.056	96.12
257.289	86.12
257.521	69.12
257.754	87.12
257.987	85.12
258.22	71.12
258.452	78.12
258.685	93.12
258.918	85.12
259.151	74.12
259.383	98.12
259.616	85.12
259.849	91.12
260.081	80.12
260.314	82.12
260.547	78.12
260.779	87.12
261.012	96.12
261.244	77.12
261.477	78.12
261.71	98.12
261.942	111.12
262.175	113.12
262.407	101.12
262.64	84.12
262.872	82.12
263.105	100.12
263.337	90.12
263.57	78.12
263.802	86.12
264.035	89.12
264.267	86.12
264.499	84.12
264.732	84.12
264.964	88.12
265.197	93.12
265.429	67.12
265.661	57.12
265.894	82.12
266.126	77.12
266.358	77.12
266.591	85.12
266.823	94.12
267.055	77.12
267.287	84.12
267.52	70.12
267.752	77.12
267.984	84.12
268.216	87.12
268.448	89.12
268.681	80.12
268.913	87.12
269.145	83.12
269.377	102.12
269.609	71.12
269.841	82.12
270.073	91.12
270.306	94.12
270.538	77.12
270.77	74.12
271.002	91.12
271.234	80.12
271.466	94.12
271.698	86.12
271.93	96.12
272.162	102.12
272.394	92.12
272.626	83.12
272.858	93.12
273.09	83.12
273.322	97.12
273.553	92.12
273.785	99.12
274.017	90.12
274.249	69.12
274.481	81.12
274.713	88.12
274.945	99.12
275.176	94.12
275.408	94.12
275.64	93.12
275.872	89.12
276.104	87.12
276.335	83.12
276.567	74.12
276.799	100.12
277.031	102.12
277.262	95.12
277.494	85.12
277.726	84.12
277.957	103.12
278.189	95.12
278.421	98.12
278.652	94.12
278.884	71.12
279.115	102.12
279.347	89.12
279.579	86.12
279.81	83.12
280.042	98.12
280.273	97.12
280.505	89.12
280.736	82.12
280.968	85.12
281.199	98.12
281.431	89.12
281.662	80.12
281.894	83.12
282.125	97.12
282.356	112.12
282.588	128.12
282.819	104.12
283.051	87.12
283.282	85.12
283.513	93.12
283.745	103.12
283.976	99.12
284.207	101.12
284.439	87.12
284.67	82.12
284.901	76.12
285.132	79.12
285.364	88.12
285.595	88.12
285.826	83.12
286.057	97.12
286.288	99.12
286.52	86.12
286.751	81.12
286.982	78.12
287.213	81.12
287.444	93.12
287.675	81.12
287.906	90.12
288.138	85.12
288.369	93.12
288.6	94.12
288.831	93.12
289.062	89.12
289.293	88.12
289.524	72.12
289.755	91.12
289.986	84.12
290.217	83.12
290.448	91.12
290.679	93.12
290.91	78.12
291.141	82.12
291.371	84.12
291.602	78.12
291.833	96.12
292.064	94.12
292.295	94.12
292.526	84.12
292.757	85.12
292.987	74.12
293.218	81.12
293.449	99.12
293.68	95.12
293.91	83.12
294.141	84.12
294.372	89.12
294.603	87.12
294.833	93.12
295.064	89.12
295.295	93.12
295.525	87.12
295.756	96.12
295.987	100.12
296.217	135.12
296.448	124.12
296.679	96.12
296.909	89.12
297.14	89.12
297.37	90.12
297.601	98.12
297.831	82.12
298.062	86.12
298.292	94.12
298.523	102.12
298.753	81.12
298.984	84.12
299.214	91.12
299.445	91.12
299.675	89.12
299.905	92.12
300.136	96.12
300.366	93.12
300.597	103.12
300.827	85.12
301.057	82.12
301.288	92.12
301.518	93.12
301.748	100.12
301.979	92.12
302.209	93.12
302.439	91.12
302.669	96.12
302.9	83.12
303.13	95.12
303.36	95.12
303.59	91.12
303.82	95.12
304.051	98.12
304.281	89.12
304.511	87.12
304.741	92.12
304.971	90.12
305.201	99.12
305.431	87.12
305.661	95.12
305.891	102.12
306.121	100.12
306.352	92.12
306.582	103.12
306.812	93.12
307.042	100.12
307.272	92.12
307.502	98.12
307.731	104.12
307.961	80.12
308.191	93.12
308.421	91.12
308.651	99.12
308.881	89.12
309.111	109.12
309.341	102.12
309.571	98.12
309.8	109.12
310.03	118.12
310.26	97.12
310.49	84.12
310.72	95.12
310.949	101.12
311.179	99.12
311.409	82.12
311.639	95.12
311.868	96.12
312.098	97.12
312.328	103.12
312.557	113.12
312.787	99.12
313.017	86.12
313.246	101.12
313.476	93.12
313.706	107.12
313.935	94.12
314.165	100.12
314.394	116.12
314.624	97.12
314.853	85.12
315.083	94.12
315.312	92.12
315.542	85.12
315.771	84.12
316.001	93.12
316.23	83.12
316.46	89.12
316.689	100.12
316.919	101.12
317.148	83.12
317.377	87.12
317.607	90.12
317.836	94.12
318.065	92.12
318.295	85.12
318.524	84.12
318.753	87.12
318.983	91.12
319.212	98.12
319.441	108.12
319.67	113.12
319.9	85.12
320.129	96.12
320.358	95.12
320.587	102.12
320.816	103.12
321.046	109.12
321.275	94.12
321.504	82.12
321.733	84.12
321.962	93.12
322.191	103.12
322.42	108.12
322.649	109.12
322.878	115.12
323.108	110.12
323.337	128.12
323.566	132.12
323.795	161.12
324.024	177.12
324.253	347.12
324.482	696.12
324.71	1423.12
324.939	1867.12
325.168	708.12
325.397	220.12
325.626	130.12
325.855	132.12
326.084	122.12
326.313	135.12
326.542	146.12
326.77	211.12
326.999	404.12
327.228	774.12
327.457	1419.12
327.686	1144.12
327.914	345.12
328.143	203.12
328.372	167.12
328.6	115.12
328.829	125.12
329.058	116.12
329.287	127.12
329.515	113.12
329.744	108.12
329.972	124.12
330.201	160.12
330.43	216.12
330.658	162.12
330.887	130.12
331.115	119.12
331.344	109.12
331.572	102.12
331.801	107.12
332.03	103.12
332.258	106.12
332.486	96.12
332.715	97.12
332.943	93.12
333.172	97.12
333.4	92.12
333.629	99.12
333.857	125.12
334.085	143.12
334.314	153.12
334.542	231.12
334.771	207.12
334.999	117.12
335.227	81.12
335.455	98.12
335.684	97.12
335.912	97.12
336.14	98.12
336.369	97.12
336.597	94.12
336.825	92.12
337.053	85.12
337.281	89.12
337.51	81.12
337.738	91.12
337.966	88.12
338.194	82.12
338.422	86.12
338.65	91.12
338.878	94.12
339.106	103.12
339.334	92.12
339.562	92.12
339.79	85.12
340.018	81.12
340.246	84.12
340.474	105.12
340.702	82.12
340.93	84.12
341.158	108.12
341.386	90.12
341.614	98.12
341.842	97.12
342.07	99.12
342.298	103.12
342.526	82.12
342.754	77.12
342.981	99.12
343.209	77.12
343.437	103.12
343.665	94.12
343.893	91.12
344.12	96.12
344.348	105.12
344.576	83.12
344.804	84.12
345.031	93.12
345.259	95.12
345.487	86.12
345.714	96.12
345.942	101.12
346.17	97.12
346.397	102.12
346.625	97.12
346.853	79.12
347.08	99.12
347.308	101.12
347.535	93.12
347.763	103.12
347.99	116.12
348.218	111.12
348.445	111.12
348.673	97.12
348.9	92.12
349.128	97.12
349.355	101.12
349.583	93.12
349.81	95.12
350.037	86.12
350.265	98.12
350.492	95.12
350.72	98.12
350.947	96.12
351.174	99.12
351.402	101.12
351.629	95.12
351.856	94.12
352.083	111.12
352.311	92.12
352.538	106.12
352.765	101.12
352.992	118.12
353.22	100.12
353.447	111.12
353.674	112.12
353.901	99.12
354.128	108.12
354.355	106.12
354.583	102.12
354.81	93.12
355.037	101.12
355.264	90.12
355.491	72.12
355.718	95.12
355.945	101.12
356.172	81.12
356.399	103.12
356.626	109.12
356.853	90.12
357.08	91.12
357.307	92.12
357.534	81.12
357.761	93.12
357.988	87.12
358.215	111.12
358.441	101.12
358.668	91.12
358.895	74.12
359.122	93.12
359.349	94.12
359.576	85.12
359.802	101.12
360.029	117.12
360.256	103.12
360.483	95.12
360.709	97.12
360.936	91.12
361.163	84.12
361.39	104.12
361.616	86.12
361.843	102.12
362.07	94.12
362.296	94.12
362.523	106.12
362.749	98.12
362.976	78.12
363.203	91.12
363.429	89.12
363.656	94.12
363.882	101.12
364.109	103.12
364.335	82.12
364.562	80.12
364.788	79.12
365.015	83.12
365.241	100.12
365.468	98.12
365.694	100.12
365.92	99.12
366.147	104.12
366.373	101.12
366.599	89.12
366.826	83.12
367.052	93.12
367.278	92.12
367.505	97.12
367.731	87.12
367.957	95.12
368.184	94.12
368.41	111.12
368.636	123.12
368.862	120.12
369.089	107.12
369.315	98.12
369.541	104.12
369.767	83.12
369.993	94.12
370.219	98.12
370.445	89.12
370.672	78.12
370.898	93.12
371.124	75.12
371.35	77.12
371.576	93.12
371.802	80.12
372.028	102.12
372.254	88.12
372.48	95.12
372.706	99.12
372.932	96.12
373.158	82.12
373.384	93.12
373.61	92.12
373.835	103.12
374.061	97.12
374.287	97.12
374.513	90.12
374.739	95.12
374.965	92.12
375.191	84.12
375.416	75.12
375.642	77.12
375.868	85.12
376.094	99.12
376.319	83.12
376.545	86.12
376.771	97.12
376.997	85.12
377.222	95.12
377.448	92.12
377.674	101.12
377.899	98.12
378.125	98.12
378.35	100.12
378.576	91.12
378.802	87.12
379.027	93.12
379.253	86.12
379.478	90.12
379.704	85.12
379.929	98.12
380.155	106.12
380.38	98.12
380.606	75.12
380.831	96.12
381.057	94.12
381.282	102.12
381.507	91.12
381.733	95.12
381.958	96.12
382.184	98.12
382.409	108.12
382.634	85.12
382.86	91.12
383.085	105.12
383.31	102.12
383.535	107.12
383.761	93.12
383.986	108.12
384.211	89.12
384.436	97.12
384.662	101.12
384.887	103.12
385.112	98.12
385.337	106.12
385.562	101.12
385.787	87.12
386.013	98.12
386.238	105.12
386.463	102.12
386.688	106.12
386.913	92.12
387.138	95.12
387.363	102.12
387.588	109.12
387.813	90.12
388.038	94.12
388.263	112.12
388.488	109.12
388.713	107.12
388.938	101.12
389.163	93.12
389.387	87.12
389.612	87.12
389.837	92.12
390.062	97.12
390.287	86.12
390.512	93.12
390.736	98.12
390.961	89.12
391.186	89.12
391.411	95.12
391.636	104.12
391.86	94.12
392.085	75.12
392.31	65.12
392.534	76.12
392.759	87.12
392.984	94.12
393.208	100.12
393.433	99.12
393.658	97.12
393.882	81.12
394.107	79.12
394.331	103.12
394.556	102.12
394.78	81.12
395.005	81.12
395.229	91.12
395.454	79.12
395.678	89.12
395.903	97.12
396.127	92.12
396.352	85.12
396.576	87.12
396.801	84.12
397.025	94.12
397.249	88.12
397.474	97.12
397.698	80.12
397.922	94.12
398.147	90.12
398.371	76.12
398.595	83.12
398.82	88.12
399.044	77.12
399.268	83.12
399.492	85.12
399.717	79.12
399.941	90.12
400.165	92.12
400.389	92.12
400.613	79.12
400.837	81.12
401.062	87.12
401.286	103.12
401.51	90.12
401.734	81.12
401.958	93.12
402.182	117.12
402.406	125.12
402.63	102.12
402.854	92.12
403.078	100.12
403.302	95.12
403.526	88.12
403.75	90.12
403.974	90.12
404.198	91.12
404.422	85.12
404.645	88.12
404.869	76.12
405.093	85.12
405.317	108.12
405.541	107.12
405.765	92.12
405.988	101.12
406.212	154.12
406.436	225.12
406.66	148.12
406.883	94.12
407.107	106.12
407.331	92.12
407.555	102.12
407.778	89.12
408.002	77.12
408.226	76.12
408.449	92.12
408.673	84.12
408.896	85.12
409.12	86.12
409.344	93.12
409.567	100.12
409.791	85.12
410.014	93.12
410.238	89.12
410.461	79.12
410.685	90.12
410.908	101.12
411.132	98.12
411.355	101.12
411.578	92.12
411.802	86.12
412.025	92.12
412.249	91.12
412.472	94.12
412.695	104.12
412.919	92.12
413.142	83.12
413.365	90.12
413.589	83.12
413.812	97.12
414.035	83.12
414.258	93.12
414.482	100.12
414.705	102.12
414.928	86.12
415.151	84.12
415.374	87.12
415.597	86.12
415.821	93.12
416.044	96.12
416.267	82.12
416.49	94.12
416.713	98.12
416.936	89.12
417.159	101.12
417.382	94.12
417.605	80.12
417.828	83.12
418.051	90.12
418.274	95.12
418.497	86.12
418.72	88.12
418.943	88.12
419.166	93.12
419.389	86.12
419.611	84.12
419.834	90.12
420.057	89.12
420.28	73.12
420.503	86.12
420.726	79.12
420.948	104.12
421.171	97.12
421.394	105.12
421.617	89.12
421.839	90.12
422.062	93.12
422.285	93.12
422.507	102.12
422.73	103.12
422.953	106.12
423.175	89.12
423.398	78.12
423.621	96.12
423.843	105.12
424.066	92.12
424.288	85.12
424.511	85.12
424.733	85.12
424.956	93.12
425.178	95.12
425.401	98.12
425.623	99.12
425.846	84.12
426.068	100.12
426.291	94.12
426.513	94.12
426.735	93.12
426.958	102.12
427.18	110.12
427.402	124.12
427.625	138.12
427.847	111.12
428.069	110.12
428.292	106.12
428.514	92.12
428.736	74.12
428.958	89.12
429.181	88.12
429.403	86.12
429.625	86.12
429.847	78.12
430.069	93.12
430.292	89.12
430.514	99.12
430.736	95.12
430.958	92.12
431.18	94.12
431.402	78.12
431.624	89.12
431.846	96.12
432.068	94.12
432.29	85.12
432.512	79.12
432.734	92.12
432.956	97.12
433.178	96.12
433.4	90.12
433.622	81.12
433.844	94.12
434.066	95.12
434.287	87.12
434.509	97.12
434.731	98.12
434.953	96.12
435.175	85.12
435.397	89.12
435.618	87.12
435.84	102.12
436.062	110.12
436.284	122.12
436.505	106.12
436.727	97.12
436.949	86.12
437.17	83.12
437.392	79.12
437.614	100.12
437.835	109.12
438.057	112.12
438.278	85.12
438.5	97.12
438.721	108.12
438.943	89.12
439.165	77.12
439.386	76.12
439.608	89.12
439.829	90.12
440.05	115.12
440.272	118.12
440.493	96.12
440.715	94.12
440.936	79.12
441.158	81.12
441.379	87.12
441.6	99.12
441.822	95.12
442.043	95.12
442.264	97.12
442.486	93.12
442.707	88.12
442.928	101.12
443.149	125.12
443.371	113.12
443.592	110.12
443.813	102.12
444.034	111.12
444.255	84.12
444.476	83.12
444.698	88.12
444.919	99.12
445.14	116.12
445.361	112.12
445.582	110.12
445.803	137.12
446.024	117.12
446.245	121.12
446.466	102.12
446.687	85.12
446.908	90.12
447.129	98.12
447.35	86.12
447.571	66.12
447.792	109.12
448.013	103.12
448.234	111.12
448.455	95.12
448.675	104.12
448.896	103.12
449.117	106.12
449.338	105.12
449.559	112.12
449.779	129.12
450	95.12
450.221	93.12
450.442	85.12
450.662	108.12
450.883	107.12
451.104	108.12
451.324	94.12
451.545	89.12
451.766	93.12
451.986	89.12
452.207	90.12
452.428	89.12
452.648	91.12
452.869	118.12
453.089	105.12
453.31	110.12
453.53	85.12
453.751	90.12
453.971	102.12
454.192	115.12
454.412	94.12
454.633	93.12
454.853	85.12
455.073	82.12
455.294	84.12
455.514	95.12
455.734	100.12
455.955	82.12
456.175	92.12
456.395	105.12
456.616	95.12
456.836	94.12
457.056	76.12
457.276	81.12
457.497	93.12
457.717	89.12
457.937	90.12
458.157	90.12
458.377	90.12
458.598	117.12
458.818	124.12
459.038	145.12
459.258	114.12
459.478	88.12
459.698	87.12
459.918	94.12
460.138	78.12
460.358	86.12
460.578	79.12
460.798	83.12
461.018	81.12
461.238	85.12
461.458	81.12
461.678	89.12
461.898	98.12
462.118	84.12
462.338	82.12
462.558	82.12
462.777	76.12
462.997	84.12
463.217	77.12
463.437	86.12
463.657	84.12
463.876	82.12
464.096	79.12
464.316	102.12
464.536	89.12
464.755	98.12
464.975	109.12
465.195	147.12
465.414	130.12
465.634	84.12
465.854	73.12
466.073	81.12
466.293	73.12
466.512	91.12
466.732	91.12
466.951	92.12
467.171	89.12
467.391	101.12
467.61	89.12
467.829	100.12
468.049	129.12
468.268	138.12
468.488	93.12
468.707	88.12
468.927	76.12
469.146	84.12
469.365	90.12
469.585	83.12
469.804	109.12
470.023	99.12
470.243	87.12
470.462	97.12
470.681	106.12
470.901	81.12
471.12	89.12
471.339	82.12
471.558	94.12
471.777	95.12
471.997	111.12
472.216	165.12
472.435	285.12
472.654	131.12
472.873	99.12
473.092	89.12
473.311	93.12
473.53	93.12
473.749	88.12
473.968	81.12
474.187	94.12
474.406	94.12
474.625	83.12
474.844	80.12
475.063	98.12
475.282	99.12
475.501	93.12
475.72	95.12
475.939	85.12
476.158	77.12
476.377	89.12
476.596	83.12
476.814	97.12
477.033	86.12
477.252	89.12
477.471	88.12
477.69	78.12
477.908	87.12
478.127	102.12
478.346	100.12
478.564	97.12
478.783	82.12
479.002	94.12
479.22	91.12
479.439	101.12
479.658	96.12
479.876	77.12
480.095	87.12
480.313	80.12
480.532	80.12
480.751	110.12
480.969	177.12
481.188	461.12
481.406	307.12
481.624	101.12
481.843	89.12
482.061	87.12
482.28	94.12
482.498	86.12
482.717	94.12
482.935	83.12
483.153	95.12
483.372	84.12
483.59	81.12
483.808	106.12
484.027	85.12
484.245	89.12
484.463	85.12
484.681	94.12
484.9	105.12
485.118	97.12
485.336	103.12
485.554	88.12
485.772	98.12
485.99	104.12
486.209	105.12
486.427	111.12
486.645	102.12
486.863	112.12
487.081	95.12
487.299	77.12
487.517	83.12
487.735	97.12
487.953	90.12
488.171	95.12
488.389	98.12
488.607	90.12
488.825	93.12
489.043	91.12
489.261	81.12
489.479	103.12
489.696	105.12
489.914	93.12
490.132	80.12
490.35	87.12
490.568	90.12
490.786	94.12
491.003	93.12
491.221	93.12
491.439	93.12
491.657	89.12
491.874	89.12
492.092	101.12
492.31	94.12
492.527	100.12
492.745	83.12
492.963	103.12
493.18	82.12
493.398	85.12
493.615	93.12
493.833	99.12
494.05	86.12
494.268	97.12
494.485	86.12
494.703	99.12
494.92	87.12
495.138	89.12
495.355	95.12
495.573	82.12
495.79	89.12
496.008	86.12
496.225	99.12
496.442	89.12
496.66	81.12
496.877	93.12
497.094	79.12
497.312	98.12
497.529	85.12
497.746	90.12
497.963	77.12
498.181	85.12
498.398	91.12
498.615	103.12
498.832	96.12
499.049	90.12
499.267	85.12
499.484	89.12
499.701	80.12
499.918	91.12
500.135	77.12
500.352	84.12
500.569	94.12
500.786	82.12
501.003	93.12
501.22	90.12
501.437	94.12
501.654	102.12
501.871	106.12
502.088	94.12
502.305	98.12
502.522	97.12
502.739	98.12
502.956	98.12
503.172	90.12
503.389	89.12
503.606	105.12
503.823	100.12
504.04	78.12
504.256	80.12
504.473	89.12
504.69	87.12
504.907	89.12
505.123	92.12
505.34	90.12
505.557	85.12
505.773	86.12
505.99	84.12
506.207	80.12
506.423	84.12
506.64	98.12
506.856	86.12
507.073	76.12
507.289	75.12
507.506	100.12
507.722	101.12
507.939	110.12
508.155	100.12
508.372	88.12
508.588	90.12
508.805	94.12
509.021	103.12
509.238	83.12
509.454	98.12
509.67	100.12
509.887	112.12
510.103	127.12
510.319	206.12
510.536	722.12
510.752	2256.12
510.968	613.12
511.184	146.12
511.401	110.12
511.617	92.12
511.833	95.12
512.049	101.12
512.265	100.12
512.481	87.12
512.698	86.12
512.914	96.12
513.13	97.12
513.346	91.12
513.562	94.12
513.778	102.12
513.994	99.12
514.21	93.12
514.426	112.12
514.642	124.12
514.858	115.12
515.074	176.12
515.29	399.12
515.506	1323.12
