Data from Circ_1994_H10_HRD10591_00072.txt Node
Date: Wed Jan 03 11:40:44 EST 2024
User: Yrep
Spectrometer: HR+D1059
Trigger mode: 1
Integration Time (sec): 1.000000E-1
Scans to average: 1
Electric dark correction enabled: true
Nonlinearity correction enabled: false
Boxcar width: 0
XAxis mode: Wavelengths
Number of Pixels in Spectrum: 2048
>>>>>Begin Spectral Data<<<<<
223.165	-11.5
223.4	-11.5
223.635	-11.5
223.869	-18.5
224.104	-16.5
224.338	-11.5
224.573	-12.5
224.808	-22.5
225.042	-24.5
225.277	-0.5
225.511	-4.5
225.746	15.5
225.98	13.5
226.215	11.5
226.449	13.5
226.683	23.5
226.918	13.5
227.152	31.5
227.387	33.5
227.621	34.5
227.856	43.5
228.09	61.5
228.324	55.5
228.559	63.5
228.793	59.5
229.027	30.5
229.262	63.5
229.496	68.5
229.73	95.5
229.964	89.5
230.199	74.5
230.433	68.5
230.667	55.5
230.901	71.5
231.136	83.5
231.37	76.5
231.604	81.5
231.838	82.5
232.072	78.5
232.306	84.5
232.541	83.5
232.775	87.5
233.009	81.5
233.243	77.5
233.477	74.5
233.711	71.5
233.945	85.5
234.179	74.5
234.413	82.5
234.647	82.5
234.881	89.5
235.115	88.5
235.349	75.5
235.583	81.5
235.817	99.5
236.051	73.5
236.285	87.5
236.519	85.5
236.753	65.5
236.987	89.5
237.221	93.5
237.455	75.5
237.689	73.5
237.922	84.5
238.156	73.5
238.39	91.5
238.624	64.5
238.858	73.5
239.091	84.5
239.325	67.5
239.559	81.5
239.793	89.5
240.027	71.5
240.26	78.5
240.494	89.5
240.728	77.5
240.961	82.5
241.195	75.5
241.429	82.5
241.662	76.5
241.896	73.5
242.13	83.5
242.363	71.5
242.597	83.5
242.83	72.5
243.064	76.5
243.298	76.5
243.531	66.5
243.765	75.5
243.998	89.5
244.232	81.5
244.465	73.5
244.699	79.5
244.932	83.5
245.166	75.5
245.399	61.5
245.633	82.5
245.866	87.5
246.099	81.5
246.333	80.5
246.566	76.5
246.8	92.5
247.033	83.5
247.266	69.5
247.5	67.5
247.733	88.5
247.966	79.5
248.2	81.5
248.433	77.5
248.666	73.5
248.899	75.5
249.133	100.5
249.366	100.5
249.599	88.5
249.832	78.5
250.066	89.5
250.299	89.5
250.532	80.5
250.765	72.5
250.998	70.5
251.231	73.5
251.465	79.5
251.698	79.5
251.931	73.5
252.164	79.5
252.397	71.5
252.63	77.5
252.863	78.5
253.096	81.5
253.329	88.5
253.562	79.5
253.795	79.5
254.028	87.5
254.261	66.5
254.494	71.5
254.727	87.5
254.96	66.5
255.193	78.5
255.426	88.5
255.659	89.5
255.892	73.5
256.124	64.5
256.357	80.5
256.59	68.5
256.823	79.5
257.056	94.5
257.289	75.5
257.521	93.5
257.754	82.5
257.987	80.5
258.22	85.5
258.452	75.5
258.685	82.5
258.918	80.5
259.151	80.5
259.383	87.5
259.616	88.5
259.849	74.5
260.081	72.5
260.314	69.5
260.547	77.5
260.779	93.5
261.012	70.5
261.244	74.5
261.477	93.5
261.71	76.5
261.942	100.5
262.175	120.5
262.407	103.5
262.64	81.5
262.872	90.5
263.105	87.5
263.337	79.5
263.57	81.5
263.802	75.5
264.035	82.5
264.267	67.5
264.499	79.5
264.732	74.5
264.964	83.5
265.197	89.5
265.429	79.5
265.661	75.5
265.894	73.5
266.126	87.5
266.358	88.5
266.591	84.5
266.823	92.5
267.055	89.5
267.287	97.5
267.52	84.5
267.752	80.5
267.984	76.5
268.216	76.5
268.448	94.5
268.681	98.5
268.913	79.5
269.145	89.5
269.377	86.5
269.609	92.5
269.841	84.5
270.073	92.5
270.306	96.5
270.538	87.5
270.77	96.5
271.002	91.5
271.234	82.5
271.466	73.5
271.698	78.5
271.93	86.5
272.162	84.5
272.394	87.5
272.626	89.5
272.858	80.5
273.09	75.5
273.322	83.5
273.553	82.5
273.785	99.5
274.017	93.5
274.249	83.5
274.481	94.5
274.713	89.5
274.945	79.5
275.176	84.5
275.408	95.5
275.64	88.5
275.872	66.5
276.104	92.5
276.335	92.5
276.567	98.5
276.799	111.5
277.031	102.5
277.262	86.5
277.494	94.5
277.726	88.5
277.957	80.5
278.189	81.5
278.421	91.5
278.652	77.5
278.884	75.5
279.115	74.5
279.347	70.5
279.579	77.5
279.81	95.5
280.042	87.5
280.273	102.5
280.505	76.5
280.736	89.5
280.968	79.5
281.199	93.5
281.431	97.5
281.662	78.5
281.894	79.5
282.125	96.5
282.356	103.5
282.588	143.5
282.819	101.5
283.051	77.5
283.282	89.5
283.513	91.5
283.745	84.5
283.976	87.5
284.207	89.5
284.439	93.5
284.67	93.5
284.901	79.5
285.132	79.5
285.364	91.5
285.595	83.5
285.826	92.5
286.057	75.5
286.288	85.5
286.52	75.5
286.751	85.5
286.982	82.5
287.213	84.5
287.444	87.5
287.675	89.5
287.906	84.5
288.138	84.5
288.369	92.5
288.6	79.5
288.831	95.5
289.062	92.5
289.293	101.5
289.524	97.5
289.755	95.5
289.986	87.5
290.217	82.5
290.448	84.5
290.679	85.5
290.91	99.5
291.141	90.5
291.371	94.5
291.602	88.5
291.833	76.5
292.064	80.5
292.295	87.5
292.526	105.5
292.757	91.5
292.987	93.5
293.218	95.5
293.449	88.5
293.68	88.5
293.91	94.5
294.141	81.5
294.372	89.5
294.603	82.5
294.833	85.5
295.064	92.5
295.295	94.5
295.525	79.5
295.756	99.5
295.987	110.5
296.217	123.5
296.448	122.5
296.679	101.5
296.909	89.5
297.14	92.5
297.37	82.5
297.601	85.5
297.831	83.5
298.062	97.5
298.292	84.5
298.523	96.5
298.753	89.5
298.984	80.5
299.214	97.5
299.445	81.5
299.675	94.5
299.905	77.5
300.136	85.5
300.366	86.5
300.597	89.5
300.827	106.5
301.057	83.5
301.288	99.5
301.518	79.5
301.748	96.5
301.979	101.5
302.209	87.5
302.439	92.5
302.669	90.5
302.9	88.5
303.13	89.5
303.36	87.5
303.59	91.5
303.82	93.5
304.051	100.5
304.281	76.5
304.511	82.5
304.741	88.5
304.971	81.5
305.201	90.5
305.431	89.5
305.661	98.5
305.891	96.5
306.121	108.5
306.352	109.5
306.582	115.5
306.812	94.5
307.042	100.5
307.272	97.5
307.502	110.5
307.731	101.5
307.961	97.5
308.191	90.5
308.421	83.5
308.651	71.5
308.881	91.5
309.111	96.5
309.341	102.5
309.571	98.5
309.8	102.5
310.03	95.5
310.26	101.5
310.49	99.5
310.72	93.5
310.949	96.5
311.179	83.5
311.409	86.5
311.639	94.5
311.868	100.5
312.098	93.5
312.328	102.5
312.557	99.5
312.787	94.5
313.017	89.5
313.246	89.5
313.476	79.5
313.706	83.5
313.935	106.5
314.165	104.5
314.394	101.5
314.624	96.5
314.853	99.5
315.083	97.5
315.312	81.5
315.542	93.5
315.771	91.5
316.001	101.5
316.23	90.5
316.46	93.5
316.689	84.5
316.919	101.5
317.148	94.5
317.377	85.5
317.607	90.5
317.836	90.5
318.065	106.5
318.295	88.5
318.524	87.5
318.753	83.5
318.983	84.5
319.212	83.5
319.441	93.5
319.67	118.5
319.9	89.5
320.129	80.5
320.358	98.5
320.587	95.5
320.816	87.5
321.046	87.5
321.275	97.5
321.504	100.5
321.733	105.5
321.962	96.5
322.191	110.5
322.42	90.5
322.649	101.5
322.878	105.5
323.108	110.5
323.337	120.5
323.566	131.5
323.795	151.5
324.024	199.5
324.253	356.5
324.482	729.5
324.71	1435.5
324.939	1883.5
325.168	721.5
325.397	241.5
325.626	142.5
325.855	141.5
326.084	132.5
326.313	116.5
326.542	139.5
326.77	212.5
326.999	391.5
327.228	804.5
327.457	1415.5
327.686	1111.5
327.914	327.5
328.143	186.5
328.372	165.5
328.6	125.5
328.829	112.5
329.058	119.5
329.287	125.5
329.515	122.5
329.744	105.5
329.972	123.5
330.201	154.5
330.43	181.5
330.658	128.5
330.887	126.5
331.115	122.5
331.344	103.5
331.572	100.5
331.801	96.5
332.03	119.5
332.258	86.5
332.486	94.5
332.715	96.5
332.943	91.5
333.172	102.5
333.4	93.5
333.629	101.5
333.857	118.5
334.085	120.5
334.314	159.5
334.542	200.5
334.771	190.5
334.999	123.5
335.227	97.5
335.455	92.5
335.684	120.5
335.912	100.5
336.14	90.5
336.369	109.5
336.597	95.5
336.825	99.5
337.053	94.5
337.281	89.5
337.51	79.5
337.738	86.5
337.966	89.5
338.194	91.5
338.422	86.5
338.65	88.5
338.878	89.5
339.106	95.5
339.334	88.5
339.562	109.5
339.79	92.5
340.018	85.5
340.246	82.5
340.474	96.5
340.702	75.5
340.93	81.5
341.158	95.5
341.386	92.5
341.614	91.5
341.842	103.5
342.07	90.5
342.298	96.5
342.526	102.5
342.754	94.5
342.981	80.5
343.209	92.5
343.437	111.5
343.665	89.5
343.893	95.5
344.12	94.5
344.348	73.5
344.576	89.5
344.804	97.5
345.031	93.5
345.259	93.5
345.487	100.5
345.714	84.5
345.942	97.5
346.17	94.5
346.397	93.5
346.625	87.5
346.853	98.5
347.08	84.5
347.308	91.5
347.535	96.5
347.763	101.5
347.99	83.5
348.218	110.5
348.445	78.5
348.673	107.5
348.9	112.5
349.128	91.5
349.355	87.5
349.583	92.5
349.81	92.5
350.037	96.5
350.265	94.5
350.492	101.5
350.72	108.5
350.947	91.5
351.174	104.5
351.402	107.5
351.629	109.5
351.856	91.5
352.083	94.5
352.311	108.5
352.538	96.5
352.765	109.5
352.992	109.5
353.22	104.5
353.447	94.5
353.674	91.5
353.901	94.5
354.128	99.5
354.355	103.5
354.583	100.5
354.81	97.5
355.037	95.5
355.264	94.5
355.491	95.5
355.718	104.5
355.945	109.5
356.172	95.5
356.399	98.5
356.626	109.5
356.853	92.5
357.08	110.5
357.307	75.5
357.534	89.5
357.761	95.5
357.988	87.5
358.215	97.5
358.441	76.5
358.668	97.5
358.895	89.5
359.122	84.5
359.349	82.5
359.576	95.5
359.802	77.5
360.029	107.5
360.256	118.5
360.483	87.5
360.709	88.5
360.936	85.5
361.163	94.5
361.39	91.5
361.616	91.5
361.843	92.5
362.07	92.5
362.296	85.5
362.523	82.5
362.749	84.5
362.976	91.5
363.203	93.5
363.429	106.5
363.656	93.5
363.882	92.5
364.109	83.5
364.335	80.5
364.562	87.5
364.788	85.5
365.015	91.5
365.241	85.5
365.468	96.5
365.694	113.5
365.92	92.5
366.147	111.5
366.373	78.5
366.599	87.5
366.826	95.5
367.052	94.5
367.278	92.5
367.505	75.5
367.731	94.5
367.957	105.5
368.184	87.5
368.41	108.5
368.636	112.5
368.862	120.5
369.089	119.5
369.315	89.5
369.541	95.5
369.767	95.5
369.993	92.5
370.219	97.5
370.445	80.5
370.672	90.5
370.898	99.5
371.124	84.5
371.35	88.5
371.576	80.5
371.802	88.5
372.028	78.5
372.254	83.5
372.48	81.5
372.706	90.5
372.932	97.5
373.158	92.5
373.384	91.5
373.61	100.5
373.835	86.5
374.061	100.5
374.287	93.5
374.513	87.5
374.739	80.5
374.965	93.5
375.191	89.5
375.416	78.5
375.642	89.5
375.868	91.5
376.094	84.5
376.319	94.5
376.545	85.5
376.771	92.5
376.997	98.5
377.222	84.5
377.448	85.5
377.674	84.5
377.899	81.5
378.125	87.5
378.35	96.5
378.576	92.5
378.802	77.5
379.027	101.5
379.253	112.5
379.478	89.5
379.704	96.5
379.929	99.5
380.155	88.5
380.38	111.5
380.606	108.5
380.831	106.5
381.057	100.5
381.282	92.5
381.507	80.5
381.733	96.5
381.958	95.5
382.184	91.5
382.409	94.5
382.634	97.5
382.86	96.5
383.085	102.5
383.31	104.5
383.535	105.5
383.761	106.5
383.986	111.5
384.211	89.5
384.436	76.5
384.662	95.5
384.887	114.5
385.112	90.5
385.337	92.5
385.562	95.5
385.787	112.5
386.013	113.5
386.238	109.5
386.463	100.5
386.688	117.5
386.913	91.5
387.138	106.5
387.363	92.5
387.588	101.5
387.813	84.5
388.038	101.5
388.263	85.5
388.488	113.5
388.713	107.5
388.938	87.5
389.163	116.5
389.387	107.5
389.612	97.5
389.837	100.5
390.062	105.5
390.287	81.5
390.512	92.5
390.736	84.5
390.961	85.5
391.186	101.5
391.411	97.5
391.636	95.5
391.86	81.5
392.085	101.5
392.31	79.5
392.534	87.5
392.759	92.5
392.984	79.5
393.208	90.5
393.433	73.5
393.658	86.5
393.882	83.5
394.107	82.5
394.331	78.5
394.556	86.5
394.78	77.5
395.005	76.5
395.229	92.5
395.454	88.5
395.678	76.5
395.903	88.5
396.127	100.5
396.352	91.5
396.576	75.5
396.801	84.5
397.025	99.5
397.249	86.5
397.474	101.5
397.698	91.5
397.922	83.5
398.147	88.5
398.371	69.5
398.595	87.5
398.82	79.5
399.044	76.5
399.268	89.5
399.492	92.5
399.717	87.5
399.941	90.5
400.165	82.5
400.389	87.5
400.613	99.5
400.837	92.5
401.062	92.5
401.286	82.5
401.51	84.5
401.734	100.5
401.958	95.5
402.182	117.5
402.406	160.5
402.63	122.5
402.854	89.5
403.078	81.5
403.302	74.5
403.526	86.5
403.75	98.5
403.974	87.5
404.198	83.5
404.422	95.5
404.645	90.5
404.869	75.5
405.093	98.5
405.317	92.5
405.541	94.5
405.765	101.5
405.988	122.5
406.212	152.5
406.436	204.5
406.66	152.5
406.883	76.5
407.107	86.5
407.331	103.5
407.555	85.5
407.778	76.5
408.002	88.5
408.226	82.5
408.449	100.5
408.673	92.5
408.896	87.5
409.12	93.5
409.344	88.5
409.567	80.5
409.791	95.5
410.014	83.5
410.238	99.5
410.461	73.5
410.685	103.5
410.908	109.5
411.132	100.5
411.355	96.5
411.578	83.5
411.802	80.5
412.025	76.5
412.249	106.5
412.472	95.5
412.695	113.5
412.919	81.5
413.142	74.5
413.365	96.5
413.589	79.5
413.812	81.5
414.035	92.5
414.258	81.5
414.482	100.5
414.705	100.5
414.928	87.5
415.151	90.5
415.374	89.5
415.597	90.5
415.821	83.5
416.044	77.5
416.267	88.5
416.49	92.5
416.713	87.5
416.936	84.5
417.159	97.5
417.382	94.5
417.605	85.5
417.828	95.5
418.051	90.5
418.274	83.5
418.497	85.5
418.72	92.5
418.943	76.5
419.166	97.5
419.389	97.5
419.611	87.5
419.834	80.5
420.057	104.5
420.28	109.5
420.503	95.5
420.726	75.5
420.948	90.5
421.171	85.5
421.394	104.5
421.617	74.5
421.839	79.5
422.062	94.5
422.285	103.5
422.507	98.5
422.73	88.5
422.953	90.5
423.175	79.5
423.398	87.5
423.621	84.5
423.843	87.5
424.066	86.5
424.288	86.5
424.511	97.5
424.733	96.5
424.956	105.5
425.178	99.5
425.401	101.5
425.623	103.5
425.846	93.5
426.068	91.5
426.291	91.5
426.513	82.5
426.735	67.5
426.958	95.5
427.18	97.5
427.402	120.5
427.625	150.5
427.847	135.5
428.069	111.5
428.292	89.5
428.514	82.5
428.736	83.5
428.958	90.5
429.181	75.5
429.403	93.5
429.625	98.5
429.847	83.5
430.069	96.5
430.292	108.5
430.514	83.5
430.736	89.5
430.958	95.5
431.18	99.5
431.402	101.5
431.624	83.5
431.846	76.5
432.068	69.5
432.29	94.5
432.512	99.5
432.734	64.5
432.956	90.5
433.178	101.5
433.4	91.5
433.622	101.5
433.844	98.5
434.066	95.5
434.287	85.5
434.509	85.5
434.731	90.5
434.953	76.5
435.175	92.5
435.397	72.5
435.618	89.5
435.84	94.5
436.062	100.5
436.284	103.5
436.505	101.5
436.727	93.5
436.949	89.5
437.17	83.5
437.392	81.5
437.614	96.5
437.835	109.5
438.057	108.5
438.278	99.5
438.5	102.5
438.721	114.5
438.943	108.5
439.165	87.5
439.386	83.5
439.608	79.5
439.829	92.5
440.05	113.5
440.272	125.5
440.493	94.5
440.715	65.5
440.936	100.5
441.158	91.5
441.379	74.5
441.6	92.5
441.822	105.5
442.043	98.5
442.264	96.5
442.486	95.5
442.707	88.5
442.928	85.5
443.149	135.5
443.371	118.5
443.592	90.5
443.813	117.5
444.034	94.5
444.255	88.5
444.476	87.5
444.698	78.5
444.919	87.5
445.14	117.5
445.361	108.5
445.582	107.5
445.803	117.5
446.024	133.5
446.245	119.5
446.466	100.5
446.687	90.5
446.908	82.5
447.129	90.5
447.35	90.5
447.571	89.5
447.792	91.5
448.013	92.5
448.234	93.5
448.455	91.5
448.675	111.5
448.896	101.5
449.117	105.5
449.338	106.5
449.559	120.5
449.779	120.5
450	71.5
450.221	85.5
450.442	77.5
450.662	96.5
450.883	87.5
451.104	105.5
451.324	98.5
451.545	79.5
451.766	84.5
451.986	81.5
452.207	72.5
452.428	75.5
452.648	84.5
452.869	98.5
453.089	113.5
453.31	101.5
453.53	99.5
453.751	105.5
453.971	97.5
454.192	98.5
454.412	71.5
454.633	77.5
454.853	88.5
455.073	82.5
455.294	83.5
455.514	106.5
455.734	93.5
455.955	80.5
456.175	74.5
456.395	86.5
456.616	83.5
456.836	72.5
457.056	81.5
457.276	71.5
457.497	93.5
457.717	77.5
457.937	88.5
458.157	83.5
458.377	97.5
458.598	103.5
458.818	141.5
459.038	148.5
459.258	116.5
459.478	81.5
459.698	79.5
459.918	92.5
460.138	65.5
460.358	88.5
460.578	97.5
460.798	87.5
461.018	86.5
461.238	83.5
461.458	78.5
461.678	86.5
461.898	69.5
462.118	91.5
462.338	93.5
462.558	81.5
462.777	82.5
462.997	81.5
463.217	97.5
463.437	80.5
463.657	82.5
463.876	81.5
464.096	85.5
464.316	75.5
464.536	85.5
464.755	89.5
464.975	103.5
465.195	145.5
465.414	142.5
465.634	104.5
465.854	95.5
466.073	93.5
466.293	77.5
466.512	97.5
466.732	79.5
466.951	85.5
467.171	90.5
467.391	78.5
467.61	99.5
467.829	100.5
468.049	115.5
468.268	129.5
468.488	80.5
468.707	95.5
468.927	92.5
469.146	83.5
469.365	77.5
469.585	87.5
469.804	85.5
470.023	89.5
470.243	90.5
470.462	92.5
470.681	109.5
470.901	83.5
471.12	92.5
471.339	92.5
471.558	81.5
471.777	96.5
471.997	94.5
472.216	162.5
472.435	269.5
472.654	115.5
472.873	97.5
473.092	87.5
473.311	99.5
473.53	94.5
473.749	86.5
473.968	92.5
474.187	100.5
474.406	92.5
474.625	97.5
474.844	88.5
475.063	88.5
475.282	101.5
475.501	92.5
475.72	85.5
475.939	91.5
476.158	85.5
476.377	90.5
476.596	82.5
476.814	103.5
477.033	81.5
477.252	85.5
477.471	79.5
477.69	84.5
477.908	73.5
478.127	83.5
478.346	93.5
478.564	95.5
478.783	93.5
479.002	92.5
479.22	89.5
479.439	98.5
479.658	94.5
479.876	95.5
480.095	90.5
480.313	79.5
480.532	97.5
480.751	97.5
480.969	180.5
481.188	415.5
481.406	268.5
481.624	102.5
481.843	90.5
482.061	91.5
482.28	64.5
482.498	91.5
482.717	79.5
482.935	79.5
483.153	77.5
483.372	93.5
483.59	88.5
483.808	88.5
484.027	73.5
484.245	84.5
484.463	88.5
484.681	99.5
484.9	91.5
485.118	94.5
485.336	87.5
485.554	79.5
485.772	96.5
485.99	95.5
486.209	98.5
486.427	111.5
486.645	102.5
486.863	104.5
487.081	100.5
487.299	95.5
487.517	95.5
487.735	84.5
487.953	81.5
488.171	95.5
488.389	94.5
488.607	91.5
488.825	87.5
489.043	87.5
489.261	96.5
489.479	90.5
489.696	91.5
489.914	88.5
490.132	85.5
490.35	73.5
490.568	83.5
490.786	68.5
491.003	87.5
491.221	67.5
491.439	92.5
491.657	87.5
491.874	94.5
492.092	89.5
492.31	99.5
492.527	96.5
492.745	94.5
492.963	78.5
493.18	87.5
493.398	85.5
493.615	97.5
493.833	91.5
494.05	110.5
494.268	85.5
494.485	83.5
494.703	93.5
494.92	85.5
495.138	90.5
495.355	104.5
495.573	100.5
495.79	89.5
496.008	84.5
496.225	95.5
496.442	110.5
496.66	81.5
496.877	77.5
497.094	95.5
497.312	85.5
497.529	98.5
497.746	94.5
497.963	84.5
498.181	80.5
498.398	98.5
498.615	92.5
498.832	105.5
499.049	104.5
499.267	89.5
499.484	96.5
499.701	102.5
499.918	95.5
500.135	98.5
500.352	76.5
500.569	87.5
500.786	77.5
501.003	100.5
501.22	83.5
501.437	95.5
501.654	88.5
501.871	111.5
502.088	87.5
502.305	100.5
502.522	87.5
502.739	88.5
502.956	82.5
503.172	102.5
503.389	91.5
503.606	93.5
503.823	102.5
504.04	88.5
504.256	91.5
504.473	90.5
504.69	81.5
504.907	96.5
505.123	94.5
505.34	100.5
505.557	88.5
505.773	93.5
505.99	84.5
506.207	80.5
506.423	92.5
506.64	84.5
506.856	86.5
507.073	85.5
507.289	97.5
507.506	83.5
507.722	112.5
507.939	104.5
508.155	94.5
508.372	84.5
508.588	83.5
508.805	92.5
509.021	100.5
509.238	93.5
509.454	82.5
509.67	85.5
509.887	107.5
510.103	135.5
510.319	192.5
510.536	714.5
510.752	2300.5
510.968	611.5
511.184	142.5
511.401	108.5
511.617	107.5
511.833	89.5
512.049	98.5
512.265	88.5
512.481	91.5
512.698	87.5
512.914	87.5
513.13	79.5
513.346	94.5
513.562	75.5
513.778	73.5
513.994	99.5
514.21	93.5
514.426	112.5
514.642	120.5
514.858	121.5
515.074	162.5
515.29	411.5
515.506	1307.5
515.721	498.5
515.937	139.5
516.153	108.5
516.369	90.5
516.585	88.5
516.801	104.5
517.016	100.5
517.232	91.5
517.448	81.5
517.664	92.5
517.879	85.5
518.095	92.5
518.311	91.5
518.527	80.5
518.742	99.5
518.958	78.5
519.173	82.5
519.389	81.5
519.605	96.5
519.82	80.5
520.036	93.5
520.251	105.5
520.467	110.5
520.682	111.5
520.898	97.5
521.113	97.5
521.329	112.5
521.544	176.5
521.76	514.5
521.975	2169.5
522.19	1271.5
522.406	283.5
522.621	109.5
522.836	107.5
523.052	88.5
523.267	100.5
523.482	91.5
523.698	93.5
523.913	113.5
524.128	97.5
524.343	94.5
524.559	101.5
524.774	85.5
524.989	85.5
525.204	104.5
525.419	105.5
525.634	93.5
525.849	95.5
526.064	67.5
526.28	83.5
526.495	83.5
526.71	88.5
526.925	92.5
527.14	81.5
527.355	102.5
527.57	100.5
527.785	77.5
527.999	92.5
528.214	97.5
528.429	101.5
528.644	99.5
528.859	91.5
529.074	90.5
529.289	122.5
529.503	175.5
529.718	101.5
529.933	83.5
530.148	93.5
530.363	97.5
530.577	89.5
530.792	100.5
531.007	92.5
531.221	88.5
531.436	68.5
531.651	91.5
531.865	96.5
532.08	107.5
532.295	92.5
532.509	89.5
532.724	82.5
532.938	98.5
533.153	99.5
533.367	95.5
533.582	89.5
533.796	82.5
534.011	96.5
534.225	83.5
534.44	77.5
534.654	90.5
534.868	82.5
535.083	97.5
535.297	87.5
535.511	113.5
