Data from Circ_1994_H10_HRD10591_00053.txt Node
Date: Wed Jan 03 11:40:41 EST 2024
User: Yrep
Spectrometer: HR+D1059
Trigger mode: 1
Integration Time (sec): 1.000000E-1
Scans to average: 1
Electric dark correction enabled: true
Nonlinearity correction enabled: false
Boxcar width: 0
XAxis mode: Wavelengths
Number of Pixels in Spectrum: 2048
>>>>>Begin Spectral Data<<<<<
223.165	-12.56
223.4	-12.56
223.635	-12.56
223.869	-22.56
224.104	-17.56
224.338	-6.56
224.573	-0.56
224.808	-18.56
225.042	4.44
225.277	-1.56
225.511	-1.56
225.746	1.44
225.98	0.44
226.215	3.44
226.449	6.44
226.683	20.44
226.918	23.44
227.152	21.44
227.387	37.44
227.621	33.44
227.856	35.44
228.09	47.44
228.324	44.44
228.559	50.44
228.793	46.44
229.027	58.44
229.262	77.44
229.496	76.44
229.73	79.44
229.964	65.44
230.199	81.44
230.433	69.44
230.667	63.44
230.901	81.44
231.136	86.44
231.37	89.44
231.604	69.44
231.838	86.44
232.072	70.44
232.306	81.44
232.541	87.44
232.775	68.44
233.009	88.44
233.243	82.44
233.477	75.44
233.711	78.44
233.945	81.44
234.179	78.44
234.413	87.44
234.647	92.44
234.881	81.44
235.115	87.44
235.349	76.44
235.583	72.44
235.817	77.44
236.051	76.44
236.285	70.44
236.519	80.44
236.753	74.44
236.987	77.44
237.221	72.44
237.455	86.44
237.689	73.44
237.922	85.44
238.156	75.44
238.39	80.44
238.624	75.44
238.858	78.44
239.091	83.44
239.325	72.44
239.559	93.44
239.793	89.44
240.027	75.44
240.26	61.44
240.494	72.44
240.728	70.44
240.961	74.44
241.195	82.44
241.429	90.44
241.662	74.44
241.896	72.44
242.13	74.44
242.363	81.44
242.597	80.44
242.83	94.44
243.064	91.44
243.298	72.44
243.531	87.44
243.765	85.44
243.998	68.44
244.232	65.44
244.465	71.44
244.699	80.44
244.932	77.44
245.166	78.44
245.399	90.44
245.633	81.44
245.866	80.44
246.099	74.44
246.333	65.44
246.566	65.44
246.8	75.44
247.033	80.44
247.266	81.44
247.5	74.44
247.733	83.44
247.966	74.44
248.2	81.44
248.433	76.44
248.666	81.44
248.899	82.44
249.133	83.44
249.366	102.44
249.599	94.44
249.832	89.44
250.066	88.44
250.299	79.44
250.532	67.44
250.765	72.44
250.998	80.44
251.231	90.44
251.465	72.44
251.698	68.44
251.931	93.44
252.164	89.44
252.397	77.44
252.63	93.44
252.863	82.44
253.096	88.44
253.329	93.44
253.562	86.44
253.795	68.44
254.028	79.44
254.261	78.44
254.494	77.44
254.727	93.44
254.96	77.44
255.193	75.44
255.426	76.44
255.659	73.44
255.892	76.44
256.124	88.44
256.357	76.44
256.59	83.44
256.823	92.44
257.056	74.44
257.289	78.44
257.521	82.44
257.754	86.44
257.987	88.44
258.22	84.44
258.452	84.44
258.685	89.44
258.918	93.44
259.151	76.44
259.383	83.44
259.616	80.44
259.849	82.44
260.081	68.44
260.314	85.44
260.547	86.44
260.779	84.44
261.012	81.44
261.244	77.44
261.477	75.44
261.71	100.44
261.942	112.44
262.175	94.44
262.407	86.44
262.64	92.44
262.872	97.44
263.105	82.44
263.337	81.44
263.57	84.44
263.802	95.44
264.035	78.44
264.267	77.44
264.499	85.44
264.732	90.44
264.964	80.44
265.197	80.44
265.429	79.44
265.661	81.44
265.894	82.44
266.126	93.44
266.358	88.44
266.591	85.44
266.823	98.44
267.055	83.44
267.287	88.44
267.52	91.44
267.752	93.44
267.984	77.44
268.216	101.44
268.448	95.44
268.681	62.44
268.913	81.44
269.145	74.44
269.377	72.44
269.609	79.44
269.841	97.44
270.073	83.44
270.306	83.44
270.538	81.44
270.77	90.44
271.002	87.44
271.234	94.44
271.466	81.44
271.698	80.44
271.93	81.44
272.162	74.44
272.394	79.44
272.626	95.44
272.858	63.44
273.09	85.44
273.322	76.44
273.553	87.44
273.785	85.44
274.017	76.44
274.249	88.44
274.481	82.44
274.713	97.44
274.945	74.44
275.176	92.44
275.408	84.44
275.64	83.44
275.872	98.44
276.104	89.44
276.335	90.44
276.567	95.44
276.799	90.44
277.031	102.44
277.262	100.44
277.494	86.44
277.726	93.44
277.957	96.44
278.189	92.44
278.421	81.44
278.652	87.44
278.884	69.44
279.115	86.44
279.347	94.44
279.579	92.44
279.81	74.44
280.042	96.44
280.273	84.44
280.505	102.44
280.736	84.44
280.968	78.44
281.199	81.44
281.431	80.44
281.662	80.44
281.894	102.44
282.125	96.44
282.356	124.44
282.588	128.44
282.819	100.44
283.051	92.44
283.282	82.44
283.513	78.44
283.745	95.44
283.976	88.44
284.207	94.44
284.439	89.44
284.67	97.44
284.901	91.44
285.132	85.44
285.364	112.44
285.595	96.44
285.826	101.44
286.057	89.44
286.288	85.44
286.52	81.44
286.751	66.44
286.982	88.44
287.213	82.44
287.444	84.44
287.675	100.44
287.906	96.44
288.138	94.44
288.369	93.44
288.6	100.44
288.831	92.44
289.062	64.44
289.293	94.44
289.524	82.44
289.755	82.44
289.986	73.44
290.217	91.44
290.448	98.44
290.679	94.44
290.91	90.44
291.141	79.44
291.371	82.44
291.602	83.44
291.833	82.44
292.064	68.44
292.295	86.44
292.526	97.44
292.757	83.44
292.987	90.44
293.218	91.44
293.449	89.44
293.68	95.44
293.91	77.44
294.141	94.44
294.372	85.44
294.603	98.44
294.833	88.44
295.064	87.44
295.295	86.44
295.525	90.44
295.756	98.44
295.987	115.44
296.217	154.44
296.448	119.44
296.679	90.44
296.909	92.44
297.14	88.44
297.37	91.44
297.601	94.44
297.831	90.44
298.062	98.44
298.292	89.44
298.523	93.44
298.753	88.44
298.984	75.44
299.214	98.44
299.445	99.44
299.675	79.44
299.905	107.44
300.136	108.44
300.366	98.44
300.597	99.44
300.827	93.44
301.057	90.44
301.288	115.44
301.518	98.44
301.748	84.44
301.979	97.44
302.209	98.44
302.439	94.44
302.669	76.44
302.9	80.44
303.13	99.44
303.36	93.44
303.59	96.44
303.82	101.44
304.051	94.44
304.281	82.44
304.511	112.44
304.741	86.44
304.971	91.44
305.201	83.44
305.431	82.44
305.661	82.44
305.891	83.44
306.121	92.44
306.352	104.44
306.582	110.44
306.812	93.44
307.042	98.44
307.272	98.44
307.502	84.44
307.731	86.44
307.961	95.44
308.191	101.44
308.421	80.44
308.651	91.44
308.881	96.44
309.111	102.44
309.341	94.44
309.571	95.44
309.8	97.44
310.03	105.44
310.26	91.44
310.49	88.44
310.72	104.44
310.949	96.44
311.179	112.44
311.409	94.44
311.639	108.44
311.868	89.44
312.098	107.44
312.328	97.44
312.557	84.44
312.787	102.44
313.017	88.44
313.246	92.44
313.476	97.44
313.706	99.44
313.935	90.44
314.165	105.44
314.394	108.44
314.624	104.44
314.853	105.44
315.083	95.44
315.312	80.44
315.542	85.44
315.771	87.44
316.001	99.44
316.23	94.44
316.46	90.44
316.689	92.44
316.919	89.44
317.148	95.44
317.377	87.44
317.607	98.44
317.836	86.44
318.065	97.44
318.295	100.44
318.524	102.44
318.753	92.44
318.983	94.44
319.212	81.44
319.441	113.44
319.67	115.44
319.9	93.44
320.129	99.44
320.358	97.44
320.587	98.44
320.816	97.44
321.046	108.44
321.275	106.44
321.504	100.44
321.733	93.44
321.962	102.44
322.191	85.44
322.42	89.44
322.649	107.44
322.878	108.44
323.108	111.44
323.337	106.44
323.566	133.44
323.795	133.44
324.024	212.44
324.253	340.44
324.482	748.44
324.71	1496.44
324.939	1928.44
325.168	739.44
325.397	225.44
325.626	147.44
325.855	130.44
326.084	115.44
326.313	137.44
326.542	160.44
326.77	212.44
326.999	400.44
327.228	835.44
327.457	1507.44
327.686	1182.44
327.914	339.44
328.143	196.44
328.372	148.44
328.6	155.44
328.829	115.44
329.058	126.44
329.287	128.44
329.515	108.44
329.744	111.44
329.972	98.44
330.201	134.44
330.43	146.44
330.658	136.44
330.887	138.44
331.115	129.44
331.344	104.44
331.572	121.44
331.801	114.44
332.03	96.44
332.258	92.44
332.486	99.44
332.715	88.44
332.943	95.44
333.172	98.44
333.4	91.44
333.629	95.44
333.857	115.44
334.085	106.44
334.314	125.44
334.542	158.44
334.771	150.44
334.999	122.44
335.227	97.44
335.455	91.44
335.684	92.44
335.912	93.44
336.14	89.44
336.369	101.44
336.597	105.44
336.825	108.44
337.053	95.44
337.281	87.44
337.51	83.44
337.738	92.44
337.966	100.44
338.194	95.44
338.422	83.44
338.65	86.44
338.878	98.44
339.106	88.44
339.334	74.44
339.562	89.44
339.79	99.44
340.018	92.44
340.246	90.44
340.474	90.44
340.702	102.44
340.93	94.44
341.158	90.44
341.386	96.44
341.614	104.44
341.842	100.44
342.07	86.44
342.298	87.44
342.526	98.44
342.754	91.44
342.981	94.44
343.209	93.44
343.437	116.44
343.665	94.44
343.893	102.44
344.12	97.44
344.348	85.44
344.576	89.44
344.804	99.44
345.031	104.44
345.259	102.44
345.487	83.44
345.714	101.44
345.942	86.44
346.17	108.44
346.397	102.44
346.625	101.44
346.853	98.44
347.08	90.44
347.308	91.44
347.535	108.44
347.763	87.44
347.99	97.44
348.218	96.44
348.445	92.44
348.673	84.44
348.9	80.44
349.128	95.44
349.355	97.44
349.583	101.44
349.81	85.44
350.037	100.44
350.265	107.44
350.492	99.44
350.72	98.44
350.947	98.44
351.174	112.44
351.402	110.44
351.629	96.44
351.856	89.44
352.083	86.44
352.311	99.44
352.538	113.44
352.765	115.44
352.992	115.44
353.22	99.44
353.447	97.44
353.674	97.44
353.901	103.44
354.128	85.44
354.355	93.44
354.583	88.44
354.81	100.44
355.037	92.44
355.264	101.44
355.491	79.44
355.718	92.44
355.945	81.44
356.172	92.44
356.399	84.44
356.626	94.44
356.853	88.44
357.08	86.44
357.307	92.44
357.534	85.44
357.761	102.44
357.988	88.44
358.215	99.44
358.441	93.44
358.668	98.44
358.895	72.44
359.122	97.44
359.349	78.44
359.576	86.44
359.802	106.44
360.029	99.44
360.256	116.44
360.483	107.44
360.709	86.44
360.936	91.44
361.163	83.44
361.39	81.44
361.616	96.44
361.843	89.44
362.07	99.44
362.296	99.44
362.523	95.44
362.749	85.44
362.976	99.44
363.203	83.44
363.429	92.44
363.656	85.44
363.882	86.44
364.109	90.44
364.335	87.44
364.562	98.44
364.788	88.44
365.015	90.44
365.241	101.44
365.468	106.44
365.694	108.44
365.92	81.44
366.147	100.44
366.373	88.44
366.599	83.44
366.826	97.44
367.052	99.44
367.278	91.44
367.505	91.44
367.731	95.44
367.957	75.44
368.184	101.44
368.41	99.44
368.636	100.44
368.862	117.44
369.089	93.44
369.315	77.44
369.541	98.44
369.767	81.44
369.993	102.44
370.219	96.44
370.445	83.44
370.672	92.44
370.898	106.44
371.124	94.44
371.35	87.44
371.576	91.44
371.802	98.44
372.028	85.44
372.254	90.44
372.48	89.44
372.706	91.44
372.932	100.44
373.158	94.44
373.384	85.44
373.61	101.44
373.835	76.44
374.061	82.44
374.287	88.44
374.513	98.44
374.739	91.44
374.965	104.44
375.191	73.44
375.416	84.44
375.642	84.44
375.868	89.44
376.094	86.44
376.319	102.44
376.545	102.44
376.771	84.44
376.997	85.44
377.222	78.44
377.448	78.44
377.674	94.44
377.899	87.44
378.125	96.44
378.35	94.44
378.576	88.44
378.802	85.44
379.027	101.44
379.253	90.44
379.478	84.44
379.704	101.44
379.929	92.44
380.155	99.44
380.38	84.44
380.606	95.44
380.831	93.44
381.057	105.44
381.282	89.44
381.507	84.44
381.733	103.44
381.958	94.44
382.184	88.44
382.409	88.44
382.634	107.44
382.86	85.44
383.085	101.44
383.31	94.44
383.535	97.44
383.761	99.44
383.986	104.44
384.211	88.44
384.436	96.44
384.662	90.44
384.887	93.44
385.112	101.44
385.337	98.44
385.562	100.44
385.787	95.44
386.013	112.44
386.238	107.44
386.463	100.44
386.688	115.44
386.913	96.44
387.138	109.44
387.363	99.44
387.588	83.44
387.813	104.44
388.038	93.44
388.263	102.44
388.488	112.44
388.713	98.44
388.938	96.44
389.163	96.44
389.387	93.44
389.612	95.44
389.837	98.44
390.062	102.44
390.287	76.44
390.512	95.44
390.736	98.44
390.961	76.44
391.186	74.44
391.411	96.44
391.636	84.44
391.86	91.44
392.085	95.44
392.31	84.44
392.534	86.44
392.759	84.44
392.984	77.44
393.208	91.44
393.433	98.44
393.658	94.44
393.882	93.44
394.107	88.44
394.331	96.44
394.556	76.44
394.78	98.44
395.005	78.44
395.229	85.44
395.454	84.44
395.678	82.44
395.903	92.44
396.127	84.44
396.352	89.44
396.576	96.44
396.801	97.44
397.025	91.44
397.249	89.44
397.474	89.44
397.698	74.44
397.922	69.44
398.147	89.44
398.371	98.44
398.595	75.44
398.82	96.44
399.044	88.44
399.268	92.44
399.492	78.44
399.717	96.44
399.941	92.44
400.165	88.44
400.389	87.44
400.613	80.44
400.837	76.44
401.062	85.44
401.286	87.44
401.51	98.44
401.734	102.44
401.958	100.44
402.182	127.44
402.406	161.44
402.63	104.44
402.854	109.44
403.078	91.44
403.302	94.44
403.526	94.44
403.75	95.44
403.974	100.44
404.198	82.44
404.422	85.44
404.645	94.44
404.869	92.44
405.093	90.44
405.317	94.44
405.541	97.44
405.765	101.44
405.988	108.44
406.212	156.44
406.436	220.44
406.66	142.44
406.883	104.44
407.107	107.44
407.331	87.44
407.555	108.44
407.778	91.44
408.002	74.44
408.226	90.44
408.449	75.44
408.673	82.44
408.896	89.44
409.12	98.44
409.344	102.44
409.567	78.44
409.791	80.44
410.014	93.44
410.238	90.44
410.461	79.44
410.685	84.44
410.908	98.44
411.132	105.44
411.355	96.44
411.578	80.44
411.802	87.44
412.025	93.44
412.249	83.44
412.472	78.44
412.695	91.44
412.919	88.44
413.142	83.44
413.365	94.44
413.589	82.44
413.812	83.44
414.035	78.44
414.258	84.44
414.482	100.44
414.705	88.44
414.928	83.44
415.151	91.44
415.374	93.44
415.597	90.44
415.821	88.44
416.044	101.44
416.267	86.44
416.49	100.44
416.713	91.44
416.936	97.44
417.159	87.44
417.382	88.44
417.605	82.44
417.828	92.44
418.051	90.44
418.274	104.44
418.497	81.44
418.72	88.44
418.943	86.44
419.166	98.44
419.389	87.44
419.611	91.44
419.834	77.44
420.057	81.44
420.28	89.44
420.503	72.44
420.726	84.44
420.948	102.44
421.171	81.44
421.394	91.44
421.617	99.44
421.839	85.44
422.062	101.44
422.285	94.44
422.507	105.44
422.73	96.44
422.953	73.44
423.175	85.44
423.398	90.44
423.621	91.44
423.843	81.44
424.066	76.44
424.288	78.44
424.511	85.44
424.733	106.44
424.956	104.44
425.178	101.44
425.401	96.44
425.623	102.44
425.846	105.44
426.068	85.44
426.291	84.44
426.513	93.44
426.735	99.44
426.958	103.44
427.18	99.44
427.402	117.44
427.625	137.44
427.847	119.44
428.069	124.44
428.292	91.44
428.514	89.44
428.736	97.44
428.958	72.44
429.181	78.44
429.403	91.44
429.625	91.44
429.847	96.44
430.069	102.44
430.292	104.44
430.514	89.44
430.736	79.44
430.958	82.44
431.18	87.44
431.402	85.44
431.624	90.44
431.846	86.44
432.068	88.44
432.29	96.44
432.512	96.44
432.734	96.44
432.956	78.44
433.178	85.44
433.4	89.44
433.622	99.44
433.844	92.44
434.066	78.44
434.287	91.44
434.509	76.44
434.731	70.44
434.953	92.44
435.175	84.44
435.397	84.44
435.618	93.44
435.84	106.44
436.062	112.44
436.284	108.44
436.505	85.44
436.727	92.44
436.949	95.44
437.17	97.44
437.392	82.44
437.614	80.44
437.835	103.44
438.057	109.44
438.278	114.44
438.5	97.44
438.721	117.44
438.943	107.44
439.165	94.44
439.386	96.44
439.608	97.44
439.829	104.44
440.05	112.44
440.272	139.44
440.493	96.44
440.715	90.44
440.936	100.44
441.158	91.44
441.379	67.44
441.6	103.44
441.822	83.44
442.043	99.44
442.264	93.44
442.486	109.44
442.707	93.44
442.928	102.44
443.149	112.44
443.371	119.44
443.592	108.44
443.813	120.44
444.034	94.44
444.255	81.44
444.476	90.44
444.698	88.44
444.919	83.44
445.14	136.44
445.361	105.44
445.582	104.44
445.803	124.44
446.024	123.44
446.245	130.44
446.466	110.44
446.687	84.44
446.908	91.44
447.129	87.44
447.35	80.44
447.571	96.44
447.792	92.44
448.013	95.44
448.234	105.44
448.455	101.44
448.675	105.44
448.896	109.44
449.117	99.44
449.338	108.44
449.559	133.44
449.779	123.44
450	98.44
450.221	84.44
450.442	92.44
450.662	101.44
450.883	106.44
451.104	102.44
451.324	98.44
451.545	83.44
451.766	93.44
451.986	89.44
452.207	88.44
452.428	85.44
452.648	88.44
452.869	92.44
453.089	113.44
453.31	98.44
453.53	88.44
453.751	109.44
453.971	94.44
454.192	94.44
454.412	91.44
454.633	85.44
454.853	74.44
455.073	92.44
455.294	96.44
455.514	99.44
455.734	101.44
455.955	85.44
456.175	84.44
456.395	83.44
456.616	84.44
456.836	85.44
457.056	89.44
457.276	81.44
457.497	90.44
457.717	80.44
457.937	88.44
458.157	85.44
458.377	98.44
458.598	111.44
458.818	123.44
459.038	160.44
459.258	101.44
459.478	86.44
459.698	92.44
459.918	85.44
460.138	79.44
460.358	85.44
460.578	91.44
460.798	82.44
461.018	82.44
461.238	85.44
461.458	78.44
461.678	84.44
461.898	78.44
462.118	84.44
462.338	90.44
462.558	96.44
462.777	69.44
462.997	80.44
463.217	83.44
463.437	81.44
463.657	88.44
463.876	84.44
464.096	90.44
464.316	85.44
464.536	85.44
464.755	105.44
464.975	100.44
465.195	164.44
465.414	152.44
465.634	90.44
465.854	86.44
466.073	92.44
466.293	58.44
466.512	88.44
466.732	84.44
466.951	85.44
467.171	91.44
467.391	98.44
467.61	105.44
467.829	92.44
468.049	106.44
468.268	111.44
468.488	91.44
468.707	95.44
468.927	84.44
469.146	84.44
469.365	77.44
469.585	96.44
469.804	100.44
470.023	102.44
470.243	105.44
470.462	108.44
470.681	121.44
470.901	78.44
471.12	81.44
471.339	65.44
471.558	93.44
471.777	89.44
471.997	90.44
472.216	130.44
472.435	184.44
472.654	118.44
472.873	92.44
473.092	91.44
473.311	85.44
473.53	81.44
473.749	103.44
473.968	93.44
474.187	100.44
474.406	85.44
474.625	93.44
474.844	89.44
475.063	74.44
475.282	85.44
475.501	91.44
475.72	89.44
475.939	97.44
476.158	90.44
476.377	86.44
476.596	89.44
476.814	93.44
477.033	90.44
477.252	86.44
477.471	96.44
477.69	77.44
477.908	93.44
478.127	86.44
478.346	95.44
478.564	91.44
478.783	101.44
479.002	77.44
479.22	96.44
479.439	97.44
479.658	121.44
479.876	92.44
480.095	83.44
480.313	74.44
480.532	92.44
480.751	103.44
480.969	136.44
481.188	288.44
481.406	212.44
481.624	104.44
481.843	94.44
482.061	77.44
482.28	81.44
482.498	92.44
482.717	82.44
482.935	84.44
483.153	88.44
483.372	80.44
483.59	99.44
483.808	98.44
484.027	90.44
484.245	96.44
484.463	93.44
484.681	92.44
484.9	96.44
485.118	99.44
485.336	98.44
485.554	83.44
485.772	102.44
485.99	87.44
486.209	101.44
486.427	110.44
486.645	115.44
486.863	114.44
487.081	100.44
487.299	96.44
487.517	87.44
487.735	105.44
487.953	97.44
488.171	97.44
488.389	92.44
488.607	105.44
488.825	78.44
489.043	83.44
489.261	101.44
489.479	78.44
489.696	91.44
489.914	88.44
490.132	90.44
490.35	92.44
490.568	95.44
490.786	87.44
491.003	72.44
491.221	89.44
491.439	96.44
491.657	92.44
491.874	98.44
492.092	81.44
492.31	91.44
492.527	83.44
492.745	89.44
492.963	89.44
493.18	89.44
493.398	91.44
493.615	92.44
493.833	100.44
494.05	82.44
494.268	82.44
494.485	100.44
494.703	93.44
494.92	97.44
495.138	86.44
495.355	96.44
495.573	73.44
495.79	94.44
496.008	98.44
496.225	92.44
496.442	82.44
496.66	100.44
496.877	97.44
497.094	85.44
497.312	81.44
497.529	101.44
497.746	105.44
497.963	104.44
498.181	108.44
498.398	105.44
498.615	101.44
498.832	95.44
499.049	93.44
499.267	96.44
499.484	81.44
499.701	91.44
499.918	80.44
500.135	82.44
500.352	96.44
500.569	90.44
500.786	74.44
501.003	89.44
501.22	99.44
501.437	91.44
501.654	89.44
501.871	108.44
502.088	91.44
502.305	91.44
502.522	86.44
502.739	78.44
502.956	88.44
503.172	92.44
503.389	75.44
503.606	101.44
503.823	109.44
504.04	90.44
504.256	79.44
504.473	94.44
504.69	91.44
504.907	92.44
505.123	93.44
505.34	83.44
505.557	84.44
505.773	94.44
505.99	80.44
506.207	98.44
506.423	83.44
506.64	82.44
506.856	86.44
507.073	89.44
507.289	104.44
507.506	98.44
507.722	117.44
507.939	98.44
508.155	100.44
508.372	98.44
508.588	88.44
508.805	96.44
509.021	92.44
509.238	96.44
509.454	94.44
509.67	104.44
509.887	109.44
510.103	133.44
510.319	206.44
510.536	758.44
510.752	2439.44
510.968	661.44
511.184	166.44
511.401	96.44
511.617	86.44
511.833	100.44
512.049	94.44
512.265	93.44
512.481	91.44
512.698	79.44
512.914	84.44
513.13	90.44
513.346	80.44
513.562	99.44
513.778	85.44
513.994	92.44
514.21	110.44
514.426	123.44
514.642	144.44
514.858	144.44
515.074	169.44
515.29	453.44
515.506	1452.44
515.721	534.44
515.937	149.44
