Data from Circ_1994_H10_HRD10591_00097.txt Node
Date: Wed Jan 03 11:40:49 EST 2024
User: Yrep
Spectrometer: HR+D1059
Trigger mode: 1
Integration Time (sec): 1.000000E-1
Scans to average: 1
Electric dark correction enabled: true
Nonlinearity correction enabled: false
Boxcar width: 0
XAxis mode: Wavelengths
Number of Pixels in Spectrum: 2048
>>>>>Begin Spectral Data<<<<<
223.165	-7.56
223.4	-7.56
223.635	-7.56
223.869	-13.56
224.104	-16.56
224.338	-22.56
224.573	-20.56
224.808	-7.56
225.042	-6.56
225.277	-4.56
225.511	12.44
225.746	1.44
225.98	-2.56
226.215	9.44
226.449	19.44
226.683	13.44
226.918	20.44
227.152	25.44
227.387	34.44
227.621	45.44
227.856	46.44
228.09	48.44
228.324	51.44
228.559	52.44
228.793	56.44
229.027	63.44
229.262	57.44
229.496	74.44
229.73	77.44
229.964	80.44
230.199	67.44
230.433	74.44
230.667	66.44
230.901	85.44
231.136	81.44
231.37	83.44
231.604	82.44
231.838	77.44
232.072	93.44
232.306	74.44
232.541	76.44
232.775	85.44
233.009	96.44
233.243	97.44
233.477	82.44
233.711	74.44
233.945	70.44
234.179	70.44
234.413	79.44
234.647	81.44
234.881	76.44
235.115	81.44
235.349	78.44
235.583	76.44
235.817	82.44
236.051	80.44
236.285	90.44
236.519	76.44
236.753	84.44
236.987	85.44
237.221	81.44
237.455	79.44
237.689	68.44
237.922	76.44
238.156	78.44
238.39	72.44
238.624	76.44
238.858	65.44
239.091	81.44
239.325	81.44
239.559	85.44
239.793	78.44
240.027	77.44
240.26	75.44
240.494	77.44
240.728	77.44
240.961	79.44
241.195	77.44
241.429	86.44
241.662	89.44
241.896	80.44
242.13	86.44
242.363	78.44
242.597	80.44
242.83	77.44
243.064	86.44
243.298	73.44
243.531	76.44
243.765	74.44
243.998	98.44
244.232	89.44
244.465	81.44
244.699	74.44
244.932	81.44
245.166	76.44
245.399	82.44
245.633	72.44
245.866	69.44
246.099	69.44
246.333	79.44
246.566	79.44
246.8	65.44
247.033	84.44
247.266	69.44
247.5	69.44
247.733	66.44
247.966	57.44
248.2	84.44
248.433	70.44
248.666	86.44
248.899	83.44
249.133	80.44
249.366	98.44
249.599	84.44
249.832	90.44
250.066	82.44
250.299	76.44
250.532	91.44
250.765	82.44
250.998	68.44
251.231	71.44
251.465	77.44
251.698	74.44
251.931	68.44
252.164	78.44
252.397	54.44
252.63	84.44
252.863	70.44
253.096	85.44
253.329	80.44
253.562	95.44
253.795	88.44
254.028	83.44
254.261	69.44
254.494	80.44
254.727	74.44
254.96	80.44
255.193	80.44
255.426	84.44
255.659	82.44
255.892	92.44
256.124	81.44
256.357	86.44
256.59	80.44
256.823	93.44
257.056	70.44
257.289	89.44
257.521	76.44
257.754	84.44
257.987	94.44
258.22	84.44
258.452	68.44
258.685	77.44
258.918	88.44
259.151	91.44
259.383	83.44
259.616	83.44
259.849	85.44
260.081	87.44
260.314	80.44
260.547	99.44
260.779	91.44
261.012	89.44
261.244	90.44
261.477	86.44
261.71	95.44
261.942	111.44
262.175	102.44
262.407	75.44
262.64	80.44
262.872	93.44
263.105	80.44
263.337	89.44
263.57	78.44
263.802	92.44
264.035	96.44
264.267	82.44
264.499	88.44
264.732	90.44
264.964	81.44
265.197	84.44
265.429	87.44
265.661	82.44
265.894	104.44
266.126	85.44
266.358	99.44
266.591	76.44
266.823	78.44
267.055	63.44
267.287	87.44
267.52	85.44
267.752	80.44
267.984	80.44
268.216	88.44
268.448	86.44
268.681	74.44
268.913	74.44
269.145	84.44
269.377	70.44
269.609	85.44
269.841	80.44
270.073	88.44
270.306	85.44
270.538	90.44
270.77	76.44
271.002	93.44
271.234	97.44
271.466	82.44
271.698	101.44
271.93	89.44
272.162	85.44
272.394	91.44
272.626	69.44
272.858	99.44
273.09	79.44
273.322	79.44
273.553	84.44
273.785	96.44
274.017	99.44
274.249	97.44
274.481	80.44
274.713	77.44
274.945	86.44
275.176	85.44
275.408	91.44
275.64	101.44
275.872	81.44
276.104	85.44
276.335	89.44
276.567	107.44
276.799	99.44
277.031	108.44
277.262	77.44
277.494	91.44
277.726	100.44
277.957	92.44
278.189	69.44
278.421	89.44
278.652	77.44
278.884	87.44
279.115	84.44
279.347	78.44
279.579	99.44
279.81	83.44
280.042	94.44
280.273	96.44
280.505	95.44
280.736	88.44
280.968	83.44
281.199	68.44
281.431	82.44
281.662	77.44
281.894	75.44
282.125	92.44
282.356	125.44
282.588	126.44
282.819	102.44
283.051	90.44
283.282	88.44
283.513	83.44
283.745	90.44
283.976	80.44
284.207	79.44
284.439	76.44
284.67	83.44
284.901	89.44
285.132	83.44
285.364	85.44
285.595	77.44
285.826	92.44
286.057	101.44
286.288	88.44
286.52	90.44
286.751	94.44
286.982	78.44
287.213	90.44
287.444	90.44
287.675	95.44
287.906	91.44
288.138	85.44
288.369	105.44
288.6	72.44
288.831	89.44
289.062	95.44
289.293	82.44
289.524	91.44
289.755	83.44
289.986	93.44
290.217	84.44
290.448	95.44
290.679	84.44
290.91	84.44
291.141	97.44
291.371	93.44
291.602	88.44
291.833	90.44
292.064	89.44
292.295	90.44
292.526	90.44
292.757	87.44
292.987	89.44
293.218	81.44
293.449	80.44
293.68	97.44
293.91	82.44
294.141	91.44
294.372	93.44
294.603	92.44
294.833	91.44
295.064	98.44
295.295	85.44
295.525	105.44
295.756	92.44
295.987	120.44
296.217	132.44
296.448	103.44
296.679	97.44
296.909	88.44
297.14	84.44
297.37	90.44
297.601	82.44
297.831	84.44
298.062	92.44
298.292	86.44
298.523	86.44
298.753	88.44
298.984	96.44
299.214	75.44
299.445	85.44
299.675	89.44
299.905	87.44
300.136	82.44
300.366	80.44
300.597	82.44
300.827	93.44
301.057	99.44
301.288	113.44
301.518	104.44
301.748	104.44
301.979	96.44
302.209	94.44
302.439	82.44
302.669	75.44
302.9	86.44
303.13	96.44
303.36	90.44
303.59	80.44
303.82	118.44
304.051	104.44
304.281	90.44
304.511	94.44
304.741	88.44
304.971	89.44
305.201	98.44
305.431	80.44
305.661	87.44
305.891	91.44
306.121	99.44
306.352	100.44
306.582	105.44
306.812	89.44
307.042	92.44
307.272	105.44
307.502	102.44
307.731	82.44
307.961	87.44
308.191	95.44
308.421	85.44
308.651	76.44
308.881	92.44
309.111	98.44
309.341	97.44
309.571	106.44
309.8	101.44
310.03	104.44
310.26	97.44
310.49	89.44
310.72	86.44
310.949	99.44
311.179	96.44
311.409	89.44
311.639	88.44
311.868	92.44
312.098	100.44
312.328	101.44
312.557	112.44
312.787	92.44
313.017	88.44
313.246	91.44
313.476	100.44
313.706	81.44
313.935	91.44
314.165	90.44
314.394	98.44
314.624	98.44
314.853	98.44
315.083	106.44
315.312	86.44
315.542	83.44
315.771	88.44
316.001	87.44
316.23	76.44
316.46	80.44
316.689	88.44
316.919	94.44
317.148	82.44
317.377	92.44
317.607	82.44
317.836	84.44
318.065	84.44
318.295	95.44
318.524	83.44
318.753	96.44
318.983	95.44
319.212	102.44
319.441	106.44
319.67	108.44
319.9	99.44
320.129	65.44
320.358	84.44
320.587	106.44
320.816	84.44
321.046	106.44
321.275	90.44
321.504	102.44
321.733	92.44
321.962	90.44
322.191	112.44
322.42	101.44
322.649	112.44
322.878	112.44
323.108	118.44
323.337	123.44
323.566	117.44
323.795	148.44
324.024	192.44
324.253	356.44
324.482	700.44
324.71	1477.44
324.939	1877.44
325.168	709.44
325.397	225.44
325.626	130.44
325.855	137.44
326.084	123.44
326.313	129.44
326.542	141.44
326.77	204.44
326.999	400.44
327.228	830.44
327.457	1468.44
327.686	1131.44
327.914	332.44
328.143	202.44
328.372	170.44
328.6	138.44
328.829	121.44
329.058	104.44
329.287	120.44
329.515	112.44
329.744	119.44
329.972	132.44
330.201	174.44
330.43	207.44
330.658	154.44
330.887	152.44
331.115	94.44
331.344	110.44
331.572	91.44
331.801	105.44
332.03	106.44
332.258	100.44
332.486	80.44
332.715	90.44
332.943	96.44
333.172	99.44
333.4	95.44
333.629	105.44
333.857	115.44
334.085	132.44
334.314	162.44
334.542	236.44
334.771	227.44
334.999	119.44
335.227	77.44
335.455	90.44
335.684	81.44
335.912	100.44
336.14	104.44
336.369	99.44
336.597	91.44
336.825	100.44
337.053	91.44
337.281	91.44
337.51	94.44
337.738	98.44
337.966	96.44
338.194	96.44
338.422	87.44
338.65	96.44
338.878	99.44
339.106	92.44
339.334	98.44
339.562	98.44
339.79	94.44
340.018	101.44
340.246	102.44
340.474	95.44
340.702	82.44
340.93	86.44
341.158	94.44
341.386	106.44
341.614	98.44
341.842	106.44
342.07	99.44
342.298	84.44
342.526	95.44
342.754	87.44
342.981	74.44
343.209	88.44
343.437	90.44
343.665	97.44
343.893	96.44
344.12	84.44
344.348	98.44
344.576	86.44
344.804	98.44
345.031	81.44
345.259	97.44
345.487	81.44
345.714	102.44
345.942	100.44
346.17	97.44
346.397	85.44
346.625	92.44
346.853	86.44
347.08	79.44
347.308	94.44
347.535	100.44
347.763	96.44
347.99	90.44
348.218	99.44
348.445	101.44
348.673	95.44
348.9	92.44
349.128	95.44
349.355	96.44
349.583	78.44
349.81	90.44
350.037	94.44
350.265	96.44
350.492	99.44
350.72	87.44
350.947	91.44
351.174	83.44
351.402	102.44
351.629	99.44
351.856	100.44
352.083	84.44
352.311	115.44
352.538	109.44
352.765	111.44
352.992	115.44
353.22	93.44
353.447	103.44
353.674	106.44
353.901	98.44
354.128	95.44
354.355	98.44
354.583	90.44
354.81	94.44
355.037	112.44
355.264	101.44
355.491	91.44
355.718	86.44
355.945	86.44
356.172	98.44
356.399	100.44
356.626	105.44
356.853	86.44
357.08	102.44
357.307	89.44
357.534	98.44
357.761	109.44
357.988	95.44
358.215	78.44
358.441	93.44
358.668	93.44
358.895	84.44
359.122	98.44
359.349	98.44
359.576	87.44
359.802	92.44
360.029	101.44
360.256	109.44
360.483	99.44
360.709	77.44
360.936	81.44
361.163	92.44
361.39	91.44
361.616	91.44
361.843	107.44
362.07	93.44
362.296	98.44
362.523	90.44
362.749	71.44
362.976	78.44
363.203	86.44
363.429	78.44
363.656	81.44
363.882	94.44
364.109	103.44
364.335	89.44
364.562	88.44
364.788	87.44
365.015	74.44
365.241	101.44
365.468	107.44
365.694	91.44
365.92	101.44
366.147	95.44
366.373	97.44
366.599	97.44
366.826	93.44
367.052	82.44
367.278	87.44
367.505	85.44
367.731	89.44
367.957	83.44
368.184	91.44
368.41	107.44
368.636	107.44
368.862	105.44
369.089	108.44
369.315	101.44
369.541	102.44
369.767	80.44
369.993	102.44
370.219	93.44
370.445	90.44
370.672	79.44
370.898	96.44
371.124	92.44
371.35	91.44
371.576	90.44
371.802	85.44
372.028	79.44
372.254	90.44
372.48	82.44
372.706	95.44
372.932	85.44
373.158	79.44
373.384	81.44
373.61	83.44
373.835	85.44
374.061	93.44
374.287	92.44
374.513	94.44
374.739	90.44
374.965	86.44
375.191	82.44
375.416	75.44
375.642	99.44
375.868	76.44
376.094	99.44
376.319	85.44
376.545	89.44
376.771	87.44
376.997	85.44
377.222	87.44
377.448	87.44
377.674	95.44
377.899	88.44
378.125	85.44
378.35	84.44
378.576	92.44
378.802	89.44
379.027	76.44
379.253	95.44
379.478	83.44
379.704	94.44
379.929	90.44
380.155	96.44
380.38	90.44
380.606	85.44
380.831	99.44
381.057	98.44
381.282	102.44
381.507	96.44
381.733	96.44
381.958	101.44
382.184	90.44
382.409	88.44
382.634	96.44
382.86	95.44
383.085	110.44
383.31	97.44
383.535	91.44
383.761	99.44
383.986	100.44
384.211	70.44
384.436	95.44
384.662	98.44
384.887	96.44
385.112	85.44
385.337	93.44
385.562	101.44
385.787	99.44
386.013	110.44
386.238	110.44
386.463	104.44
386.688	105.44
386.913	94.44
387.138	112.44
387.363	110.44
387.588	104.44
387.813	90.44
388.038	90.44
388.263	116.44
388.488	118.44
388.713	91.44
388.938	101.44
389.163	90.44
389.387	84.44
389.612	84.44
389.837	95.44
390.062	86.44
390.287	96.44
390.512	88.44
390.736	97.44
390.961	92.44
391.186	101.44
391.411	95.44
391.636	88.44
391.86	67.44
392.085	80.44
392.31	86.44
392.534	78.44
392.759	90.44
392.984	81.44
393.208	94.44
393.433	91.44
393.658	84.44
393.882	93.44
394.107	89.44
394.331	85.44
394.556	86.44
394.78	90.44
395.005	89.44
395.229	85.44
395.454	90.44
395.678	83.44
395.903	88.44
396.127	97.44
396.352	77.44
396.576	83.44
396.801	88.44
397.025	82.44
397.249	73.44
397.474	85.44
397.698	84.44
397.922	89.44
398.147	95.44
398.371	79.44
398.595	78.44
398.82	97.44
399.044	72.44
399.268	84.44
399.492	84.44
399.717	107.44
399.941	75.44
400.165	85.44
400.389	71.44
400.613	92.44
400.837	93.44
401.062	96.44
401.286	90.44
401.51	89.44
401.734	88.44
401.958	90.44
402.182	121.44
402.406	140.44
402.63	106.44
402.854	92.44
403.078	80.44
403.302	93.44
403.526	85.44
403.75	84.44
403.974	80.44
404.198	85.44
404.422	98.44
404.645	77.44
404.869	87.44
405.093	96.44
405.317	95.44
405.541	92.44
405.765	103.44
405.988	99.44
406.212	139.44
406.436	194.44
406.66	138.44
406.883	92.44
407.107	82.44
407.331	94.44
407.555	121.44
407.778	96.44
408.002	80.44
408.226	79.44
408.449	94.44
408.673	90.44
408.896	84.44
409.12	79.44
409.344	92.44
409.567	100.44
409.791	78.44
410.014	87.44
410.238	92.44
410.461	80.44
410.685	94.44
410.908	95.44
411.132	93.44
411.355	109.44
411.578	92.44
411.802	77.44
412.025	80.44
412.249	84.44
412.472	89.44
412.695	102.44
412.919	97.44
413.142	89.44
413.365	94.44
413.589	80.44
413.812	78.44
414.035	72.44
414.258	72.44
414.482	89.44
414.705	85.44
414.928	89.44
415.151	90.44
415.374	96.44
415.597	98.44
415.821	89.44
416.044	94.44
416.267	90.44
416.49	85.44
416.713	92.44
416.936	91.44
417.159	90.44
417.382	80.44
417.605	85.44
417.828	99.44
418.051	76.44
418.274	84.44
418.497	85.44
418.72	89.44
418.943	91.44
419.166	84.44
419.389	86.44
419.611	87.44
419.834	81.44
420.057	89.44
420.28	79.44
420.503	76.44
420.726	89.44
420.948	87.44
421.171	97.44
421.394	90.44
421.617	76.44
421.839	88.44
422.062	69.44
422.285	97.44
422.507	84.44
422.73	106.44
422.953	93.44
423.175	92.44
423.398	91.44
423.621	100.44
423.843	99.44
424.066	91.44
424.288	88.44
424.511	86.44
424.733	106.44
424.956	104.44
425.178	96.44
425.401	104.44
425.623	90.44
425.846	84.44
426.068	82.44
426.291	85.44
426.513	95.44
426.735	82.44
426.958	98.44
427.18	108.44
427.402	126.44
427.625	155.44
427.847	147.44
428.069	116.44
428.292	89.44
428.514	84.44
428.736	91.44
428.958	78.44
429.181	87.44
429.403	70.44
429.625	84.44
429.847	91.44
430.069	101.44
430.292	89.44
430.514	79.44
430.736	93.44
430.958	89.44
431.18	74.44
431.402	86.44
431.624	87.44
431.846	92.44
432.068	93.44
432.29	88.44
432.512	97.44
432.734	88.44
432.956	89.44
433.178	81.44
433.4	86.44
433.622	97.44
433.844	97.44
434.066	88.44
434.287	81.44
434.509	86.44
434.731	92.44
434.953	79.44
435.175	84.44
435.397	110.44
435.618	91.44
435.84	97.44
436.062	119.44
436.284	112.44
436.505	93.44
436.727	85.44
436.949	90.44
437.17	74.44
437.392	94.44
437.614	89.44
437.835	95.44
438.057	110.44
438.278	102.44
438.5	114.44
438.721	115.44
438.943	101.44
439.165	91.44
439.386	82.44
439.608	82.44
439.829	102.44
440.05	109.44
440.272	125.44
440.493	83.44
440.715	79.44
440.936	77.44
441.158	93.44
441.379	81.44
441.6	85.44
441.822	91.44
442.043	81.44
442.264	107.44
442.486	91.44
442.707	91.44
442.928	102.44
443.149	114.44
443.371	122.44
443.592	90.44
443.813	111.44
444.034	99.44
444.255	91.44
444.476	77.44
444.698	72.44
444.919	89.44
445.14	125.44
445.361	121.44
445.582	102.44
445.803	126.44
446.024	135.44
446.245	132.44
446.466	99.44
446.687	99.44
446.908	88.44
447.129	82.44
447.35	95.44
447.571	76.44
447.792	95.44
448.013	90.44
448.234	88.44
448.455	98.44
448.675	113.44
448.896	111.44
449.117	92.44
449.338	97.44
449.559	99.44
449.779	117.44
450	91.44
450.221	86.44
450.442	104.44
450.662	87.44
450.883	108.44
451.104	101.44
451.324	82.44
451.545	84.44
451.766	86.44
451.986	84.44
452.207	81.44
452.428	99.44
452.648	78.44
452.869	95.44
453.089	97.44
453.31	114.44
453.53	86.44
453.751	92.44
453.971	92.44
454.192	106.44
454.412	82.44
454.633	79.44
454.853	80.44
455.073	85.44
455.294	83.44
455.514	107.44
455.734	96.44
455.955	85.44
456.175	99.44
456.395	72.44
456.616	80.44
456.836	72.44
457.056	91.44
457.276	85.44
457.497	100.44
457.717	84.44
457.937	74.44
458.157	89.44
458.377	95.44
458.598	95.44
458.818	122.44
459.038	151.44
459.258	95.44
459.478	76.44
459.698	91.44
459.918	95.44
460.138	73.44
460.358	90.44
460.578	83.44
460.798	74.44
461.018	91.44
461.238	95.44
461.458	104.44
461.678	88.44
461.898	84.44
462.118	98.44
462.338	76.44
462.558	70.44
462.777	87.44
462.997	90.44
463.217	88.44
463.437	87.44
463.657	91.44
463.876	83.44
464.096	89.44
464.316	88.44
464.536	89.44
464.755	93.44
464.975	94.44
465.195	157.44
465.414	134.44
465.634	99.44
465.854	82.44
466.073	95.44
466.293	83.44
466.512	76.44
466.732	84.44
466.951	89.44
467.171	84.44
467.391	89.44
467.61	110.44
467.829	108.44
468.049	143.44
468.268	136.44
468.488	99.44
468.707	78.44
468.927	74.44
469.146	83.44
469.365	91.44
469.585	99.44
469.804	86.44
470.023	88.44
470.243	86.44
470.462	92.44
470.681	110.44
470.901	91.44
471.12	95.44
471.339	93.44
471.558	84.44
471.777	79.44
471.997	88.44
472.216	203.44
472.435	301.44
472.654	140.44
472.873	106.44
473.092	100.44
473.311	101.44
473.53	76.44
473.749	94.44
473.968	96.44
474.187	81.44
474.406	88.44
474.625	74.44
474.844	87.44
475.063	90.44
475.282	81.44
475.501	74.44
475.72	72.44
475.939	77.44
476.158	80.44
476.377	86.44
476.596	97.44
476.814	101.44
477.033	79.44
477.252	94.44
477.471	82.44
477.69	94.44
477.908	112.44
478.127	75.44
478.346	83.44
478.564	84.44
478.783	92.44
479.002	84.44
479.22	98.44
479.439	101.44
479.658	97.44
479.876	100.44
480.095	96.44
480.313	88.44
480.532	96.44
480.751	107.44
480.969	186.44
481.188	489.44
481.406	328.44
481.624	114.44
481.843	92.44
482.061	72.44
482.28	90.44
482.498	74.44
482.717	77.44
482.935	87.44
483.153	106.44
483.372	98.44
483.59	94.44
483.808	76.44
484.027	78.44
484.245	90.44
484.463	97.44
484.681	97.44
484.9	94.44
485.118	104.44
485.336	96.44
485.554	88.44
485.772	89.44
485.99	95.44
486.209	94.44
486.427	91.44
486.645	109.44
486.863	105.44
487.081	120.44
487.299	97.44
487.517	98.44
487.735	92.44
487.953	81.44
488.171	87.44
488.389	89.44
488.607	102.44
488.825	95.44
489.043	77.44
489.261	91.44
489.479	107.44
489.696	78.44
489.914	88.44
490.132	78.44
490.35	87.44
490.568	88.44
490.786	81.44
491.003	88.44
491.221	78.44
491.439	94.44
491.657	76.44
491.874	93.44
492.092	99.44
492.31	96.44
492.527	86.44
492.745	96.44
492.963	96.44
493.18	89.44
493.398	93.44
493.615	92.44
493.833	101.44
494.05	90.44
494.268	99.44
494.485	96.44
494.703	87.44
494.92	88.44
495.138	80.44
495.355	95.44
495.573	97.44
495.79	95.44
496.008	85.44
496.225	98.44
496.442	100.44
496.66	81.44
496.877	89.44
497.094	88.44
497.312	75.44
497.529	81.44
497.746	101.44
497.963	81.44
498.181	88.44
498.398	90.44
498.615	101.44
498.832	98.44
499.049	100.44
499.267	92.44
499.484	85.44
499.701	96.44
499.918	77.44
500.135	100.44
500.352	93.44
500.569	84.44
500.786	93.44
501.003	92.44
501.22	89.44
501.437	91.44
501.654	99.44
501.871	89.44
502.088	89.44
502.305	89.44
502.522	86.44
502.739	82.44
502.956	92.44
503.172	94.44
503.389	92.44
503.606	104.44
503.823	107.44
504.04	100.44
504.256	97.44
504.473	82.44
504.69	65.44
504.907	92.44
505.123	86.44
505.34	80.44
505.557	99.44
505.773	89.44
505.99	79.44
506.207	101.44
506.423	82.44
506.64	91.44
506.856	99.44
507.073	82.44
507.289	93.44
507.506	105.44
507.722	114.44
507.939	103.44
508.155	92.44
508.372	93.44
508.588	64.44
508.805	84.44
509.021	101.44
509.238	100.44
509.454	91.44
509.67	110.44
509.887	95.44
510.103	130.44
510.319	213.44
510.536	712.44
510.752	2206.44
510.968	635.44
511.184	152.44
511.401	100.44
511.617	101.44
511.833	94.44
512.049	92.44
512.265	93.44
512.481	90.44
512.698	86.44
512.914	83.44
513.13	74.44
513.346	82.44
513.562	99.44
513.778	86.44
513.994	91.44
514.21	97.44
514.426	98.44
514.642	118.44
514.858	113.44
515.074	143.44
515.29	377.44
515.506	1268.44
515.721	449.44
515.937	139.44
516.153	119.44
516.369	95.44
