Data from Circ_1994_H10_HRD10591_00022.txt Node
Date: Wed Jan 03 11:40:34 EST 2024
User: Yrep
Spectrometer: HR+D1059
Trigger mode: 1
Integration Time (sec): 1.000000E-1
Scans to average: 1
Electric dark correction enabled: true
Nonlinearity correction enabled: false
Boxcar width: 0
XAxis mode: Wavelengths
Number of Pixels in Spectrum: 2048
>>>>>Begin Spectral Data<<<<<
223.165	-16.38
223.4	-16.38
223.635	-16.38
223.869	-13.38
224.104	-21.38
224.338	-11.38
224.573	-24.38
224.808	-15.38
225.042	11.62
225.277	-9.38
225.511	-5.38
225.746	-1.38
225.98	-2.38
226.215	9.62
226.449	18.62
226.683	28.62
226.918	22.62
227.152	29.62
227.387	36.62
227.621	36.62
227.856	19.62
228.09	42.62
228.324	40.62
228.559	50.62
228.793	58.62
229.027	44.62
229.262	55.62
229.496	72.62
229.73	74.62
229.964	76.62
230.199	75.62
230.433	72.62
230.667	58.62
230.901	68.62
231.136	82.62
231.37	64.62
231.604	77.62
231.838	76.62
232.072	86.62
232.306	73.62
232.541	84.62
232.775	73.62
233.009	70.62
233.243	71.62
233.477	79.62
233.711	68.62
233.945	84.62
234.179	70.62
234.413	89.62
234.647	66.62
234.881	85.62
235.115	76.62
235.349	83.62
235.583	68.62
235.817	68.62
236.051	76.62
236.285	85.62
236.519	75.62
236.753	69.62
236.987	71.62
237.221	74.62
237.455	81.62
237.689	77.62
237.922	81.62
238.156	55.62
238.39	61.62
238.624	70.62
238.858	74.62
239.091	71.62
239.325	77.62
239.559	86.62
239.793	77.62
240.027	70.62
240.26	84.62
240.494	69.62
240.728	60.62
240.961	77.62
241.195	61.62
241.429	86.62
241.662	86.62
241.896	69.62
242.13	81.62
242.363	65.62
242.597	69.62
242.83	80.62
243.064	76.62
243.298	66.62
243.531	72.62
243.765	62.62
243.998	79.62
244.232	70.62
244.465	76.62
244.699	72.62
244.932	75.62
245.166	84.62
245.399	75.62
245.633	92.62
245.866	85.62
246.099	81.62
246.333	69.62
246.566	74.62
246.8	77.62
247.033	73.62
247.266	77.62
247.5	77.62
247.733	85.62
247.966	72.62
248.2	68.62
248.433	86.62
248.666	77.62
248.899	66.62
249.133	91.62
249.366	94.62
249.599	96.62
249.832	77.62
250.066	72.62
250.299	71.62
250.532	76.62
250.765	65.62
250.998	73.62
251.231	79.62
251.465	68.62
251.698	92.62
251.931	69.62
252.164	77.62
252.397	63.62
252.63	79.62
252.863	69.62
253.096	81.62
253.329	77.62
253.562	67.62
253.795	84.62
254.028	95.62
254.261	87.62
254.494	76.62
254.727	92.62
254.96	81.62
255.193	79.62
255.426	91.62
255.659	82.62
255.892	68.62
256.124	71.62
256.357	65.62
256.59	78.62
256.823	77.62
257.056	85.62
257.289	69.62
257.521	75.62
257.754	87.62
257.987	78.62
258.22	82.62
258.452	80.62
258.685	71.62
258.918	78.62
259.151	79.62
259.383	88.62
259.616	75.62
259.849	77.62
260.081	72.62
260.314	77.62
260.547	62.62
260.779	88.62
261.012	84.62
261.244	76.62
261.477	85.62
261.71	91.62
261.942	94.62
262.175	94.62
262.407	86.62
262.64	92.62
262.872	67.62
263.105	85.62
263.337	82.62
263.57	94.62
263.802	77.62
264.035	86.62
264.267	89.62
264.499	61.62
264.732	89.62
264.964	77.62
265.197	91.62
265.429	85.62
265.661	88.62
265.894	78.62
266.126	65.62
266.358	85.62
266.591	86.62
266.823	81.62
267.055	84.62
267.287	81.62
267.52	74.62
267.752	77.62
267.984	87.62
268.216	81.62
268.448	86.62
268.681	76.62
268.913	89.62
269.145	86.62
269.377	73.62
269.609	80.62
269.841	77.62
270.073	76.62
270.306	84.62
270.538	80.62
270.77	81.62
271.002	82.62
271.234	82.62
271.466	89.62
271.698	79.62
271.93	82.62
272.162	82.62
272.394	84.62
272.626	89.62
272.858	86.62
273.09	81.62
273.322	88.62
273.553	84.62
273.785	84.62
274.017	75.62
274.249	80.62
274.481	79.62
274.713	90.62
274.945	88.62
275.176	78.62
275.408	79.62
275.64	78.62
275.872	93.62
276.104	89.62
276.335	82.62
276.567	92.62
276.799	110.62
277.031	85.62
277.262	71.62
277.494	66.62
277.726	84.62
277.957	82.62
278.189	76.62
278.421	82.62
278.652	77.62
278.884	80.62
279.115	71.62
279.347	76.62
279.579	78.62
279.81	92.62
280.042	102.62
280.273	86.62
280.505	70.62
280.736	86.62
280.968	93.62
281.199	97.62
281.431	86.62
281.662	96.62
281.894	92.62
282.125	82.62
282.356	111.62
282.588	126.62
282.819	105.62
283.051	86.62
283.282	84.62
283.513	90.62
283.745	85.62
283.976	80.62
284.207	79.62
284.439	80.62
284.67	82.62
284.901	88.62
285.132	75.62
285.364	63.62
285.595	73.62
285.826	89.62
286.057	76.62
286.288	85.62
286.52	64.62
286.751	90.62
286.982	89.62
287.213	84.62
287.444	81.62
287.675	90.62
287.906	82.62
288.138	81.62
288.369	76.62
288.6	101.62
288.831	85.62
289.062	89.62
289.293	84.62
289.524	71.62
289.755	76.62
289.986	98.62
290.217	84.62
290.448	78.62
290.679	86.62
290.91	91.62
291.141	75.62
291.371	89.62
291.602	87.62
291.833	78.62
292.064	88.62
292.295	77.62
292.526	78.62
292.757	87.62
292.987	84.62
293.218	81.62
293.449	74.62
293.68	78.62
293.91	74.62
294.141	79.62
294.372	81.62
294.603	77.62
294.833	87.62
295.064	64.62
295.295	89.62
295.525	81.62
295.756	90.62
295.987	111.62
296.217	132.62
296.448	118.62
296.679	86.62
296.909	70.62
297.14	81.62
297.37	82.62
297.601	96.62
297.831	84.62
298.062	84.62
298.292	90.62
298.523	94.62
298.753	77.62
298.984	80.62
299.214	80.62
299.445	81.62
299.675	97.62
299.905	98.62
300.136	77.62
300.366	83.62
300.597	85.62
300.827	95.62
301.057	90.62
301.288	87.62
301.518	91.62
301.748	88.62
301.979	100.62
302.209	85.62
302.439	68.62
302.669	93.62
302.9	90.62
303.13	91.62
303.36	89.62
303.59	86.62
303.82	87.62
304.051	101.62
304.281	86.62
304.511	81.62
304.741	85.62
304.971	72.62
305.201	71.62
305.431	85.62
305.661	96.62
305.891	82.62
306.121	91.62
306.352	98.62
306.582	102.62
306.812	80.62
307.042	81.62
307.272	94.62
307.502	90.62
307.731	80.62
307.961	79.62
308.191	77.62
308.421	94.62
308.651	70.62
308.881	95.62
309.111	95.62
309.341	94.62
309.571	85.62
309.8	103.62
310.03	105.62
310.26	90.62
310.49	100.62
310.72	86.62
310.949	89.62
311.179	74.62
311.409	85.62
311.639	99.62
311.868	90.62
312.098	90.62
312.328	85.62
312.557	93.62
312.787	98.62
313.017	93.62
313.246	90.62
313.476	99.62
313.706	93.62
313.935	88.62
314.165	98.62
314.394	85.62
314.624	81.62
314.853	103.62
315.083	98.62
315.312	84.62
315.542	84.62
315.771	81.62
316.001	90.62
316.23	89.62
316.46	88.62
316.689	95.62
316.919	87.62
317.148	84.62
317.377	89.62
317.607	90.62
317.836	80.62
318.065	82.62
318.295	93.62
318.524	78.62
318.753	85.62
318.983	102.62
319.212	79.62
319.441	99.62
319.67	82.62
319.9	93.62
320.129	92.62
320.358	95.62
320.587	78.62
320.816	81.62
321.046	105.62
321.275	105.62
321.504	87.62
321.733	102.62
321.962	92.62
322.191	93.62
322.42	103.62
322.649	89.62
322.878	111.62
323.108	116.62
323.337	114.62
323.566	112.62
323.795	129.62
324.024	190.62
324.253	337.62
324.482	678.62
324.71	1359.62
324.939	1734.62
325.168	645.62
325.397	206.62
325.626	137.62
325.855	122.62
326.084	115.62
326.313	123.62
326.542	128.62
326.77	203.62
326.999	366.62
327.228	743.62
327.457	1348.62
327.686	1060.62
327.914	307.62
328.143	151.62
328.372	127.62
328.6	127.62
328.829	125.62
329.058	118.62
329.287	110.62
329.515	95.62
329.744	97.62
329.972	106.62
330.201	108.62
330.43	127.62
330.658	116.62
330.887	136.62
331.115	108.62
331.344	100.62
331.572	90.62
331.801	85.62
332.03	93.62
332.258	84.62
332.486	80.62
332.715	86.62
332.943	89.62
333.172	91.62
333.4	113.62
333.629	110.62
333.857	110.62
334.085	103.62
334.314	110.62
334.542	127.62
334.771	119.62
334.999	95.62
335.227	91.62
335.455	97.62
335.684	94.62
335.912	105.62
336.14	110.62
336.369	96.62
336.597	105.62
336.825	84.62
337.053	96.62
337.281	84.62
337.51	86.62
337.738	92.62
337.966	93.62
338.194	81.62
338.422	91.62
338.65	78.62
338.878	91.62
339.106	76.62
339.334	90.62
339.562	79.62
339.79	88.62
340.018	77.62
340.246	84.62
340.474	83.62
340.702	94.62
340.93	81.62
341.158	90.62
341.386	95.62
341.614	93.62
341.842	98.62
342.07	92.62
342.298	81.62
342.526	89.62
342.754	77.62
342.981	93.62
343.209	93.62
343.437	98.62
343.665	76.62
343.893	104.62
344.12	89.62
344.348	71.62
344.576	101.62
344.804	92.62
345.031	79.62
345.259	89.62
345.487	89.62
345.714	90.62
345.942	90.62
346.17	92.62
346.397	94.62
346.625	87.62
346.853	78.62
347.08	90.62
347.308	102.62
347.535	110.62
347.763	92.62
347.99	96.62
348.218	108.62
348.445	94.62
348.673	77.62
348.9	93.62
349.128	93.62
349.355	70.62
349.583	83.62
349.81	82.62
350.037	95.62
350.265	99.62
350.492	85.62
350.72	105.62
350.947	111.62
351.174	99.62
351.402	112.62
351.629	109.62
351.856	93.62
352.083	105.62
352.311	107.62
352.538	105.62
352.765	110.62
352.992	109.62
353.22	105.62
353.447	97.62
353.674	103.62
353.901	102.62
354.128	97.62
354.355	96.62
354.583	86.62
354.81	85.62
355.037	102.62
355.264	78.62
355.491	96.62
355.718	86.62
355.945	80.62
356.172	97.62
356.399	85.62
356.626	82.62
356.853	93.62
357.08	89.62
357.307	104.62
357.534	88.62
357.761	93.62
357.988	77.62
358.215	93.62
358.441	96.62
358.668	84.62
358.895	82.62
359.122	75.62
359.349	85.62
359.576	79.62
359.802	92.62
360.029	102.62
360.256	85.62
360.483	94.62
360.709	82.62
360.936	94.62
361.163	95.62
361.39	88.62
361.616	93.62
361.843	89.62
362.07	86.62
362.296	85.62
362.523	77.62
362.749	74.62
362.976	89.62
363.203	87.62
363.429	87.62
363.656	91.62
363.882	77.62
364.109	90.62
364.335	69.62
364.562	78.62
364.788	89.62
365.015	79.62
365.241	93.62
365.468	90.62
365.694	94.62
365.92	95.62
366.147	87.62
366.373	92.62
366.599	79.62
366.826	80.62
367.052	94.62
367.278	84.62
367.505	80.62
367.731	90.62
367.957	89.62
368.184	88.62
368.41	96.62
368.636	103.62
368.862	104.62
369.089	89.62
369.315	79.62
369.541	86.62
369.767	75.62
369.993	95.62
370.219	91.62
370.445	65.62
370.672	93.62
370.898	74.62
371.124	93.62
371.35	86.62
371.576	87.62
371.802	87.62
372.028	92.62
372.254	92.62
372.48	75.62
372.706	81.62
372.932	88.62
373.158	89.62
373.384	85.62
373.61	95.62
373.835	102.62
374.061	82.62
374.287	84.62
374.513	72.62
374.739	65.62
374.965	80.62
375.191	91.62
375.416	78.62
375.642	94.62
375.868	62.62
376.094	73.62
376.319	82.62
376.545	91.62
376.771	86.62
376.997	85.62
377.222	77.62
377.448	76.62
377.674	91.62
377.899	85.62
378.125	82.62
378.35	93.62
378.576	84.62
378.802	64.62
379.027	85.62
379.253	87.62
379.478	105.62
379.704	90.62
379.929	86.62
380.155	96.62
380.38	100.62
380.606	87.62
380.831	85.62
381.057	98.62
381.282	99.62
381.507	86.62
381.733	90.62
381.958	91.62
382.184	89.62
382.409	90.62
382.634	94.62
382.86	94.62
383.085	106.62
383.31	82.62
383.535	90.62
383.761	108.62
383.986	86.62
384.211	87.62
384.436	95.62
384.662	90.62
384.887	86.62
385.112	105.62
385.337	82.62
385.562	95.62
385.787	100.62
386.013	110.62
386.238	86.62
386.463	108.62
386.688	97.62
386.913	100.62
387.138	114.62
387.363	92.62
387.588	83.62
387.813	81.62
388.038	103.62
388.263	91.62
388.488	103.62
388.713	84.62
388.938	86.62
389.163	95.62
389.387	95.62
389.612	84.62
389.837	87.62
390.062	89.62
390.287	82.62
390.512	100.62
390.736	88.62
390.961	97.62
391.186	87.62
391.411	89.62
391.636	88.62
391.86	78.62
392.085	79.62
392.31	82.62
392.534	89.62
392.759	72.62
392.984	84.62
393.208	96.62
393.433	87.62
393.658	91.62
393.882	77.62
394.107	80.62
394.331	76.62
394.556	86.62
394.78	75.62
395.005	100.62
395.229	65.62
395.454	84.62
395.678	85.62
395.903	84.62
396.127	81.62
396.352	72.62
396.576	75.62
396.801	71.62
397.025	78.62
397.249	87.62
397.474	96.62
397.698	84.62
397.922	86.62
398.147	88.62
398.371	89.62
398.595	76.62
398.82	84.62
399.044	76.62
399.268	76.62
399.492	97.62
399.717	76.62
399.941	79.62
400.165	96.62
400.389	91.62
400.613	73.62
400.837	79.62
401.062	92.62
401.286	93.62
401.51	93.62
401.734	77.62
401.958	80.62
402.182	98.62
402.406	129.62
402.63	99.62
402.854	86.62
403.078	87.62
403.302	77.62
403.526	85.62
403.75	79.62
403.974	74.62
404.198	86.62
404.422	89.62
404.645	86.62
404.869	87.62
405.093	82.62
405.317	95.62
405.541	92.62
405.765	84.62
405.988	97.62
406.212	152.62
406.436	183.62
406.66	121.62
406.883	101.62
407.107	78.62
407.331	85.62
407.555	96.62
407.778	93.62
408.002	78.62
408.226	95.62
408.449	93.62
408.673	84.62
408.896	96.62
409.12	97.62
409.344	87.62
409.567	86.62
409.791	97.62
410.014	79.62
410.238	82.62
410.461	88.62
410.685	108.62
410.908	104.62
411.132	102.62
411.355	93.62
411.578	91.62
411.802	92.62
412.025	87.62
412.249	86.62
412.472	72.62
412.695	84.62
412.919	84.62
413.142	91.62
413.365	94.62
413.589	79.62
413.812	74.62
414.035	90.62
414.258	80.62
414.482	81.62
414.705	84.62
414.928	95.62
415.151	89.62
415.374	74.62
415.597	76.62
415.821	86.62
416.044	69.62
416.267	80.62
416.49	93.62
416.713	88.62
416.936	92.62
417.159	95.62
417.382	85.62
417.605	81.62
417.828	101.62
418.051	94.62
418.274	86.62
418.497	89.62
418.72	94.62
418.943	91.62
419.166	90.62
419.389	87.62
419.611	74.62
419.834	79.62
420.057	84.62
420.28	84.62
420.503	87.62
420.726	75.62
420.948	89.62
421.171	86.62
421.394	84.62
421.617	80.62
421.839	77.62
422.062	87.62
422.285	95.62
422.507	91.62
422.73	93.62
422.953	80.62
423.175	86.62
423.398	74.62
423.621	70.62
423.843	84.62
424.066	68.62
424.288	78.62
424.511	78.62
424.733	80.62
424.956	85.62
425.178	93.62
425.401	96.62
425.623	89.62
425.846	68.62
426.068	86.62
426.291	87.62
426.513	88.62
426.735	91.62
426.958	79.62
427.18	85.62
427.402	120.62
427.625	140.62
427.847	112.62
428.069	99.62
428.292	84.62
428.514	78.62
428.736	93.62
428.958	84.62
429.181	85.62
429.403	72.62
429.625	92.62
429.847	92.62
430.069	87.62
430.292	80.62
430.514	76.62
430.736	91.62
430.958	92.62
431.18	88.62
431.402	88.62
431.624	78.62
431.846	75.62
432.068	97.62
432.29	84.62
432.512	78.62
432.734	80.62
432.956	71.62
433.178	92.62
433.4	95.62
433.622	85.62
433.844	74.62
434.066	76.62
434.287	93.62
434.509	92.62
434.731	88.62
434.953	82.62
435.175	89.62
435.397	94.62
435.618	83.62
435.84	85.62
436.062	103.62
436.284	103.62
436.505	83.62
436.727	84.62
436.949	84.62
437.17	59.62
437.392	70.62
437.614	90.62
437.835	103.62
438.057	86.62
438.278	90.62
438.5	96.62
438.721	108.62
438.943	85.62
439.165	80.62
439.386	84.62
439.608	78.62
439.829	93.62
440.05	95.62
440.272	126.62
440.493	89.62
440.715	81.62
440.936	80.62
441.158	92.62
441.379	86.62
441.6	93.62
441.822	88.62
442.043	90.62
442.264	94.62
442.486	90.62
442.707	72.62
442.928	87.62
443.149	128.62
443.371	110.62
443.592	100.62
443.813	95.62
444.034	96.62
444.255	78.62
444.476	80.62
444.698	69.62
444.919	84.62
445.14	119.62
445.361	124.62
445.582	91.62
445.803	105.62
446.024	116.62
446.245	101.62
446.466	102.62
446.687	72.62
446.908	83.62
447.129	79.62
447.35	72.62
447.571	96.62
447.792	90.62
448.013	97.62
448.234	98.62
448.455	96.62
448.675	103.62
448.896	93.62
449.117	101.62
449.338	90.62
449.559	100.62
449.779	116.62
450	95.62
450.221	78.62
450.442	73.62
450.662	84.62
450.883	84.62
451.104	93.62
451.324	100.62
451.545	90.62
451.766	95.62
451.986	85.62
452.207	90.62
452.428	78.62
452.648	94.62
452.869	100.62
453.089	107.62
453.31	101.62
453.53	88.62
453.751	90.62
453.971	110.62
454.192	102.62
454.412	86.62
454.633	78.62
454.853	82.62
455.073	90.62
455.294	83.62
455.514	91.62
455.734	86.62
455.955	69.62
456.175	80.62
456.395	78.62
456.616	82.62
456.836	76.62
457.056	77.62
457.276	78.62
457.497	71.62
457.717	91.62
457.937	87.62
458.157	87.62
458.377	76.62
458.598	95.62
458.818	130.62
459.038	128.62
459.258	102.62
459.478	92.62
459.698	103.62
459.918	88.62
460.138	81.62
460.358	81.62
460.578	81.62
460.798	73.62
461.018	84.62
461.238	79.62
461.458	86.62
461.678	86.62
461.898	80.62
462.118	84.62
462.338	79.62
462.558	80.62
462.777	89.62
462.997	74.62
463.217	69.62
463.437	76.62
463.657	86.62
463.876	88.62
464.096	84.62
464.316	84.62
464.536	87.62
464.755	90.62
464.975	103.62
465.195	151.62
465.414	130.62
465.634	95.62
465.854	77.62
466.073	84.62
466.293	84.62
466.512	82.62
466.732	76.62
466.951	82.62
467.171	97.62
467.391	89.62
467.61	97.62
467.829	72.62
468.049	76.62
468.268	88.62
468.488	83.62
468.707	84.62
468.927	74.62
469.146	71.62
469.365	79.62
469.585	85.62
469.804	82.62
470.023	79.62
470.243	75.62
470.462	98.62
470.681	99.62
470.901	85.62
471.12	91.62
471.339	93.62
471.558	74.62
471.777	84.62
471.997	78.62
472.216	101.62
472.435	120.62
472.654	106.62
472.873	81.62
473.092	84.62
473.311	83.62
473.53	80.62
473.749	94.62
473.968	93.62
474.187	98.62
474.406	88.62
474.625	84.62
474.844	88.62
475.063	77.62
475.282	90.62
475.501	80.62
475.72	77.62
475.939	87.62
476.158	78.62
476.377	92.62
476.596	73.62
476.814	81.62
477.033	86.62
477.252	95.62
477.471	84.62
477.69	82.62
477.908	79.62
478.127	86.62
478.346	89.62
478.564	85.62
478.783	89.62
479.002	90.62
479.22	90.62
479.439	93.62
479.658	98.62
479.876	81.62
480.095	92.62
480.313	80.62
480.532	85.62
480.751	90.62
480.969	110.62
481.188	174.62
481.406	123.62
481.624	80.62
481.843	80.62
482.061	83.62
482.28	82.62
482.498	82.62
482.717	94.62
482.935	79.62
483.153	86.62
483.372	70.62
483.59	88.62
483.808	88.62
484.027	73.62
484.245	93.62
484.463	89.62
484.681	91.62
484.9	84.62
485.118	81.62
485.336	90.62
485.554	98.62
485.772	106.62
485.99	108.62
486.209	85.62
486.427	100.62
486.645	105.62
486.863	104.62
487.081	103.62
487.299	88.62
487.517	75.62
487.735	82.62
487.953	85.62
488.171	87.62
488.389	87.62
488.607	93.62
488.825	68.62
489.043	76.62
489.261	93.62
489.479	81.62
489.696	85.62
489.914	82.62
490.132	79.62
490.35	94.62
490.568	89.62
490.786	97.62
491.003	101.62
491.221	95.62
491.439	92.62
491.657	92.62
491.874	91.62
492.092	80.62
492.31	83.62
492.527	64.62
492.745	84.62
492.963	84.62
493.18	98.62
493.398	86.62
493.615	94.62
493.833	104.62
494.05	92.62
494.268	87.62
494.485	83.62
494.703	89.62
494.92	88.62
495.138	89.62
495.355	91.62
495.573	92.62
495.79	82.62
496.008	98.62
496.225	77.62
496.442	96.62
496.66	93.62
496.877	73.62
497.094	99.62
497.312	88.62
497.529	97.62
497.746	86.62
497.963	81.62
498.181	91.62
498.398	87.62
498.615	95.62
498.832	86.62
499.049	85.62
499.267	86.62
499.484	100.62
499.701	92.62
499.918	82.62
500.135	72.62
500.352	77.62
500.569	103.62
500.786	94.62
501.003	91.62
501.22	71.62
501.437	82.62
501.654	86.62
501.871	101.62
502.088	94.62
502.305	85.62
502.522	76.62
502.739	83.62
502.956	91.62
503.172	80.62
503.389	89.62
503.606	97.62
503.823	88.62
504.04	97.62
504.256	92.62
504.473	88.62
504.69	72.62
504.907	83.62
505.123	75.62
505.34	96.62
505.557	73.62
505.773	74.62
505.99	75.62
506.207	76.62
506.423	76.62
506.64	86.62
506.856	77.62
507.073	77.62
507.289	89.62
507.506	102.62
507.722	88.62
507.939	79.62
508.155	80.62
508.372	80.62
508.588	91.62
508.805	84.62
509.021	88.62
509.238	83.62
509.454	90.62
509.67	101.62
509.887	103.62
510.103	118.62
510.319	196.62
510.536	693.62
510.752	2143.62
510.968	597.62
511.184	150.62
511.401	101.62
511.617	88.62
511.833	86.62
512.049	84.62
512.265	88.62
512.481	87.62
512.698	95.62
512.914	102.62
513.13	72.62
513.346	80.62
513.562	74.62
513.778	78.62
513.994	102.62
514.21	102.62
514.426	97.62
514.642	112.62
514.858	101.62
515.074	144.62
515.29	395.62
515.506	1200.62
515.721	439.62
515.937	146.62
516.153	103.62
516.369	92.62
516.585	81.62
516.801	94.62
517.016	89.62
517.232	86.62
517.448	88.62
