Data from Circ_1994_H10_HRD10591_00078.txt Node
Date: Wed Jan 03 11:40:46 EST 2024
User: Yrep
Spectrometer: HR+D1059
Trigger mode: 1
Integration Time (sec): 1.000000E-1
Scans to average: 1
Electric dark correction enabled: true
Nonlinearity correction enabled: false
Boxcar width: 0
XAxis mode: Wavelengths
Number of Pixels in Spectrum: 2048
>>>>>Begin Spectral Data<<<<<
223.165	-27
223.4	-27
223.635	-27
223.869	-24
224.104	-29
224.338	-9
224.573	-11
224.808	-8
225.042	-11
225.277	-10
225.511	-7
225.746	6
225.98	16
226.215	17
226.449	12
226.683	19
226.918	35
227.152	31
227.387	35
227.621	39
227.856	39
228.09	69
228.324	51
228.559	58
228.793	55
229.027	80
229.262	63
229.496	75
229.73	82
229.964	77
230.199	83
230.433	76
230.667	80
230.901	71
231.136	98
231.37	65
231.604	78
231.838	71
232.072	78
232.306	96
232.541	91
232.775	78
233.009	80
233.243	90
233.477	76
233.711	78
233.945	84
234.179	80
234.413	70
234.647	98
234.881	76
235.115	78
235.349	88
235.583	81
235.817	91
236.051	73
236.285	76
236.519	73
236.753	81
236.987	91
237.221	68
237.455	72
237.689	92
237.922	77
238.156	91
238.39	85
238.624	70
238.858	81
239.091	75
239.325	86
239.559	81
239.793	75
240.027	83
240.26	67
240.494	84
240.728	69
240.961	65
241.195	64
241.429	63
241.662	69
241.896	81
242.13	75
242.363	78
242.597	87
242.83	86
243.064	81
243.298	73
243.531	68
243.765	78
243.998	79
244.232	89
244.465	77
244.699	84
244.932	85
245.166	78
245.399	81
245.633	64
245.866	73
246.099	69
246.333	78
246.566	61
246.8	77
247.033	76
247.266	77
247.5	85
247.733	83
247.966	84
248.2	84
248.433	73
248.666	75
248.899	58
249.133	85
249.366	91
249.599	93
249.832	76
250.066	75
250.299	84
250.532	83
250.765	97
250.998	75
251.231	77
251.465	82
251.698	71
251.931	85
252.164	85
252.397	98
252.63	85
252.863	68
253.096	84
253.329	87
253.562	89
253.795	73
254.028	77
254.261	85
254.494	78
254.727	78
254.96	75
255.193	85
255.426	74
255.659	73
255.892	86
256.124	84
256.357	81
256.59	86
256.823	88
257.056	90
257.289	78
257.521	90
257.754	79
257.987	78
258.22	89
258.452	85
258.685	80
258.918	90
259.151	97
259.383	79
259.616	95
259.849	87
260.081	82
260.314	81
260.547	88
260.779	81
261.012	82
261.244	92
261.477	88
261.71	84
261.942	101
262.175	102
262.407	81
262.64	79
262.872	93
263.105	82
263.337	83
263.57	77
263.802	97
264.035	100
264.267	81
264.499	90
264.732	81
264.964	81
265.197	98
265.429	90
265.661	78
265.894	81
266.126	82
266.358	79
266.591	85
266.823	91
267.055	73
267.287	82
267.52	78
267.752	86
267.984	84
268.216	87
268.448	91
268.681	77
268.913	86
269.145	86
269.377	86
269.609	95
269.841	77
270.073	88
270.306	88
270.538	84
270.77	82
271.002	75
271.234	68
271.466	82
271.698	83
271.93	89
272.162	74
272.394	85
272.626	78
272.858	75
273.09	70
273.322	84
273.553	77
273.785	84
274.017	78
274.249	82
274.481	92
274.713	84
274.945	73
275.176	82
275.408	77
275.64	77
275.872	77
276.104	92
276.335	94
276.567	98
276.799	102
277.031	91
277.262	89
277.494	94
277.726	98
277.957	97
278.189	81
278.421	81
278.652	86
278.884	89
279.115	81
279.347	70
279.579	74
279.81	82
280.042	87
280.273	91
280.505	91
280.736	86
280.968	80
281.199	82
281.431	74
281.662	100
281.894	88
282.125	97
282.356	114
282.588	120
282.819	111
283.051	89
283.282	92
283.513	83
283.745	97
283.976	75
284.207	103
284.439	96
284.67	76
284.901	96
285.132	96
285.364	85
285.595	102
285.826	86
286.057	84
286.288	86
286.52	90
286.751	75
286.982	90
287.213	83
287.444	73
287.675	70
287.906	89
288.138	63
288.369	92
288.6	78
288.831	103
289.062	88
289.293	86
289.524	79
289.755	79
289.986	85
290.217	80
290.448	81
290.679	99
290.91	85
291.141	94
291.371	95
291.602	85
291.833	91
292.064	97
292.295	78
292.526	85
292.757	88
292.987	73
293.218	90
293.449	93
293.68	64
293.91	87
294.141	77
294.372	81
294.603	89
294.833	90
295.064	107
295.295	96
295.525	92
295.756	107
295.987	106
296.217	116
296.448	126
296.679	86
296.909	85
297.14	90
297.37	96
297.601	101
297.831	81
298.062	109
298.292	90
298.523	81
298.753	97
298.984	97
299.214	82
299.445	78
299.675	95
299.905	93
300.136	85
300.366	102
300.597	86
300.827	88
301.057	104
301.288	95
301.518	95
301.748	102
301.979	106
302.209	79
302.439	94
302.669	89
302.9	91
303.13	71
303.36	100
303.59	102
303.82	97
304.051	97
304.281	89
304.511	85
304.741	103
304.971	83
305.201	81
305.431	93
305.661	83
305.891	91
306.121	101
306.352	95
306.582	103
306.812	93
307.042	82
307.272	92
307.502	102
307.731	89
307.961	89
308.191	89
308.421	91
308.651	80
308.881	85
309.111	80
309.341	91
309.571	101
309.8	79
310.03	79
310.26	86
310.49	91
310.72	105
310.949	110
311.179	91
311.409	93
311.639	99
311.868	95
312.098	84
312.328	97
312.557	87
312.787	95
313.017	107
313.246	111
313.476	97
313.706	92
313.935	84
314.165	102
314.394	97
314.624	94
314.853	78
315.083	94
315.312	84
315.542	97
315.771	86
316.001	90
316.23	81
316.46	87
316.689	83
316.919	86
317.148	100
317.377	107
317.607	96
317.836	86
318.065	79
318.295	89
318.524	89
318.753	78
318.983	98
319.212	101
319.441	101
319.67	99
319.9	87
320.129	99
320.358	82
320.587	98
320.816	103
321.046	106
321.275	101
321.504	95
321.733	92
321.962	86
322.191	99
322.42	106
322.649	114
322.878	106
323.108	109
323.337	106
323.566	130
323.795	132
324.024	194
324.253	356
324.482	691
324.71	1413
324.939	1810
325.168	703
325.397	240
325.626	138
325.855	116
326.084	130
326.313	132
326.542	139
326.77	206
326.999	383
327.228	792
327.457	1409
327.686	1108
327.914	318
328.143	203
328.372	169
328.6	137
328.829	119
329.058	120
329.287	128
329.515	118
329.744	110
329.972	116
330.201	166
330.43	194
330.658	157
330.887	131
331.115	108
331.344	103
331.572	97
331.801	94
332.03	93
332.258	106
332.486	97
332.715	92
332.943	97
333.172	99
333.4	106
333.629	106
333.857	109
334.085	127
334.314	156
334.542	231
334.771	209
334.999	101
335.227	95
335.455	95
335.684	89
335.912	97
336.14	90
336.369	86
336.597	94
336.825	90
337.053	85
337.281	83
337.51	85
337.738	70
337.966	115
338.194	103
338.422	83
338.65	91
338.878	91
339.106	82
339.334	98
339.562	94
339.79	89
340.018	101
340.246	95
340.474	97
340.702	84
340.93	96
341.158	98
341.386	93
341.614	95
341.842	106
342.07	82
342.298	87
342.526	94
342.754	81
342.981	87
343.209	97
343.437	115
343.665	84
343.893	94
344.12	93
344.348	100
344.576	90
344.804	99
345.031	96
345.259	86
345.487	100
345.714	97
345.942	83
346.17	98
346.397	90
346.625	92
346.853	98
347.08	100
347.308	103
347.535	95
347.763	100
347.99	103
348.218	92
348.445	100
348.673	98
348.9	94
349.128	96
349.355	103
349.583	82
349.81	106
350.037	91
350.265	102
350.492	87
350.72	92
350.947	98
351.174	123
351.402	121
351.629	93
351.856	100
352.083	107
352.311	99
352.538	95
352.765	109
352.992	122
353.22	114
353.447	102
353.674	96
353.901	73
354.128	93
354.355	95
354.583	91
354.81	92
355.037	106
355.264	99
355.491	97
355.718	89
355.945	96
356.172	83
356.399	94
356.626	83
356.853	86
357.08	83
357.307	90
357.534	90
357.761	97
357.988	100
358.215	89
358.441	88
358.668	93
358.895	97
359.122	77
359.349	79
359.576	87
359.802	99
360.029	104
360.256	114
360.483	84
360.709	93
360.936	94
361.163	89
361.39	90
361.616	84
361.843	79
362.07	79
362.296	89
362.523	89
362.749	89
362.976	89
363.203	89
363.429	93
363.656	93
363.882	106
364.109	101
364.335	87
364.562	87
364.788	92
365.015	95
365.241	95
365.468	100
365.694	101
365.92	106
366.147	82
366.373	79
366.599	86
366.826	93
367.052	97
367.278	89
367.505	80
367.731	95
367.957	95
368.184	85
368.41	102
368.636	104
368.862	105
369.089	112
369.315	103
369.541	81
369.767	95
369.993	96
370.219	73
370.445	88
370.672	73
370.898	92
371.124	92
371.35	78
371.576	87
371.802	82
372.028	84
372.254	90
372.48	82
372.706	93
372.932	87
373.158	70
373.384	95
373.61	94
373.835	90
374.061	89
374.287	101
374.513	93
374.739	88
374.965	99
375.191	100
375.416	106
375.642	91
375.868	86
376.094	85
376.319	83
376.545	94
376.771	102
376.997	84
377.222	91
377.448	89
377.674	83
377.899	77
378.125	100
378.35	97
378.576	88
378.802	82
379.027	87
379.253	102
379.478	87
379.704	87
379.929	79
380.155	91
380.38	95
380.606	86
380.831	98
381.057	106
381.282	104
381.507	92
381.733	90
381.958	106
382.184	110
382.409	110
382.634	96
382.86	95
383.085	103
383.31	107
383.535	109
383.761	101
383.986	90
384.211	81
384.436	82
384.662	98
384.887	100
385.112	98
385.337	89
385.562	100
385.787	105
386.013	85
386.238	114
386.463	112
386.688	103
386.913	108
387.138	84
387.363	97
387.588	102
387.813	99
388.038	97
388.263	94
388.488	102
388.713	99
388.938	102
389.163	86
389.387	94
389.612	89
389.837	87
390.062	93
390.287	92
390.512	88
390.736	79
390.961	94
391.186	114
391.411	90
391.636	87
391.86	87
392.085	80
392.31	100
392.534	95
392.759	87
392.984	92
393.208	85
393.433	85
393.658	94
393.882	96
394.107	99
394.331	78
394.556	98
394.78	83
395.005	101
395.229	101
395.454	102
395.678	69
395.903	94
396.127	102
396.352	87
396.576	87
396.801	88
397.025	88
397.249	98
397.474	86
397.698	68
397.922	96
398.147	81
398.371	93
398.595	86
398.82	93
399.044	86
399.268	89
399.492	87
399.717	92
399.941	102
400.165	96
400.389	92
400.613	90
400.837	85
401.062	93
401.286	95
401.51	100
401.734	83
401.958	93
402.182	118
402.406	149
402.63	101
402.854	98
403.078	86
403.302	99
403.526	101
403.75	84
403.974	87
404.198	89
404.422	91
404.645	100
404.869	97
405.093	97
405.317	100
405.541	101
405.765	100
405.988	110
406.212	154
406.436	183
406.66	129
406.883	105
407.107	93
407.331	97
407.555	92
407.778	97
408.002	97
408.226	91
408.449	97
408.673	98
408.896	107
409.12	113
409.344	81
409.567	94
409.791	89
410.014	93
410.238	81
410.461	99
410.685	102
410.908	100
411.132	94
411.355	95
411.578	90
411.802	87
412.025	95
412.249	87
412.472	101
412.695	80
412.919	85
413.142	107
413.365	83
413.589	85
413.812	76
414.035	90
414.258	91
414.482	78
414.705	89
414.928	94
415.151	90
415.374	83
415.597	82
415.821	86
416.044	84
416.267	97
416.49	93
416.713	80
416.936	90
417.159	96
417.382	89
417.605	83
417.828	101
418.051	88
418.274	87
418.497	90
418.72	89
418.943	97
419.166	84
419.389	109
419.611	93
419.834	91
420.057	86
420.28	84
420.503	87
420.726	89
420.948	79
421.171	96
421.394	102
421.617	82
421.839	90
422.062	86
422.285	96
422.507	97
422.73	104
422.953	98
423.175	85
423.398	96
423.621	98
423.843	87
424.066	84
424.288	78
424.511	90
424.733	90
424.956	99
425.178	114
425.401	110
425.623	93
425.846	98
426.068	81
426.291	93
426.513	98
426.735	77
426.958	100
427.18	94
427.402	123
427.625	153
427.847	123
428.069	134
428.292	93
428.514	81
428.736	87
428.958	83
429.181	88
429.403	77
429.625	87
429.847	95
430.069	102
430.292	85
430.514	82
430.736	85
430.958	81
431.18	74
431.402	80
431.624	85
431.846	94
432.068	88
432.29	94
432.512	76
432.734	89
432.956	92
433.178	96
433.4	92
433.622	99
433.844	87
434.066	83
434.287	97
434.509	86
434.731	82
434.953	82
435.175	90
435.397	88
435.618	81
435.84	86
436.062	116
436.284	106
436.505	105
436.727	100
436.949	91
437.17	93
437.392	82
437.614	90
437.835	112
438.057	113
438.278	113
438.5	107
438.721	108
438.943	103
439.165	87
439.386	85
439.608	101
439.829	95
440.05	127
440.272	125
440.493	92
440.715	96
440.936	86
441.158	90
441.379	90
441.6	82
441.822	104
442.043	98
442.264	91
442.486	106
442.707	90
442.928	100
443.149	115
443.371	108
443.592	101
443.813	91
444.034	114
444.255	99
444.476	83
444.698	91
444.919	97
445.14	130
445.361	111
445.582	106
445.803	130
446.024	132
446.245	111
446.466	108
446.687	91
446.908	91
447.129	85
447.35	98
447.571	100
447.792	98
448.013	94
448.234	106
448.455	99
448.675	103
448.896	112
449.117	97
449.338	84
449.559	114
449.779	105
450	108
450.221	81
450.442	73
450.662	79
450.883	95
451.104	109
451.324	107
451.545	103
451.766	84
451.986	96
452.207	99
452.428	83
452.648	84
452.869	101
453.089	118
453.31	116
453.53	90
453.751	93
453.971	99
454.192	94
454.412	76
454.633	87
454.853	86
455.073	80
455.294	90
455.514	83
455.734	83
455.955	78
456.175	87
456.395	71
456.616	94
456.836	82
457.056	97
457.276	77
457.497	81
457.717	73
457.937	80
458.157	84
458.377	81
458.598	97
458.818	133
459.038	143
459.258	107
459.478	87
459.698	92
459.918	89
460.138	84
460.358	80
460.578	89
460.798	92
461.018	87
461.238	89
461.458	82
461.678	94
461.898	89
462.118	83
462.338	78
462.558	83
462.777	87
462.997	94
463.217	84
463.437	93
463.657	92
463.876	94
464.096	85
464.316	80
464.536	97
464.755	96
464.975	103
465.195	151
465.414	147
465.634	88
465.854	81
466.073	79
466.293	85
466.512	79
466.732	97
466.951	77
467.171	95
467.391	90
467.61	110
467.829	95
468.049	116
468.268	126
468.488	77
468.707	77
468.927	85
469.146	94
469.365	89
469.585	78
469.804	97
470.023	87
470.243	88
470.462	93
470.681	107
470.901	90
471.12	85
471.339	88
471.558	79
471.777	96
471.997	113
472.216	181
472.435	278
472.654	120
472.873	107
473.092	83
473.311	93
473.53	91
473.749	62
473.968	103
474.187	101
474.406	80
474.625	89
474.844	88
475.063	75
475.282	84
475.501	82
475.72	82
475.939	86
476.158	87
476.377	94
476.596	88
476.814	93
477.033	96
477.252	90
477.471	103
477.69	92
477.908	78
478.127	84
478.346	113
478.564	90
478.783	96
479.002	113
479.22	85
479.439	99
479.658	110
479.876	89
480.095	98
480.313	101
480.532	106
480.751	104
480.969	166
481.188	452
481.406	313
481.624	132
481.843	92
482.061	88
482.28	99
482.498	73
482.717	88
482.935	78
483.153	80
483.372	87
483.59	91
483.808	76
484.027	79
484.245	99
484.463	96
484.681	92
484.9	86
485.118	82
485.336	86
485.554	96
485.772	113
485.99	94
486.209	103
486.427	106
486.645	96
486.863	109
487.081	75
487.299	98
487.517	100
487.735	97
487.953	99
488.171	105
488.389	94
488.607	94
488.825	97
489.043	92
489.261	100
489.479	81
489.696	89
489.914	98
490.132	92
490.35	100
490.568	90
490.786	91
491.003	94
491.221	89
491.439	89
491.657	93
491.874	89
492.092	83
492.31	80
492.527	94
492.745	88
492.963	91
493.18	98
493.398	93
493.615	100
493.833	92
494.05	83
494.268	89
494.485	94
494.703	86
494.92	74
495.138	90
495.355	92
495.573	94
495.79	81
496.008	95
496.225	90
496.442	70
496.66	90
496.877	91
497.094	91
497.312	89
497.529	92
497.746	91
497.963	98
498.181	90
498.398	89
498.615	96
498.832	107
499.049	86
499.267	100
499.484	88
499.701	85
499.918	96
500.135	87
500.352	88
500.569	79
500.786	80
501.003	90
501.22	83
501.437	93
501.654	100
501.871	111
502.088	93
502.305	73
502.522	91
502.739	105
502.956	84
503.172	86
503.389	101
503.606	101
503.823	101
504.04	81
504.256	98
504.473	82
504.69	88
504.907	88
505.123	82
505.34	89
505.557	87
505.773	90
505.99	99
506.207	82
506.423	94
506.64	85
506.856	90
507.073	92
507.289	98
507.506	94
507.722	105
507.939	114
508.155	90
508.372	89
508.588	90
508.805	107
509.021	92
509.238	103
509.454	103
509.67	106
509.887	100
510.103	142
510.319	193
510.536	678
510.752	2131
510.968	597
511.184	151
511.401	106
511.617	108
511.833	98
512.049	91
512.265	98
512.481	105
512.698	90
512.914	90
513.13	99
513.346	93
513.562	85
513.778	97
513.994	90
514.21	100
514.426	121
514.642	130
514.858	113
515.074	142
515.29	396
515.506	1235
515.721	457
515.937	142
516.153	109
516.369	98
516.585	97
516.801	92
517.016	102
517.232	89
517.448	101
517.664	93
517.879	99
518.095	95
518.311	91
518.527	103
518.742	86
518.958	99
519.173	102
519.389	92
519.605	96
519.82	89
520.036	92
520.251	107
520.467	99
520.682	111
520.898	100
521.113	118
521.329	134
521.544	176
521.76	468
521.975	2034
522.19	1203
522.406	256
522.621	124
522.836	107
523.052	107
523.267	89
523.482	85
523.698	102
523.913	105
524.128	108
524.343	99
524.559	106
524.774	88
524.989	102
525.204	106
525.419	86
525.634	91
525.849	93
526.064	96
526.28	88
526.495	85
526.71	72
526.925	82
527.14	85
527.355	90
527.57	87
527.785	98
527.999	84
528.214	106
528.429	92
528.644	79
528.859	99
529.074	94
529.289	117
529.503	145
529.718	98
529.933	86
530.148	93
530.363	86
530.577	73
530.792	93
531.007	99
531.221	91
531.436	79
531.651	93
531.865	80
532.08	99
532.295	91
532.509	87
532.724	96
532.938	100
533.153	100
533.367	97
533.582	91
533.796	86
534.011	89
534.225	88
534.44	97
534.654	94
534.868	89
535.083	93
535.297	96
535.511	107
535.726	97
535.94	94
536.154	95
536.369	86
536.583	87
536.797	86
537.011	92
537.225	81
537.44	93
537.654	90
537.868	99
538.082	97
538.296	87
538.51	99
538.724	87
538.938	87
539.153	98
539.367	106
539.581	93
539.795	105
540.009	82
540.222	75
540.436	90
540.65	95
540.864	98
541.078	90
541.292	75
541.506	85
541.72	83
541.934	93
542.147	92
542.361	89
542.575	75
542.789	88
543.002	82
543.216	94
543.43	97
543.644	87
543.857	95
544.071	74
544.285	97
544.498	103
544.712	102
544.925	86
545.139	85
545.352	87
545.566	84
545.779	83
545.993	105
546.206	86
546.42	95
546.633	89
546.847	101
547.06	97
547.274	93
547.487	94
547.7	97
547.914	84
548.127	87
548.34	82
548.554	97
548.767	82
548.98	87
549.193	85
549.407	84
549.62	80
549.833	90
550.046	75
550.259	87
550.473	92
550.686	92
550.899	92
551.112	94
551.325	90
551.538	94
551.751	90
551.964	88
552.177	94
552.39	98
552.603	105
552.816	85
553.029	93
553.242	86
553.455	97
553.667	91
553.88	97
554.093	89
554.306	90
554.519	86
554.732	90
554.944	91
555.157	85
555.37	82
555.583	91
555.795	98
556.008	89
556.221	87
556.433	89
556.646	93
556.859	95
557.071	101
557.284	82
557.496	102
557.709	89
557.921	104
558.134	83
558.346	79
558.559	79
558.771	93
558.984	75
559.196	85
559.409	97
559.621	90
559.833	89
560.046	74
560.258	84
560.47	97
560.683	86
560.895	82
561.107	105
561.32	78
561.532	78
561.744	101
561.956	105
562.168	88
562.381	94
562.593	106
562.805	89
563.017	92
563.229	98
563.441	86
563.653	92
563.865	93
564.077	96
564.289	93
564.501	91
564.713	81
564.925	87
565.137	100
565.349	114
565.561	89
565.773	87
565.985	82
566.197	63
566.408	89
566.62	90
566.832	92
567.044	98
567.255	91
567.467	85
567.679	94
567.891	89
568.102	87
568.314	100
568.526	95
568.737	87
568.949	101
569.161	86
569.372	87
569.584	82
569.795	85
570.007	113
570.218	220
570.43	121
570.641	103
570.853	105
571.064	109
571.276	87
571.487	91
571.698	89
571.91	96
572.121	92
572.333	84
572.544	98
572.755	80
572.966	92
573.178	90
573.389	100
573.6	90
573.811	90
574.023	80
574.234	78
574.445	89
574.656	77
574.867	97
575.078	82
575.289	91
575.501	89
575.712	97
575.923	81
576.134	85
576.345	83
576.556	91
576.767	105
576.978	85
577.188	90
577.399	91
577.61	94
577.821	99
578.032	119
578.243	237
578.454	649
578.665	187
578.875	87
579.086	87
579.297	84
579.508	76
579.718	96
579.929	88
580.14	98
580.35	91
580.561	84
580.772	70
580.982	81
581.193	100
581.403	94
581.614	89
581.825	89
582.035	83
582.246	96
582.456	98
582.667	93
582.877	83
583.087	79
583.298	87
583.508	98
583.719	77
583.929	99
584.139	85
584.35	87
584.56	89
