Data from Circ_1994_H10_HRD10591_00005.txt Node
Date: Wed Jan 03 11:40:31 EST 2024
User: Yrep
Spectrometer: HR+D1059
Trigger mode: 1
Integration Time (sec): 1.000000E-1
Scans to average: 1
Electric dark correction enabled: true
Nonlinearity correction enabled: false
Boxcar width: 0
XAxis mode: Wavelengths
Number of Pixels in Spectrum: 2048
>>>>>Begin Spectral Data<<<<<
223.165	-11.19
223.4	-11.19
223.635	-11.19
223.869	-23.19
224.104	-29.19
224.338	-14.19
224.573	-13.19
224.808	-14.19
225.042	-17.19
225.277	-10.19
225.511	10.81
225.746	13.81
225.98	15.81
226.215	6.81
226.449	19.81
226.683	8.81
226.918	22.81
227.152	33.81
227.387	31.81
227.621	48.81
227.856	57.81
228.09	47.81
228.324	55.81
228.559	60.81
228.793	69.81
229.027	60.81
229.262	58.81
229.496	55.81
229.73	87.81
229.964	82.81
230.199	68.81
230.433	85.81
230.667	73.81
230.901	82.81
231.136	81.81
231.37	79.81
231.604	81.81
231.838	79.81
232.072	91.81
232.306	84.81
232.541	78.81
232.775	81.81
233.009	93.81
233.243	85.81
233.477	54.81
233.711	70.81
233.945	82.81
234.179	101.81
234.413	76.81
234.647	83.81
234.881	80.81
235.115	73.81
235.349	79.81
235.583	85.81
235.817	66.81
236.051	75.81
236.285	63.81
236.519	68.81
236.753	88.81
236.987	65.81
237.221	77.81
237.455	83.81
237.689	79.81
237.922	70.81
238.156	79.81
238.39	72.81
238.624	73.81
238.858	80.81
239.091	90.81
239.325	75.81
239.559	85.81
239.793	77.81
240.027	63.81
240.26	85.81
240.494	77.81
240.728	79.81
240.961	68.81
241.195	83.81
241.429	79.81
241.662	66.81
241.896	86.81
242.13	78.81
242.363	68.81
242.597	79.81
242.83	63.81
243.064	83.81
243.298	71.81
243.531	65.81
243.765	81.81
243.998	66.81
244.232	77.81
244.465	85.81
244.699	68.81
244.932	82.81
245.166	77.81
245.399	80.81
245.633	75.81
245.866	86.81
246.099	87.81
246.333	87.81
246.566	85.81
246.8	76.81
247.033	81.81
247.266	91.81
247.5	83.81
247.733	84.81
247.966	82.81
248.2	77.81
248.433	79.81
248.666	80.81
248.899	96.81
249.133	79.81
249.366	77.81
249.599	100.81
249.832	74.81
250.066	72.81
250.299	82.81
250.532	65.81
250.765	78.81
250.998	80.81
251.231	81.81
251.465	85.81
251.698	71.81
251.931	71.81
252.164	77.81
252.397	83.81
252.63	81.81
252.863	87.81
253.096	77.81
253.329	90.81
253.562	76.81
253.795	78.81
254.028	82.81
254.261	90.81
254.494	81.81
254.727	92.81
254.96	77.81
255.193	57.81
255.426	73.81
255.659	90.81
255.892	89.81
256.124	83.81
256.357	76.81
256.59	75.81
256.823	71.81
257.056	84.81
257.289	75.81
257.521	73.81
257.754	87.81
257.987	81.81
258.22	83.81
258.452	78.81
258.685	57.81
258.918	73.81
259.151	66.81
259.383	80.81
259.616	65.81
259.849	68.81
260.081	80.81
260.314	76.81
260.547	85.81
260.779	88.81
261.012	92.81
261.244	88.81
261.477	81.81
261.71	87.81
261.942	119.81
262.175	113.81
262.407	86.81
262.64	85.81
262.872	77.81
263.105	95.81
263.337	89.81
263.57	79.81
263.802	79.81
264.035	83.81
264.267	73.81
264.499	86.81
264.732	83.81
264.964	71.81
265.197	85.81
265.429	81.81
265.661	73.81
265.894	87.81
266.126	79.81
266.358	76.81
266.591	77.81
266.823	89.81
267.055	79.81
267.287	85.81
267.52	69.81
267.752	76.81
267.984	85.81
268.216	91.81
268.448	81.81
268.681	90.81
268.913	89.81
269.145	77.81
269.377	76.81
269.609	74.81
269.841	82.81
270.073	86.81
270.306	101.81
270.538	87.81
270.77	89.81
271.002	85.81
271.234	81.81
271.466	76.81
271.698	96.81
271.93	86.81
272.162	69.81
272.394	91.81
272.626	84.81
272.858	76.81
273.09	81.81
273.322	86.81
273.553	77.81
273.785	89.81
274.017	77.81
274.249	79.81
274.481	81.81
274.713	94.81
274.945	102.81
275.176	101.81
275.408	77.81
275.64	92.81
275.872	79.81
276.104	91.81
276.335	79.81
276.567	110.81
276.799	90.81
277.031	97.81
277.262	77.81
277.494	79.81
277.726	82.81
277.957	88.81
278.189	83.81
278.421	75.81
278.652	77.81
278.884	83.81
279.115	83.81
279.347	95.81
279.579	87.81
279.81	100.81
280.042	91.81
280.273	89.81
280.505	73.81
280.736	75.81
280.968	89.81
281.199	84.81
281.431	84.81
281.662	81.81
281.894	81.81
282.125	101.81
282.356	117.81
282.588	118.81
282.819	110.81
283.051	101.81
283.282	72.81
283.513	92.81
283.745	89.81
283.976	81.81
284.207	92.81
284.439	78.81
284.67	85.81
284.901	93.81
285.132	87.81
285.364	84.81
285.595	91.81
285.826	89.81
286.057	88.81
286.288	69.81
286.52	98.81
286.751	91.81
286.982	90.81
287.213	91.81
287.444	80.81
287.675	83.81
287.906	98.81
288.138	87.81
288.369	81.81
288.6	82.81
288.831	96.81
289.062	85.81
289.293	75.81
289.524	74.81
289.755	78.81
289.986	75.81
290.217	70.81
290.448	82.81
290.679	92.81
290.91	91.81
291.141	77.81
291.371	88.81
291.602	83.81
291.833	82.81
292.064	84.81
292.295	79.81
292.526	98.81
292.757	95.81
292.987	79.81
293.218	83.81
293.449	93.81
293.68	90.81
293.91	75.81
294.141	74.81
294.372	97.81
294.603	85.81
294.833	93.81
295.064	96.81
295.295	87.81
295.525	87.81
295.756	116.81
295.987	101.81
296.217	121.81
296.448	114.81
296.679	86.81
296.909	93.81
297.14	84.81
297.37	82.81
297.601	85.81
297.831	93.81
298.062	93.81
298.292	82.81
298.523	85.81
298.753	77.81
298.984	76.81
299.214	87.81
299.445	89.81
299.675	98.81
299.905	107.81
300.136	90.81
300.366	104.81
300.597	98.81
300.827	85.81
301.057	102.81
301.288	105.81
301.518	87.81
301.748	97.81
301.979	96.81
302.209	95.81
302.439	96.81
302.669	87.81
302.9	80.81
303.13	89.81
303.36	99.81
303.59	87.81
303.82	112.81
304.051	113.81
304.281	104.81
304.511	109.81
304.741	89.81
304.971	85.81
305.201	99.81
305.431	86.81
305.661	95.81
305.891	85.81
306.121	86.81
306.352	101.81
306.582	96.81
306.812	70.81
307.042	89.81
307.272	106.81
307.502	94.81
307.731	99.81
307.961	87.81
308.191	91.81
308.421	92.81
308.651	91.81
308.881	85.81
309.111	95.81
309.341	94.81
309.571	89.81
309.8	89.81
310.03	98.81
310.26	90.81
310.49	89.81
310.72	93.81
310.949	77.81
311.179	95.81
311.409	93.81
311.639	100.81
311.868	101.81
312.098	98.81
312.328	107.81
312.557	105.81
312.787	88.81
313.017	105.81
313.246	92.81
313.476	97.81
313.706	95.81
313.935	86.81
314.165	97.81
314.394	105.81
314.624	81.81
314.853	88.81
315.083	89.81
315.312	79.81
315.542	97.81
315.771	77.81
316.001	100.81
316.23	101.81
316.46	101.81
316.689	103.81
316.919	78.81
317.148	89.81
317.377	80.81
317.607	102.81
317.836	100.81
318.065	89.81
318.295	86.81
318.524	101.81
318.753	92.81
318.983	98.81
319.212	103.81
319.441	94.81
319.67	94.81
319.9	90.81
320.129	97.81
320.358	92.81
320.587	96.81
320.816	100.81
321.046	85.81
321.275	97.81
321.504	98.81
321.733	111.81
321.962	122.81
322.191	105.81
322.42	100.81
322.649	100.81
322.878	105.81
323.108	109.81
323.337	117.81
323.566	121.81
323.795	141.81
324.024	181.81
324.253	320.81
324.482	667.81
324.71	1337.81
324.939	1764.81
325.168	623.81
325.397	213.81
325.626	135.81
325.855	129.81
326.084	99.81
326.313	121.81
326.542	129.81
326.77	190.81
326.999	358.81
327.228	768.81
327.457	1346.81
327.686	1075.81
327.914	311.81
328.143	163.81
328.372	129.81
328.6	100.81
328.829	107.81
329.058	113.81
329.287	134.81
329.515	105.81
329.744	100.81
329.972	103.81
330.201	110.81
330.43	116.81
330.658	115.81
330.887	130.81
331.115	112.81
331.344	95.81
331.572	104.81
331.801	109.81
332.03	100.81
332.258	84.81
332.486	90.81
332.715	84.81
332.943	99.81
333.172	102.81
333.4	98.81
333.629	89.81
333.857	108.81
334.085	111.81
334.314	106.81
334.542	105.81
334.771	121.81
334.999	93.81
335.227	102.81
335.455	91.81
335.684	93.81
335.912	95.81
336.14	115.81
336.369	102.81
336.597	93.81
336.825	104.81
337.053	96.81
337.281	94.81
337.51	106.81
337.738	101.81
337.966	99.81
338.194	92.81
338.422	96.81
338.65	89.81
338.878	94.81
339.106	88.81
339.334	93.81
339.562	84.81
339.79	103.81
340.018	91.81
340.246	104.81
340.474	93.81
340.702	99.81
340.93	94.81
341.158	98.81
341.386	103.81
341.614	97.81
341.842	103.81
342.07	88.81
342.298	91.81
342.526	90.81
342.754	89.81
342.981	106.81
343.209	93.81
343.437	95.81
343.665	101.81
343.893	83.81
344.12	99.81
344.348	107.81
344.576	94.81
344.804	85.81
345.031	94.81
345.259	99.81
345.487	99.81
345.714	96.81
345.942	77.81
346.17	97.81
346.397	98.81
346.625	101.81
346.853	95.81
347.08	82.81
347.308	86.81
347.535	95.81
347.763	100.81
347.99	93.81
348.218	103.81
348.445	94.81
348.673	94.81
348.9	77.81
349.128	105.81
349.355	104.81
349.583	93.81
349.81	94.81
350.037	86.81
350.265	87.81
350.492	97.81
350.72	91.81
350.947	97.81
351.174	95.81
351.402	114.81
351.629	105.81
351.856	105.81
352.083	89.81
352.311	99.81
352.538	112.81
352.765	124.81
352.992	115.81
353.22	107.81
353.447	95.81
353.674	106.81
353.901	97.81
354.128	105.81
354.355	93.81
354.583	95.81
354.81	89.81
355.037	91.81
355.264	92.81
355.491	97.81
355.718	98.81
355.945	96.81
356.172	91.81
356.399	88.81
356.626	105.81
356.853	87.81
357.08	97.81
357.307	97.81
357.534	95.81
357.761	92.81
357.988	93.81
358.215	87.81
358.441	108.81
358.668	84.81
358.895	107.81
359.122	102.81
359.349	90.81
359.576	92.81
359.802	91.81
360.029	103.81
360.256	101.81
360.483	104.81
360.709	88.81
360.936	82.81
361.163	106.81
361.39	101.81
361.616	92.81
361.843	95.81
362.07	102.81
362.296	96.81
362.523	102.81
362.749	75.81
362.976	99.81
363.203	90.81
363.429	90.81
363.656	100.81
363.882	100.81
364.109	104.81
364.335	92.81
364.562	87.81
364.788	92.81
365.015	89.81
365.241	97.81
365.468	112.81
365.694	108.81
365.92	94.81
366.147	86.81
366.373	106.81
366.599	69.81
366.826	91.81
367.052	89.81
367.278	96.81
367.505	103.81
367.731	90.81
367.957	113.81
368.184	92.81
368.41	84.81
368.636	97.81
368.862	106.81
369.089	108.81
369.315	94.81
369.541	68.81
369.767	89.81
369.993	88.81
370.219	98.81
370.445	97.81
370.672	83.81
370.898	85.81
371.124	106.81
371.35	89.81
371.576	85.81
371.802	82.81
372.028	93.81
372.254	73.81
372.48	96.81
372.706	75.81
372.932	94.81
373.158	71.81
373.384	100.81
373.61	102.81
373.835	88.81
374.061	88.81
374.287	89.81
374.513	96.81
374.739	89.81
374.965	95.81
375.191	96.81
375.416	97.81
375.642	93.81
375.868	90.81
376.094	92.81
376.319	102.81
376.545	98.81
376.771	101.81
376.997	96.81
377.222	102.81
377.448	93.81
377.674	100.81
377.899	96.81
378.125	97.81
378.35	91.81
378.576	83.81
378.802	90.81
379.027	100.81
379.253	90.81
379.478	92.81
379.704	90.81
379.929	84.81
380.155	80.81
380.38	89.81
380.606	87.81
380.831	98.81
381.057	93.81
381.282	87.81
381.507	106.81
381.733	96.81
381.958	97.81
382.184	93.81
382.409	117.81
382.634	86.81
382.86	98.81
383.085	106.81
383.31	105.81
383.535	106.81
383.761	115.81
383.986	101.81
384.211	83.81
384.436	100.81
384.662	89.81
384.887	106.81
385.112	118.81
385.337	91.81
385.562	99.81
385.787	108.81
386.013	122.81
386.238	116.81
386.463	105.81
386.688	92.81
386.913	112.81
387.138	104.81
387.363	117.81
387.588	95.81
387.813	101.81
388.038	101.81
388.263	98.81
388.488	110.81
388.713	87.81
388.938	99.81
389.163	89.81
389.387	91.81
389.612	103.81
389.837	91.81
390.062	101.81
390.287	90.81
390.512	97.81
390.736	94.81
390.961	84.81
391.186	81.81
391.411	89.81
391.636	107.81
391.86	89.81
392.085	83.81
392.31	75.81
392.534	84.81
392.759	100.81
392.984	85.81
393.208	81.81
393.433	85.81
393.658	102.81
393.882	78.81
394.107	93.81
394.331	99.81
394.556	89.81
394.78	103.81
395.005	91.81
395.229	83.81
395.454	90.81
395.678	94.81
395.903	75.81
396.127	97.81
396.352	87.81
396.576	95.81
396.801	94.81
397.025	96.81
397.249	80.81
397.474	93.81
397.698	105.81
397.922	85.81
398.147	73.81
398.371	99.81
398.595	74.81
398.82	84.81
399.044	82.81
399.268	93.81
399.492	99.81
399.717	96.81
399.941	104.81
400.165	99.81
400.389	87.81
400.613	82.81
400.837	85.81
401.062	91.81
401.286	85.81
401.51	89.81
401.734	92.81
401.958	92.81
402.182	111.81
402.406	130.81
402.63	114.81
402.854	96.81
403.078	90.81
403.302	97.81
403.526	95.81
403.75	98.81
403.974	88.81
404.198	89.81
404.422	91.81
404.645	90.81
404.869	91.81
405.093	99.81
405.317	96.81
405.541	104.81
405.765	85.81
405.988	116.81
406.212	140.81
406.436	175.81
406.66	103.81
406.883	101.81
407.107	87.81
407.331	99.81
407.555	98.81
407.778	88.81
408.002	77.81
408.226	93.81
408.449	94.81
408.673	81.81
408.896	82.81
409.12	108.81
409.344	95.81
409.567	84.81
409.791	104.81
410.014	101.81
410.238	90.81
410.461	94.81
410.685	97.81
410.908	102.81
411.132	101.81
411.355	97.81
411.578	106.81
411.802	83.81
412.025	95.81
412.249	84.81
412.472	81.81
412.695	90.81
412.919	94.81
413.142	91.81
413.365	89.81
413.589	82.81
413.812	94.81
414.035	87.81
414.258	88.81
414.482	93.81
414.705	79.81
414.928	75.81
415.151	80.81
415.374	99.81
415.597	100.81
415.821	85.81
416.044	89.81
416.267	86.81
416.49	89.81
416.713	85.81
416.936	102.81
417.159	97.81
417.382	103.81
417.605	88.81
417.828	98.81
418.051	85.81
418.274	102.81
418.497	93.81
418.72	83.81
418.943	101.81
419.166	97.81
419.389	93.81
419.611	81.81
419.834	80.81
420.057	82.81
420.28	83.81
420.503	86.81
420.726	90.81
420.948	93.81
421.171	87.81
421.394	95.81
421.617	95.81
421.839	91.81
422.062	83.81
422.285	97.81
422.507	109.81
422.73	90.81
422.953	83.81
423.175	78.81
423.398	88.81
423.621	81.81
423.843	99.81
424.066	94.81
424.288	105.81
424.511	90.81
424.733	98.81
424.956	111.81
425.178	96.81
425.401	95.81
425.623	90.81
425.846	83.81
426.068	102.81
426.291	88.81
426.513	83.81
426.735	89.81
426.958	99.81
427.18	108.81
427.402	118.81
427.625	141.81
427.847	114.81
428.069	106.81
428.292	105.81
428.514	86.81
428.736	90.81
428.958	87.81
429.181	77.81
429.403	92.81
429.625	77.81
429.847	89.81
430.069	86.81
430.292	96.81
430.514	86.81
430.736	83.81
430.958	81.81
431.18	82.81
431.402	92.81
431.624	78.81
431.846	78.81
432.068	98.81
432.29	91.81
432.512	94.81
432.734	78.81
432.956	100.81
433.178	97.81
433.4	103.81
433.622	78.81
433.844	85.81
434.066	74.81
434.287	87.81
434.509	96.81
434.731	101.81
434.953	79.81
435.175	99.81
435.397	93.81
435.618	98.81
435.84	99.81
436.062	122.81
436.284	108.81
436.505	110.81
436.727	93.81
436.949	94.81
437.17	86.81
437.392	70.81
437.614	85.81
437.835	97.81
438.057	107.81
438.278	101.81
438.5	104.81
438.721	118.81
438.943	112.81
439.165	80.81
439.386	93.81
439.608	81.81
439.829	95.81
440.05	109.81
440.272	135.81
440.493	99.81
440.715	88.81
440.936	84.81
441.158	94.81
441.379	85.81
441.6	93.81
441.822	91.81
442.043	83.81
442.264	106.81
442.486	98.81
442.707	92.81
442.928	91.81
443.149	112.81
443.371	115.81
443.592	88.81
443.813	101.81
444.034	99.81
444.255	93.81
444.476	102.81
444.698	90.81
444.919	89.81
445.14	126.81
445.361	117.81
445.582	100.81
445.803	108.81
446.024	129.81
446.245	130.81
446.466	101.81
446.687	86.81
446.908	84.81
447.129	65.81
447.35	81.81
447.571	90.81
447.792	103.81
448.013	94.81
448.234	111.81
448.455	90.81
448.675	103.81
448.896	103.81
449.117	98.81
449.338	94.81
449.559	120.81
449.779	102.81
450	90.81
450.221	90.81
450.442	97.81
450.662	91.81
450.883	99.81
451.104	108.81
451.324	85.81
451.545	82.81
451.766	93.81
451.986	93.81
452.207	89.81
452.428	81.81
452.648	91.81
452.869	100.81
453.089	111.81
453.31	106.81
453.53	93.81
453.751	75.81
453.971	89.81
454.192	99.81
454.412	86.81
454.633	101.81
454.853	84.81
455.073	90.81
455.294	98.81
455.514	93.81
455.734	100.81
455.955	92.81
456.175	87.81
456.395	85.81
456.616	77.81
456.836	92.81
457.056	86.81
457.276	92.81
457.497	77.81
457.717	85.81
457.937	86.81
458.157	103.81
458.377	80.81
458.598	89.81
458.818	141.81
459.038	133.81
459.258	116.81
459.478	101.81
459.698	70.81
459.918	99.81
460.138	80.81
460.358	79.81
460.578	77.81
460.798	94.81
461.018	99.81
461.238	79.81
461.458	98.81
461.678	89.81
461.898	81.81
462.118	97.81
462.338	70.81
462.558	82.81
462.777	83.81
462.997	75.81
463.217	82.81
463.437	77.81
463.657	98.81
463.876	97.81
464.096	95.81
464.316	98.81
464.536	96.81
464.755	97.81
464.975	104.81
465.195	159.81
465.414	139.81
465.634	98.81
465.854	102.81
466.073	94.81
466.293	76.81
466.512	83.81
466.732	81.81
466.951	91.81
467.171	73.81
467.391	85.81
467.61	100.81
467.829	88.81
468.049	90.81
468.268	86.81
468.488	80.81
468.707	82.81
468.927	77.81
469.146	81.81
469.365	88.81
469.585	88.81
469.804	101.81
470.023	97.81
470.243	89.81
470.462	97.81
470.681	121.81
470.901	80.81
471.12	80.81
471.339	83.81
471.558	80.81
471.777	86.81
471.997	84.81
472.216	97.81
472.435	114.81
472.654	91.81
472.873	99.81
473.092	74.81
473.311	76.81
473.53	69.81
473.749	96.81
473.968	88.81
474.187	100.81
474.406	87.81
474.625	82.81
474.844	82.81
475.063	85.81
475.282	83.81
475.501	84.81
475.72	90.81
475.939	103.81
476.158	83.81
476.377	95.81
476.596	86.81
476.814	98.81
477.033	94.81
477.252	90.81
477.471	81.81
477.69	89.81
477.908	85.81
478.127	80.81
478.346	69.81
478.564	90.81
478.783	86.81
479.002	93.81
479.22	76.81
479.439	90.81
479.658	92.81
479.876	78.81
480.095	83.81
480.313	81.81
480.532	74.81
480.751	87.81
480.969	92.81
481.188	123.81
481.406	112.81
481.624	79.81
481.843	82.81
482.061	83.81
482.28	80.81
482.498	79.81
482.717	75.81
482.935	87.81
483.153	88.81
483.372	87.81
483.59	88.81
483.808	84.81
484.027	91.81
484.245	92.81
484.463	88.81
484.681	97.81
484.9	82.81
485.118	85.81
485.336	100.81
485.554	95.81
485.772	103.81
485.99	94.81
486.209	110.81
486.427	108.81
486.645	106.81
486.863	103.81
487.081	94.81
487.299	103.81
487.517	93.81
487.735	98.81
487.953	84.81
488.171	99.81
488.389	89.81
488.607	101.81
488.825	93.81
489.043	92.81
489.261	98.81
489.479	95.81
489.696	93.81
489.914	81.81
490.132	86.81
490.35	100.81
490.568	103.81
490.786	84.81
491.003	80.81
491.221	83.81
491.439	97.81
491.657	84.81
491.874	98.81
492.092	89.81
492.31	95.81
492.527	107.81
492.745	80.81
492.963	90.81
493.18	98.81
493.398	97.81
493.615	101.81
493.833	100.81
494.05	74.81
494.268	92.81
494.485	83.81
494.703	84.81
494.92	95.81
495.138	89.81
495.355	81.81
495.573	82.81
495.79	79.81
496.008	100.81
496.225	87.81
496.442	81.81
496.66	90.81
496.877	99.81
497.094	97.81
497.312	99.81
497.529	86.81
497.746	87.81
497.963	83.81
498.181	94.81
498.398	86.81
498.615	101.81
498.832	106.81
499.049	91.81
499.267	101.81
499.484	85.81
499.701	90.81
499.918	93.81
500.135	89.81
500.352	78.81
500.569	98.81
500.786	90.81
501.003	86.81
501.22	89.81
501.437	86.81
501.654	87.81
501.871	104.81
502.088	109.81
502.305	83.81
502.522	96.81
502.739	88.81
502.956	80.81
503.172	96.81
503.389	95.81
503.606	103.81
503.823	100.81
504.04	93.81
504.256	95.81
504.473	93.81
504.69	107.81
504.907	103.81
505.123	74.81
505.34	99.81
505.557	100.81
505.773	85.81
505.99	95.81
506.207	89.81
506.423	87.81
506.64	102.81
506.856	84.81
507.073	82.81
507.289	109.81
507.506	89.81
507.722	99.81
507.939	94.81
508.155	89.81
508.372	94.81
508.588	90.81
508.805	82.81
509.021	99.81
509.238	98.81
509.454	96.81
509.67	109.81
509.887	115.81
510.103	121.81
510.319	198.81
510.536	631.81
510.752	1942.81
510.968	530.81
511.184	154.81
511.401	99.81
511.617	88.81
511.833	98.81
512.049	97.81
512.265	97.81
512.481	85.81
512.698	101.81
512.914	91.81
513.13	92.81
513.346	103.81
513.562	103.81
513.778	91.81
513.994	100.81
514.21	103.81
514.426	119.81
514.642	117.81
514.858	107.81
515.074	141.81
515.29	346.81
515.506	1085.81
515.721	414.81
