Data from Circ_1994_H10_HRD10591_00085.txt Node
Date: Wed Jan 03 11:40:47 EST 2024
User: Yrep
Spectrometer: HR+D1059
Trigger mode: 1
Integration Time (sec): 1.000000E-1
Scans to average: 1
Electric dark correction enabled: true
Nonlinearity correction enabled: false
Boxcar width: 0
XAxis mode: Wavelengths
Number of Pixels in Spectrum: 2048
>>>>>Begin Spectral Data<<<<<
223.165	-17.56
223.4	-17.56
223.635	-17.56
223.869	-15.56
224.104	-13.56
224.338	-18.56
224.573	-17.56
224.808	1.44
225.042	-5.56
225.277	-1.56
225.511	-7.56
225.746	-4.56
225.98	9.44
226.215	10.44
226.449	14.44
226.683	17.44
226.918	22.44
227.152	26.44
227.387	37.44
227.621	41.44
227.856	46.44
228.09	47.44
228.324	53.44
228.559	55.44
228.793	70.44
229.027	79.44
229.262	78.44
229.496	74.44
229.73	74.44
229.964	89.44
230.199	83.44
230.433	56.44
230.667	77.44
230.901	90.44
231.136	88.44
231.37	63.44
231.604	72.44
231.838	85.44
232.072	71.44
232.306	80.44
232.541	75.44
232.775	82.44
233.009	82.44
233.243	84.44
233.477	92.44
233.711	84.44
233.945	92.44
234.179	89.44
234.413	80.44
234.647	84.44
234.881	83.44
235.115	86.44
235.349	69.44
235.583	80.44
235.817	92.44
236.051	90.44
236.285	85.44
236.519	69.44
236.753	77.44
236.987	79.44
237.221	99.44
237.455	86.44
237.689	76.44
237.922	76.44
238.156	75.44
238.39	75.44
238.624	79.44
238.858	78.44
239.091	86.44
239.325	94.44
239.559	85.44
239.793	81.44
240.027	82.44
240.26	72.44
240.494	76.44
240.728	80.44
240.961	69.44
241.195	78.44
241.429	69.44
241.662	78.44
241.896	85.44
242.13	95.44
242.363	81.44
242.597	83.44
242.83	89.44
243.064	72.44
243.298	72.44
243.531	76.44
243.765	70.44
243.998	85.44
244.232	91.44
244.465	81.44
244.699	78.44
244.932	81.44
245.166	74.44
245.399	70.44
245.633	75.44
245.866	86.44
246.099	69.44
246.333	80.44
246.566	86.44
246.8	78.44
247.033	96.44
247.266	88.44
247.5	79.44
247.733	65.44
247.966	80.44
248.2	80.44
248.433	82.44
248.666	74.44
248.899	88.44
249.133	85.44
249.366	103.44
249.599	96.44
249.832	93.44
250.066	84.44
250.299	81.44
250.532	90.44
250.765	76.44
250.998	96.44
251.231	73.44
251.465	86.44
251.698	93.44
251.931	78.44
252.164	71.44
252.397	70.44
252.63	88.44
252.863	82.44
253.096	77.44
253.329	88.44
253.562	78.44
253.795	84.44
254.028	63.44
254.261	93.44
254.494	63.44
254.727	80.44
254.96	88.44
255.193	79.44
255.426	74.44
255.659	92.44
255.892	72.44
256.124	86.44
256.357	80.44
256.59	83.44
256.823	78.44
257.056	79.44
257.289	86.44
257.521	91.44
257.754	78.44
257.987	90.44
258.22	81.44
258.452	93.44
258.685	71.44
258.918	86.44
259.151	81.44
259.383	90.44
259.616	77.44
259.849	83.44
260.081	88.44
260.314	77.44
260.547	87.44
260.779	78.44
261.012	77.44
261.244	82.44
261.477	88.44
261.71	87.44
261.942	107.44
262.175	114.44
262.407	88.44
262.64	92.44
262.872	88.44
263.105	89.44
263.337	84.44
263.57	68.44
263.802	64.44
264.035	78.44
264.267	89.44
264.499	79.44
264.732	103.44
264.964	89.44
265.197	85.44
265.429	82.44
265.661	84.44
265.894	87.44
266.126	89.44
266.358	80.44
266.591	76.44
266.823	86.44
267.055	80.44
267.287	92.44
267.52	80.44
267.752	90.44
267.984	76.44
268.216	78.44
268.448	75.44
268.681	76.44
268.913	83.44
269.145	83.44
269.377	84.44
269.609	90.44
269.841	69.44
270.073	75.44
270.306	93.44
270.538	80.44
270.77	89.44
271.002	66.44
271.234	82.44
271.466	81.44
271.698	100.44
271.93	80.44
272.162	86.44
272.394	85.44
272.626	80.44
272.858	87.44
273.09	79.44
273.322	81.44
273.553	84.44
273.785	78.44
274.017	96.44
274.249	78.44
274.481	88.44
274.713	97.44
274.945	91.44
275.176	92.44
275.408	81.44
275.64	96.44
275.872	87.44
276.104	90.44
276.335	84.44
276.567	86.44
276.799	112.44
277.031	99.44
277.262	99.44
277.494	86.44
277.726	90.44
277.957	82.44
278.189	75.44
278.421	69.44
278.652	85.44
278.884	91.44
279.115	87.44
279.347	82.44
279.579	97.44
279.81	92.44
280.042	93.44
280.273	97.44
280.505	99.44
280.736	98.44
280.968	72.44
281.199	95.44
281.431	83.44
281.662	92.44
281.894	91.44
282.125	98.44
282.356	109.44
282.588	135.44
282.819	116.44
283.051	91.44
283.282	88.44
283.513	103.44
283.745	88.44
283.976	103.44
284.207	95.44
284.439	95.44
284.67	86.44
284.901	86.44
285.132	86.44
285.364	96.44
285.595	85.44
285.826	88.44
286.057	99.44
286.288	89.44
286.52	82.44
286.751	95.44
286.982	93.44
287.213	66.44
287.444	78.44
287.675	93.44
287.906	95.44
288.138	94.44
288.369	95.44
288.6	90.44
288.831	83.44
289.062	86.44
289.293	82.44
289.524	91.44
289.755	88.44
289.986	91.44
290.217	94.44
290.448	103.44
290.679	87.44
290.91	88.44
291.141	86.44
291.371	80.44
291.602	96.44
291.833	94.44
292.064	96.44
292.295	104.44
292.526	91.44
292.757	91.44
292.987	82.44
293.218	95.44
293.449	92.44
293.68	101.44
293.91	82.44
294.141	86.44
294.372	85.44
294.603	82.44
294.833	95.44
295.064	102.44
295.295	96.44
295.525	105.44
295.756	97.44
295.987	111.44
296.217	121.44
296.448	123.44
296.679	90.44
296.909	77.44
297.14	96.44
297.37	84.44
297.601	88.44
297.831	79.44
298.062	96.44
298.292	89.44
298.523	86.44
298.753	97.44
298.984	96.44
299.214	79.44
299.445	87.44
299.675	103.44
299.905	92.44
300.136	92.44
300.366	98.44
300.597	90.44
300.827	86.44
301.057	96.44
301.288	101.44
301.518	98.44
301.748	85.44
301.979	111.44
302.209	92.44
302.439	92.44
302.669	78.44
302.9	83.44
303.13	99.44
303.36	99.44
303.59	89.44
303.82	98.44
304.051	84.44
304.281	87.44
304.511	101.44
304.741	86.44
304.971	92.44
305.201	90.44
305.431	83.44
305.661	89.44
305.891	91.44
306.121	104.44
306.352	89.44
306.582	97.44
306.812	101.44
307.042	96.44
307.272	107.44
307.502	90.44
307.731	100.44
307.961	84.44
308.191	86.44
308.421	88.44
308.651	96.44
308.881	85.44
309.111	88.44
309.341	94.44
309.571	102.44
309.8	90.44
310.03	97.44
310.26	85.44
310.49	110.44
310.72	96.44
310.949	94.44
311.179	107.44
311.409	95.44
311.639	98.44
311.868	91.44
312.098	93.44
312.328	91.44
312.557	107.44
312.787	100.44
313.017	91.44
313.246	105.44
313.476	96.44
313.706	91.44
313.935	104.44
314.165	110.44
314.394	93.44
314.624	88.44
314.853	87.44
315.083	111.44
315.312	86.44
315.542	98.44
315.771	104.44
316.001	98.44
316.23	91.44
316.46	98.44
316.689	90.44
316.919	86.44
317.148	77.44
317.377	80.44
317.607	93.44
317.836	92.44
318.065	103.44
318.295	84.44
318.524	94.44
318.753	103.44
318.983	88.44
319.212	107.44
319.441	103.44
319.67	104.44
319.9	83.44
320.129	82.44
320.358	99.44
320.587	103.44
320.816	99.44
321.046	92.44
321.275	94.44
321.504	95.44
321.733	100.44
321.962	103.44
322.191	104.44
322.42	107.44
322.649	122.44
322.878	122.44
323.108	126.44
323.337	115.44
323.566	121.44
323.795	144.44
324.024	178.44
324.253	349.44
324.482	706.44
324.71	1423.44
324.939	1886.44
325.168	716.44
325.397	230.44
325.626	150.44
325.855	124.44
326.084	120.44
326.313	111.44
326.542	142.44
326.77	199.44
326.999	387.44
327.228	790.44
327.457	1456.44
327.686	1149.44
327.914	338.44
328.143	195.44
328.372	168.44
328.6	141.44
328.829	119.44
329.058	138.44
329.287	123.44
329.515	122.44
329.744	111.44
329.972	117.44
330.201	173.44
330.43	206.44
330.658	167.44
330.887	142.44
331.115	110.44
331.344	113.44
331.572	98.44
331.801	114.44
332.03	113.44
332.258	100.44
332.486	86.44
332.715	93.44
332.943	85.44
333.172	92.44
333.4	90.44
333.629	95.44
333.857	106.44
334.085	126.44
334.314	163.44
334.542	234.44
334.771	220.44
334.999	114.44
335.227	94.44
335.455	101.44
335.684	95.44
335.912	103.44
336.14	106.44
336.369	91.44
336.597	117.44
336.825	95.44
337.053	96.44
337.281	96.44
337.51	99.44
337.738	99.44
337.966	86.44
338.194	94.44
338.422	95.44
338.65	104.44
338.878	99.44
339.106	98.44
339.334	96.44
339.562	77.44
339.79	100.44
340.018	103.44
340.246	90.44
340.474	84.44
340.702	98.44
340.93	92.44
341.158	85.44
341.386	96.44
341.614	102.44
341.842	104.44
342.07	83.44
342.298	90.44
342.526	92.44
342.754	95.44
342.981	101.44
343.209	91.44
343.437	98.44
343.665	89.44
343.893	90.44
344.12	103.44
344.348	102.44
344.576	105.44
344.804	92.44
345.031	81.44
345.259	97.44
345.487	99.44
345.714	101.44
345.942	107.44
346.17	94.44
346.397	83.44
346.625	94.44
346.853	98.44
347.08	82.44
347.308	107.44
347.535	88.44
347.763	92.44
347.99	99.44
348.218	90.44
348.445	100.44
348.673	96.44
348.9	91.44
349.128	91.44
349.355	99.44
349.583	99.44
349.81	103.44
350.037	105.44
350.265	102.44
350.492	111.44
350.72	90.44
350.947	97.44
351.174	92.44
351.402	98.44
351.629	98.44
351.856	88.44
352.083	109.44
352.311	95.44
352.538	104.44
352.765	113.44
352.992	101.44
353.22	109.44
353.447	101.44
353.674	98.44
353.901	123.44
354.128	102.44
354.355	99.44
354.583	96.44
354.81	76.44
355.037	93.44
355.264	99.44
355.491	95.44
355.718	87.44
355.945	96.44
356.172	80.44
356.399	103.44
356.626	100.44
356.853	105.44
357.08	109.44
357.307	87.44
357.534	91.44
357.761	100.44
357.988	89.44
358.215	98.44
358.441	91.44
358.668	104.44
358.895	102.44
359.122	95.44
359.349	95.44
359.576	95.44
359.802	103.44
360.029	110.44
360.256	101.44
360.483	109.44
360.709	96.44
360.936	94.44
361.163	109.44
361.39	96.44
361.616	88.44
361.843	104.44
362.07	81.44
362.296	88.44
362.523	94.44
362.749	84.44
362.976	81.44
363.203	88.44
363.429	95.44
363.656	91.44
363.882	92.44
364.109	99.44
364.335	95.44
364.562	90.44
364.788	97.44
365.015	100.44
365.241	86.44
365.468	107.44
365.694	100.44
365.92	108.44
366.147	86.44
366.373	80.44
366.599	89.44
366.826	89.44
367.052	88.44
367.278	87.44
367.505	80.44
367.731	89.44
367.957	92.44
368.184	82.44
368.41	94.44
368.636	97.44
368.862	119.44
369.089	107.44
369.315	91.44
369.541	78.44
369.767	86.44
369.993	82.44
370.219	91.44
370.445	81.44
370.672	100.44
370.898	94.44
371.124	81.44
371.35	81.44
371.576	96.44
371.802	84.44
372.028	97.44
372.254	97.44
372.48	96.44
372.706	99.44
372.932	94.44
373.158	98.44
373.384	86.44
373.61	95.44
373.835	88.44
374.061	101.44
374.287	79.44
374.513	84.44
374.739	107.44
374.965	87.44
375.191	83.44
375.416	96.44
375.642	70.44
375.868	85.44
376.094	96.44
376.319	91.44
376.545	86.44
376.771	74.44
376.997	77.44
377.222	87.44
377.448	100.44
377.674	99.44
377.899	103.44
378.125	94.44
378.35	93.44
378.576	98.44
378.802	85.44
379.027	98.44
379.253	97.44
379.478	103.44
379.704	85.44
379.929	100.44
380.155	95.44
380.38	88.44
380.606	79.44
380.831	95.44
381.057	105.44
381.282	83.44
381.507	90.44
381.733	96.44
381.958	104.44
382.184	92.44
382.409	95.44
382.634	100.44
382.86	90.44
383.085	107.44
383.31	93.44
383.535	95.44
383.761	98.44
383.986	98.44
384.211	103.44
384.436	90.44
384.662	95.44
384.887	78.44
385.112	103.44
385.337	101.44
385.562	88.44
385.787	107.44
386.013	115.44
386.238	100.44
386.463	99.44
386.688	98.44
386.913	109.44
387.138	100.44
387.363	80.44
387.588	110.44
387.813	100.44
388.038	96.44
388.263	117.44
388.488	100.44
388.713	107.44
388.938	93.44
389.163	90.44
389.387	79.44
389.612	91.44
389.837	86.44
390.062	105.44
390.287	114.44
390.512	96.44
390.736	103.44
390.961	86.44
391.186	90.44
391.411	112.44
391.636	98.44
391.86	90.44
392.085	86.44
392.31	87.44
392.534	94.44
392.759	93.44
392.984	94.44
393.208	87.44
393.433	87.44
393.658	86.44
393.882	100.44
394.107	80.44
394.331	78.44
394.556	72.44
394.78	81.44
395.005	80.44
395.229	74.44
395.454	94.44
395.678	84.44
395.903	92.44
396.127	73.44
396.352	94.44
396.576	99.44
396.801	98.44
397.025	91.44
397.249	91.44
397.474	105.44
397.698	94.44
397.922	80.44
398.147	98.44
398.371	84.44
398.595	95.44
398.82	92.44
399.044	84.44
399.268	100.44
399.492	96.44
399.717	91.44
399.941	95.44
400.165	99.44
400.389	112.44
400.613	99.44
400.837	83.44
401.062	92.44
401.286	84.44
401.51	102.44
401.734	91.44
401.958	98.44
402.182	109.44
402.406	146.44
402.63	103.44
402.854	78.44
403.078	88.44
403.302	87.44
403.526	94.44
403.75	105.44
403.974	88.44
404.198	99.44
404.422	91.44
404.645	77.44
404.869	88.44
405.093	89.44
405.317	92.44
405.541	113.44
405.765	102.44
405.988	102.44
406.212	160.44
406.436	211.44
406.66	138.44
406.883	101.44
407.107	100.44
407.331	104.44
407.555	101.44
407.778	112.44
408.002	97.44
408.226	99.44
408.449	95.44
408.673	85.44
408.896	88.44
409.12	108.44
409.344	100.44
409.567	102.44
409.791	84.44
410.014	102.44
410.238	79.44
410.461	97.44
410.685	93.44
410.908	104.44
411.132	90.44
411.355	101.44
411.578	114.44
411.802	85.44
412.025	86.44
412.249	83.44
412.472	96.44
412.695	88.44
412.919	108.44
413.142	94.44
413.365	94.44
413.589	99.44
413.812	82.44
414.035	98.44
414.258	88.44
414.482	94.44
414.705	111.44
414.928	89.44
415.151	104.44
415.374	102.44
415.597	92.44
415.821	93.44
416.044	87.44
416.267	91.44
416.49	92.44
416.713	100.44
416.936	92.44
417.159	102.44
417.382	98.44
417.605	100.44
417.828	98.44
418.051	97.44
418.274	97.44
418.497	95.44
418.72	101.44
418.943	101.44
419.166	101.44
419.389	98.44
419.611	87.44
419.834	97.44
420.057	87.44
420.28	103.44
420.503	82.44
420.726	90.44
420.948	92.44
421.171	91.44
421.394	88.44
421.617	98.44
421.839	81.44
422.062	93.44
422.285	78.44
422.507	107.44
422.73	92.44
422.953	84.44
423.175	98.44
423.398	100.44
423.621	97.44
423.843	87.44
424.066	93.44
424.288	88.44
424.511	86.44
424.733	94.44
424.956	115.44
425.178	102.44
425.401	108.44
425.623	108.44
425.846	87.44
426.068	92.44
426.291	75.44
426.513	100.44
426.735	81.44
426.958	93.44
427.18	96.44
427.402	124.44
427.625	156.44
427.847	129.44
428.069	108.44
428.292	100.44
428.514	95.44
428.736	81.44
428.958	85.44
429.181	84.44
429.403	85.44
429.625	90.44
429.847	89.44
430.069	94.44
430.292	88.44
430.514	88.44
430.736	81.44
430.958	101.44
431.18	75.44
431.402	67.44
431.624	111.44
431.846	99.44
432.068	91.44
432.29	98.44
432.512	87.44
432.734	94.44
432.956	95.44
433.178	96.44
433.4	93.44
433.622	87.44
433.844	95.44
434.066	90.44
434.287	79.44
434.509	95.44
434.731	103.44
434.953	90.44
435.175	83.44
435.397	93.44
435.618	110.44
435.84	97.44
436.062	123.44
436.284	100.44
436.505	102.44
436.727	99.44
436.949	92.44
437.17	83.44
437.392	86.44
437.614	84.44
437.835	102.44
438.057	114.44
438.278	101.44
438.5	98.44
438.721	111.44
438.943	103.44
439.165	96.44
439.386	76.44
439.608	101.44
439.829	104.44
440.05	128.44
440.272	139.44
440.493	103.44
440.715	96.44
440.936	102.44
441.158	106.44
441.379	97.44
441.6	91.44
441.822	88.44
442.043	110.44
442.264	115.44
442.486	103.44
442.707	91.44
442.928	94.44
443.149	121.44
443.371	116.44
443.592	117.44
443.813	97.44
444.034	102.44
444.255	90.44
444.476	99.44
444.698	87.44
444.919	79.44
445.14	117.44
445.361	103.44
445.582	106.44
445.803	125.44
446.024	135.44
446.245	125.44
446.466	97.44
446.687	87.44
446.908	90.44
447.129	92.44
447.35	88.44
447.571	94.44
447.792	94.44
448.013	86.44
448.234	112.44
448.455	91.44
448.675	95.44
448.896	101.44
449.117	111.44
449.338	87.44
449.559	123.44
449.779	119.44
450	98.44
450.221	104.44
450.442	97.44
450.662	101.44
450.883	109.44
451.104	107.44
451.324	93.44
451.545	88.44
451.766	98.44
451.986	97.44
452.207	93.44
452.428	103.44
452.648	99.44
452.869	88.44
453.089	105.44
453.31	116.44
453.53	93.44
453.751	100.44
453.971	101.44
454.192	95.44
454.412	80.44
454.633	92.44
454.853	80.44
455.073	85.44
455.294	95.44
455.514	101.44
455.734	84.44
455.955	88.44
456.175	84.44
456.395	83.44
456.616	96.44
456.836	82.44
457.056	95.44
457.276	74.44
457.497	90.44
457.717	94.44
457.937	84.44
458.157	94.44
458.377	86.44
458.598	101.44
458.818	139.44
459.038	134.44
459.258	114.44
459.478	99.44
459.698	85.44
459.918	87.44
460.138	88.44
460.358	86.44
460.578	95.44
460.798	93.44
461.018	95.44
461.238	96.44
461.458	95.44
461.678	77.44
461.898	93.44
462.118	84.44
462.338	90.44
462.558	98.44
462.777	96.44
462.997	80.44
463.217	78.44
463.437	87.44
463.657	89.44
463.876	88.44
464.096	96.44
464.316	89.44
464.536	93.44
464.755	97.44
464.975	99.44
465.195	170.44
465.414	142.44
465.634	104.44
465.854	74.44
466.073	76.44
466.293	91.44
466.512	104.44
466.732	83.44
466.951	80.44
467.171	96.44
467.391	86.44
467.61	102.44
467.829	107.44
468.049	134.44
468.268	147.44
468.488	108.44
468.707	84.44
468.927	84.44
469.146	103.44
469.365	90.44
469.585	80.44
469.804	98.44
470.023	94.44
470.243	79.44
470.462	106.44
470.681	114.44
470.901	91.44
471.12	88.44
471.339	96.44
471.558	90.44
471.777	98.44
471.997	111.44
472.216	184.44
472.435	292.44
472.654	132.44
472.873	103.44
473.092	84.44
473.311	85.44
473.53	84.44
473.749	100.44
473.968	101.44
474.187	108.44
474.406	86.44
474.625	70.44
474.844	89.44
475.063	99.44
475.282	80.44
475.501	86.44
475.72	99.44
475.939	107.44
476.158	85.44
476.377	98.44
476.596	94.44
476.814	90.44
477.033	85.44
477.252	92.44
477.471	96.44
477.69	91.44
477.908	93.44
478.127	97.44
478.346	82.44
478.564	75.44
478.783	91.44
479.002	90.44
479.22	84.44
479.439	83.44
479.658	83.44
479.876	89.44
480.095	89.44
480.313	94.44
480.532	119.44
480.751	110.44
480.969	179.44
481.188	467.44
481.406	302.44
481.624	106.44
481.843	89.44
482.061	96.44
482.28	101.44
482.498	98.44
482.717	101.44
482.935	102.44
483.153	90.44
483.372	94.44
483.59	68.44
483.808	85.44
484.027	82.44
484.245	90.44
484.463	103.44
484.681	92.44
484.9	83.44
485.118	95.44
485.336	85.44
485.554	100.44
485.772	98.44
485.99	106.44
486.209	110.44
486.427	94.44
486.645	96.44
486.863	99.44
487.081	100.44
487.299	96.44
487.517	77.44
487.735	88.44
487.953	94.44
488.171	101.44
488.389	84.44
488.607	95.44
488.825	100.44
489.043	106.44
489.261	85.44
489.479	75.44
489.696	82.44
489.914	98.44
490.132	84.44
490.35	100.44
490.568	91.44
490.786	100.44
491.003	86.44
491.221	98.44
491.439	91.44
491.657	97.44
491.874	97.44
492.092	99.44
492.31	94.44
492.527	88.44
492.745	86.44
492.963	92.44
493.18	84.44
493.398	91.44
493.615	100.44
493.833	105.44
494.05	94.44
494.268	100.44
494.485	90.44
494.703	94.44
494.92	93.44
495.138	86.44
495.355	99.44
495.573	83.44
495.79	112.44
496.008	106.44
496.225	94.44
496.442	95.44
496.66	91.44
496.877	85.44
497.094	94.44
497.312	95.44
497.529	96.44
497.746	99.44
497.963	90.44
498.181	84.44
498.398	101.44
498.615	113.44
498.832	99.44
499.049	102.44
499.267	93.44
499.484	80.44
499.701	85.44
499.918	89.44
500.135	96.44
500.352	90.44
500.569	83.44
500.786	99.44
501.003	78.44
501.22	88.44
501.437	94.44
501.654	90.44
501.871	112.44
502.088	94.44
502.305	84.44
502.522	78.44
502.739	92.44
502.956	95.44
503.172	95.44
503.389	89.44
503.606	90.44
503.823	108.44
504.04	99.44
504.256	102.44
504.473	104.44
504.69	86.44
504.907	93.44
505.123	100.44
505.34	91.44
505.557	92.44
505.773	95.44
505.99	77.44
506.207	100.44
506.423	98.44
506.64	88.44
506.856	97.44
507.073	91.44
507.289	87.44
507.506	103.44
507.722	98.44
507.939	114.44
508.155	84.44
508.372	98.44
508.588	90.44
508.805	84.44
509.021	101.44
509.238	120.44
509.454	94.44
509.67	106.44
509.887	103.44
510.103	130.44
510.319	208.44
510.536	670.44
510.752	2175.44
510.968	599.44
511.184	148.44
511.401	108.44
511.617	97.44
511.833	92.44
512.049	89.44
512.265	91.44
512.481	97.44
512.698	100.44
512.914	90.44
513.13	99.44
513.346	94.44
513.562	96.44
513.778	96.44
513.994	87.44
514.21	106.44
514.426	124.44
514.642	115.44
514.858	116.44
515.074	141.44
