Data from Circ_1994_H10_HRD10591_00001.txt Node
Date: Wed Jan 03 11:40:30 EST 2024
User: Yrep
Spectrometer: HR+D1059
Trigger mode: 1
Integration Time (sec): 1.000000E-1
Scans to average: 1
Electric dark correction enabled: true
Nonlinearity correction enabled: false
Boxcar width: 0
XAxis mode: Wavelengths
Number of Pixels in Spectrum: 2048
>>>>>Begin Spectral Data<<<<<
223.165	-24.06
223.4	-24.06
223.635	-24.06
223.869	-17.06
224.104	-31.06
224.338	-7.06
224.573	-17.06
224.808	-7.06
225.042	-8.06
225.277	-6.06
225.511	0.94
225.746	4.94
225.98	17.94
226.215	11.94
226.449	13.94
226.683	23.94
226.918	14.94
227.152	28.94
227.387	40.94
227.621	26.94
227.856	44.94
228.09	46.94
228.324	46.94
228.559	43.94
228.793	71.94
229.027	45.94
229.262	48.94
229.496	74.94
229.73	74.94
229.964	84.94
230.199	72.94
230.433	86.94
230.667	70.94
230.901	73.94
231.136	81.94
231.37	81.94
231.604	88.94
231.838	82.94
232.072	93.94
232.306	84.94
232.541	84.94
232.775	79.94
233.009	93.94
233.243	88.94
233.477	82.94
233.711	84.94
233.945	65.94
234.179	83.94
234.413	94.94
234.647	71.94
234.881	76.94
235.115	81.94
235.349	64.94
235.583	78.94
235.817	76.94
236.051	73.94
236.285	71.94
236.519	87.94
236.753	78.94
236.987	82.94
237.221	86.94
237.455	74.94
237.689	57.94
237.922	77.94
238.156	76.94
238.39	74.94
238.624	68.94
238.858	71.94
239.091	78.94
239.325	87.94
239.559	83.94
239.793	67.94
240.027	73.94
240.26	83.94
240.494	75.94
240.728	77.94
240.961	70.94
241.195	76.94
241.429	87.94
241.662	64.94
241.896	91.94
242.13	71.94
242.363	72.94
242.597	76.94
242.83	78.94
243.064	75.94
243.298	72.94
243.531	66.94
243.765	88.94
243.998	78.94
244.232	70.94
244.465	87.94
244.699	67.94
244.932	59.94
245.166	91.94
245.399	79.94
245.633	67.94
245.866	72.94
246.099	72.94
246.333	71.94
246.566	74.94
246.8	71.94
247.033	84.94
247.266	74.94
247.5	63.94
247.733	75.94
247.966	75.94
248.2	82.94
248.433	77.94
248.666	83.94
248.899	84.94
249.133	83.94
249.366	82.94
249.599	88.94
249.832	79.94
250.066	78.94
250.299	76.94
250.532	78.94
250.765	80.94
250.998	63.94
251.231	89.94
251.465	77.94
251.698	76.94
251.931	75.94
252.164	82.94
252.397	86.94
252.63	86.94
252.863	87.94
253.096	76.94
253.329	76.94
253.562	88.94
253.795	76.94
254.028	77.94
254.261	78.94
254.494	75.94
254.727	82.94
254.96	86.94
255.193	75.94
255.426	77.94
255.659	90.94
255.892	79.94
256.124	64.94
256.357	85.94
256.59	73.94
256.823	93.94
257.056	76.94
257.289	83.94
257.521	64.94
257.754	82.94
257.987	74.94
258.22	76.94
258.452	63.94
258.685	76.94
258.918	68.94
259.151	66.94
259.383	81.94
259.616	82.94
259.849	80.94
260.081	73.94
260.314	83.94
260.547	93.94
260.779	83.94
261.012	82.94
261.244	78.94
261.477	85.94
261.71	89.94
261.942	101.94
262.175	100.94
262.407	86.94
262.64	87.94
262.872	96.94
263.105	73.94
263.337	95.94
263.57	84.94
263.802	84.94
264.035	78.94
264.267	90.94
264.499	70.94
264.732	70.94
264.964	79.94
265.197	82.94
265.429	76.94
265.661	60.94
265.894	74.94
266.126	83.94
266.358	66.94
266.591	74.94
266.823	86.94
267.055	98.94
267.287	78.94
267.52	77.94
267.752	71.94
267.984	67.94
268.216	80.94
268.448	79.94
268.681	92.94
268.913	91.94
269.145	82.94
269.377	74.94
269.609	74.94
269.841	80.94
270.073	85.94
270.306	72.94
270.538	83.94
270.77	73.94
271.002	76.94
271.234	86.94
271.466	73.94
271.698	63.94
271.93	77.94
272.162	80.94
272.394	87.94
272.626	73.94
272.858	83.94
273.09	79.94
273.322	93.94
273.553	81.94
273.785	93.94
274.017	88.94
274.249	79.94
274.481	79.94
274.713	76.94
274.945	77.94
275.176	94.94
275.408	86.94
275.64	90.94
275.872	87.94
276.104	82.94
276.335	89.94
276.567	98.94
276.799	103.94
277.031	77.94
277.262	90.94
277.494	86.94
277.726	79.94
277.957	84.94
278.189	75.94
278.421	86.94
278.652	68.94
278.884	74.94
279.115	96.94
279.347	81.94
279.579	91.94
279.81	94.94
280.042	87.94
280.273	67.94
280.505	74.94
280.736	91.94
280.968	93.94
281.199	87.94
281.431	89.94
281.662	88.94
281.894	93.94
282.125	101.94
282.356	106.94
282.588	116.94
282.819	103.94
283.051	96.94
283.282	86.94
283.513	95.94
283.745	91.94
283.976	98.94
284.207	84.94
284.439	90.94
284.67	79.94
284.901	90.94
285.132	95.94
285.364	82.94
285.595	80.94
285.826	81.94
286.057	85.94
286.288	78.94
286.52	89.94
286.751	70.94
286.982	87.94
287.213	87.94
287.444	93.94
287.675	91.94
287.906	90.94
288.138	73.94
288.369	90.94
288.6	68.94
288.831	88.94
289.062	78.94
289.293	89.94
289.524	88.94
289.755	87.94
289.986	82.94
290.217	91.94
290.448	89.94
290.679	91.94
290.91	104.94
291.141	97.94
291.371	98.94
291.602	88.94
291.833	86.94
292.064	76.94
292.295	94.94
292.526	73.94
292.757	92.94
292.987	94.94
293.218	90.94
293.449	98.94
293.68	94.94
293.91	86.94
294.141	76.94
294.372	85.94
294.603	80.94
294.833	80.94
295.064	84.94
295.295	67.94
295.525	73.94
295.756	107.94
295.987	107.94
296.217	125.94
296.448	114.94
296.679	93.94
296.909	89.94
297.14	92.94
297.37	88.94
297.601	91.94
297.831	81.94
298.062	98.94
298.292	86.94
298.523	74.94
298.753	84.94
298.984	81.94
299.214	85.94
299.445	98.94
299.675	88.94
299.905	97.94
300.136	89.94
300.366	94.94
300.597	96.94
300.827	96.94
301.057	110.94
301.288	108.94
301.518	99.94
301.748	82.94
301.979	96.94
302.209	101.94
302.439	72.94
302.669	78.94
302.9	79.94
303.13	84.94
303.36	97.94
303.59	91.94
303.82	109.94
304.051	88.94
304.281	89.94
304.511	89.94
304.741	86.94
304.971	83.94
305.201	95.94
305.431	86.94
305.661	92.94
305.891	88.94
306.121	96.94
306.352	97.94
306.582	104.94
306.812	86.94
307.042	91.94
307.272	96.94
307.502	106.94
307.731	76.94
307.961	96.94
308.191	94.94
308.421	86.94
308.651	89.94
308.881	83.94
309.111	91.94
309.341	88.94
309.571	96.94
309.8	77.94
310.03	92.94
310.26	96.94
310.49	88.94
310.72	103.94
310.949	113.94
311.179	93.94
311.409	92.94
311.639	94.94
311.868	96.94
312.098	92.94
312.328	96.94
312.557	96.94
312.787	107.94
313.017	90.94
313.246	76.94
313.476	92.94
313.706	103.94
313.935	100.94
314.165	93.94
314.394	108.94
314.624	89.94
314.853	98.94
315.083	97.94
315.312	89.94
315.542	94.94
315.771	111.94
316.001	94.94
316.23	76.94
316.46	82.94
316.689	86.94
316.919	89.94
317.148	97.94
317.377	103.94
317.607	98.94
317.836	101.94
318.065	99.94
318.295	81.94
318.524	103.94
318.753	87.94
318.983	81.94
319.212	105.94
319.441	91.94
319.67	96.94
319.9	80.94
320.129	87.94
320.358	80.94
320.587	98.94
320.816	78.94
321.046	100.94
321.275	92.94
321.504	99.94
321.733	100.94
321.962	101.94
322.191	89.94
322.42	101.94
322.649	104.94
322.878	98.94
323.108	104.94
323.337	110.94
323.566	111.94
323.795	132.94
324.024	186.94
324.253	317.94
324.482	646.94
324.71	1330.94
324.939	1754.94
325.168	659.94
325.397	198.94
325.626	152.94
325.855	116.94
326.084	118.94
326.313	110.94
326.542	131.94
326.77	192.94
326.999	380.94
327.228	723.94
327.457	1330.94
327.686	1064.94
327.914	304.94
328.143	159.94
328.372	125.94
328.6	115.94
328.829	114.94
329.058	119.94
329.287	105.94
329.515	99.94
329.744	94.94
329.972	83.94
330.201	109.94
330.43	102.94
330.658	87.94
330.887	121.94
331.115	106.94
331.344	74.94
331.572	92.94
331.801	103.94
332.03	85.94
332.258	83.94
332.486	99.94
332.715	81.94
332.943	90.94
333.172	97.94
333.4	78.94
333.629	98.94
333.857	108.94
334.085	100.94
334.314	95.94
334.542	96.94
334.771	88.94
334.999	99.94
335.227	95.94
335.455	86.94
335.684	86.94
335.912	99.94
336.14	108.94
336.369	98.94
336.597	99.94
336.825	95.94
337.053	105.94
337.281	101.94
337.51	80.94
337.738	96.94
337.966	81.94
338.194	95.94
338.422	88.94
338.65	88.94
338.878	85.94
339.106	96.94
339.334	79.94
339.562	87.94
339.79	89.94
340.018	75.94
340.246	89.94
340.474	92.94
340.702	89.94
340.93	76.94
341.158	72.94
341.386	90.94
341.614	112.94
341.842	93.94
342.07	109.94
342.298	88.94
342.526	77.94
342.754	88.94
342.981	91.94
343.209	86.94
343.437	96.94
343.665	90.94
343.893	89.94
344.12	89.94
344.348	90.94
344.576	111.94
344.804	89.94
345.031	90.94
345.259	82.94
345.487	95.94
345.714	101.94
345.942	92.94
346.17	96.94
346.397	112.94
346.625	80.94
346.853	90.94
347.08	99.94
347.308	97.94
347.535	92.94
347.763	100.94
347.99	101.94
348.218	106.94
348.445	97.94
348.673	89.94
348.9	93.94
349.128	103.94
349.355	88.94
349.583	94.94
349.81	97.94
350.037	99.94
350.265	91.94
350.492	106.94
350.72	98.94
350.947	104.94
351.174	106.94
351.402	104.94
351.629	121.94
351.856	96.94
352.083	100.94
352.311	108.94
352.538	108.94
352.765	104.94
352.992	91.94
353.22	89.94
353.447	105.94
353.674	100.94
353.901	90.94
354.128	97.94
354.355	90.94
354.583	95.94
354.81	85.94
355.037	90.94
355.264	86.94
355.491	96.94
355.718	87.94
355.945	97.94
356.172	78.94
356.399	80.94
356.626	90.94
356.853	106.94
357.08	89.94
357.307	87.94
357.534	82.94
357.761	101.94
357.988	97.94
358.215	86.94
358.441	91.94
358.668	94.94
358.895	97.94
359.122	90.94
359.349	90.94
359.576	102.94
359.802	113.94
360.029	103.94
360.256	101.94
360.483	93.94
360.709	79.94
360.936	91.94
361.163	84.94
361.39	91.94
361.616	83.94
361.843	99.94
362.07	100.94
362.296	94.94
362.523	91.94
362.749	86.94
362.976	89.94
363.203	82.94
363.429	91.94
363.656	95.94
363.882	73.94
364.109	87.94
364.335	86.94
364.562	103.94
364.788	95.94
365.015	91.94
365.241	88.94
365.468	102.94
365.694	89.94
365.92	84.94
366.147	99.94
366.373	87.94
366.599	93.94
366.826	88.94
367.052	92.94
367.278	90.94
367.505	104.94
367.731	90.94
367.957	82.94
368.184	93.94
368.41	97.94
368.636	100.94
368.862	103.94
369.089	95.94
369.315	88.94
369.541	94.94
369.767	104.94
369.993	91.94
370.219	87.94
370.445	74.94
370.672	76.94
370.898	84.94
371.124	85.94
371.35	80.94
371.576	81.94
371.802	88.94
372.028	69.94
372.254	80.94
372.48	87.94
372.706	67.94
372.932	95.94
373.158	88.94
373.384	82.94
373.61	92.94
373.835	79.94
374.061	82.94
374.287	78.94
374.513	83.94
374.739	76.94
374.965	75.94
375.191	92.94
375.416	93.94
375.642	86.94
375.868	89.94
376.094	74.94
376.319	100.94
376.545	90.94
376.771	82.94
376.997	89.94
377.222	85.94
377.448	98.94
377.674	92.94
377.899	89.94
378.125	97.94
378.35	104.94
378.576	88.94
378.802	97.94
379.027	91.94
379.253	97.94
379.478	88.94
379.704	95.94
379.929	104.94
380.155	82.94
380.38	95.94
380.606	104.94
380.831	100.94
381.057	111.94
381.282	91.94
381.507	78.94
381.733	81.94
381.958	93.94
382.184	94.94
382.409	100.94
382.634	95.94
382.86	110.94
383.085	97.94
383.31	85.94
383.535	111.94
383.761	106.94
383.986	104.94
384.211	106.94
384.436	93.94
384.662	89.94
384.887	97.94
385.112	111.94
385.337	108.94
385.562	98.94
385.787	107.94
386.013	101.94
386.238	102.94
386.463	104.94
386.688	115.94
386.913	104.94
387.138	112.94
387.363	104.94
387.588	94.94
387.813	88.94
388.038	89.94
388.263	117.94
388.488	102.94
388.713	87.94
388.938	111.94
389.163	104.94
389.387	113.94
389.612	104.94
389.837	83.94
390.062	88.94
390.287	86.94
390.512	92.94
390.736	96.94
390.961	104.94
391.186	89.94
391.411	96.94
391.636	102.94
391.86	89.94
392.085	87.94
392.31	83.94
392.534	71.94
392.759	83.94
392.984	79.94
393.208	93.94
393.433	97.94
393.658	102.94
393.882	75.94
394.107	81.94
394.331	84.94
394.556	94.94
394.78	103.94
395.005	98.94
395.229	78.94
395.454	83.94
395.678	83.94
395.903	81.94
396.127	81.94
396.352	91.94
396.576	83.94
396.801	67.94
397.025	95.94
397.249	89.94
397.474	88.94
397.698	98.94
397.922	78.94
398.147	63.94
398.371	78.94
398.595	89.94
398.82	78.94
399.044	92.94
399.268	85.94
399.492	73.94
399.717	87.94
399.941	83.94
400.165	77.94
400.389	87.94
400.613	86.94
400.837	85.94
401.062	81.94
401.286	97.94
401.51	83.94
401.734	90.94
401.958	103.94
402.182	103.94
402.406	126.94
402.63	115.94
402.854	99.94
403.078	99.94
403.302	77.94
403.526	90.94
403.75	81.94
403.974	97.94
404.198	96.94
404.422	80.94
404.645	84.94
404.869	83.94
405.093	87.94
405.317	88.94
405.541	102.94
405.765	88.94
405.988	118.94
406.212	158.94
406.436	198.94
406.66	117.94
406.883	83.94
407.107	88.94
407.331	88.94
407.555	94.94
407.778	82.94
408.002	82.94
408.226	97.94
408.449	88.94
408.673	83.94
408.896	71.94
409.12	103.94
409.344	77.94
409.567	78.94
409.791	92.94
410.014	96.94
410.238	87.94
410.461	81.94
410.685	81.94
410.908	76.94
411.132	100.94
411.355	103.94
411.578	100.94
411.802	70.94
412.025	91.94
412.249	93.94
412.472	93.94
412.695	77.94
412.919	86.94
413.142	78.94
413.365	86.94
413.589	92.94
413.812	95.94
414.035	88.94
414.258	87.94
414.482	92.94
414.705	88.94
414.928	88.94
415.151	81.94
415.374	102.94
415.597	92.94
415.821	70.94
416.044	89.94
416.267	86.94
416.49	106.94
416.713	93.94
416.936	105.94
417.159	89.94
417.382	93.94
417.605	86.94
417.828	86.94
418.051	92.94
418.274	95.94
418.497	79.94
418.72	90.94
418.943	81.94
419.166	103.94
419.389	91.94
419.611	95.94
419.834	87.94
420.057	84.94
420.28	79.94
420.503	74.94
420.726	65.94
420.948	86.94
421.171	91.94
421.394	82.94
421.617	72.94
421.839	94.94
422.062	94.94
422.285	86.94
422.507	87.94
422.73	83.94
422.953	100.94
423.175	88.94
423.398	83.94
423.621	73.94
423.843	93.94
424.066	87.94
424.288	90.94
424.511	98.94
424.733	92.94
424.956	91.94
425.178	91.94
425.401	91.94
425.623	96.94
425.846	83.94
426.068	80.94
426.291	88.94
426.513	86.94
426.735	84.94
426.958	74.94
427.18	87.94
427.402	110.94
427.625	137.94
427.847	123.94
428.069	94.94
428.292	95.94
428.514	94.94
428.736	94.94
428.958	100.94
429.181	82.94
429.403	83.94
429.625	82.94
429.847	81.94
430.069	89.94
430.292	102.94
430.514	84.94
430.736	89.94
430.958	77.94
431.18	83.94
431.402	88.94
431.624	88.94
431.846	79.94
432.068	72.94
432.29	83.94
432.512	89.94
432.734	72.94
432.956	85.94
433.178	90.94
433.4	84.94
433.622	87.94
433.844	86.94
434.066	82.94
434.287	93.94
434.509	80.94
434.731	86.94
434.953	83.94
435.175	98.94
435.397	92.94
435.618	94.94
435.84	89.94
436.062	107.94
436.284	107.94
436.505	99.94
436.727	73.94
436.949	83.94
437.17	95.94
437.392	75.94
437.614	84.94
437.835	92.94
438.057	105.94
438.278	86.94
438.5	97.94
438.721	102.94
438.943	100.94
439.165	75.94
439.386	84.94
439.608	92.94
439.829	96.94
440.05	106.94
440.272	119.94
440.493	97.94
440.715	94.94
440.936	94.94
441.158	90.94
441.379	90.94
441.6	75.94
441.822	84.94
442.043	82.94
442.264	86.94
442.486	74.94
442.707	91.94
442.928	96.94
443.149	113.94
443.371	113.94
443.592	106.94
443.813	100.94
444.034	96.94
444.255	84.94
444.476	82.94
444.698	92.94
444.919	66.94
445.14	114.94
445.361	111.94
445.582	103.94
445.803	131.94
446.024	114.94
446.245	127.94
446.466	110.94
446.687	76.94
446.908	82.94
447.129	80.94
447.35	72.94
447.571	94.94
447.792	78.94
448.013	90.94
448.234	90.94
448.455	78.94
448.675	92.94
448.896	100.94
449.117	89.94
449.338	85.94
449.559	114.94
449.779	97.94
450	80.94
450.221	84.94
450.442	82.94
450.662	99.94
450.883	86.94
451.104	95.94
451.324	105.94
451.545	95.94
451.766	90.94
451.986	88.94
452.207	85.94
452.428	96.94
452.648	81.94
452.869	92.94
453.089	113.94
453.31	101.94
453.53	93.94
453.751	97.94
453.971	93.94
454.192	95.94
454.412	78.94
454.633	90.94
454.853	85.94
455.073	71.94
455.294	81.94
455.514	96.94
455.734	87.94
455.955	75.94
456.175	81.94
456.395	90.94
456.616	88.94
456.836	83.94
457.056	93.94
457.276	76.94
457.497	75.94
457.717	91.94
457.937	103.94
458.157	91.94
458.377	93.94
458.598	104.94
458.818	129.94
459.038	139.94
459.258	111.94
459.478	97.94
459.698	92.94
459.918	93.94
460.138	82.94
460.358	75.94
460.578	76.94
460.798	84.94
461.018	80.94
461.238	72.94
461.458	92.94
461.678	87.94
461.898	81.94
462.118	76.94
462.338	75.94
462.558	95.94
462.777	90.94
462.997	70.94
463.217	103.94
463.437	83.94
463.657	74.94
463.876	96.94
464.096	91.94
464.316	72.94
464.536	79.94
464.755	99.94
464.975	109.94
465.195	141.94
465.414	140.94
465.634	97.94
465.854	84.94
466.073	88.94
466.293	83.94
466.512	82.94
466.732	79.94
466.951	98.94
467.171	89.94
467.391	88.94
467.61	100.94
467.829	91.94
468.049	93.94
468.268	89.94
468.488	91.94
468.707	86.94
468.927	70.94
469.146	71.94
469.365	84.94
469.585	90.94
469.804	84.94
470.023	83.94
470.243	83.94
470.462	109.94
470.681	108.94
470.901	98.94
471.12	83.94
471.339	71.94
471.558	88.94
471.777	81.94
471.997	76.94
472.216	88.94
472.435	108.94
472.654	82.94
472.873	102.94
473.092	91.94
473.311	72.94
473.53	76.94
473.749	95.94
473.968	82.94
474.187	87.94
474.406	99.94
474.625	90.94
474.844	77.94
475.063	76.94
475.282	72.94
475.501	82.94
475.72	99.94
475.939	71.94
476.158	85.94
476.377	80.94
476.596	101.94
476.814	94.94
477.033	90.94
477.252	92.94
477.471	87.94
477.69	74.94
477.908	100.94
478.127	82.94
478.346	94.94
478.564	86.94
478.783	100.94
479.002	91.94
479.22	86.94
479.439	87.94
479.658	88.94
479.876	90.94
480.095	97.94
480.313	80.94
480.532	77.94
480.751	96.94
480.969	90.94
481.188	136.94
481.406	106.94
481.624	97.94
481.843	86.94
482.061	74.94
482.28	99.94
482.498	95.94
482.717	106.94
482.935	88.94
483.153	75.94
483.372	84.94
483.59	98.94
483.808	91.94
484.027	89.94
484.245	78.94
484.463	98.94
484.681	90.94
484.9	93.94
485.118	92.94
485.336	85.94
485.554	92.94
485.772	89.94
485.99	99.94
486.209	108.94
486.427	105.94
486.645	116.94
486.863	102.94
487.081	94.94
487.299	91.94
487.517	90.94
487.735	86.94
487.953	87.94
488.171	86.94
488.389	96.94
488.607	101.94
488.825	79.94
489.043	100.94
489.261	87.94
489.479	90.94
489.696	92.94
489.914	63.94
490.132	91.94
490.35	76.94
490.568	99.94
490.786	89.94
491.003	81.94
491.221	92.94
491.439	75.94
491.657	93.94
491.874	89.94
492.092	91.94
492.31	84.94
492.527	89.94
492.745	81.94
492.963	87.94
493.18	90.94
493.398	91.94
493.615	82.94
493.833	98.94
494.05	82.94
494.268	81.94
494.485	94.94
494.703	88.94
494.92	90.94
495.138	93.94
495.355	83.94
495.573	89.94
495.79	84.94
496.008	96.94
496.225	89.94
496.442	85.94
496.66	87.94
496.877	88.94
497.094	82.94
497.312	82.94
497.529	87.94
497.746	88.94
497.963	91.94
498.181	95.94
498.398	89.94
498.615	93.94
498.832	82.94
499.049	94.94
499.267	96.94
499.484	100.94
499.701	97.94
499.918	88.94
500.135	93.94
500.352	86.94
500.569	85.94
500.786	87.94
501.003	89.94
501.22	102.94
501.437	87.94
501.654	95.94
501.871	78.94
502.088	74.94
502.305	86.94
502.522	99.94
502.739	90.94
502.956	83.94
503.172	94.94
503.389	95.94
503.606	104.94
503.823	92.94
504.04	88.94
504.256	80.94
504.473	91.94
504.69	89.94
504.907	96.94
505.123	95.94
505.34	83.94
505.557	93.94
505.773	100.94
505.99	88.94
506.207	73.94
506.423	91.94
506.64	103.94
506.856	88.94
507.073	93.94
507.289	89.94
507.506	94.94
507.722	104.94
507.939	85.94
508.155	94.94
508.372	82.94
508.588	84.94
508.805	86.94
509.021	90.94
509.238	96.94
509.454	88.94
509.67	94.94
509.887	99.94
510.103	114.94
510.319	189.94
510.536	659.94
510.752	2003.94
510.968	544.94
511.184	139.94
511.401	111.94
511.617	106.94
511.833	100.94
512.049	94.94
512.265	90.94
512.481	91.94
512.698	89.94
512.914	86.94
513.13	96.94
513.346	96.94
513.562	96.94
513.778	101.94
513.994	101.94
514.21	97.94
514.426	113.94
514.642	111.94
514.858	105.94
515.074	135.94
515.29	347.94
515.506	1136.94
515.721	430.94
515.937	139.94
516.153	112.94
516.369	95.94
516.585	89.94
516.801	80.94
