Data from Circ_1994_H10_HRD10591_00057.txt Node
Date: Wed Jan 03 11:40:41 EST 2024
User: Yrep
Spectrometer: HR+D1059
Trigger mode: 1
Integration Time (sec): 1.000000E-1
Scans to average: 1
Electric dark correction enabled: true
Nonlinearity correction enabled: false
Boxcar width: 0
XAxis mode: Wavelengths
Number of Pixels in Spectrum: 2048
>>>>>Begin Spectral Data<<<<<
223.165	-20.56
223.4	-20.56
223.635	-20.56
223.869	-5.56
224.104	-17.56
224.338	-14.56
224.573	-12.56
224.808	-2.56
225.042	-0.56
225.277	7.44
225.511	-15.56
225.746	4.44
225.98	19.44
226.215	5.44
226.449	6.44
226.683	14.44
226.918	4.44
227.152	27.44
227.387	21.44
227.621	43.44
227.856	41.44
228.09	35.44
228.324	45.44
228.559	54.44
228.793	51.44
229.027	67.44
229.262	60.44
229.496	75.44
229.73	84.44
229.964	81.44
230.199	78.44
230.433	77.44
230.667	82.44
230.901	75.44
231.136	83.44
231.37	91.44
231.604	90.44
231.838	66.44
232.072	78.44
232.306	87.44
232.541	67.44
232.775	73.44
233.009	93.44
233.243	70.44
233.477	70.44
233.711	88.44
233.945	90.44
234.179	91.44
234.413	89.44
234.647	79.44
234.881	74.44
235.115	83.44
235.349	79.44
235.583	71.44
235.817	69.44
236.051	84.44
236.285	71.44
236.519	70.44
236.753	84.44
236.987	79.44
237.221	93.44
237.455	91.44
237.689	85.44
237.922	69.44
238.156	91.44
238.39	87.44
238.624	84.44
238.858	63.44
239.091	77.44
239.325	69.44
239.559	80.44
239.793	84.44
240.027	69.44
240.26	78.44
240.494	83.44
240.728	98.44
240.961	86.44
241.195	75.44
241.429	79.44
241.662	75.44
241.896	80.44
242.13	75.44
242.363	71.44
242.597	78.44
242.83	89.44
243.064	68.44
243.298	69.44
243.531	84.44
243.765	85.44
243.998	78.44
244.232	77.44
244.465	89.44
244.699	78.44
244.932	71.44
245.166	75.44
245.399	83.44
245.633	98.44
245.866	90.44
246.099	81.44
246.333	78.44
246.566	78.44
246.8	86.44
247.033	84.44
247.266	76.44
247.5	72.44
247.733	77.44
247.966	92.44
248.2	82.44
248.433	82.44
248.666	82.44
248.899	77.44
249.133	74.44
249.366	114.44
249.599	96.44
249.832	69.44
250.066	98.44
250.299	81.44
250.532	79.44
250.765	85.44
250.998	80.44
251.231	86.44
251.465	77.44
251.698	82.44
251.931	78.44
252.164	82.44
252.397	74.44
252.63	84.44
252.863	85.44
253.096	76.44
253.329	79.44
253.562	70.44
253.795	82.44
254.028	83.44
254.261	80.44
254.494	87.44
254.727	76.44
254.96	83.44
255.193	85.44
255.426	96.44
255.659	83.44
255.892	93.44
256.124	86.44
256.357	73.44
256.59	68.44
256.823	81.44
257.056	83.44
257.289	76.44
257.521	84.44
257.754	93.44
257.987	79.44
258.22	81.44
258.452	84.44
258.685	76.44
258.918	79.44
259.151	94.44
259.383	84.44
259.616	82.44
259.849	80.44
260.081	86.44
260.314	84.44
260.547	87.44
260.779	82.44
261.012	95.44
261.244	68.44
261.477	87.44
261.71	93.44
261.942	98.44
262.175	106.44
262.407	83.44
262.64	85.44
262.872	78.44
263.105	78.44
263.337	90.44
263.57	75.44
263.802	81.44
264.035	65.44
264.267	89.44
264.499	79.44
264.732	85.44
264.964	94.44
265.197	88.44
265.429	78.44
265.661	96.44
265.894	91.44
266.126	82.44
266.358	85.44
266.591	82.44
266.823	83.44
267.055	98.44
267.287	85.44
267.52	96.44
267.752	82.44
267.984	91.44
268.216	79.44
268.448	86.44
268.681	78.44
268.913	90.44
269.145	95.44
269.377	83.44
269.609	81.44
269.841	91.44
270.073	89.44
270.306	87.44
270.538	87.44
270.77	83.44
271.002	87.44
271.234	70.44
271.466	81.44
271.698	91.44
271.93	81.44
272.162	83.44
272.394	85.44
272.626	93.44
272.858	82.44
273.09	89.44
273.322	83.44
273.553	95.44
273.785	82.44
274.017	91.44
274.249	87.44
274.481	86.44
274.713	86.44
274.945	80.44
275.176	89.44
275.408	90.44
275.64	93.44
275.872	82.44
276.104	98.44
276.335	81.44
276.567	95.44
276.799	108.44
277.031	107.44
277.262	105.44
277.494	103.44
277.726	97.44
277.957	83.44
278.189	90.44
278.421	99.44
278.652	89.44
278.884	95.44
279.115	81.44
279.347	83.44
279.579	80.44
279.81	95.44
280.042	100.44
280.273	85.44
280.505	86.44
280.736	81.44
280.968	84.44
281.199	84.44
281.431	94.44
281.662	99.44
281.894	94.44
282.125	91.44
282.356	98.44
282.588	116.44
282.819	121.44
283.051	90.44
283.282	87.44
283.513	101.44
283.745	87.44
283.976	93.44
284.207	77.44
284.439	93.44
284.67	88.44
284.901	88.44
285.132	92.44
285.364	86.44
285.595	83.44
285.826	98.44
286.057	87.44
286.288	95.44
286.52	74.44
286.751	78.44
286.982	85.44
287.213	91.44
287.444	84.44
287.675	97.44
287.906	88.44
288.138	87.44
288.369	87.44
288.6	91.44
288.831	96.44
289.062	99.44
289.293	98.44
289.524	78.44
289.755	85.44
289.986	82.44
290.217	90.44
290.448	97.44
290.679	79.44
290.91	83.44
291.141	74.44
291.371	95.44
291.602	108.44
291.833	93.44
292.064	86.44
292.295	85.44
292.526	89.44
292.757	90.44
292.987	98.44
293.218	92.44
293.449	89.44
293.68	82.44
293.91	99.44
294.141	93.44
294.372	87.44
294.603	85.44
294.833	92.44
295.064	92.44
295.295	97.44
295.525	92.44
295.756	94.44
295.987	107.44
296.217	130.44
296.448	111.44
296.679	93.44
296.909	95.44
297.14	91.44
297.37	100.44
297.601	80.44
297.831	80.44
298.062	95.44
298.292	81.44
298.523	75.44
298.753	92.44
298.984	103.44
299.214	88.44
299.445	106.44
299.675	108.44
299.905	100.44
300.136	104.44
300.366	89.44
300.597	82.44
300.827	96.44
301.057	109.44
301.288	96.44
301.518	95.44
301.748	85.44
301.979	101.44
302.209	104.44
302.439	105.44
302.669	83.44
302.9	84.44
303.13	89.44
303.36	101.44
303.59	102.44
303.82	113.44
304.051	94.44
304.281	81.44
304.511	79.44
304.741	78.44
304.971	92.44
305.201	98.44
305.431	80.44
305.661	103.44
305.891	95.44
306.121	79.44
306.352	106.44
306.582	94.44
306.812	86.44
307.042	98.44
307.272	102.44
307.502	99.44
307.731	98.44
307.961	90.44
308.191	106.44
308.421	89.44
308.651	89.44
308.881	94.44
309.111	108.44
309.341	86.44
309.571	100.44
309.8	97.44
310.03	107.44
310.26	88.44
310.49	95.44
310.72	77.44
310.949	124.44
311.179	103.44
311.409	104.44
311.639	94.44
311.868	79.44
312.098	93.44
312.328	89.44
312.557	97.44
312.787	102.44
313.017	99.44
313.246	106.44
313.476	83.44
313.706	81.44
313.935	84.44
314.165	101.44
314.394	95.44
314.624	91.44
314.853	92.44
315.083	81.44
315.312	100.44
315.542	87.44
315.771	99.44
316.001	99.44
316.23	92.44
316.46	103.44
316.689	86.44
316.919	87.44
317.148	90.44
317.377	94.44
317.607	98.44
317.836	94.44
318.065	89.44
318.295	88.44
318.524	100.44
318.753	83.44
318.983	101.44
319.212	108.44
319.441	98.44
319.67	105.44
319.9	120.44
320.129	103.44
320.358	105.44
320.587	91.44
320.816	95.44
321.046	105.44
321.275	113.44
321.504	99.44
321.733	89.44
321.962	113.44
322.191	109.44
322.42	94.44
322.649	105.44
322.878	118.44
323.108	101.44
323.337	110.44
323.566	142.44
323.795	152.44
324.024	203.44
324.253	349.44
324.482	745.44
324.71	1474.44
324.939	1929.44
325.168	716.44
325.397	220.44
325.626	140.44
325.855	126.44
326.084	110.44
326.313	127.44
326.542	159.44
326.77	230.44
326.999	405.44
327.228	799.44
327.457	1456.44
327.686	1158.44
327.914	341.44
328.143	193.44
328.372	153.44
328.6	126.44
328.829	106.44
329.058	117.44
329.287	128.44
329.515	105.44
329.744	110.44
329.972	117.44
330.201	140.44
330.43	164.44
330.658	141.44
330.887	140.44
331.115	133.44
331.344	98.44
331.572	108.44
331.801	102.44
332.03	103.44
332.258	90.44
332.486	83.44
332.715	88.44
332.943	100.44
333.172	99.44
333.4	91.44
333.629	101.44
333.857	117.44
334.085	138.44
334.314	137.44
334.542	171.44
334.771	174.44
334.999	110.44
335.227	107.44
335.455	93.44
335.684	87.44
335.912	105.44
336.14	103.44
336.369	103.44
336.597	108.44
336.825	95.44
337.053	95.44
337.281	84.44
337.51	84.44
337.738	97.44
337.966	92.44
338.194	86.44
338.422	98.44
338.65	87.44
338.878	100.44
339.106	103.44
339.334	95.44
339.562	92.44
339.79	95.44
340.018	95.44
340.246	103.44
340.474	95.44
340.702	100.44
340.93	83.44
341.158	105.44
341.386	98.44
341.614	93.44
341.842	98.44
342.07	97.44
342.298	91.44
342.526	91.44
342.754	88.44
342.981	88.44
343.209	83.44
343.437	110.44
343.665	93.44
343.893	80.44
344.12	101.44
344.348	88.44
344.576	103.44
344.804	102.44
345.031	91.44
345.259	90.44
345.487	97.44
345.714	91.44
345.942	94.44
346.17	87.44
346.397	100.44
346.625	94.44
346.853	91.44
347.08	103.44
347.308	105.44
347.535	87.44
347.763	104.44
347.99	96.44
348.218	103.44
348.445	107.44
348.673	86.44
348.9	106.44
349.128	86.44
349.355	94.44
349.583	98.44
349.81	81.44
350.037	105.44
350.265	104.44
350.492	93.44
350.72	89.44
350.947	108.44
351.174	102.44
351.402	101.44
351.629	106.44
351.856	113.44
352.083	106.44
352.311	106.44
352.538	103.44
352.765	94.44
352.992	124.44
353.22	119.44
353.447	105.44
353.674	92.44
353.901	103.44
354.128	91.44
354.355	91.44
354.583	94.44
354.81	109.44
355.037	101.44
355.264	98.44
355.491	94.44
355.718	105.44
355.945	84.44
356.172	91.44
356.399	108.44
356.626	103.44
356.853	78.44
357.08	95.44
357.307	81.44
357.534	101.44
357.761	88.44
357.988	99.44
358.215	84.44
358.441	85.44
358.668	102.44
358.895	109.44
359.122	90.44
359.349	81.44
359.576	100.44
359.802	99.44
360.029	93.44
360.256	95.44
360.483	94.44
360.709	79.44
360.936	97.44
361.163	96.44
361.39	93.44
361.616	103.44
361.843	77.44
362.07	77.44
362.296	93.44
362.523	89.44
362.749	94.44
362.976	100.44
363.203	86.44
363.429	85.44
363.656	91.44
363.882	106.44
364.109	99.44
364.335	86.44
364.562	79.44
364.788	86.44
365.015	96.44
365.241	102.44
365.468	104.44
365.694	109.44
365.92	92.44
366.147	101.44
366.373	84.44
366.599	85.44
366.826	88.44
367.052	92.44
367.278	98.44
367.505	90.44
367.731	91.44
367.957	89.44
368.184	89.44
368.41	102.44
368.636	101.44
368.862	116.44
369.089	107.44
369.315	101.44
369.541	82.44
369.767	99.44
369.993	94.44
370.219	96.44
370.445	89.44
370.672	83.44
370.898	82.44
371.124	97.44
371.35	88.44
371.576	96.44
371.802	78.44
372.028	87.44
372.254	90.44
372.48	98.44
372.706	97.44
372.932	86.44
373.158	92.44
373.384	97.44
373.61	83.44
373.835	99.44
374.061	82.44
374.287	82.44
374.513	103.44
374.739	94.44
374.965	95.44
375.191	89.44
375.416	93.44
375.642	91.44
375.868	97.44
376.094	87.44
376.319	97.44
376.545	92.44
376.771	76.44
376.997	97.44
377.222	98.44
377.448	84.44
377.674	90.44
377.899	95.44
378.125	97.44
378.35	100.44
378.576	85.44
378.802	99.44
379.027	88.44
379.253	107.44
379.478	77.44
379.704	95.44
379.929	93.44
380.155	87.44
380.38	97.44
380.606	99.44
380.831	100.44
381.057	107.44
381.282	88.44
381.507	95.44
381.733	88.44
381.958	97.44
382.184	101.44
382.409	88.44
382.634	103.44
382.86	96.44
383.085	95.44
383.31	95.44
383.535	103.44
383.761	93.44
383.986	108.44
384.211	90.44
384.436	96.44
384.662	97.44
384.887	99.44
385.112	103.44
385.337	117.44
385.562	112.44
385.787	100.44
386.013	109.44
386.238	109.44
386.463	95.44
386.688	112.44
386.913	105.44
387.138	116.44
387.363	107.44
387.588	104.44
387.813	96.44
388.038	100.44
388.263	111.44
388.488	98.44
388.713	99.44
388.938	99.44
389.163	83.44
389.387	85.44
389.612	98.44
389.837	102.44
390.062	88.44
390.287	93.44
390.512	83.44
390.736	93.44
390.961	99.44
391.186	94.44
391.411	85.44
391.636	94.44
391.86	83.44
392.085	93.44
392.31	78.44
392.534	69.44
392.759	89.44
392.984	86.44
393.208	97.44
393.433	83.44
393.658	94.44
393.882	88.44
394.107	77.44
394.331	78.44
394.556	88.44
394.78	98.44
395.005	88.44
395.229	87.44
395.454	87.44
395.678	89.44
395.903	100.44
396.127	80.44
396.352	90.44
396.576	76.44
396.801	89.44
397.025	103.44
397.249	71.44
397.474	81.44
397.698	81.44
397.922	90.44
398.147	89.44
398.371	86.44
398.595	85.44
398.82	91.44
399.044	88.44
399.268	83.44
399.492	91.44
399.717	82.44
399.941	93.44
400.165	81.44
400.389	90.44
400.613	96.44
400.837	91.44
401.062	93.44
401.286	95.44
401.51	76.44
401.734	87.44
401.958	97.44
402.182	125.44
402.406	142.44
402.63	103.44
402.854	91.44
403.078	86.44
403.302	88.44
403.526	84.44
403.75	82.44
403.974	79.44
404.198	86.44
404.422	87.44
404.645	85.44
404.869	89.44
405.093	94.44
405.317	108.44
405.541	103.44
405.765	97.44
405.988	108.44
406.212	160.44
406.436	185.44
406.66	125.44
406.883	106.44
407.107	89.44
407.331	106.44
407.555	103.44
407.778	98.44
408.002	94.44
408.226	87.44
408.449	76.44
408.673	93.44
408.896	92.44
409.12	102.44
409.344	94.44
409.567	92.44
409.791	85.44
410.014	100.44
410.238	85.44
410.461	94.44
410.685	92.44
410.908	100.44
411.132	103.44
411.355	102.44
411.578	81.44
411.802	88.44
412.025	99.44
412.249	89.44
412.472	87.44
412.695	102.44
412.919	100.44
413.142	93.44
413.365	87.44
413.589	101.44
413.812	81.44
414.035	96.44
414.258	85.44
414.482	85.44
414.705	87.44
414.928	93.44
415.151	101.44
415.374	93.44
415.597	97.44
415.821	78.44
416.044	89.44
416.267	78.44
416.49	79.44
416.713	100.44
416.936	86.44
417.159	105.44
417.382	85.44
417.605	91.44
417.828	83.44
418.051	77.44
418.274	86.44
418.497	84.44
418.72	93.44
418.943	99.44
419.166	91.44
419.389	83.44
419.611	97.44
419.834	79.44
420.057	91.44
420.28	85.44
420.503	97.44
420.726	84.44
420.948	94.44
421.171	98.44
421.394	94.44
421.617	99.44
421.839	100.44
422.062	96.44
422.285	98.44
422.507	101.44
422.73	101.44
422.953	94.44
423.175	92.44
423.398	84.44
423.621	88.44
423.843	86.44
424.066	85.44
424.288	93.44
424.511	93.44
424.733	90.44
424.956	108.44
425.178	84.44
425.401	95.44
425.623	110.44
425.846	89.44
426.068	100.44
426.291	101.44
426.513	98.44
426.735	84.44
426.958	92.44
427.18	85.44
427.402	123.44
427.625	158.44
427.847	127.44
428.069	123.44
428.292	92.44
428.514	79.44
428.736	76.44
428.958	78.44
429.181	84.44
429.403	90.44
429.625	77.44
429.847	85.44
430.069	92.44
430.292	88.44
430.514	92.44
430.736	84.44
430.958	89.44
431.18	82.44
431.402	89.44
431.624	81.44
431.846	81.44
432.068	83.44
432.29	81.44
432.512	80.44
432.734	87.44
432.956	86.44
433.178	98.44
433.4	101.44
433.622	91.44
433.844	94.44
434.066	84.44
434.287	99.44
434.509	100.44
434.731	84.44
434.953	85.44
435.175	99.44
435.397	85.44
435.618	89.44
435.84	90.44
436.062	139.44
436.284	113.44
436.505	111.44
436.727	97.44
436.949	92.44
437.17	91.44
437.392	91.44
437.614	84.44
437.835	97.44
438.057	101.44
438.278	105.44
438.5	91.44
438.721	113.44
438.943	111.44
439.165	95.44
439.386	78.44
439.608	86.44
439.829	96.44
440.05	121.44
440.272	123.44
440.493	98.44
440.715	91.44
440.936	82.44
441.158	95.44
441.379	93.44
441.6	87.44
441.822	92.44
442.043	96.44
442.264	85.44
442.486	87.44
442.707	82.44
442.928	118.44
443.149	117.44
443.371	123.44
443.592	109.44
443.813	107.44
444.034	102.44
444.255	86.44
444.476	79.44
444.698	81.44
444.919	91.44
445.14	150.44
445.361	102.44
445.582	117.44
445.803	132.44
446.024	129.44
446.245	126.44
446.466	94.44
446.687	99.44
446.908	84.44
447.129	92.44
447.35	76.44
447.571	96.44
447.792	97.44
448.013	89.44
448.234	105.44
448.455	105.44
448.675	100.44
448.896	98.44
449.117	96.44
449.338	101.44
449.559	114.44
449.779	124.44
450	90.44
450.221	81.44
450.442	83.44
450.662	98.44
450.883	100.44
451.104	110.44
451.324	102.44
451.545	93.44
451.766	86.44
451.986	89.44
452.207	109.44
452.428	78.44
452.648	91.44
452.869	110.44
453.089	125.44
453.31	109.44
453.53	94.44
453.751	107.44
453.971	104.44
454.192	111.44
454.412	93.44
454.633	89.44
454.853	68.44
455.073	85.44
455.294	84.44
455.514	96.44
455.734	91.44
455.955	79.44
456.175	76.44
456.395	85.44
456.616	78.44
456.836	95.44
457.056	78.44
457.276	82.44
457.497	81.44
457.717	95.44
457.937	80.44
458.157	95.44
458.377	77.44
458.598	101.44
458.818	133.44
459.038	128.44
459.258	117.44
459.478	94.44
459.698	92.44
459.918	89.44
460.138	85.44
460.358	87.44
460.578	87.44
460.798	73.44
461.018	97.44
461.238	91.44
461.458	92.44
461.678	82.44
461.898	95.44
462.118	100.44
462.338	90.44
462.558	98.44
462.777	94.44
462.997	83.44
463.217	89.44
463.437	87.44
463.657	78.44
463.876	89.44
464.096	77.44
464.316	95.44
464.536	99.44
464.755	93.44
464.975	111.44
465.195	145.44
465.414	139.44
465.634	84.44
465.854	83.44
466.073	92.44
466.293	91.44
466.512	86.44
466.732	93.44
466.951	89.44
467.171	91.44
467.391	93.44
467.61	102.44
467.829	96.44
468.049	114.44
468.268	126.44
468.488	91.44
468.707	95.44
468.927	95.44
469.146	92.44
469.365	83.44
469.585	87.44
469.804	94.44
470.023	91.44
470.243	91.44
470.462	95.44
470.681	105.44
470.901	89.44
471.12	99.44
471.339	100.44
471.558	91.44
471.777	84.44
471.997	93.44
472.216	137.44
472.435	204.44
472.654	124.44
472.873	106.44
473.092	86.44
473.311	96.44
473.53	90.44
473.749	87.44
473.968	76.44
474.187	92.44
474.406	97.44
474.625	90.44
474.844	95.44
475.063	88.44
475.282	100.44
475.501	86.44
475.72	70.44
475.939	74.44
476.158	82.44
476.377	84.44
476.596	108.44
476.814	94.44
477.033	91.44
477.252	90.44
477.471	101.44
477.69	78.44
477.908	86.44
478.127	94.44
478.346	88.44
478.564	87.44
478.783	97.44
479.002	87.44
479.22	108.44
479.439	86.44
479.658	95.44
479.876	97.44
480.095	105.44
480.313	94.44
480.532	96.44
480.751	90.44
480.969	146.44
481.188	319.44
481.406	220.44
481.624	101.44
481.843	86.44
482.061	83.44
482.28	91.44
482.498	83.44
482.717	104.44
482.935	96.44
483.153	102.44
483.372	93.44
483.59	85.44
483.808	90.44
484.027	81.44
484.245	97.44
484.463	93.44
484.681	84.44
484.9	88.44
485.118	94.44
485.336	97.44
485.554	90.44
485.772	105.44
485.99	117.44
486.209	97.44
486.427	98.44
486.645	102.44
486.863	114.44
487.081	92.44
487.299	102.44
487.517	108.44
487.735	97.44
487.953	75.44
488.171	92.44
488.389	108.44
488.607	103.44
488.825	85.44
489.043	80.44
489.261	82.44
489.479	92.44
489.696	92.44
489.914	86.44
490.132	97.44
490.35	83.44
490.568	86.44
490.786	90.44
491.003	88.44
491.221	89.44
491.439	96.44
491.657	106.44
491.874	102.44
492.092	90.44
492.31	89.44
492.527	92.44
492.745	93.44
492.963	99.44
493.18	81.44
493.398	93.44
493.615	93.44
493.833	93.44
494.05	85.44
494.268	82.44
494.485	100.44
494.703	86.44
494.92	91.44
495.138	85.44
495.355	85.44
495.573	87.44
495.79	101.44
496.008	97.44
496.225	89.44
496.442	88.44
496.66	81.44
496.877	89.44
497.094	90.44
497.312	98.44
497.529	82.44
497.746	89.44
497.963	100.44
498.181	69.44
498.398	90.44
498.615	100.44
498.832	103.44
499.049	101.44
499.267	86.44
499.484	93.44
499.701	86.44
499.918	95.44
500.135	92.44
500.352	79.44
500.569	82.44
500.786	103.44
501.003	94.44
501.22	90.44
501.437	94.44
501.654	97.44
501.871	110.44
502.088	99.44
502.305	80.44
502.522	80.44
502.739	82.44
502.956	92.44
503.172	92.44
503.389	101.44
503.606	94.44
503.823	92.44
504.04	86.44
504.256	85.44
504.473	86.44
504.69	93.44
504.907	112.44
505.123	79.44
505.34	95.44
505.557	107.44
505.773	89.44
505.99	77.44
506.207	83.44
506.423	92.44
506.64	101.44
506.856	94.44
507.073	94.44
507.289	99.44
507.506	83.44
507.722	107.44
507.939	107.44
508.155	97.44
508.372	94.44
508.588	93.44
508.805	92.44
509.021	103.44
509.238	94.44
509.454	108.44
509.67	86.44
509.887	103.44
510.103	123.44
510.319	210.44
510.536	717.44
510.752	2229.44
510.968	601.44
511.184	163.44
511.401	112.44
511.617	86.44
511.833	85.44
512.049	77.44
512.265	94.44
512.481	82.44
512.698	97.44
512.914	97.44
513.13	103.44
513.346	106.44
513.562	102.44
513.778	87.44
513.994	93.44
514.21	96.44
514.426	98.44
514.642	127.44
514.858	126.44
515.074	164.44
515.29	378.44
515.506	1267.44
