Data from Circ_1994_H10_HRD10591_00045.txt Node
Date: Wed Jan 03 11:40:39 EST 2024
User: Yrep
Spectrometer: HR+D1059
Trigger mode: 1
Integration Time (sec): 1.000000E-1
Scans to average: 1
Electric dark correction enabled: true
Nonlinearity correction enabled: false
Boxcar width: 0
XAxis mode: Wavelengths
Number of Pixels in Spectrum: 2048
>>>>>Begin Spectral Data<<<<<
223.165	-20.12
223.4	-20.12
223.635	-20.12
223.869	-17.12
224.104	-30.12
224.338	-25.12
224.573	-5.12
224.808	-17.12
225.042	-2.12
225.277	-6.12
225.511	8.88
225.746	11.88
225.98	19.88
226.215	12.88
226.449	-1.12
226.683	14.88
226.918	31.88
227.152	23.88
227.387	34.88
227.621	37.88
227.856	40.88
228.09	48.88
228.324	50.88
228.559	59.88
228.793	59.88
229.027	76.88
229.262	71.88
229.496	74.88
229.73	79.88
229.964	87.88
230.199	74.88
230.433	82.88
230.667	81.88
230.901	69.88
231.136	83.88
231.37	70.88
231.604	81.88
231.838	81.88
232.072	91.88
232.306	93.88
232.541	75.88
232.775	77.88
233.009	78.88
233.243	85.88
233.477	76.88
233.711	75.88
233.945	81.88
234.179	70.88
234.413	80.88
234.647	65.88
234.881	84.88
235.115	72.88
235.349	85.88
235.583	78.88
235.817	81.88
236.051	83.88
236.285	87.88
236.519	76.88
236.753	83.88
236.987	70.88
237.221	75.88
237.455	79.88
237.689	75.88
237.922	79.88
238.156	84.88
238.39	77.88
238.624	76.88
238.858	91.88
239.091	77.88
239.325	77.88
239.559	84.88
239.793	73.88
240.027	73.88
240.26	82.88
240.494	83.88
240.728	74.88
240.961	75.88
241.195	79.88
241.429	87.88
241.662	77.88
241.896	79.88
242.13	78.88
242.363	71.88
242.597	77.88
242.83	75.88
243.064	79.88
243.298	87.88
243.531	83.88
243.765	80.88
243.998	60.88
244.232	85.88
244.465	80.88
244.699	79.88
244.932	79.88
245.166	78.88
245.399	84.88
245.633	79.88
245.866	85.88
246.099	92.88
246.333	95.88
246.566	79.88
246.8	75.88
247.033	75.88
247.266	75.88
247.5	67.88
247.733	89.88
247.966	83.88
248.2	83.88
248.433	80.88
248.666	94.88
248.899	100.88
249.133	85.88
249.366	87.88
249.599	90.88
249.832	81.88
250.066	79.88
250.299	79.88
250.532	74.88
250.765	77.88
250.998	80.88
251.231	90.88
251.465	77.88
251.698	75.88
251.931	82.88
252.164	85.88
252.397	91.88
252.63	78.88
252.863	84.88
253.096	86.88
253.329	79.88
253.562	91.88
253.795	93.88
254.028	97.88
254.261	81.88
254.494	89.88
254.727	80.88
254.96	86.88
255.193	71.88
255.426	83.88
255.659	70.88
255.892	85.88
256.124	80.88
256.357	68.88
256.59	87.88
256.823	89.88
257.056	72.88
257.289	78.88
257.521	84.88
257.754	81.88
257.987	85.88
258.22	78.88
258.452	82.88
258.685	81.88
258.918	85.88
259.151	68.88
259.383	98.88
259.616	90.88
259.849	82.88
260.081	81.88
260.314	85.88
260.547	85.88
260.779	89.88
261.012	84.88
261.244	81.88
261.477	97.88
261.71	87.88
261.942	95.88
262.175	103.88
262.407	78.88
262.64	95.88
262.872	82.88
263.105	79.88
263.337	92.88
263.57	78.88
263.802	68.88
264.035	81.88
264.267	80.88
264.499	79.88
264.732	96.88
264.964	90.88
265.197	84.88
265.429	77.88
265.661	99.88
265.894	97.88
266.126	101.88
266.358	92.88
266.591	64.88
266.823	88.88
267.055	78.88
267.287	78.88
267.52	77.88
267.752	98.88
267.984	78.88
268.216	90.88
268.448	82.88
268.681	80.88
268.913	77.88
269.145	83.88
269.377	96.88
269.609	69.88
269.841	89.88
270.073	94.88
270.306	77.88
270.538	73.88
270.77	99.88
271.002	93.88
271.234	85.88
271.466	75.88
271.698	95.88
271.93	87.88
272.162	93.88
272.394	89.88
272.626	74.88
272.858	81.88
273.09	81.88
273.322	84.88
273.553	81.88
273.785	86.88
274.017	82.88
274.249	87.88
274.481	79.88
274.713	87.88
274.945	77.88
275.176	100.88
275.408	87.88
275.64	86.88
275.872	79.88
276.104	66.88
276.335	89.88
276.567	90.88
276.799	87.88
277.031	97.88
277.262	99.88
277.494	75.88
277.726	89.88
277.957	83.88
278.189	77.88
278.421	90.88
278.652	90.88
278.884	81.88
279.115	85.88
279.347	83.88
279.579	80.88
279.81	94.88
280.042	92.88
280.273	97.88
280.505	81.88
280.736	97.88
280.968	83.88
281.199	90.88
281.431	88.88
281.662	85.88
281.894	83.88
282.125	91.88
282.356	110.88
282.588	124.88
282.819	109.88
283.051	92.88
283.282	94.88
283.513	86.88
283.745	80.88
283.976	83.88
284.207	87.88
284.439	79.88
284.67	86.88
284.901	80.88
285.132	86.88
285.364	92.88
285.595	83.88
285.826	87.88
286.057	85.88
286.288	78.88
286.52	93.88
286.751	84.88
286.982	87.88
287.213	83.88
287.444	86.88
287.675	89.88
287.906	101.88
288.138	94.88
288.369	84.88
288.6	83.88
288.831	81.88
289.062	92.88
289.293	96.88
289.524	79.88
289.755	86.88
289.986	87.88
290.217	83.88
290.448	74.88
290.679	101.88
290.91	69.88
291.141	93.88
291.371	94.88
291.602	89.88
291.833	83.88
292.064	84.88
292.295	90.88
292.526	104.88
292.757	106.88
292.987	94.88
293.218	80.88
293.449	94.88
293.68	90.88
293.91	86.88
294.141	94.88
294.372	78.88
294.603	87.88
294.833	96.88
295.064	80.88
295.295	86.88
295.525	89.88
295.756	88.88
295.987	118.88
296.217	138.88
296.448	128.88
296.679	98.88
296.909	106.88
297.14	92.88
297.37	93.88
297.601	78.88
297.831	95.88
298.062	83.88
298.292	83.88
298.523	97.88
298.753	84.88
298.984	99.88
299.214	89.88
299.445	85.88
299.675	105.88
299.905	97.88
300.136	88.88
300.366	83.88
300.597	94.88
300.827	93.88
301.057	98.88
301.288	105.88
301.518	93.88
301.748	102.88
301.979	102.88
302.209	94.88
302.439	95.88
302.669	100.88
302.9	97.88
303.13	91.88
303.36	89.88
303.59	83.88
303.82	96.88
304.051	97.88
304.281	100.88
304.511	85.88
304.741	79.88
304.971	99.88
305.201	98.88
305.431	80.88
305.661	85.88
305.891	86.88
306.121	102.88
306.352	104.88
306.582	101.88
306.812	94.88
307.042	95.88
307.272	102.88
307.502	100.88
307.731	102.88
307.961	100.88
308.191	98.88
308.421	91.88
308.651	101.88
308.881	107.88
309.111	98.88
309.341	99.88
309.571	92.88
309.8	87.88
310.03	111.88
310.26	103.88
310.49	95.88
310.72	97.88
310.949	105.88
311.179	83.88
311.409	89.88
311.639	89.88
311.868	79.88
312.098	103.88
312.328	99.88
312.557	101.88
312.787	98.88
313.017	102.88
313.246	99.88
313.476	96.88
313.706	88.88
313.935	87.88
314.165	102.88
314.394	114.88
314.624	102.88
314.853	106.88
315.083	83.88
315.312	94.88
315.542	91.88
315.771	83.88
316.001	103.88
316.23	88.88
316.46	98.88
316.689	85.88
316.919	83.88
317.148	94.88
317.377	103.88
317.607	94.88
317.836	83.88
318.065	94.88
318.295	99.88
318.524	92.88
318.753	100.88
318.983	80.88
319.212	96.88
319.441	91.88
319.67	89.88
319.9	98.88
320.129	94.88
320.358	89.88
320.587	102.88
320.816	97.88
321.046	92.88
321.275	111.88
321.504	110.88
321.733	102.88
321.962	100.88
322.191	112.88
322.42	100.88
322.649	110.88
322.878	119.88
323.108	116.88
323.337	111.88
323.566	128.88
323.795	137.88
324.024	188.88
324.253	314.88
324.482	671.88
324.71	1318.88
324.939	1739.88
325.168	673.88
325.397	210.88
325.626	133.88
325.855	129.88
326.084	123.88
326.313	118.88
326.542	135.88
326.77	197.88
326.999	371.88
327.228	739.88
327.457	1341.88
327.686	1039.88
327.914	313.88
328.143	187.88
328.372	155.88
328.6	126.88
328.829	134.88
329.058	129.88
329.287	130.88
329.515	99.88
329.744	112.88
329.972	113.88
330.201	122.88
330.43	138.88
330.658	110.88
330.887	124.88
331.115	122.88
331.344	102.88
331.572	101.88
331.801	107.88
332.03	82.88
332.258	98.88
332.486	92.88
332.715	100.88
332.943	97.88
333.172	106.88
333.4	77.88
333.629	109.88
333.857	113.88
334.085	112.88
334.314	137.88
334.542	161.88
334.771	143.88
334.999	102.88
335.227	99.88
335.455	110.88
335.684	86.88
335.912	100.88
336.14	91.88
336.369	105.88
336.597	101.88
336.825	96.88
337.053	100.88
337.281	95.88
337.51	93.88
337.738	86.88
337.966	93.88
338.194	99.88
338.422	92.88
338.65	99.88
338.878	79.88
339.106	76.88
339.334	106.88
339.562	80.88
339.79	83.88
340.018	92.88
340.246	94.88
340.474	93.88
340.702	102.88
340.93	95.88
341.158	79.88
341.386	94.88
341.614	98.88
341.842	89.88
342.07	76.88
342.298	85.88
342.526	97.88
342.754	92.88
342.981	94.88
343.209	89.88
343.437	102.88
343.665	95.88
343.893	95.88
344.12	99.88
344.348	86.88
344.576	76.88
344.804	84.88
345.031	99.88
345.259	103.88
345.487	89.88
345.714	99.88
345.942	120.88
346.17	88.88
346.397	97.88
346.625	103.88
346.853	97.88
347.08	88.88
347.308	93.88
347.535	95.88
347.763	110.88
347.99	106.88
348.218	108.88
348.445	92.88
348.673	97.88
348.9	91.88
349.128	90.88
349.355	86.88
349.583	94.88
349.81	100.88
350.037	87.88
350.265	74.88
350.492	83.88
350.72	101.88
350.947	102.88
351.174	120.88
351.402	104.88
351.629	103.88
351.856	98.88
352.083	95.88
352.311	109.88
352.538	108.88
352.765	99.88
352.992	103.88
353.22	100.88
353.447	94.88
353.674	77.88
353.901	99.88
354.128	94.88
354.355	81.88
354.583	95.88
354.81	95.88
355.037	91.88
355.264	110.88
355.491	88.88
355.718	99.88
355.945	101.88
356.172	88.88
356.399	85.88
356.626	100.88
356.853	88.88
357.08	98.88
357.307	100.88
357.534	93.88
357.761	93.88
357.988	91.88
358.215	99.88
358.441	101.88
358.668	83.88
358.895	82.88
359.122	94.88
359.349	103.88
359.576	94.88
359.802	90.88
360.029	107.88
360.256	118.88
360.483	86.88
360.709	89.88
360.936	103.88
361.163	98.88
361.39	96.88
361.616	95.88
361.843	97.88
362.07	93.88
362.296	100.88
362.523	92.88
362.749	93.88
362.976	90.88
363.203	91.88
363.429	90.88
363.656	87.88
363.882	71.88
364.109	98.88
364.335	91.88
364.562	91.88
364.788	98.88
365.015	108.88
365.241	97.88
365.468	97.88
365.694	89.88
365.92	103.88
366.147	84.88
366.373	96.88
366.599	86.88
366.826	90.88
367.052	106.88
367.278	88.88
367.505	82.88
367.731	87.88
367.957	83.88
368.184	104.88
368.41	88.88
368.636	112.88
368.862	104.88
369.089	107.88
369.315	89.88
369.541	102.88
369.767	83.88
369.993	81.88
370.219	100.88
370.445	75.88
370.672	91.88
370.898	84.88
371.124	93.88
371.35	82.88
371.576	92.88
371.802	91.88
372.028	88.88
372.254	82.88
372.48	83.88
372.706	94.88
372.932	87.88
373.158	92.88
373.384	88.88
373.61	83.88
373.835	86.88
374.061	92.88
374.287	102.88
374.513	94.88
374.739	91.88
374.965	100.88
375.191	101.88
375.416	88.88
375.642	79.88
375.868	93.88
376.094	92.88
376.319	96.88
376.545	94.88
376.771	85.88
376.997	85.88
377.222	87.88
377.448	99.88
377.674	88.88
377.899	88.88
378.125	94.88
378.35	100.88
378.576	92.88
378.802	95.88
379.027	93.88
379.253	99.88
379.478	95.88
379.704	85.88
379.929	100.88
380.155	90.88
380.38	101.88
380.606	108.88
380.831	86.88
381.057	91.88
381.282	104.88
381.507	107.88
381.733	91.88
381.958	109.88
382.184	102.88
382.409	90.88
382.634	101.88
382.86	114.88
383.085	95.88
383.31	107.88
383.535	89.88
383.761	93.88
383.986	102.88
384.211	95.88
384.436	90.88
384.662	94.88
384.887	96.88
385.112	110.88
385.337	112.88
385.562	104.88
385.787	116.88
386.013	105.88
386.238	105.88
386.463	89.88
386.688	103.88
386.913	103.88
387.138	98.88
387.363	87.88
387.588	97.88
387.813	97.88
388.038	108.88
388.263	110.88
388.488	103.88
388.713	85.88
388.938	108.88
389.163	93.88
389.387	99.88
389.612	94.88
389.837	100.88
390.062	101.88
390.287	93.88
390.512	77.88
390.736	92.88
390.961	90.88
391.186	89.88
391.411	87.88
391.636	92.88
391.86	89.88
392.085	79.88
392.31	90.88
392.534	83.88
392.759	84.88
392.984	86.88
393.208	73.88
393.433	89.88
393.658	87.88
393.882	97.88
394.107	86.88
394.331	89.88
394.556	85.88
394.78	94.88
395.005	78.88
395.229	76.88
395.454	86.88
395.678	99.88
395.903	89.88
396.127	94.88
396.352	85.88
396.576	86.88
396.801	94.88
397.025	89.88
397.249	89.88
397.474	89.88
397.698	82.88
397.922	90.88
398.147	86.88
398.371	82.88
398.595	82.88
398.82	94.88
399.044	94.88
399.268	87.88
399.492	99.88
399.717	97.88
399.941	98.88
400.165	93.88
400.389	90.88
400.613	90.88
400.837	75.88
401.062	88.88
401.286	93.88
401.51	81.88
401.734	107.88
401.958	104.88
402.182	121.88
402.406	140.88
402.63	117.88
402.854	86.88
403.078	91.88
403.302	94.88
403.526	85.88
403.75	101.88
403.974	89.88
404.198	91.88
404.422	96.88
404.645	86.88
404.869	89.88
405.093	100.88
405.317	86.88
405.541	102.88
405.765	103.88
405.988	106.88
406.212	150.88
406.436	186.88
406.66	119.88
406.883	91.88
407.107	80.88
407.331	96.88
407.555	95.88
407.778	97.88
408.002	97.88
408.226	90.88
408.449	96.88
408.673	77.88
408.896	84.88
409.12	86.88
409.344	91.88
409.567	79.88
409.791	86.88
410.014	101.88
410.238	98.88
410.461	98.88
410.685	88.88
410.908	102.88
411.132	108.88
411.355	97.88
411.578	92.88
411.802	94.88
412.025	92.88
412.249	94.88
412.472	105.88
412.695	89.88
412.919	89.88
413.142	90.88
413.365	98.88
413.589	80.88
413.812	89.88
414.035	96.88
414.258	97.88
414.482	99.88
414.705	100.88
414.928	85.88
415.151	81.88
415.374	80.88
415.597	101.88
415.821	87.88
416.044	87.88
416.267	86.88
416.49	87.88
416.713	95.88
416.936	99.88
417.159	88.88
417.382	94.88
417.605	85.88
417.828	102.88
418.051	96.88
418.274	93.88
418.497	85.88
418.72	101.88
418.943	88.88
419.166	93.88
419.389	86.88
419.611	82.88
419.834	96.88
420.057	100.88
420.28	87.88
420.503	93.88
420.726	86.88
420.948	94.88
421.171	99.88
421.394	84.88
421.617	90.88
421.839	103.88
422.062	92.88
422.285	91.88
422.507	99.88
422.73	96.88
422.953	91.88
423.175	93.88
423.398	90.88
423.621	93.88
423.843	81.88
424.066	75.88
424.288	94.88
424.511	93.88
424.733	92.88
424.956	107.88
425.178	85.88
425.401	105.88
425.623	101.88
425.846	89.88
426.068	91.88
426.291	105.88
426.513	86.88
426.735	96.88
426.958	94.88
427.18	97.88
427.402	128.88
427.625	162.88
427.847	126.88
428.069	96.88
428.292	100.88
428.514	96.88
428.736	92.88
428.958	87.88
429.181	99.88
429.403	84.88
429.625	82.88
429.847	92.88
430.069	84.88
430.292	103.88
430.514	88.88
430.736	77.88
430.958	73.88
431.18	85.88
431.402	94.88
431.624	92.88
431.846	92.88
432.068	88.88
432.29	89.88
432.512	99.88
432.734	90.88
432.956	92.88
433.178	98.88
433.4	96.88
433.622	87.88
433.844	86.88
434.066	87.88
434.287	74.88
434.509	98.88
434.731	97.88
434.953	85.88
435.175	89.88
435.397	81.88
435.618	89.88
435.84	90.88
436.062	106.88
436.284	113.88
436.505	103.88
436.727	100.88
436.949	86.88
437.17	83.88
437.392	87.88
437.614	96.88
437.835	98.88
438.057	110.88
438.278	97.88
438.5	102.88
438.721	101.88
438.943	113.88
439.165	84.88
439.386	85.88
439.608	84.88
439.829	107.88
440.05	107.88
440.272	133.88
440.493	89.88
440.715	100.88
440.936	83.88
441.158	84.88
441.379	97.88
441.6	91.88
441.822	89.88
442.043	95.88
442.264	106.88
442.486	95.88
442.707	89.88
442.928	107.88
443.149	131.88
443.371	119.88
443.592	101.88
443.813	105.88
444.034	106.88
444.255	102.88
444.476	85.88
444.698	93.88
444.919	94.88
445.14	119.88
445.361	127.88
445.582	100.88
445.803	125.88
446.024	122.88
446.245	132.88
446.466	111.88
446.687	103.88
446.908	86.88
447.129	90.88
447.35	100.88
447.571	101.88
447.792	93.88
448.013	82.88
448.234	92.88
448.455	86.88
448.675	78.88
448.896	112.88
449.117	107.88
449.338	102.88
449.559	109.88
449.779	104.88
450	95.88
450.221	94.88
450.442	97.88
450.662	89.88
450.883	98.88
451.104	97.88
451.324	99.88
451.545	86.88
451.766	85.88
451.986	91.88
452.207	90.88
452.428	96.88
452.648	94.88
452.869	105.88
453.089	117.88
453.31	107.88
453.53	84.88
453.751	108.88
453.971	94.88
454.192	124.88
454.412	78.88
454.633	85.88
454.853	88.88
455.073	83.88
455.294	95.88
455.514	109.88
455.734	67.88
455.955	92.88
456.175	83.88
456.395	73.88
456.616	84.88
456.836	75.88
457.056	86.88
457.276	82.88
457.497	91.88
457.717	90.88
457.937	90.88
458.157	98.88
458.377	88.88
458.598	101.88
458.818	131.88
459.038	131.88
459.258	110.88
459.478	92.88
459.698	95.88
459.918	96.88
460.138	77.88
460.358	85.88
460.578	83.88
460.798	69.88
461.018	89.88
461.238	94.88
461.458	82.88
461.678	88.88
461.898	91.88
462.118	89.88
462.338	90.88
462.558	88.88
462.777	88.88
462.997	89.88
463.217	76.88
463.437	87.88
463.657	83.88
463.876	95.88
464.096	101.88
464.316	83.88
464.536	90.88
464.755	103.88
464.975	116.88
465.195	150.88
465.414	144.88
465.634	99.88
465.854	106.88
466.073	92.88
466.293	95.88
466.512	92.88
466.732	90.88
466.951	87.88
467.171	79.88
467.391	74.88
467.61	92.88
467.829	104.88
468.049	111.88
468.268	113.88
468.488	82.88
468.707	84.88
468.927	79.88
469.146	95.88
469.365	97.88
469.585	89.88
469.804	106.88
470.023	91.88
470.243	86.88
470.462	91.88
470.681	112.88
470.901	95.88
471.12	90.88
471.339	95.88
471.558	82.88
471.777	84.88
471.997	111.88
472.216	116.88
472.435	175.88
472.654	107.88
472.873	101.88
473.092	83.88
473.311	77.88
473.53	78.88
473.749	91.88
473.968	98.88
474.187	91.88
474.406	76.88
474.625	85.88
474.844	87.88
475.063	101.88
475.282	103.88
475.501	91.88
475.72	99.88
475.939	83.88
476.158	79.88
476.377	81.88
476.596	93.88
476.814	107.88
477.033	87.88
477.252	103.88
477.471	76.88
477.69	99.88
477.908	77.88
478.127	96.88
478.346	73.88
478.564	94.88
478.783	113.88
479.002	77.88
479.22	94.88
479.439	98.88
479.658	81.88
479.876	83.88
480.095	83.88
480.313	90.88
480.532	93.88
480.751	101.88
480.969	127.88
481.188	259.88
481.406	182.88
481.624	110.88
481.843	82.88
482.061	89.88
482.28	73.88
482.498	83.88
482.717	91.88
482.935	96.88
483.153	83.88
483.372	85.88
483.59	76.88
483.808	92.88
484.027	82.88
484.245	78.88
484.463	97.88
484.681	106.88
484.9	83.88
485.118	104.88
485.336	106.88
485.554	86.88
485.772	102.88
485.99	114.88
486.209	102.88
486.427	100.88
486.645	105.88
486.863	95.88
487.081	101.88
487.299	91.88
487.517	80.88
487.735	94.88
487.953	92.88
488.171	83.88
488.389	81.88
488.607	95.88
488.825	102.88
489.043	103.88
489.261	80.88
489.479	100.88
489.696	95.88
489.914	82.88
490.132	93.88
490.35	73.88
490.568	85.88
490.786	91.88
491.003	82.88
491.221	100.88
491.439	100.88
491.657	94.88
491.874	109.88
492.092	96.88
492.31	107.88
492.527	100.88
492.745	79.88
492.963	101.88
493.18	80.88
493.398	90.88
493.615	93.88
493.833	97.88
494.05	79.88
494.268	99.88
494.485	86.88
494.703	85.88
494.92	90.88
495.138	91.88
495.355	101.88
495.573	104.88
495.79	106.88
496.008	88.88
496.225	79.88
496.442	83.88
496.66	88.88
496.877	97.88
497.094	87.88
497.312	84.88
497.529	94.88
497.746	103.88
497.963	96.88
498.181	81.88
498.398	89.88
498.615	98.88
498.832	96.88
499.049	80.88
499.267	92.88
499.484	93.88
499.701	87.88
499.918	86.88
500.135	76.88
500.352	102.88
500.569	92.88
500.786	81.88
501.003	89.88
501.22	85.88
501.437	105.88
501.654	98.88
501.871	110.88
502.088	87.88
502.305	100.88
502.522	96.88
502.739	90.88
502.956	85.88
503.172	86.88
503.389	116.88
503.606	106.88
503.823	103.88
504.04	91.88
504.256	88.88
504.473	89.88
504.69	90.88
504.907	97.88
505.123	100.88
505.34	84.88
505.557	93.88
505.773	93.88
505.99	88.88
506.207	104.88
506.423	106.88
506.64	93.88
506.856	87.88
507.073	99.88
507.289	91.88
507.506	108.88
507.722	120.88
507.939	103.88
508.155	96.88
508.372	91.88
508.588	105.88
508.805	95.88
509.021	90.88
509.238	100.88
509.454	107.88
509.67	107.88
509.887	103.88
510.103	118.88
510.319	211.88
510.536	669.88
510.752	2070.88
510.968	574.88
511.184	156.88
511.401	107.88
511.617	86.88
511.833	99.88
512.049	85.88
512.265	94.88
512.481	93.88
512.698	93.88
512.914	102.88
513.13	103.88
513.346	80.88
513.562	93.88
513.778	99.88
513.994	91.88
514.21	93.88
514.426	119.88
514.642	116.88
514.858	112.88
515.074	158.88
515.29	380.88
