Data from Circ_1994_H10_HRD10591_00059.txt Node
Date: Wed Jan 03 11:40:42 EST 2024
User: Yrep
Spectrometer: HR+D1059
Trigger mode: 1
Integration Time (sec): 1.000000E-1
Scans to average: 1
Electric dark correction enabled: true
Nonlinearity correction enabled: false
Boxcar width: 0
XAxis mode: Wavelengths
Number of Pixels in Spectrum: 2048
>>>>>Begin Spectral Data<<<<<
223.165	-29.12
223.4	-29.12
223.635	-29.12
223.869	-14.12
224.104	-19.12
224.338	-18.12
224.573	-19.12
224.808	-6.12
225.042	-3.12
225.277	-3.12
225.511	2.88
225.746	-5.12
225.98	11.88
226.215	-0.12
226.449	21.88
226.683	17.88
226.918	27.88
227.152	34.88
227.387	23.88
227.621	36.88
227.856	60.88
228.09	34.88
228.324	40.88
228.559	56.88
228.793	53.88
229.027	69.88
229.262	58.88
229.496	75.88
229.73	91.88
229.964	61.88
230.199	70.88
230.433	65.88
230.667	70.88
230.901	80.88
231.136	74.88
231.37	69.88
231.604	80.88
231.838	72.88
232.072	76.88
232.306	74.88
232.541	84.88
232.775	78.88
233.009	81.88
233.243	73.88
233.477	84.88
233.711	83.88
233.945	71.88
234.179	68.88
234.413	71.88
234.647	65.88
234.881	81.88
235.115	84.88
235.349	88.88
235.583	83.88
235.817	84.88
236.051	88.88
236.285	69.88
236.519	81.88
236.753	71.88
236.987	77.88
237.221	96.88
237.455	86.88
237.689	84.88
237.922	81.88
238.156	76.88
238.39	76.88
238.624	72.88
238.858	76.88
239.091	72.88
239.325	100.88
239.559	83.88
239.793	84.88
240.027	78.88
240.26	67.88
240.494	81.88
240.728	79.88
240.961	77.88
241.195	90.88
241.429	71.88
241.662	84.88
241.896	87.88
242.13	83.88
242.363	79.88
242.597	77.88
242.83	75.88
243.064	61.88
243.298	72.88
243.531	78.88
243.765	87.88
243.998	86.88
244.232	58.88
244.465	78.88
244.699	88.88
244.932	88.88
245.166	85.88
245.399	75.88
245.633	80.88
245.866	70.88
246.099	74.88
246.333	80.88
246.566	76.88
246.8	72.88
247.033	89.88
247.266	75.88
247.5	80.88
247.733	85.88
247.966	75.88
248.2	93.88
248.433	79.88
248.666	71.88
248.899	75.88
249.133	80.88
249.366	100.88
249.599	97.88
249.832	86.88
250.066	71.88
250.299	80.88
250.532	81.88
250.765	83.88
250.998	82.88
251.231	78.88
251.465	80.88
251.698	84.88
251.931	74.88
252.164	84.88
252.397	80.88
252.63	81.88
252.863	68.88
253.096	78.88
253.329	85.88
253.562	72.88
253.795	82.88
254.028	87.88
254.261	83.88
254.494	68.88
254.727	97.88
254.96	90.88
255.193	75.88
255.426	81.88
255.659	75.88
255.892	73.88
256.124	84.88
256.357	80.88
256.59	92.88
256.823	89.88
257.056	97.88
257.289	83.88
257.521	100.88
257.754	76.88
257.987	77.88
258.22	91.88
258.452	66.88
258.685	74.88
258.918	79.88
259.151	77.88
259.383	78.88
259.616	69.88
259.849	77.88
260.081	86.88
260.314	88.88
260.547	84.88
260.779	81.88
261.012	77.88
261.244	78.88
261.477	92.88
261.71	108.88
261.942	121.88
262.175	100.88
262.407	92.88
262.64	89.88
262.872	87.88
263.105	83.88
263.337	88.88
263.57	101.88
263.802	87.88
264.035	79.88
264.267	78.88
264.499	86.88
264.732	88.88
264.964	83.88
265.197	77.88
265.429	86.88
265.661	89.88
265.894	82.88
266.126	79.88
266.358	90.88
266.591	90.88
266.823	74.88
267.055	87.88
267.287	87.88
267.52	88.88
267.752	94.88
267.984	89.88
268.216	83.88
268.448	84.88
268.681	77.88
268.913	88.88
269.145	87.88
269.377	86.88
269.609	92.88
269.841	90.88
270.073	77.88
270.306	88.88
270.538	91.88
270.77	91.88
271.002	82.88
271.234	89.88
271.466	93.88
271.698	80.88
271.93	82.88
272.162	84.88
272.394	85.88
272.626	79.88
272.858	75.88
273.09	83.88
273.322	88.88
273.553	91.88
273.785	87.88
274.017	100.88
274.249	78.88
274.481	75.88
274.713	89.88
274.945	100.88
275.176	81.88
275.408	91.88
275.64	83.88
275.872	80.88
276.104	107.88
276.335	106.88
276.567	99.88
276.799	97.88
277.031	81.88
277.262	97.88
277.494	98.88
277.726	99.88
277.957	92.88
278.189	79.88
278.421	83.88
278.652	86.88
278.884	85.88
279.115	85.88
279.347	81.88
279.579	79.88
279.81	79.88
280.042	97.88
280.273	111.88
280.505	87.88
280.736	88.88
280.968	73.88
281.199	78.88
281.431	93.88
281.662	96.88
281.894	91.88
282.125	89.88
282.356	130.88
282.588	135.88
282.819	108.88
283.051	88.88
283.282	79.88
283.513	91.88
283.745	84.88
283.976	84.88
284.207	90.88
284.439	83.88
284.67	77.88
284.901	81.88
285.132	89.88
285.364	84.88
285.595	82.88
285.826	91.88
286.057	92.88
286.288	89.88
286.52	94.88
286.751	86.88
286.982	87.88
287.213	82.88
287.444	87.88
287.675	93.88
287.906	76.88
288.138	75.88
288.369	71.88
288.6	81.88
288.831	75.88
289.062	80.88
289.293	97.88
289.524	81.88
289.755	91.88
289.986	93.88
290.217	82.88
290.448	82.88
290.679	83.88
290.91	79.88
291.141	79.88
291.371	87.88
291.602	86.88
291.833	70.88
292.064	78.88
292.295	89.88
292.526	84.88
292.757	98.88
292.987	98.88
293.218	91.88
293.449	73.88
293.68	88.88
293.91	87.88
294.141	92.88
294.372	87.88
294.603	95.88
294.833	88.88
295.064	90.88
295.295	89.88
295.525	106.88
295.756	93.88
295.987	118.88
296.217	141.88
296.448	138.88
296.679	84.88
296.909	92.88
297.14	94.88
297.37	100.88
297.601	94.88
297.831	88.88
298.062	104.88
298.292	93.88
298.523	77.88
298.753	92.88
298.984	90.88
299.214	96.88
299.445	87.88
299.675	91.88
299.905	100.88
300.136	94.88
300.366	101.88
300.597	92.88
300.827	94.88
301.057	86.88
301.288	99.88
301.518	95.88
301.748	77.88
301.979	91.88
302.209	98.88
302.439	79.88
302.669	87.88
302.9	93.88
303.13	96.88
303.36	96.88
303.59	94.88
303.82	108.88
304.051	97.88
304.281	97.88
304.511	64.88
304.741	98.88
304.971	88.88
305.201	82.88
305.431	74.88
305.661	82.88
305.891	86.88
306.121	104.88
306.352	105.88
306.582	102.88
306.812	92.88
307.042	80.88
307.272	109.88
307.502	95.88
307.731	99.88
307.961	101.88
308.191	96.88
308.421	94.88
308.651	91.88
308.881	82.88
309.111	81.88
309.341	77.88
309.571	93.88
309.8	80.88
310.03	83.88
310.26	96.88
310.49	94.88
310.72	91.88
310.949	98.88
311.179	98.88
311.409	78.88
311.639	85.88
311.868	83.88
312.098	85.88
312.328	94.88
312.557	91.88
312.787	98.88
313.017	108.88
313.246	104.88
313.476	99.88
313.706	87.88
313.935	91.88
314.165	107.88
314.394	97.88
314.624	91.88
314.853	80.88
315.083	77.88
315.312	80.88
315.542	99.88
315.771	81.88
316.001	91.88
316.23	83.88
316.46	101.88
316.689	100.88
316.919	100.88
317.148	101.88
317.377	95.88
317.607	108.88
317.836	110.88
318.065	88.88
318.295	101.88
318.524	94.88
318.753	96.88
318.983	92.88
319.212	84.88
319.441	106.88
319.67	107.88
319.9	95.88
320.129	97.88
320.358	98.88
320.587	90.88
320.816	97.88
321.046	100.88
321.275	91.88
321.504	96.88
321.733	106.88
321.962	90.88
322.191	93.88
322.42	114.88
322.649	96.88
322.878	101.88
323.108	108.88
323.337	137.88
323.566	131.88
323.795	138.88
324.024	180.88
324.253	364.88
324.482	767.88
324.71	1578.88
324.939	2069.88
325.168	741.88
325.397	225.88
325.626	139.88
325.855	115.88
326.084	121.88
326.313	135.88
326.542	141.88
326.77	215.88
326.999	424.88
327.228	864.88
327.457	1536.88
327.686	1207.88
327.914	355.88
328.143	209.88
328.372	178.88
328.6	127.88
328.829	122.88
329.058	132.88
329.287	119.88
329.515	104.88
329.744	102.88
329.972	115.88
330.201	148.88
330.43	167.88
330.658	155.88
330.887	133.88
331.115	112.88
331.344	86.88
331.572	91.88
331.801	94.88
332.03	101.88
332.258	107.88
332.486	91.88
332.715	83.88
332.943	89.88
333.172	111.88
333.4	95.88
333.629	103.88
333.857	108.88
334.085	133.88
334.314	145.88
334.542	178.88
334.771	179.88
334.999	107.88
335.227	111.88
335.455	84.88
335.684	99.88
335.912	94.88
336.14	103.88
336.369	100.88
336.597	97.88
336.825	105.88
337.053	74.88
337.281	98.88
337.51	79.88
337.738	101.88
337.966	83.88
338.194	84.88
338.422	92.88
338.65	92.88
338.878	88.88
339.106	92.88
339.334	87.88
339.562	92.88
339.79	90.88
340.018	71.88
340.246	99.88
340.474	85.88
340.702	90.88
340.93	92.88
341.158	89.88
341.386	90.88
341.614	104.88
341.842	97.88
342.07	79.88
342.298	91.88
342.526	99.88
342.754	95.88
342.981	84.88
343.209	89.88
343.437	87.88
343.665	84.88
343.893	87.88
344.12	80.88
344.348	93.88
344.576	101.88
344.804	89.88
345.031	84.88
345.259	87.88
345.487	95.88
345.714	98.88
345.942	105.88
346.17	95.88
346.397	87.88
346.625	96.88
346.853	71.88
347.08	89.88
347.308	91.88
347.535	86.88
347.763	108.88
347.99	90.88
348.218	93.88
348.445	94.88
348.673	80.88
348.9	91.88
349.128	89.88
349.355	81.88
349.583	85.88
349.81	87.88
350.037	101.88
350.265	96.88
350.492	83.88
350.72	87.88
350.947	108.88
351.174	92.88
351.402	100.88
351.629	106.88
351.856	103.88
352.083	98.88
352.311	108.88
352.538	99.88
352.765	99.88
352.992	115.88
353.22	101.88
353.447	101.88
353.674	100.88
353.901	89.88
354.128	96.88
354.355	96.88
354.583	100.88
354.81	97.88
355.037	86.88
355.264	101.88
355.491	100.88
355.718	83.88
355.945	88.88
356.172	93.88
356.399	80.88
356.626	104.88
356.853	87.88
357.08	85.88
357.307	79.88
357.534	87.88
357.761	92.88
357.988	93.88
358.215	91.88
358.441	95.88
358.668	92.88
358.895	76.88
359.122	95.88
359.349	96.88
359.576	90.88
359.802	90.88
360.029	118.88
360.256	109.88
360.483	100.88
360.709	81.88
360.936	99.88
361.163	88.88
361.39	81.88
361.616	90.88
361.843	89.88
362.07	100.88
362.296	93.88
362.523	98.88
362.749	88.88
362.976	88.88
363.203	92.88
363.429	87.88
363.656	79.88
363.882	91.88
364.109	92.88
364.335	81.88
364.562	108.88
364.788	83.88
365.015	97.88
365.241	85.88
365.468	89.88
365.694	101.88
365.92	95.88
366.147	89.88
366.373	96.88
366.599	96.88
366.826	79.88
367.052	94.88
367.278	89.88
367.505	90.88
367.731	91.88
367.957	95.88
368.184	89.88
368.41	92.88
368.636	98.88
368.862	123.88
369.089	98.88
369.315	87.88
369.541	84.88
369.767	87.88
369.993	90.88
370.219	92.88
370.445	94.88
370.672	87.88
370.898	95.88
371.124	100.88
371.35	91.88
371.576	113.88
371.802	79.88
372.028	84.88
372.254	83.88
372.48	103.88
372.706	85.88
372.932	92.88
373.158	90.88
373.384	91.88
373.61	93.88
373.835	98.88
374.061	91.88
374.287	80.88
374.513	90.88
374.739	102.88
374.965	89.88
375.191	82.88
375.416	97.88
375.642	86.88
375.868	83.88
376.094	85.88
376.319	76.88
376.545	74.88
376.771	91.88
376.997	93.88
377.222	98.88
377.448	92.88
377.674	76.88
377.899	91.88
378.125	89.88
378.35	95.88
378.576	93.88
378.802	86.88
379.027	90.88
379.253	80.88
379.478	98.88
379.704	78.88
379.929	88.88
380.155	99.88
380.38	96.88
380.606	76.88
380.831	88.88
381.057	97.88
381.282	88.88
381.507	100.88
381.733	83.88
381.958	95.88
382.184	80.88
382.409	97.88
382.634	101.88
382.86	100.88
383.085	82.88
383.31	97.88
383.535	104.88
383.761	100.88
383.986	87.88
384.211	107.88
384.436	100.88
384.662	95.88
384.887	89.88
385.112	86.88
385.337	92.88
385.562	116.88
385.787	91.88
386.013	98.88
386.238	112.88
386.463	113.88
386.688	107.88
386.913	106.88
387.138	91.88
387.363	95.88
387.588	85.88
387.813	103.88
388.038	91.88
388.263	95.88
388.488	104.88
388.713	84.88
388.938	94.88
389.163	96.88
389.387	88.88
389.612	85.88
389.837	91.88
390.062	98.88
390.287	96.88
390.512	87.88
390.736	90.88
390.961	83.88
391.186	92.88
391.411	87.88
391.636	103.88
391.86	79.88
392.085	87.88
392.31	93.88
392.534	90.88
392.759	80.88
392.984	87.88
393.208	96.88
393.433	88.88
393.658	83.88
393.882	82.88
394.107	92.88
394.331	94.88
394.556	84.88
394.78	86.88
395.005	78.88
395.229	84.88
395.454	84.88
395.678	86.88
395.903	75.88
396.127	97.88
396.352	81.88
396.576	81.88
396.801	76.88
397.025	88.88
397.249	90.88
397.474	89.88
397.698	90.88
397.922	96.88
398.147	94.88
398.371	87.88
398.595	76.88
398.82	87.88
399.044	83.88
399.268	91.88
399.492	87.88
399.717	104.88
399.941	95.88
400.165	85.88
400.389	75.88
400.613	80.88
400.837	84.88
401.062	75.88
401.286	81.88
401.51	91.88
401.734	97.88
401.958	92.88
402.182	116.88
402.406	160.88
402.63	118.88
402.854	104.88
403.078	97.88
403.302	102.88
403.526	79.88
403.75	87.88
403.974	83.88
404.198	97.88
404.422	88.88
404.645	85.88
404.869	107.88
405.093	87.88
405.317	91.88
405.541	112.88
405.765	92.88
405.988	113.88
406.212	173.88
406.436	229.88
406.66	137.88
406.883	100.88
407.107	94.88
407.331	84.88
407.555	98.88
407.778	85.88
408.002	92.88
408.226	92.88
408.449	92.88
408.673	92.88
408.896	83.88
409.12	87.88
409.344	89.88
409.567	75.88
409.791	76.88
410.014	94.88
410.238	102.88
410.461	96.88
410.685	92.88
410.908	89.88
411.132	94.88
411.355	86.88
411.578	87.88
411.802	90.88
412.025	95.88
412.249	84.88
412.472	93.88
412.695	93.88
412.919	93.88
413.142	84.88
413.365	89.88
413.589	90.88
413.812	74.88
414.035	77.88
414.258	92.88
414.482	85.88
414.705	74.88
414.928	82.88
415.151	93.88
415.374	83.88
415.597	84.88
415.821	75.88
416.044	88.88
416.267	78.88
416.49	90.88
416.713	91.88
416.936	77.88
417.159	94.88
417.382	93.88
417.605	86.88
417.828	85.88
418.051	79.88
418.274	101.88
418.497	94.88
418.72	79.88
418.943	85.88
419.166	91.88
419.389	93.88
419.611	88.88
419.834	93.88
420.057	94.88
420.28	90.88
420.503	83.88
420.726	79.88
420.948	74.88
421.171	100.88
421.394	89.88
421.617	87.88
421.839	87.88
422.062	84.88
422.285	101.88
422.507	100.88
422.73	101.88
422.953	95.88
423.175	100.88
423.398	73.88
423.621	92.88
423.843	87.88
424.066	84.88
424.288	69.88
424.511	90.88
424.733	111.88
424.956	96.88
425.178	107.88
425.401	96.88
425.623	100.88
425.846	87.88
426.068	109.88
426.291	82.88
426.513	89.88
426.735	101.88
426.958	89.88
427.18	103.88
427.402	117.88
427.625	145.88
427.847	132.88
428.069	109.88
428.292	84.88
428.514	80.88
428.736	97.88
428.958	77.88
429.181	78.88
429.403	83.88
429.625	84.88
429.847	97.88
430.069	84.88
430.292	92.88
430.514	95.88
430.736	81.88
430.958	95.88
431.18	91.88
431.402	91.88
431.624	74.88
431.846	89.88
432.068	84.88
432.29	79.88
432.512	94.88
432.734	85.88
432.956	87.88
433.178	90.88
433.4	106.88
433.622	82.88
433.844	98.88
434.066	83.88
434.287	71.88
434.509	82.88
434.731	87.88
434.953	89.88
435.175	86.88
435.397	88.88
435.618	80.88
435.84	83.88
436.062	98.88
436.284	106.88
436.505	87.88
436.727	87.88
436.949	97.88
437.17	102.88
437.392	88.88
437.614	78.88
437.835	92.88
438.057	127.88
438.278	113.88
438.5	93.88
438.721	112.88
438.943	99.88
439.165	87.88
439.386	85.88
439.608	83.88
439.829	106.88
440.05	112.88
440.272	121.88
440.493	108.88
440.715	91.88
440.936	83.88
441.158	77.88
441.379	90.88
441.6	105.88
441.822	83.88
442.043	86.88
442.264	117.88
442.486	100.88
442.707	93.88
442.928	108.88
443.149	129.88
443.371	126.88
443.592	107.88
443.813	105.88
444.034	96.88
444.255	89.88
444.476	96.88
444.698	82.88
444.919	83.88
445.14	128.88
445.361	130.88
445.582	120.88
445.803	125.88
446.024	125.88
446.245	121.88
446.466	96.88
446.687	90.88
446.908	79.88
447.129	94.88
447.35	97.88
447.571	90.88
447.792	94.88
448.013	95.88
448.234	105.88
448.455	83.88
448.675	115.88
448.896	104.88
449.117	91.88
449.338	87.88
449.559	114.88
449.779	124.88
450	104.88
450.221	88.88
450.442	80.88
450.662	82.88
450.883	97.88
451.104	107.88
451.324	97.88
451.545	90.88
451.766	89.88
451.986	90.88
452.207	90.88
452.428	82.88
452.648	90.88
452.869	101.88
453.089	97.88
453.31	113.88
453.53	94.88
453.751	93.88
453.971	107.88
454.192	111.88
454.412	85.88
454.633	83.88
454.853	95.88
455.073	92.88
455.294	96.88
455.514	93.88
455.734	79.88
455.955	83.88
456.175	86.88
456.395	79.88
456.616	100.88
456.836	97.88
457.056	82.88
457.276	86.88
457.497	84.88
457.717	89.88
457.937	83.88
458.157	101.88
458.377	95.88
458.598	113.88
458.818	155.88
459.038	165.88
459.258	112.88
459.478	101.88
459.698	79.88
459.918	87.88
460.138	88.88
460.358	89.88
460.578	95.88
460.798	85.88
461.018	89.88
461.238	91.88
461.458	88.88
461.678	89.88
461.898	79.88
462.118	92.88
462.338	78.88
462.558	82.88
462.777	85.88
462.997	71.88
463.217	73.88
463.437	94.88
463.657	83.88
463.876	86.88
464.096	82.88
464.316	101.88
464.536	95.88
464.755	92.88
464.975	114.88
465.195	175.88
465.414	156.88
465.634	99.88
465.854	86.88
466.073	81.88
466.293	91.88
466.512	80.88
466.732	74.88
466.951	88.88
467.171	95.88
467.391	106.88
467.61	109.88
467.829	100.88
468.049	114.88
468.268	135.88
468.488	84.88
468.707	89.88
468.927	92.88
469.146	94.88
469.365	95.88
469.585	83.88
469.804	101.88
470.023	85.88
470.243	104.88
470.462	87.88
470.681	103.88
470.901	94.88
471.12	81.88
471.339	81.88
471.558	99.88
471.777	94.88
471.997	96.88
472.216	155.88
472.435	229.88
472.654	112.88
472.873	91.88
473.092	86.88
473.311	78.88
473.53	92.88
473.749	71.88
473.968	89.88
474.187	97.88
474.406	91.88
474.625	85.88
474.844	83.88
475.063	88.88
475.282	105.88
475.501	80.88
475.72	88.88
475.939	78.88
476.158	73.88
476.377	80.88
476.596	80.88
476.814	81.88
477.033	99.88
477.252	83.88
477.471	74.88
477.69	80.88
477.908	88.88
478.127	103.88
478.346	107.88
478.564	82.88
478.783	101.88
479.002	90.88
479.22	91.88
479.439	88.88
479.658	106.88
479.876	96.88
480.095	82.88
480.313	90.88
480.532	94.88
480.751	106.88
480.969	136.88
481.188	357.88
481.406	221.88
481.624	119.88
481.843	96.88
482.061	85.88
482.28	99.88
482.498	96.88
482.717	91.88
482.935	86.88
483.153	97.88
483.372	85.88
483.59	106.88
483.808	96.88
484.027	101.88
484.245	91.88
484.463	85.88
484.681	90.88
484.9	89.88
485.118	82.88
485.336	103.88
485.554	99.88
485.772	99.88
485.99	91.88
486.209	111.88
486.427	101.88
486.645	89.88
486.863	107.88
487.081	100.88
487.299	96.88
487.517	85.88
487.735	81.88
487.953	108.88
488.171	84.88
488.389	93.88
488.607	101.88
488.825	77.88
489.043	89.88
489.261	93.88
489.479	93.88
489.696	88.88
489.914	71.88
490.132	94.88
490.35	95.88
490.568	80.88
490.786	84.88
491.003	80.88
491.221	85.88
491.439	93.88
491.657	93.88
491.874	82.88
492.092	101.88
492.31	103.88
492.527	93.88
492.745	88.88
492.963	88.88
493.18	87.88
493.398	93.88
493.615	88.88
493.833	91.88
494.05	95.88
494.268	94.88
494.485	106.88
494.703	96.88
494.92	89.88
495.138	98.88
495.355	97.88
495.573	86.88
495.79	101.88
496.008	96.88
496.225	83.88
496.442	80.88
496.66	96.88
496.877	79.88
497.094	81.88
497.312	94.88
497.529	96.88
497.746	96.88
497.963	83.88
498.181	83.88
498.398	95.88
498.615	104.88
498.832	82.88
499.049	95.88
499.267	94.88
499.484	88.88
499.701	93.88
499.918	85.88
500.135	96.88
500.352	89.88
500.569	82.88
500.786	97.88
501.003	90.88
501.22	88.88
501.437	87.88
501.654	89.88
501.871	87.88
502.088	89.88
502.305	81.88
502.522	87.88
502.739	99.88
502.956	89.88
503.172	69.88
503.389	95.88
503.606	103.88
503.823	103.88
504.04	97.88
504.256	81.88
504.473	87.88
504.69	87.88
504.907	102.88
505.123	96.88
505.34	99.88
505.557	90.88
505.773	93.88
505.99	85.88
506.207	83.88
506.423	87.88
506.64	84.88
506.856	84.88
507.073	94.88
507.289	99.88
507.506	101.88
507.722	105.88
507.939	104.88
508.155	92.88
508.372	87.88
508.588	88.88
508.805	89.88
509.021	95.88
509.238	100.88
509.454	98.88
509.67	101.88
509.887	103.88
510.103	130.88
510.319	213.88
510.536	810.88
510.752	2603.88
510.968	698.88
511.184	150.88
511.401	100.88
511.617	96.88
511.833	93.88
512.049	94.88
512.265	90.88
512.481	84.88
512.698	90.88
512.914	91.88
513.13	96.88
513.346	101.88
513.562	97.88
513.778	100.88
513.994	110.88
514.21	92.88
514.426	120.88
514.642	117.88
514.858	126.88
515.074	164.88
515.29	462.88
515.506	1526.88
515.721	536.88
515.937	169.88
516.153	105.88
