Data from Circ_1994_H10_HRD10591_00061.txt Node
Date: Wed Jan 03 11:40:42 EST 2024
User: Yrep
Spectrometer: HR+D1059
Trigger mode: 1
Integration Time (sec): 1.000000E-1
Scans to average: 1
Electric dark correction enabled: true
Nonlinearity correction enabled: false
Boxcar width: 0
XAxis mode: Wavelengths
Number of Pixels in Spectrum: 2048
>>>>>Begin Spectral Data<<<<<
223.165	-14
223.4	-14
223.635	-14
223.869	-16
224.104	-10
224.338	-28
224.573	-18
224.808	-17
225.042	-17
225.277	-9
225.511	-8
225.746	4
225.98	14
226.215	27
226.449	12
226.683	25
226.918	25
227.152	30
227.387	29
227.621	39
227.856	37
228.09	51
228.324	64
228.559	50
228.793	61
229.027	49
229.262	56
229.496	64
229.73	83
229.964	85
230.199	79
230.433	81
230.667	77
230.901	85
231.136	74
231.37	76
231.604	78
231.838	74
232.072	75
232.306	79
232.541	85
232.775	87
233.009	75
233.243	98
233.477	84
233.711	101
233.945	75
234.179	76
234.413	72
234.647	84
234.881	79
235.115	65
235.349	90
235.583	75
235.817	66
236.051	85
236.285	72
236.519	72
236.753	82
236.987	82
237.221	89
237.455	87
237.689	79
237.922	67
238.156	65
238.39	87
238.624	68
238.858	71
239.091	82
239.325	83
239.559	87
239.793	73
240.027	69
240.26	92
240.494	82
240.728	65
240.961	71
241.195	75
241.429	88
241.662	80
241.896	75
242.13	77
242.363	82
242.597	76
242.83	63
243.064	74
243.298	71
243.531	72
243.765	66
243.998	68
244.232	86
244.465	81
244.699	84
244.932	85
245.166	73
245.399	95
245.633	87
245.866	74
246.099	66
246.333	75
246.566	71
246.8	76
247.033	69
247.266	83
247.5	66
247.733	66
247.966	74
248.2	80
248.433	87
248.666	78
248.899	79
249.133	79
249.366	98
249.599	89
249.832	81
250.066	71
250.299	84
250.532	64
250.765	97
250.998	82
251.231	83
251.465	81
251.698	63
251.931	85
252.164	78
252.397	86
252.63	76
252.863	72
253.096	74
253.329	85
253.562	83
253.795	80
254.028	83
254.261	77
254.494	68
254.727	82
254.96	85
255.193	82
255.426	78
255.659	74
255.892	82
256.124	81
256.357	70
256.59	75
256.823	77
257.056	99
257.289	78
257.521	79
257.754	85
257.987	82
258.22	89
258.452	85
258.685	93
258.918	74
259.151	75
259.383	80
259.616	80
259.849	83
260.081	86
260.314	70
260.547	77
260.779	80
261.012	87
261.244	89
261.477	102
261.71	92
261.942	107
262.175	92
262.407	85
262.64	88
262.872	66
263.105	84
263.337	85
263.57	83
263.802	86
264.035	89
264.267	79
264.499	93
264.732	89
264.964	75
265.197	93
265.429	78
265.661	82
265.894	81
266.126	93
266.358	91
266.591	77
266.823	85
267.055	87
267.287	97
267.52	80
267.752	90
267.984	87
268.216	87
268.448	80
268.681	98
268.913	94
269.145	93
269.377	85
269.609	78
269.841	79
270.073	79
270.306	82
270.538	96
270.77	91
271.002	82
271.234	76
271.466	83
271.698	77
271.93	79
272.162	90
272.394	96
272.626	83
272.858	86
273.09	90
273.322	87
273.553	98
273.785	97
274.017	72
274.249	83
274.481	81
274.713	89
274.945	74
275.176	91
275.408	94
275.64	84
275.872	83
276.104	91
276.335	93
276.567	93
276.799	93
277.031	86
277.262	95
277.494	83
277.726	92
277.957	94
278.189	87
278.421	79
278.652	78
278.884	86
279.115	92
279.347	83
279.579	68
279.81	91
280.042	100
280.273	81
280.505	92
280.736	81
280.968	69
281.199	86
281.431	92
281.662	82
281.894	89
282.125	94
282.356	103
282.588	121
282.819	114
283.051	87
283.282	99
283.513	98
283.745	87
283.976	84
284.207	93
284.439	101
284.67	78
284.901	87
285.132	92
285.364	75
285.595	76
285.826	90
286.057	92
286.288	90
286.52	84
286.751	91
286.982	90
287.213	88
287.444	95
287.675	92
287.906	89
288.138	86
288.369	86
288.6	97
288.831	81
289.062	83
289.293	102
289.524	93
289.755	97
289.986	77
290.217	86
290.448	83
290.679	93
290.91	83
291.141	94
291.371	105
291.602	86
291.833	81
292.064	89
292.295	83
292.526	79
292.757	80
292.987	94
293.218	105
293.449	75
293.68	90
293.91	92
294.141	90
294.372	87
294.603	88
294.833	100
295.064	86
295.295	97
295.525	99
295.756	113
295.987	121
296.217	122
296.448	124
296.679	86
296.909	77
297.14	91
297.37	82
297.601	72
297.831	79
298.062	81
298.292	86
298.523	79
298.753	87
298.984	91
299.214	85
299.445	85
299.675	83
299.905	115
300.136	85
300.366	89
300.597	85
300.827	92
301.057	77
301.288	109
301.518	77
301.748	94
301.979	103
302.209	78
302.439	81
302.669	75
302.9	81
303.13	100
303.36	98
303.59	105
303.82	94
304.051	92
304.281	99
304.511	93
304.741	92
304.971	89
305.201	101
305.431	83
305.661	83
305.891	101
306.121	105
306.352	92
306.582	103
306.812	101
307.042	84
307.272	104
307.502	86
307.731	95
307.961	98
308.191	104
308.421	101
308.651	81
308.881	92
309.111	92
309.341	94
309.571	99
309.8	95
310.03	99
310.26	104
310.49	96
310.72	92
310.949	92
311.179	89
311.409	89
311.639	103
311.868	104
312.098	104
312.328	99
312.557	90
312.787	104
313.017	103
313.246	100
313.476	97
313.706	87
313.935	98
314.165	83
314.394	93
314.624	88
314.853	88
315.083	83
315.312	101
315.542	94
315.771	91
316.001	84
316.23	81
316.46	106
316.689	102
316.919	88
317.148	99
317.377	85
317.607	98
317.836	94
318.065	101
318.295	90
318.524	82
318.753	91
318.983	93
319.212	96
319.441	105
319.67	104
319.9	92
320.129	97
320.358	79
320.587	95
320.816	90
321.046	100
321.275	117
321.504	105
321.733	93
321.962	95
322.191	90
322.42	97
322.649	91
322.878	92
323.108	101
323.337	101
323.566	127
323.795	151
324.024	181
324.253	329
324.482	709
324.71	1460
324.939	1870
325.168	732
325.397	224
325.626	140
325.855	117
326.084	98
326.313	112
326.542	130
326.77	193
326.999	399
327.228	793
327.457	1448
327.686	1143
327.914	331
328.143	193
328.372	155
328.6	140
328.829	127
329.058	116
329.287	108
329.515	107
329.744	102
329.972	106
330.201	142
330.43	160
330.658	138
330.887	130
331.115	118
331.344	105
331.572	101
331.801	106
332.03	100
332.258	95
332.486	85
332.715	79
332.943	94
333.172	89
333.4	97
333.629	98
333.857	111
334.085	119
334.314	135
334.542	172
334.771	160
334.999	103
335.227	104
335.455	99
335.684	101
335.912	93
336.14	102
336.369	88
336.597	98
336.825	98
337.053	91
337.281	112
337.51	99
337.738	98
337.966	91
338.194	93
338.422	90
338.65	96
338.878	95
339.106	96
339.334	92
339.562	100
339.79	87
340.018	84
340.246	106
340.474	84
340.702	95
340.93	89
341.158	75
341.386	98
341.614	86
341.842	100
342.07	88
342.298	89
342.526	84
342.754	85
342.981	98
343.209	93
343.437	113
343.665	91
343.893	96
344.12	86
344.348	93
344.576	84
344.804	87
345.031	104
345.259	95
345.487	94
345.714	84
345.942	100
346.17	101
346.397	98
346.625	95
346.853	85
347.08	75
347.308	88
347.535	96
347.763	98
347.99	96
348.218	95
348.445	110
348.673	109
348.9	100
349.128	101
349.355	89
349.583	112
349.81	87
350.037	96
350.265	92
350.492	81
350.72	88
350.947	109
351.174	106
351.402	111
351.629	97
351.856	111
352.083	104
352.311	99
352.538	108
352.765	105
352.992	105
353.22	107
353.447	114
353.674	93
353.901	108
354.128	98
354.355	99
354.583	99
354.81	85
355.037	100
355.264	90
355.491	109
355.718	92
355.945	86
356.172	98
356.399	91
356.626	96
356.853	84
357.08	97
357.307	92
357.534	91
357.761	84
357.988	92
358.215	86
358.441	93
358.668	82
358.895	97
359.122	91
359.349	83
359.576	111
359.802	85
360.029	99
360.256	105
360.483	90
360.709	91
360.936	93
361.163	102
361.39	97
361.616	85
361.843	68
362.07	97
362.296	89
362.523	74
362.749	90
362.976	92
363.203	90
363.429	100
363.656	92
363.882	84
364.109	77
364.335	82
364.562	80
364.788	84
365.015	95
365.241	101
365.468	98
365.694	93
365.92	104
366.147	99
366.373	89
366.599	83
366.826	91
367.052	103
367.278	101
367.505	90
367.731	96
367.957	87
368.184	77
368.41	95
368.636	95
368.862	105
369.089	112
369.315	99
369.541	94
369.767	96
369.993	104
370.219	89
370.445	85
370.672	77
370.898	69
371.124	91
371.35	88
371.576	88
371.802	78
372.028	93
372.254	90
372.48	84
372.706	100
372.932	83
373.158	95
373.384	109
373.61	75
373.835	101
374.061	81
374.287	78
374.513	97
374.739	86
374.965	89
375.191	94
375.416	94
375.642	94
375.868	101
376.094	84
376.319	85
376.545	77
376.771	85
376.997	78
377.222	96
377.448	88
377.674	81
377.899	71
378.125	83
378.35	82
378.576	92
378.802	82
379.027	82
379.253	87
379.478	83
379.704	83
379.929	80
380.155	90
380.38	88
380.606	77
380.831	89
381.057	80
381.282	106
381.507	89
381.733	88
381.958	108
382.184	94
382.409	100
382.634	100
382.86	97
383.085	99
383.31	101
383.535	98
383.761	90
383.986	84
384.211	85
384.436	89
384.662	99
384.887	91
385.112	111
385.337	85
385.562	106
385.787	91
386.013	107
386.238	109
386.463	101
386.688	98
386.913	95
387.138	106
387.363	91
387.588	85
387.813	105
388.038	88
388.263	94
388.488	91
388.713	90
388.938	90
389.163	101
389.387	78
389.612	87
389.837	81
390.062	96
390.287	98
390.512	87
390.736	92
390.961	76
391.186	91
391.411	94
391.636	95
391.86	91
392.085	79
392.31	76
392.534	81
392.759	79
392.984	87
393.208	89
393.433	83
393.658	82
393.882	89
394.107	89
394.331	74
394.556	82
394.78	87
395.005	88
395.229	78
395.454	85
395.678	93
395.903	100
396.127	83
396.352	79
396.576	82
396.801	87
397.025	78
397.249	89
397.474	90
397.698	85
397.922	92
398.147	90
398.371	83
398.595	79
398.82	88
399.044	82
399.268	68
399.492	95
399.717	95
399.941	77
400.165	84
400.389	86
400.613	88
400.837	93
401.062	70
401.286	102
401.51	84
401.734	75
401.958	77
402.182	116
402.406	145
402.63	130
402.854	98
403.078	84
403.302	81
403.526	96
403.75	79
403.974	89
404.198	95
404.422	85
404.645	87
404.869	100
405.093	81
405.317	107
405.541	91
405.765	98
405.988	116
406.212	151
406.436	207
406.66	149
406.883	98
407.107	83
407.331	89
407.555	105
407.778	109
408.002	83
408.226	79
408.449	71
408.673	88
408.896	89
409.12	84
409.344	86
409.567	81
409.791	105
410.014	81
410.238	109
410.461	88
410.685	91
410.908	78
411.132	84
411.355	100
411.578	92
411.802	83
412.025	90
412.249	87
412.472	98
412.695	91
412.919	93
413.142	98
413.365	88
413.589	105
413.812	76
414.035	81
414.258	93
414.482	89
414.705	90
414.928	87
415.151	85
415.374	87
415.597	101
415.821	98
416.044	89
416.267	84
416.49	95
416.713	76
416.936	77
417.159	80
417.382	94
417.605	101
417.828	101
418.051	94
418.274	90
418.497	82
418.72	85
418.943	87
419.166	95
419.389	74
419.611	86
419.834	99
420.057	94
420.28	78
420.503	94
420.726	92
420.948	84
421.171	88
421.394	80
421.617	92
421.839	104
422.062	80
422.285	74
422.507	87
422.73	96
422.953	94
423.175	86
423.398	81
423.621	84
423.843	79
424.066	89
424.288	83
424.511	85
424.733	93
424.956	93
425.178	99
425.401	90
425.623	93
425.846	86
426.068	99
426.291	79
426.513	94
426.735	85
426.958	99
427.18	100
427.402	128
427.625	143
427.847	114
428.069	112
428.292	99
428.514	86
428.736	95
428.958	79
429.181	69
429.403	78
429.625	81
429.847	82
430.069	92
430.292	89
430.514	72
430.736	65
430.958	89
431.18	74
431.402	83
431.624	89
431.846	75
432.068	94
432.29	87
432.512	84
432.734	89
432.956	90
433.178	98
433.4	81
433.622	90
433.844	83
434.066	79
434.287	88
434.509	88
434.731	82
434.953	83
435.175	89
435.397	99
435.618	95
435.84	95
436.062	125
436.284	91
436.505	96
436.727	103
436.949	81
437.17	82
437.392	82
437.614	88
437.835	94
438.057	99
438.278	100
438.5	105
438.721	105
438.943	93
439.165	89
439.386	76
439.608	77
439.829	99
440.05	125
440.272	135
440.493	94
440.715	89
440.936	72
441.158	83
441.379	82
441.6	94
441.822	93
442.043	95
442.264	84
442.486	97
442.707	75
442.928	104
443.149	118
443.371	124
443.592	90
443.813	101
444.034	102
444.255	92
444.476	86
444.698	92
444.919	80
445.14	121
445.361	114
445.582	107
445.803	112
446.024	124
446.245	115
446.466	87
446.687	86
446.908	85
447.129	91
447.35	88
447.571	84
447.792	84
448.013	92
448.234	97
448.455	88
448.675	102
448.896	105
449.117	94
449.338	91
449.559	119
449.779	117
450	86
450.221	94
450.442	85
450.662	79
450.883	97
451.104	95
451.324	92
451.545	96
451.766	82
451.986	90
452.207	88
452.428	94
452.648	103
452.869	113
453.089	105
453.31	99
453.53	90
453.751	92
453.971	92
454.192	99
454.412	90
454.633	88
454.853	95
455.073	75
455.294	101
455.514	88
455.734	86
455.955	91
456.175	82
456.395	79
456.616	84
456.836	77
457.056	101
457.276	86
457.497	75
457.717	89
457.937	79
458.157	89
458.377	75
458.598	98
458.818	131
459.038	143
459.258	100
459.478	93
459.698	96
459.918	79
460.138	73
460.358	79
460.578	84
460.798	85
461.018	73
461.238	90
461.458	89
461.678	74
461.898	85
462.118	87
462.338	80
462.558	88
462.777	80
462.997	81
463.217	77
463.437	90
463.657	81
463.876	81
464.096	91
464.316	92
464.536	94
464.755	94
464.975	101
465.195	157
465.414	153
465.634	89
465.854	84
466.073	85
466.293	89
466.512	80
466.732	80
466.951	90
467.171	97
467.391	93
467.61	99
467.829	75
468.049	119
468.268	111
468.488	93
468.707	83
468.927	100
469.146	88
469.365	95
469.585	91
469.804	90
470.023	89
470.243	86
470.462	95
470.681	108
470.901	97
471.12	94
471.339	91
471.558	92
471.777	87
471.997	89
472.216	160
472.435	235
472.654	130
472.873	93
473.092	83
473.311	80
473.53	85
473.749	75
473.968	82
474.187	90
474.406	97
474.625	89
474.844	83
475.063	95
475.282	70
475.501	90
475.72	86
475.939	87
476.158	80
476.377	87
476.596	93
476.814	97
477.033	91
477.252	79
477.471	83
477.69	86
477.908	81
478.127	95
478.346	81
478.564	79
478.783	102
479.002	98
479.22	91
479.439	89
479.658	98
479.876	91
480.095	92
480.313	96
480.532	91
480.751	99
480.969	168
481.188	330
481.406	233
481.624	103
481.843	96
482.061	97
482.28	92
482.498	93
482.717	89
482.935	89
483.153	89
483.372	97
483.59	82
483.808	77
484.027	92
484.245	76
484.463	88
484.681	89
484.9	88
485.118	89
485.336	112
485.554	99
485.772	95
485.99	98
486.209	104
486.427	88
486.645	107
486.863	105
487.081	106
487.299	90
487.517	103
487.735	97
487.953	97
488.171	95
488.389	79
488.607	91
488.825	81
489.043	96
489.261	89
489.479	98
489.696	91
489.914	81
490.132	83
490.35	91
490.568	84
490.786	87
491.003	95
491.221	98
491.439	87
491.657	88
491.874	83
492.092	95
492.31	87
492.527	87
492.745	75
492.963	90
493.18	97
493.398	97
493.615	92
493.833	91
494.05	81
494.268	81
494.485	87
494.703	95
494.92	92
495.138	92
495.355	85
495.573	91
495.79	86
496.008	77
496.225	84
496.442	86
496.66	91
496.877	80
497.094	83
497.312	83
497.529	83
497.746	88
497.963	90
498.181	84
498.398	83
498.615	105
498.832	109
499.049	91
499.267	87
499.484	95
499.701	83
499.918	95
500.135	93
500.352	90
500.569	91
500.786	94
501.003	85
501.22	92
501.437	101
501.654	104
501.871	95
502.088	91
502.305	100
502.522	91
502.739	90
502.956	81
503.172	99
503.389	100
503.606	94
503.823	98
504.04	93
504.256	90
504.473	84
504.69	98
504.907	96
505.123	90
505.34	83
505.557	99
505.773	96
505.99	105
506.207	82
506.423	87
506.64	87
506.856	91
507.073	98
507.289	90
507.506	107
507.722	111
507.939	113
508.155	86
508.372	74
508.588	83
508.805	91
509.021	86
509.238	88
509.454	100
509.67	100
509.887	96
510.103	130
510.319	196
510.536	757
510.752	2256
510.968	623
511.184	145
511.401	112
511.617	87
511.833	95
512.049	106
512.265	87
512.481	95
512.698	86
512.914	91
513.13	84
513.346	72
513.562	96
513.778	76
513.994	96
514.21	90
514.426	109
514.642	121
514.858	108
515.074	162
515.29	411
515.506	1294
515.721	485
515.937	153
516.153	95
516.369	90
516.585	96
516.801	82
517.016	98
517.232	89
517.448	99
517.664	86
517.879	95
518.095	96
518.311	85
518.527	75
518.742	82
518.958	89
519.173	97
519.389	84
519.605	105
519.82	87
520.036	103
520.251	128
520.467	98
520.682	95
520.898	99
521.113	116
521.329	135
521.544	186
521.76	499
521.975	2162
522.19	1290
522.406	276
522.621	114
522.836	96
523.052	96
523.267	103
523.482	93
523.698	92
523.913	99
524.128	99
524.343	100
524.559	106
524.774	100
524.989	91
525.204	91
525.419	97
525.634	89
525.849	89
526.064	85
526.28	79
526.495	99
526.71	96
526.925	76
527.14	92
527.355	98
527.57	95
527.785	91
527.999	99
528.214	89
528.429	108
528.644	77
528.859	73
529.074	97
529.289	125
529.503	142
529.718	121
529.933	88
530.148	92
530.363	88
530.577	90
530.792	80
531.007	94
531.221	90
531.436	73
531.651	96
531.865	80
532.08	94
532.295	86
532.509	91
532.724	99
532.938	97
533.153	104
533.367	95
533.582	90
533.796	85
534.011	87
534.225	98
534.44	83
534.654	88
534.868	93
535.083	85
535.297	94
535.511	101
535.726	104
535.94	90
536.154	99
536.369	92
536.583	89
536.797	88
537.011	78
537.225	97
537.44	75
537.654	89
537.868	81
538.082	96
538.296	93
538.51	96
538.724	84
538.938	85
539.153	90
539.367	105
539.581	89
539.795	85
540.009	96
540.222	90
540.436	104
540.65	89
540.864	101
541.078	98
541.292	90
541.506	69
541.72	66
541.934	89
542.147	85
542.361	87
542.575	89
542.789	86
543.002	89
543.216	82
543.43	93
543.644	99
543.857	85
544.071	92
544.285	99
544.498	98
544.712	95
544.925	91
545.139	85
545.352	104
545.566	88
545.779	97
545.993	90
546.206	81
546.42	84
546.633	90
546.847	94
547.06	95
547.274	81
547.487	99
547.7	93
547.914	84
548.127	85
548.34	81
548.554	72
548.767	98
548.98	93
549.193	93
549.407	71
549.62	96
549.833	93
550.046	104
550.259	94
550.473	91
550.686	86
550.899	84
551.112	80
551.325	82
551.538	100
551.751	84
551.964	81
552.177	83
552.39	81
552.603	67
552.816	92
553.029	93
553.242	99
553.455	87
553.667	89
553.88	104
554.093	93
554.306	107
554.519	81
554.732	79
554.944	106
555.157	102
555.37	105
555.583	96
555.795	95
556.008	98
556.221	89
556.433	90
556.646	94
556.859	103
557.071	102
557.284	72
557.496	80
557.709	98
557.921	96
558.134	93
558.346	79
558.559	80
558.771	93
558.984	94
559.196	90
559.409	81
559.621	90
559.833	88
560.046	76
560.258	89
560.47	88
560.683	78
560.895	86
561.107	87
561.32	84
561.532	77
561.744	87
561.956	88
562.168	77
562.381	85
562.593	95
562.805	78
563.017	76
563.229	74
563.441	88
563.653	93
563.865	87
564.077	86
564.289	82
564.501	83
564.713	99
564.925	95
565.137	113
565.349	78
565.561	101
565.773	88
565.985	84
566.197	81
566.408	80
566.62	91
566.832	86
567.044	86
567.255	91
567.467	82
567.679	77
567.891	105
568.102	83
568.314	86
568.526	79
568.737	89
568.949	83
569.161	93
569.372	97
569.584	81
569.795	90
570.007	104
570.218	207
570.43	131
570.641	92
570.853	82
571.064	93
571.276	67
571.487	81
571.698	96
571.91	81
572.121	88
572.333	97
572.544	77
572.755	85
572.966	99
573.178	86
573.389	78
573.6	86
573.811	93
574.023	86
574.234	100
574.445	104
574.656	91
574.867	87
575.078	79
575.289	74
575.501	89
575.712	78
575.923	71
576.134	87
576.345	97
576.556	91
576.767	82
576.978	90
577.188	91
577.399	89
577.61	92
577.821	96
578.032	111
578.243	245
578.454	710
578.665	189
578.875	95
579.086	87
579.297	83
579.508	94
579.718	85
579.929	97
580.14	82
580.35	73
580.561	72
580.772	65
580.982	71
581.193	85
581.403	81
581.614	93
581.825	87
582.035	83
582.246	88
582.456	88
582.667	71
582.877	96
583.087	71
583.298	90
583.508	87
583.719	85
583.929	90
584.139	94
584.35	66
584.56	99
584.77	76
584.981	76
585.191	69
585.401	81
585.611	78
