Data from Circ_1994_H10_HRD10591_00032.txt Node
Date: Wed Jan 03 11:40:36 EST 2024
User: Yrep
Spectrometer: HR+D1059
Trigger mode: 1
Integration Time (sec): 1.000000E-1
Scans to average: 1
Electric dark correction enabled: true
Nonlinearity correction enabled: false
Boxcar width: 0
XAxis mode: Wavelengths
Number of Pixels in Spectrum: 2048
>>>>>Begin Spectral Data<<<<<
223.165	-12.12
223.4	-12.12
223.635	-12.12
223.869	-32.12
224.104	-19.12
224.338	-13.12
224.573	-5.12
224.808	-16.12
225.042	-15.12
225.277	-11.12
225.511	-5.12
225.746	0.88
225.98	11.88
226.215	22.88
226.449	15.88
226.683	17.88
226.918	23.88
227.152	35.88
227.387	40.88
227.621	30.88
227.856	54.88
228.09	49.88
228.324	53.88
228.559	57.88
228.793	55.88
229.027	60.88
229.262	75.88
229.496	72.88
229.73	79.88
229.964	88.88
230.199	65.88
230.433	78.88
230.667	76.88
230.901	78.88
231.136	70.88
231.37	81.88
231.604	85.88
231.838	82.88
232.072	68.88
232.306	70.88
232.541	95.88
232.775	79.88
233.009	83.88
233.243	67.88
233.477	80.88
233.711	66.88
233.945	62.88
234.179	83.88
234.413	80.88
234.647	88.88
234.881	82.88
235.115	74.88
235.349	81.88
235.583	87.88
235.817	77.88
236.051	92.88
236.285	93.88
236.519	64.88
236.753	90.88
236.987	78.88
237.221	86.88
237.455	80.88
237.689	73.88
237.922	77.88
238.156	82.88
238.39	75.88
238.624	66.88
238.858	88.88
239.091	82.88
239.325	84.88
239.559	81.88
239.793	79.88
240.027	78.88
240.26	74.88
240.494	81.88
240.728	82.88
240.961	87.88
241.195	70.88
241.429	67.88
241.662	78.88
241.896	74.88
242.13	78.88
242.363	76.88
242.597	76.88
242.83	65.88
243.064	77.88
243.298	65.88
243.531	75.88
243.765	79.88
243.998	68.88
244.232	87.88
244.465	92.88
244.699	65.88
244.932	80.88
245.166	67.88
245.399	66.88
245.633	85.88
245.866	78.88
246.099	73.88
246.333	81.88
246.566	78.88
246.8	85.88
247.033	66.88
247.266	65.88
247.5	76.88
247.733	83.88
247.966	83.88
248.2	75.88
248.433	88.88
248.666	78.88
248.899	70.88
249.133	71.88
249.366	79.88
249.599	82.88
249.832	78.88
250.066	89.88
250.299	83.88
250.532	77.88
250.765	94.88
250.998	75.88
251.231	77.88
251.465	74.88
251.698	82.88
251.931	91.88
252.164	90.88
252.397	81.88
252.63	89.88
252.863	84.88
253.096	80.88
253.329	58.88
253.562	74.88
253.795	76.88
254.028	75.88
254.261	84.88
254.494	87.88
254.727	82.88
254.96	64.88
255.193	85.88
255.426	83.88
255.659	79.88
255.892	99.88
256.124	79.88
256.357	84.88
256.59	87.88
256.823	76.88
257.056	81.88
257.289	79.88
257.521	72.88
257.754	80.88
257.987	90.88
258.22	83.88
258.452	83.88
258.685	83.88
258.918	67.88
259.151	85.88
259.383	75.88
259.616	73.88
259.849	90.88
260.081	76.88
260.314	80.88
260.547	87.88
260.779	88.88
261.012	89.88
261.244	72.88
261.477	90.88
261.71	86.88
261.942	107.88
262.175	98.88
262.407	86.88
262.64	91.88
262.872	86.88
263.105	85.88
263.337	81.88
263.57	81.88
263.802	79.88
264.035	99.88
264.267	76.88
264.499	83.88
264.732	89.88
264.964	82.88
265.197	90.88
265.429	91.88
265.661	81.88
265.894	85.88
266.126	90.88
266.358	71.88
266.591	80.88
266.823	73.88
267.055	82.88
267.287	85.88
267.52	79.88
267.752	72.88
267.984	72.88
268.216	97.88
268.448	79.88
268.681	96.88
268.913	82.88
269.145	72.88
269.377	81.88
269.609	72.88
269.841	86.88
270.073	72.88
270.306	93.88
270.538	85.88
270.77	85.88
271.002	80.88
271.234	79.88
271.466	89.88
271.698	90.88
271.93	83.88
272.162	84.88
272.394	78.88
272.626	81.88
272.858	82.88
273.09	79.88
273.322	87.88
273.553	70.88
273.785	72.88
274.017	66.88
274.249	93.88
274.481	84.88
274.713	78.88
274.945	79.88
275.176	77.88
275.408	91.88
275.64	67.88
275.872	98.88
276.104	92.88
276.335	88.88
276.567	87.88
276.799	92.88
277.031	96.88
277.262	76.88
277.494	79.88
277.726	72.88
277.957	82.88
278.189	94.88
278.421	91.88
278.652	94.88
278.884	86.88
279.115	77.88
279.347	95.88
279.579	88.88
279.81	72.88
280.042	94.88
280.273	83.88
280.505	94.88
280.736	62.88
280.968	84.88
281.199	98.88
281.431	88.88
281.662	79.88
281.894	89.88
282.125	88.88
282.356	110.88
282.588	115.88
282.819	106.88
283.051	87.88
283.282	86.88
283.513	99.88
283.745	87.88
283.976	84.88
284.207	75.88
284.439	73.88
284.67	78.88
284.901	70.88
285.132	82.88
285.364	84.88
285.595	99.88
285.826	76.88
286.057	81.88
286.288	79.88
286.52	86.88
286.751	79.88
286.982	96.88
287.213	85.88
287.444	84.88
287.675	94.88
287.906	81.88
288.138	84.88
288.369	100.88
288.6	90.88
288.831	77.88
289.062	98.88
289.293	74.88
289.524	83.88
289.755	84.88
289.986	78.88
290.217	82.88
290.448	83.88
290.679	88.88
290.91	86.88
291.141	68.88
291.371	80.88
291.602	87.88
291.833	72.88
292.064	76.88
292.295	93.88
292.526	83.88
292.757	96.88
292.987	86.88
293.218	77.88
293.449	101.88
293.68	79.88
293.91	77.88
294.141	76.88
294.372	89.88
294.603	82.88
294.833	94.88
295.064	80.88
295.295	89.88
295.525	101.88
295.756	88.88
295.987	108.88
296.217	118.88
296.448	114.88
296.679	96.88
296.909	96.88
297.14	94.88
297.37	86.88
297.601	89.88
297.831	86.88
298.062	94.88
298.292	90.88
298.523	94.88
298.753	80.88
298.984	75.88
299.214	83.88
299.445	89.88
299.675	90.88
299.905	93.88
300.136	83.88
300.366	91.88
300.597	80.88
300.827	81.88
301.057	110.88
301.288	96.88
301.518	78.88
301.748	98.88
301.979	90.88
302.209	83.88
302.439	96.88
302.669	82.88
302.9	90.88
303.13	87.88
303.36	84.88
303.59	103.88
303.82	81.88
304.051	82.88
304.281	102.88
304.511	81.88
304.741	88.88
304.971	94.88
305.201	90.88
305.431	90.88
305.661	93.88
305.891	80.88
306.121	92.88
306.352	97.88
306.582	102.88
306.812	85.88
307.042	96.88
307.272	79.88
307.502	92.88
307.731	98.88
307.961	95.88
308.191	106.88
308.421	65.88
308.651	72.88
308.881	78.88
309.111	103.88
309.341	98.88
309.571	90.88
309.8	78.88
310.03	75.88
310.26	86.88
310.49	96.88
310.72	92.88
310.949	97.88
311.179	96.88
311.409	90.88
311.639	70.88
311.868	91.88
312.098	82.88
312.328	93.88
312.557	83.88
312.787	90.88
313.017	105.88
313.246	98.88
313.476	79.88
313.706	82.88
313.935	87.88
314.165	90.88
314.394	89.88
314.624	90.88
314.853	99.88
315.083	81.88
315.312	88.88
315.542	68.88
315.771	95.88
316.001	83.88
316.23	95.88
316.46	86.88
316.689	97.88
316.919	86.88
317.148	90.88
317.377	99.88
317.607	84.88
317.836	97.88
318.065	90.88
318.295	76.88
318.524	83.88
318.753	92.88
318.983	85.88
319.212	100.88
319.441	97.88
319.67	110.88
319.9	89.88
320.129	90.88
320.358	92.88
320.587	93.88
320.816	99.88
321.046	90.88
321.275	92.88
321.504	111.88
321.733	80.88
321.962	97.88
322.191	90.88
322.42	112.88
322.649	104.88
322.878	115.88
323.108	110.88
323.337	107.88
323.566	112.88
323.795	140.88
324.024	147.88
324.253	326.88
324.482	692.88
324.71	1372.88
324.939	1748.88
325.168	668.88
325.397	221.88
325.626	119.88
325.855	112.88
326.084	123.88
326.313	124.88
326.542	138.88
326.77	200.88
326.999	371.88
327.228	754.88
327.457	1352.88
327.686	1081.88
327.914	317.88
328.143	182.88
328.372	146.88
328.6	114.88
328.829	109.88
329.058	114.88
329.287	118.88
329.515	95.88
329.744	106.88
329.972	94.88
330.201	104.88
330.43	127.88
330.658	133.88
330.887	114.88
331.115	107.88
331.344	93.88
331.572	100.88
331.801	102.88
332.03	103.88
332.258	87.88
332.486	82.88
332.715	111.88
332.943	98.88
333.172	97.88
333.4	91.88
333.629	99.88
333.857	93.88
334.085	103.88
334.314	132.88
334.542	148.88
334.771	150.88
334.999	109.88
335.227	98.88
335.455	94.88
335.684	82.88
335.912	105.88
336.14	98.88
336.369	106.88
336.597	100.88
336.825	96.88
337.053	83.88
337.281	88.88
337.51	94.88
337.738	84.88
337.966	95.88
338.194	99.88
338.422	101.88
338.65	96.88
338.878	80.88
339.106	80.88
339.334	94.88
339.562	86.88
339.79	94.88
340.018	83.88
340.246	93.88
340.474	94.88
340.702	70.88
340.93	77.88
341.158	96.88
341.386	86.88
341.614	91.88
341.842	99.88
342.07	104.88
342.298	74.88
342.526	85.88
342.754	84.88
342.981	77.88
343.209	93.88
343.437	108.88
343.665	88.88
343.893	86.88
344.12	86.88
344.348	89.88
344.576	84.88
344.804	81.88
345.031	83.88
345.259	104.88
345.487	93.88
345.714	108.88
345.942	91.88
346.17	86.88
346.397	90.88
346.625	93.88
346.853	92.88
347.08	84.88
347.308	97.88
347.535	82.88
347.763	77.88
347.99	109.88
348.218	103.88
348.445	99.88
348.673	98.88
348.9	90.88
349.128	88.88
349.355	88.88
349.583	86.88
349.81	97.88
350.037	98.88
350.265	83.88
350.492	88.88
350.72	97.88
350.947	102.88
351.174	80.88
351.402	104.88
351.629	98.88
351.856	90.88
352.083	91.88
352.311	91.88
352.538	104.88
352.765	107.88
352.992	106.88
353.22	109.88
353.447	108.88
353.674	82.88
353.901	100.88
354.128	90.88
354.355	106.88
354.583	94.88
354.81	102.88
355.037	93.88
355.264	100.88
355.491	95.88
355.718	80.88
355.945	94.88
356.172	102.88
356.399	107.88
356.626	99.88
356.853	94.88
357.08	99.88
357.307	99.88
357.534	98.88
357.761	81.88
357.988	101.88
358.215	100.88
358.441	94.88
358.668	89.88
358.895	90.88
359.122	79.88
359.349	93.88
359.576	98.88
359.802	104.88
360.029	94.88
360.256	101.88
360.483	89.88
360.709	78.88
360.936	104.88
361.163	88.88
361.39	95.88
361.616	82.88
361.843	84.88
362.07	90.88
362.296	89.88
362.523	82.88
362.749	87.88
362.976	106.88
363.203	117.88
363.429	88.88
363.656	95.88
363.882	89.88
364.109	78.88
364.335	82.88
364.562	78.88
364.788	72.88
365.015	76.88
365.241	85.88
365.468	102.88
365.694	96.88
365.92	91.88
366.147	85.88
366.373	85.88
366.599	88.88
366.826	74.88
367.052	83.88
367.278	94.88
367.505	87.88
367.731	91.88
367.957	76.88
368.184	77.88
368.41	104.88
368.636	105.88
368.862	112.88
369.089	100.88
369.315	90.88
369.541	79.88
369.767	66.88
369.993	87.88
370.219	80.88
370.445	97.88
370.672	100.88
370.898	62.88
371.124	90.88
371.35	85.88
371.576	87.88
371.802	89.88
372.028	92.88
372.254	67.88
372.48	86.88
372.706	88.88
372.932	88.88
373.158	86.88
373.384	71.88
373.61	91.88
373.835	93.88
374.061	76.88
374.287	89.88
374.513	83.88
374.739	89.88
374.965	86.88
375.191	76.88
375.416	78.88
375.642	74.88
375.868	86.88
376.094	94.88
376.319	82.88
376.545	86.88
376.771	77.88
376.997	90.88
377.222	92.88
377.448	76.88
377.674	100.88
377.899	89.88
378.125	94.88
378.35	91.88
378.576	88.88
378.802	89.88
379.027	92.88
379.253	88.88
379.478	96.88
379.704	94.88
379.929	83.88
380.155	84.88
380.38	106.88
380.606	90.88
380.831	86.88
381.057	82.88
381.282	96.88
381.507	86.88
381.733	98.88
381.958	97.88
382.184	85.88
382.409	103.88
382.634	98.88
382.86	84.88
383.085	83.88
383.31	97.88
383.535	87.88
383.761	107.88
383.986	73.88
384.211	77.88
384.436	102.88
384.662	91.88
384.887	84.88
385.112	87.88
385.337	112.88
385.562	89.88
385.787	89.88
386.013	94.88
386.238	113.88
386.463	97.88
386.688	96.88
386.913	99.88
387.138	112.88
387.363	94.88
387.588	109.88
387.813	102.88
388.038	101.88
388.263	113.88
388.488	108.88
388.713	91.88
388.938	95.88
389.163	109.88
389.387	96.88
389.612	93.88
389.837	87.88
390.062	90.88
390.287	95.88
390.512	90.88
390.736	88.88
390.961	89.88
391.186	87.88
391.411	91.88
391.636	84.88
391.86	95.88
392.085	79.88
392.31	75.88
392.534	90.88
392.759	88.88
392.984	82.88
393.208	92.88
393.433	82.88
393.658	85.88
393.882	71.88
394.107	84.88
394.331	100.88
394.556	99.88
394.78	99.88
395.005	88.88
395.229	94.88
395.454	85.88
395.678	93.88
395.903	86.88
396.127	88.88
396.352	81.88
396.576	84.88
396.801	84.88
397.025	98.88
397.249	79.88
397.474	86.88
397.698	100.88
397.922	87.88
398.147	94.88
398.371	94.88
398.595	90.88
398.82	88.88
399.044	82.88
399.268	98.88
399.492	88.88
399.717	93.88
399.941	77.88
400.165	103.88
400.389	82.88
400.613	88.88
400.837	99.88
401.062	90.88
401.286	82.88
401.51	94.88
401.734	93.88
401.958	104.88
402.182	100.88
402.406	135.88
402.63	113.88
402.854	86.88
403.078	91.88
403.302	73.88
403.526	83.88
403.75	88.88
403.974	76.88
404.198	74.88
404.422	89.88
404.645	89.88
404.869	96.88
405.093	86.88
405.317	103.88
405.541	87.88
405.765	110.88
405.988	92.88
406.212	152.88
406.436	186.88
406.66	121.88
406.883	102.88
407.107	84.88
407.331	93.88
407.555	90.88
407.778	96.88
408.002	97.88
408.226	91.88
408.449	86.88
408.673	95.88
408.896	96.88
409.12	80.88
409.344	84.88
409.567	97.88
409.791	74.88
410.014	90.88
410.238	99.88
410.461	79.88
410.685	85.88
410.908	91.88
411.132	96.88
411.355	84.88
411.578	99.88
411.802	84.88
412.025	76.88
412.249	79.88
412.472	92.88
412.695	94.88
412.919	78.88
413.142	103.88
413.365	79.88
413.589	83.88
413.812	96.88
414.035	99.88
414.258	83.88
414.482	81.88
414.705	82.88
414.928	88.88
415.151	94.88
415.374	98.88
415.597	84.88
415.821	102.88
416.044	86.88
416.267	86.88
416.49	87.88
416.713	77.88
416.936	83.88
417.159	85.88
417.382	99.88
417.605	78.88
417.828	99.88
418.051	88.88
418.274	94.88
418.497	99.88
418.72	75.88
418.943	97.88
419.166	100.88
419.389	88.88
419.611	87.88
419.834	88.88
420.057	87.88
420.28	84.88
420.503	95.88
420.726	85.88
420.948	80.88
421.171	89.88
421.394	91.88
421.617	101.88
421.839	81.88
422.062	80.88
422.285	99.88
422.507	97.88
422.73	92.88
422.953	95.88
423.175	91.88
423.398	70.88
423.621	78.88
423.843	99.88
424.066	95.88
424.288	78.88
424.511	79.88
424.733	88.88
424.956	96.88
425.178	87.88
425.401	90.88
425.623	105.88
425.846	97.88
426.068	98.88
426.291	99.88
426.513	90.88
426.735	86.88
426.958	80.88
427.18	108.88
427.402	131.88
427.625	144.88
427.847	132.88
428.069	108.88
428.292	85.88
428.514	92.88
428.736	83.88
428.958	75.88
429.181	78.88
429.403	86.88
429.625	91.88
429.847	85.88
430.069	107.88
430.292	93.88
430.514	86.88
430.736	82.88
430.958	86.88
431.18	78.88
431.402	89.88
431.624	87.88
431.846	94.88
432.068	98.88
432.29	86.88
432.512	76.88
432.734	82.88
432.956	88.88
433.178	99.88
433.4	112.88
433.622	92.88
433.844	77.88
434.066	95.88
434.287	87.88
434.509	76.88
434.731	90.88
434.953	90.88
435.175	100.88
435.397	95.88
435.618	91.88
435.84	87.88
436.062	112.88
436.284	105.88
436.505	81.88
436.727	102.88
436.949	80.88
437.17	78.88
437.392	87.88
437.614	100.88
437.835	91.88
438.057	116.88
438.278	102.88
438.5	95.88
438.721	107.88
438.943	88.88
439.165	87.88
439.386	86.88
439.608	88.88
439.829	93.88
440.05	98.88
440.272	118.88
440.493	82.88
440.715	97.88
440.936	86.88
441.158	80.88
441.379	82.88
441.6	105.88
441.822	105.88
442.043	86.88
442.264	102.88
442.486	98.88
442.707	97.88
442.928	104.88
443.149	111.88
443.371	121.88
443.592	98.88
443.813	101.88
444.034	95.88
444.255	88.88
444.476	90.88
444.698	71.88
444.919	90.88
445.14	138.88
445.361	119.88
445.582	116.88
445.803	126.88
446.024	120.88
446.245	111.88
446.466	96.88
446.687	86.88
446.908	88.88
447.129	92.88
447.35	80.88
447.571	73.88
447.792	92.88
448.013	81.88
448.234	85.88
448.455	106.88
448.675	100.88
448.896	109.88
449.117	101.88
449.338	108.88
449.559	111.88
449.779	123.88
450	102.88
450.221	94.88
450.442	95.88
450.662	94.88
450.883	83.88
451.104	105.88
451.324	83.88
451.545	84.88
451.766	84.88
451.986	77.88
452.207	86.88
452.428	84.88
452.648	84.88
452.869	102.88
453.089	108.88
453.31	107.88
453.53	86.88
453.751	94.88
453.971	98.88
454.192	119.88
454.412	83.88
454.633	90.88
454.853	94.88
455.073	82.88
455.294	66.88
455.514	85.88
455.734	80.88
455.955	84.88
456.175	96.88
456.395	89.88
456.616	83.88
456.836	84.88
457.056	88.88
457.276	66.88
457.497	68.88
457.717	87.88
457.937	92.88
458.157	86.88
458.377	87.88
458.598	114.88
458.818	128.88
459.038	132.88
459.258	112.88
459.478	95.88
459.698	75.88
459.918	72.88
460.138	100.88
460.358	74.88
460.578	90.88
460.798	81.88
461.018	99.88
461.238	80.88
461.458	89.88
461.678	78.88
461.898	80.88
462.118	82.88
462.338	84.88
462.558	85.88
462.777	93.88
462.997	92.88
463.217	74.88
463.437	67.88
463.657	82.88
463.876	74.88
464.096	78.88
464.316	88.88
464.536	83.88
464.755	86.88
464.975	90.88
465.195	150.88
465.414	114.88
465.634	83.88
465.854	86.88
466.073	75.88
466.293	94.88
466.512	83.88
466.732	84.88
466.951	81.88
467.171	82.88
467.391	88.88
467.61	98.88
467.829	111.88
468.049	98.88
468.268	97.88
468.488	79.88
468.707	82.88
468.927	92.88
469.146	83.88
469.365	79.88
469.585	77.88
469.804	87.88
470.023	95.88
470.243	91.88
470.462	87.88
470.681	107.88
470.901	82.88
471.12	96.88
471.339	80.88
471.558	82.88
471.777	79.88
471.997	102.88
472.216	113.88
472.435	151.88
472.654	103.88
472.873	84.88
473.092	93.88
473.311	96.88
473.53	99.88
473.749	95.88
473.968	92.88
474.187	90.88
474.406	94.88
474.625	100.88
474.844	82.88
475.063	81.88
475.282	94.88
475.501	94.88
475.72	90.88
475.939	92.88
476.158	60.88
476.377	91.88
476.596	71.88
476.814	72.88
477.033	90.88
477.252	85.88
477.471	73.88
477.69	75.88
477.908	85.88
478.127	95.88
478.346	99.88
478.564	92.88
478.783	91.88
479.002	96.88
479.22	98.88
479.439	95.88
479.658	105.88
479.876	90.88
480.095	91.88
480.313	104.88
480.532	87.88
480.751	83.88
480.969	103.88
481.188	219.88
481.406	145.88
481.624	93.88
481.843	88.88
482.061	81.88
482.28	86.88
482.498	86.88
482.717	88.88
482.935	85.88
483.153	90.88
483.372	84.88
483.59	81.88
483.808	84.88
484.027	96.88
484.245	72.88
484.463	87.88
484.681	88.88
484.9	98.88
485.118	98.88
485.336	84.88
485.554	98.88
485.772	97.88
485.99	102.88
486.209	103.88
486.427	100.88
486.645	98.88
486.863	102.88
487.081	104.88
487.299	102.88
487.517	91.88
487.735	94.88
487.953	87.88
488.171	88.88
488.389	99.88
488.607	94.88
488.825	93.88
489.043	101.88
489.261	80.88
489.479	91.88
489.696	83.88
489.914	84.88
490.132	93.88
490.35	91.88
490.568	72.88
490.786	92.88
491.003	88.88
491.221	78.88
491.439	89.88
491.657	92.88
491.874	91.88
492.092	88.88
492.31	75.88
492.527	83.88
492.745	87.88
492.963	98.88
493.18	98.88
493.398	79.88
493.615	105.88
493.833	91.88
494.05	92.88
494.268	70.88
494.485	87.88
494.703	92.88
494.92	89.88
495.138	78.88
495.355	95.88
495.573	102.88
495.79	81.88
496.008	91.88
496.225	101.88
496.442	93.88
496.66	91.88
496.877	79.88
497.094	94.88
497.312	106.88
497.529	79.88
497.746	86.88
497.963	86.88
498.181	85.88
498.398	99.88
498.615	90.88
498.832	97.88
499.049	112.88
499.267	92.88
499.484	85.88
499.701	91.88
499.918	79.88
500.135	84.88
500.352	79.88
500.569	96.88
500.786	91.88
501.003	95.88
501.22	92.88
501.437	85.88
501.654	82.88
501.871	95.88
502.088	79.88
502.305	93.88
502.522	81.88
502.739	86.88
502.956	99.88
503.172	89.88
503.389	99.88
503.606	95.88
503.823	91.88
504.04	93.88
504.256	96.88
504.473	95.88
504.69	90.88
504.907	96.88
505.123	79.88
505.34	94.88
505.557	87.88
505.773	75.88
505.99	97.88
506.207	85.88
506.423	101.88
506.64	84.88
506.856	104.88
507.073	98.88
507.289	76.88
507.506	103.88
507.722	106.88
507.939	103.88
508.155	83.88
508.372	95.88
508.588	95.88
508.805	96.88
509.021	90.88
509.238	107.88
509.454	91.88
509.67	90.88
509.887	90.88
510.103	107.88
510.319	199.88
510.536	658.88
510.752	2059.88
510.968	575.88
511.184	139.88
511.401	93.88
511.617	86.88
511.833	86.88
512.049	98.88
512.265	93.88
512.481	78.88
512.698	90.88
512.914	97.88
513.13	92.88
513.346	81.88
513.562	83.88
513.778	103.88
513.994	95.88
514.21	93.88
514.426	92.88
514.642	130.88
514.858	119.88
515.074	138.88
515.29	358.88
515.506	1188.88
515.721	444.88
515.937	131.88
516.153	97.88
516.369	97.88
516.585	81.88
516.801	96.88
