Data from Circ_1994_H10_HRD10591_00091.txt Node
Date: Wed Jan 03 11:40:48 EST 2024
User: Yrep
Spectrometer: HR+D1059
Trigger mode: 1
Integration Time (sec): 1.000000E-1
Scans to average: 1
Electric dark correction enabled: true
Nonlinearity correction enabled: false
Boxcar width: 0
XAxis mode: Wavelengths
Number of Pixels in Spectrum: 2048
>>>>>Begin Spectral Data<<<<<
223.165	-17.06
223.4	-17.06
223.635	-17.06
223.869	-12.06
224.104	-17.06
224.338	-20.06
224.573	-14.06
224.808	-16.06
225.042	4.94
225.277	1.94
225.511	2.94
225.746	-6.06
225.98	-5.06
226.215	14.94
226.449	28.94
226.683	18.94
226.918	10.94
227.152	23.94
227.387	30.94
227.621	32.94
227.856	42.94
228.09	46.94
228.324	53.94
228.559	55.94
228.793	52.94
229.027	62.94
229.262	51.94
229.496	56.94
229.73	78.94
229.964	76.94
230.199	80.94
230.433	88.94
230.667	82.94
230.901	70.94
231.136	66.94
231.37	96.94
231.604	75.94
231.838	77.94
232.072	80.94
232.306	74.94
232.541	70.94
232.775	82.94
233.009	83.94
233.243	90.94
233.477	80.94
233.711	82.94
233.945	78.94
234.179	79.94
234.413	82.94
234.647	85.94
234.881	78.94
235.115	85.94
235.349	74.94
235.583	88.94
235.817	84.94
236.051	71.94
236.285	70.94
236.519	74.94
236.753	75.94
236.987	71.94
237.221	71.94
237.455	73.94
237.689	78.94
237.922	86.94
238.156	66.94
238.39	79.94
238.624	70.94
238.858	80.94
239.091	76.94
239.325	87.94
239.559	62.94
239.793	94.94
240.027	76.94
240.26	60.94
240.494	90.94
240.728	86.94
240.961	88.94
241.195	70.94
241.429	72.94
241.662	74.94
241.896	79.94
242.13	78.94
242.363	86.94
242.597	70.94
242.83	92.94
243.064	82.94
243.298	78.94
243.531	74.94
243.765	59.94
243.998	78.94
244.232	74.94
244.465	79.94
244.699	77.94
244.932	84.94
245.166	81.94
245.399	79.94
245.633	66.94
245.866	74.94
246.099	75.94
246.333	63.94
246.566	68.94
246.8	86.94
247.033	79.94
247.266	69.94
247.5	63.94
247.733	64.94
247.966	94.94
248.2	69.94
248.433	86.94
248.666	68.94
248.899	88.94
249.133	78.94
249.366	88.94
249.599	100.94
249.832	77.94
250.066	86.94
250.299	78.94
250.532	72.94
250.765	94.94
250.998	71.94
251.231	72.94
251.465	87.94
251.698	88.94
251.931	78.94
252.164	81.94
252.397	74.94
252.63	83.94
252.863	78.94
253.096	73.94
253.329	87.94
253.562	90.94
253.795	77.94
254.028	83.94
254.261	77.94
254.494	65.94
254.727	81.94
254.96	74.94
255.193	76.94
255.426	78.94
255.659	82.94
255.892	64.94
256.124	84.94
256.357	86.94
256.59	75.94
256.823	79.94
257.056	82.94
257.289	77.94
257.521	92.94
257.754	77.94
257.987	76.94
258.22	87.94
258.452	74.94
258.685	90.94
258.918	82.94
259.151	87.94
259.383	90.94
259.616	81.94
259.849	70.94
260.081	71.94
260.314	82.94
260.547	92.94
260.779	81.94
261.012	91.94
261.244	70.94
261.477	87.94
261.71	90.94
261.942	105.94
262.175	102.94
262.407	98.94
262.64	71.94
262.872	87.94
263.105	82.94
263.337	86.94
263.57	92.94
263.802	83.94
264.035	82.94
264.267	78.94
264.499	87.94
264.732	65.94
264.964	74.94
265.197	85.94
265.429	82.94
265.661	96.94
265.894	77.94
266.126	86.94
266.358	78.94
266.591	83.94
266.823	80.94
267.055	83.94
267.287	83.94
267.52	73.94
267.752	91.94
267.984	73.94
268.216	88.94
268.448	84.94
268.681	89.94
268.913	86.94
269.145	87.94
269.377	79.94
269.609	88.94
269.841	88.94
270.073	81.94
270.306	70.94
270.538	78.94
270.77	87.94
271.002	76.94
271.234	91.94
271.466	88.94
271.698	94.94
271.93	75.94
272.162	99.94
272.394	90.94
272.626	73.94
272.858	80.94
273.09	80.94
273.322	85.94
273.553	76.94
273.785	89.94
274.017	88.94
274.249	87.94
274.481	95.94
274.713	65.94
274.945	82.94
275.176	82.94
275.408	87.94
275.64	88.94
275.872	94.94
276.104	86.94
276.335	82.94
276.567	84.94
276.799	97.94
277.031	106.94
277.262	81.94
277.494	84.94
277.726	92.94
277.957	71.94
278.189	76.94
278.421	87.94
278.652	86.94
278.884	91.94
279.115	82.94
279.347	79.94
279.579	96.94
279.81	64.94
280.042	90.94
280.273	87.94
280.505	81.94
280.736	92.94
280.968	91.94
281.199	84.94
281.431	95.94
281.662	83.94
281.894	85.94
282.125	87.94
282.356	121.94
282.588	129.94
282.819	112.94
283.051	95.94
283.282	83.94
283.513	99.94
283.745	97.94
283.976	78.94
284.207	87.94
284.439	86.94
284.67	87.94
284.901	88.94
285.132	90.94
285.364	88.94
285.595	89.94
285.826	85.94
286.057	84.94
286.288	92.94
286.52	86.94
286.751	78.94
286.982	79.94
287.213	90.94
287.444	94.94
287.675	100.94
287.906	95.94
288.138	76.94
288.369	89.94
288.6	94.94
288.831	80.94
289.062	63.94
289.293	85.94
289.524	88.94
289.755	98.94
289.986	93.94
290.217	82.94
290.448	86.94
290.679	91.94
290.91	88.94
291.141	84.94
291.371	92.94
291.602	78.94
291.833	84.94
292.064	97.94
292.295	83.94
292.526	79.94
292.757	79.94
292.987	82.94
293.218	76.94
293.449	76.94
293.68	84.94
293.91	79.94
294.141	92.94
294.372	89.94
294.603	86.94
294.833	93.94
295.064	70.94
295.295	80.94
295.525	124.94
295.756	98.94
295.987	103.94
296.217	122.94
296.448	106.94
296.679	99.94
296.909	86.94
297.14	94.94
297.37	79.94
297.601	90.94
297.831	79.94
298.062	83.94
298.292	97.94
298.523	74.94
298.753	73.94
298.984	87.94
299.214	82.94
299.445	81.94
299.675	96.94
299.905	103.94
300.136	96.94
300.366	90.94
300.597	102.94
300.827	93.94
301.057	89.94
301.288	100.94
301.518	86.94
301.748	97.94
301.979	107.94
302.209	95.94
302.439	89.94
302.669	72.94
302.9	74.94
303.13	86.94
303.36	94.94
303.59	111.94
303.82	92.94
304.051	97.94
304.281	90.94
304.511	83.94
304.741	96.94
304.971	89.94
305.201	79.94
305.431	82.94
305.661	83.94
305.891	80.94
306.121	101.94
306.352	106.94
306.582	95.94
306.812	99.94
307.042	91.94
307.272	80.94
307.502	91.94
307.731	103.94
307.961	105.94
308.191	102.94
308.421	95.94
308.651	93.94
308.881	86.94
309.111	91.94
309.341	73.94
309.571	92.94
309.8	110.94
310.03	89.94
310.26	104.94
310.49	99.94
310.72	104.94
310.949	101.94
311.179	108.94
311.409	100.94
311.639	91.94
311.868	89.94
312.098	76.94
312.328	92.94
312.557	88.94
312.787	110.94
313.017	104.94
313.246	86.94
313.476	78.94
313.706	91.94
313.935	91.94
314.165	90.94
314.394	91.94
314.624	88.94
314.853	94.94
315.083	102.94
315.312	85.94
315.542	91.94
315.771	78.94
316.001	86.94
316.23	89.94
316.46	84.94
316.689	88.94
316.919	85.94
317.148	82.94
317.377	78.94
317.607	99.94
317.836	102.94
318.065	90.94
318.295	84.94
318.524	89.94
318.753	77.94
318.983	94.94
319.212	77.94
319.441	89.94
319.67	100.94
319.9	91.94
320.129	93.94
320.358	88.94
320.587	81.94
320.816	88.94
321.046	94.94
321.275	82.94
321.504	94.94
321.733	82.94
321.962	103.94
322.191	92.94
322.42	93.94
322.649	109.94
322.878	99.94
323.108	96.94
323.337	119.94
323.566	122.94
323.795	139.94
324.024	200.94
324.253	365.94
324.482	739.94
324.71	1497.94
324.939	1910.94
325.168	711.94
325.397	225.94
325.626	142.94
325.855	125.94
326.084	124.94
326.313	128.94
326.542	147.94
326.77	206.94
326.999	420.94
327.228	829.94
327.457	1484.94
327.686	1162.94
327.914	338.94
328.143	208.94
328.372	176.94
328.6	136.94
328.829	112.94
329.058	133.94
329.287	120.94
329.515	104.94
329.744	101.94
329.972	123.94
330.201	179.94
330.43	200.94
330.658	171.94
330.887	125.94
331.115	126.94
331.344	106.94
331.572	98.94
331.801	100.94
332.03	112.94
332.258	97.94
332.486	98.94
332.715	99.94
332.943	91.94
333.172	93.94
333.4	91.94
333.629	101.94
333.857	121.94
334.085	128.94
334.314	168.94
334.542	233.94
334.771	240.94
334.999	106.94
335.227	102.94
335.455	92.94
335.684	92.94
335.912	87.94
336.14	105.94
336.369	90.94
336.597	109.94
336.825	99.94
337.053	88.94
337.281	93.94
337.51	76.94
337.738	80.94
337.966	89.94
338.194	118.94
338.422	94.94
338.65	95.94
338.878	95.94
339.106	88.94
339.334	92.94
339.562	78.94
339.79	81.94
340.018	88.94
340.246	89.94
340.474	89.94
340.702	91.94
340.93	96.94
341.158	88.94
341.386	105.94
341.614	97.94
341.842	97.94
342.07	89.94
342.298	86.94
342.526	84.94
342.754	88.94
342.981	81.94
343.209	88.94
343.437	93.94
343.665	97.94
343.893	83.94
344.12	84.94
344.348	97.94
344.576	87.94
344.804	82.94
345.031	98.94
345.259	115.94
345.487	95.94
345.714	70.94
345.942	84.94
346.17	91.94
346.397	83.94
346.625	82.94
346.853	88.94
347.08	91.94
347.308	100.94
347.535	80.94
347.763	105.94
347.99	84.94
348.218	102.94
348.445	104.94
348.673	104.94
348.9	91.94
349.128	90.94
349.355	92.94
349.583	81.94
349.81	87.94
350.037	81.94
350.265	86.94
350.492	100.94
350.72	84.94
350.947	84.94
351.174	111.94
351.402	115.94
351.629	108.94
351.856	96.94
352.083	91.94
352.311	107.94
352.538	93.94
352.765	99.94
352.992	100.94
353.22	104.94
353.447	83.94
353.674	107.94
353.901	88.94
354.128	88.94
354.355	90.94
354.583	93.94
354.81	81.94
355.037	90.94
355.264	76.94
355.491	83.94
355.718	96.94
355.945	104.94
356.172	97.94
356.399	95.94
356.626	97.94
356.853	90.94
357.08	92.94
357.307	80.94
357.534	84.94
357.761	94.94
357.988	82.94
358.215	80.94
358.441	87.94
358.668	87.94
358.895	93.94
359.122	88.94
359.349	93.94
359.576	92.94
359.802	90.94
360.029	107.94
360.256	119.94
360.483	90.94
360.709	94.94
360.936	98.94
361.163	76.94
361.39	91.94
361.616	94.94
361.843	96.94
362.07	99.94
362.296	109.94
362.523	82.94
362.749	99.94
362.976	93.94
363.203	88.94
363.429	88.94
363.656	94.94
363.882	82.94
364.109	80.94
364.335	83.94
364.562	89.94
364.788	96.94
365.015	78.94
365.241	94.94
365.468	94.94
365.694	101.94
365.92	92.94
366.147	85.94
366.373	93.94
366.599	90.94
366.826	78.94
367.052	94.94
367.278	79.94
367.505	97.94
367.731	105.94
367.957	87.94
368.184	92.94
368.41	85.94
368.636	105.94
368.862	112.94
369.089	111.94
369.315	93.94
369.541	84.94
369.767	83.94
369.993	102.94
370.219	80.94
370.445	83.94
370.672	87.94
370.898	91.94
371.124	95.94
371.35	86.94
371.576	84.94
371.802	92.94
372.028	87.94
372.254	82.94
372.48	95.94
372.706	91.94
372.932	85.94
373.158	93.94
373.384	88.94
373.61	103.94
373.835	93.94
374.061	85.94
374.287	106.94
374.513	60.94
374.739	88.94
374.965	88.94
375.191	73.94
375.416	93.94
375.642	78.94
375.868	91.94
376.094	79.94
376.319	70.94
376.545	80.94
376.771	91.94
376.997	74.94
377.222	96.94
377.448	109.94
377.674	86.94
377.899	80.94
378.125	86.94
378.35	84.94
378.576	100.94
378.802	97.94
379.027	96.94
379.253	78.94
379.478	93.94
379.704	90.94
379.929	81.94
380.155	83.94
380.38	93.94
380.606	92.94
380.831	75.94
381.057	92.94
381.282	86.94
381.507	95.94
381.733	80.94
381.958	100.94
382.184	92.94
382.409	113.94
382.634	95.94
382.86	102.94
383.085	108.94
383.31	93.94
383.535	90.94
383.761	97.94
383.986	95.94
384.211	99.94
384.436	92.94
384.662	101.94
384.887	99.94
385.112	97.94
385.337	91.94
385.562	97.94
385.787	94.94
386.013	103.94
386.238	104.94
386.463	105.94
386.688	97.94
386.913	92.94
387.138	103.94
387.363	99.94
387.588	89.94
387.813	102.94
388.038	99.94
388.263	97.94
388.488	85.94
388.713	62.94
388.938	93.94
389.163	98.94
389.387	105.94
389.612	79.94
389.837	92.94
390.062	90.94
390.287	98.94
390.512	83.94
390.736	79.94
390.961	79.94
391.186	92.94
391.411	93.94
391.636	97.94
391.86	94.94
392.085	95.94
392.31	77.94
392.534	73.94
392.759	93.94
392.984	83.94
393.208	97.94
393.433	90.94
393.658	98.94
393.882	95.94
394.107	88.94
394.331	76.94
394.556	77.94
394.78	93.94
395.005	79.94
395.229	75.94
395.454	90.94
395.678	88.94
395.903	92.94
396.127	88.94
396.352	80.94
396.576	100.94
396.801	76.94
397.025	85.94
397.249	88.94
397.474	72.94
397.698	81.94
397.922	84.94
398.147	94.94
398.371	64.94
398.595	86.94
398.82	76.94
399.044	86.94
399.268	84.94
399.492	89.94
399.717	89.94
399.941	91.94
400.165	89.94
400.389	87.94
400.613	106.94
400.837	93.94
401.062	76.94
401.286	82.94
401.51	97.94
401.734	103.94
401.958	92.94
402.182	128.94
402.406	161.94
402.63	113.94
402.854	87.94
403.078	89.94
403.302	88.94
403.526	85.94
403.75	92.94
403.974	80.94
404.198	84.94
404.422	83.94
404.645	69.94
404.869	77.94
405.093	98.94
405.317	94.94
405.541	107.94
405.765	115.94
405.988	115.94
406.212	155.94
406.436	208.94
406.66	150.94
406.883	95.94
407.107	85.94
407.331	94.94
407.555	87.94
407.778	92.94
408.002	90.94
408.226	86.94
408.449	75.94
408.673	83.94
408.896	88.94
409.12	97.94
409.344	84.94
409.567	86.94
409.791	91.94
410.014	98.94
410.238	106.94
410.461	88.94
410.685	77.94
410.908	106.94
411.132	93.94
411.355	105.94
411.578	96.94
411.802	93.94
412.025	101.94
412.249	88.94
412.472	87.94
412.695	95.94
412.919	83.94
413.142	96.94
413.365	80.94
413.589	80.94
413.812	75.94
414.035	77.94
414.258	77.94
414.482	103.94
414.705	90.94
414.928	83.94
415.151	97.94
415.374	100.94
415.597	85.94
415.821	90.94
416.044	79.94
416.267	109.94
416.49	82.94
416.713	89.94
416.936	83.94
417.159	77.94
417.382	81.94
417.605	95.94
417.828	102.94
418.051	92.94
418.274	91.94
418.497	99.94
418.72	78.94
418.943	79.94
419.166	90.94
419.389	86.94
419.611	80.94
419.834	73.94
420.057	92.94
420.28	91.94
420.503	75.94
420.726	94.94
420.948	76.94
421.171	91.94
421.394	96.94
421.617	94.94
421.839	87.94
422.062	80.94
422.285	95.94
422.507	95.94
422.73	94.94
422.953	97.94
423.175	90.94
423.398	67.94
423.621	93.94
423.843	83.94
424.066	100.94
424.288	89.94
424.511	103.94
424.733	102.94
424.956	93.94
425.178	92.94
425.401	103.94
425.623	93.94
425.846	98.94
426.068	102.94
426.291	92.94
426.513	99.94
426.735	81.94
426.958	87.94
427.18	103.94
427.402	128.94
427.625	148.94
427.847	123.94
428.069	110.94
428.292	89.94
428.514	88.94
428.736	90.94
428.958	78.94
429.181	84.94
429.403	82.94
429.625	92.94
429.847	88.94
430.069	98.94
430.292	94.94
430.514	90.94
430.736	87.94
430.958	79.94
431.18	80.94
431.402	84.94
431.624	99.94
431.846	76.94
432.068	105.94
432.29	90.94
432.512	93.94
432.734	99.94
432.956	101.94
433.178	88.94
433.4	98.94
433.622	89.94
433.844	87.94
434.066	90.94
434.287	93.94
434.509	86.94
434.731	81.94
434.953	85.94
435.175	77.94
435.397	101.94
435.618	93.94
435.84	86.94
436.062	114.94
436.284	104.94
436.505	78.94
436.727	98.94
436.949	91.94
437.17	78.94
437.392	93.94
437.614	95.94
437.835	106.94
438.057	114.94
438.278	104.94
438.5	94.94
438.721	111.94
438.943	90.94
439.165	105.94
439.386	88.94
439.608	81.94
439.829	102.94
440.05	110.94
440.272	128.94
440.493	93.94
440.715	82.94
440.936	87.94
441.158	70.94
441.379	88.94
441.6	84.94
441.822	91.94
442.043	95.94
442.264	99.94
442.486	110.94
442.707	96.94
442.928	98.94
443.149	119.94
443.371	112.94
443.592	105.94
443.813	115.94
444.034	106.94
444.255	94.94
444.476	70.94
444.698	81.94
444.919	88.94
445.14	126.94
445.361	117.94
445.582	118.94
445.803	124.94
446.024	114.94
446.245	122.94
446.466	91.94
446.687	90.94
446.908	81.94
447.129	96.94
447.35	91.94
447.571	89.94
447.792	89.94
448.013	103.94
448.234	100.94
448.455	88.94
448.675	110.94
448.896	113.94
449.117	90.94
449.338	97.94
449.559	124.94
449.779	106.94
450	76.94
450.221	84.94
450.442	80.94
450.662	89.94
450.883	98.94
451.104	112.94
451.324	109.94
451.545	87.94
451.766	93.94
451.986	96.94
452.207	92.94
452.428	88.94
452.648	96.94
452.869	111.94
453.089	99.94
453.31	98.94
453.53	103.94
453.751	88.94
453.971	94.94
454.192	106.94
454.412	73.94
454.633	98.94
454.853	83.94
455.073	81.94
455.294	80.94
455.514	90.94
455.734	90.94
455.955	94.94
456.175	69.94
456.395	86.94
456.616	79.94
456.836	77.94
457.056	78.94
457.276	83.94
457.497	81.94
457.717	77.94
457.937	90.94
458.157	90.94
458.377	96.94
458.598	91.94
458.818	147.94
459.038	154.94
459.258	106.94
459.478	81.94
459.698	83.94
459.918	79.94
460.138	87.94
460.358	81.94
460.578	96.94
460.798	88.94
461.018	91.94
461.238	84.94
461.458	78.94
461.678	76.94
461.898	85.94
462.118	89.94
462.338	87.94
462.558	91.94
462.777	77.94
462.997	88.94
463.217	84.94
463.437	81.94
463.657	106.94
463.876	87.94
464.096	87.94
464.316	95.94
464.536	84.94
464.755	80.94
464.975	100.94
465.195	151.94
465.414	141.94
465.634	101.94
465.854	90.94
466.073	91.94
466.293	97.94
466.512	91.94
466.732	86.94
466.951	83.94
467.171	90.94
467.391	91.94
467.61	103.94
467.829	107.94
468.049	128.94
468.268	138.94
468.488	96.94
468.707	94.94
468.927	91.94
469.146	82.94
469.365	70.94
469.585	75.94
469.804	111.94
470.023	99.94
470.243	74.94
470.462	89.94
470.681	96.94
470.901	92.94
471.12	83.94
471.339	86.94
471.558	96.94
471.777	90.94
471.997	103.94
472.216	199.94
472.435	310.94
472.654	128.94
472.873	92.94
473.092	95.94
473.311	81.94
473.53	81.94
473.749	101.94
473.968	72.94
474.187	90.94
474.406	84.94
474.625	84.94
474.844	87.94
475.063	98.94
475.282	76.94
475.501	94.94
475.72	74.94
475.939	85.94
476.158	66.94
476.377	86.94
476.596	93.94
476.814	89.94
477.033	90.94
477.252	92.94
477.471	80.94
477.69	98.94
477.908	86.94
478.127	93.94
478.346	88.94
478.564	90.94
478.783	82.94
479.002	87.94
479.22	82.94
479.439	92.94
479.658	98.94
479.876	83.94
480.095	80.94
480.313	80.94
480.532	99.94
480.751	102.94
480.969	185.94
481.188	529.94
481.406	332.94
481.624	110.94
481.843	91.94
482.061	94.94
482.28	88.94
482.498	88.94
482.717	93.94
482.935	89.94
483.153	87.94
483.372	81.94
483.59	80.94
483.808	75.94
484.027	86.94
484.245	109.94
484.463	79.94
484.681	94.94
484.9	103.94
485.118	107.94
485.336	87.94
485.554	99.94
485.772	98.94
485.99	113.94
486.209	127.94
486.427	111.94
486.645	105.94
486.863	123.94
487.081	102.94
487.299	88.94
487.517	93.94
487.735	96.94
487.953	92.94
488.171	97.94
488.389	94.94
488.607	92.94
488.825	91.94
489.043	81.94
489.261	91.94
489.479	94.94
489.696	91.94
489.914	75.94
490.132	84.94
490.35	90.94
490.568	98.94
490.786	100.94
491.003	87.94
491.221	73.94
491.439	83.94
491.657	87.94
491.874	87.94
492.092	85.94
492.31	90.94
492.527	92.94
492.745	103.94
492.963	92.94
493.18	74.94
493.398	85.94
493.615	97.94
493.833	91.94
494.05	90.94
494.268	80.94
494.485	87.94
494.703	78.94
494.92	96.94
495.138	87.94
495.355	110.94
495.573	84.94
495.79	82.94
496.008	82.94
496.225	90.94
496.442	78.94
496.66	92.94
496.877	72.94
497.094	98.94
497.312	84.94
497.529	95.94
497.746	86.94
497.963	77.94
498.181	80.94
498.398	102.94
498.615	112.94
498.832	96.94
499.049	90.94
499.267	101.94
499.484	74.94
499.701	82.94
499.918	97.94
500.135	90.94
500.352	92.94
500.569	80.94
500.786	97.94
501.003	87.94
501.22	94.94
501.437	93.94
501.654	102.94
501.871	103.94
502.088	83.94
502.305	91.94
502.522	79.94
502.739	98.94
502.956	96.94
503.172	107.94
503.389	111.94
503.606	105.94
503.823	99.94
504.04	98.94
504.256	85.94
504.473	87.94
504.69	89.94
504.907	87.94
505.123	84.94
505.34	88.94
505.557	84.94
505.773	91.94
505.99	93.94
506.207	86.94
506.423	88.94
506.64	76.94
506.856	92.94
507.073	94.94
507.289	86.94
507.506	97.94
507.722	103.94
507.939	122.94
508.155	88.94
508.372	83.94
508.588	91.94
508.805	97.94
509.021	109.94
509.238	94.94
509.454	86.94
509.67	97.94
509.887	113.94
510.103	129.94
510.319	210.94
510.536	753.94
510.752	2396.94
510.968	658.94
511.184	154.94
511.401	96.94
511.617	93.94
511.833	99.94
512.049	89.94
512.265	87.94
512.481	80.94
512.698	88.94
512.914	91.94
513.13	95.94
513.346	84.94
513.562	98.94
513.778	89.94
513.994	83.94
514.21	93.94
514.426	119.94
514.642	130.94
514.858	110.94
515.074	172.94
515.29	442.94
515.506	1396.94
515.721	512.94
515.937	153.94
516.153	109.94
516.369	110.94
516.585	99.94
