Data from Circ_1994_H10_HRD10591_00036.txt Node
Date: Wed Jan 03 11:40:37 EST 2024
User: Yrep
Spectrometer: HR+D1059
Trigger mode: 1
Integration Time (sec): 1.000000E-1
Scans to average: 1
Electric dark correction enabled: true
Nonlinearity correction enabled: false
Boxcar width: 0
XAxis mode: Wavelengths
Number of Pixels in Spectrum: 2048
>>>>>Begin Spectral Data<<<<<
223.165	-33.62
223.4	-33.62
223.635	-33.62
223.869	-18.62
224.104	-13.62
224.338	-16.62
224.573	-15.62
224.808	-28.62
225.042	2.38
225.277	-9.62
225.511	-6.62
225.746	14.38
225.98	4.38
226.215	15.38
226.449	11.38
226.683	16.38
226.918	39.38
227.152	39.38
227.387	44.38
227.621	36.38
227.856	43.38
228.09	36.38
228.324	50.38
228.559	60.38
228.793	61.38
229.027	52.38
229.262	61.38
229.496	77.38
229.73	82.38
229.964	89.38
230.199	85.38
230.433	73.38
230.667	84.38
230.901	82.38
231.136	69.38
231.37	68.38
231.604	80.38
231.838	87.38
232.072	87.38
232.306	95.38
232.541	78.38
232.775	86.38
233.009	82.38
233.243	71.38
233.477	71.38
233.711	71.38
233.945	83.38
234.179	81.38
234.413	89.38
234.647	85.38
234.881	68.38
235.115	76.38
235.349	87.38
235.583	62.38
235.817	73.38
236.051	80.38
236.285	87.38
236.519	72.38
236.753	81.38
236.987	83.38
237.221	80.38
237.455	80.38
237.689	76.38
237.922	84.38
238.156	67.38
238.39	86.38
238.624	82.38
238.858	64.38
239.091	82.38
239.325	83.38
239.559	75.38
239.793	88.38
240.027	81.38
240.26	67.38
240.494	85.38
240.728	78.38
240.961	75.38
241.195	69.38
241.429	68.38
241.662	91.38
241.896	77.38
242.13	67.38
242.363	76.38
242.597	70.38
242.83	67.38
243.064	62.38
243.298	74.38
243.531	75.38
243.765	63.38
243.998	75.38
244.232	75.38
244.465	89.38
244.699	75.38
244.932	77.38
245.166	90.38
245.399	84.38
245.633	74.38
245.866	72.38
246.099	76.38
246.333	84.38
246.566	81.38
246.8	83.38
247.033	74.38
247.266	76.38
247.5	74.38
247.733	76.38
247.966	75.38
248.2	77.38
248.433	75.38
248.666	80.38
248.899	90.38
249.133	75.38
249.366	98.38
249.599	98.38
249.832	90.38
250.066	81.38
250.299	82.38
250.532	76.38
250.765	73.38
250.998	89.38
251.231	72.38
251.465	82.38
251.698	84.38
251.931	76.38
252.164	85.38
252.397	93.38
252.63	79.38
252.863	74.38
253.096	88.38
253.329	86.38
253.562	87.38
253.795	79.38
254.028	73.38
254.261	70.38
254.494	79.38
254.727	75.38
254.96	79.38
255.193	76.38
255.426	60.38
255.659	71.38
255.892	78.38
256.124	81.38
256.357	77.38
256.59	98.38
256.823	79.38
257.056	95.38
257.289	72.38
257.521	94.38
257.754	74.38
257.987	79.38
258.22	73.38
258.452	92.38
258.685	71.38
258.918	92.38
259.151	93.38
259.383	93.38
259.616	80.38
259.849	69.38
260.081	105.38
260.314	79.38
260.547	80.38
260.779	96.38
261.012	75.38
261.244	75.38
261.477	71.38
261.71	84.38
261.942	98.38
262.175	121.38
262.407	98.38
262.64	84.38
262.872	66.38
263.105	86.38
263.337	65.38
263.57	77.38
263.802	93.38
264.035	81.38
264.267	82.38
264.499	87.38
264.732	82.38
264.964	76.38
265.197	78.38
265.429	85.38
265.661	89.38
265.894	89.38
266.126	81.38
266.358	90.38
266.591	76.38
266.823	91.38
267.055	58.38
267.287	84.38
267.52	89.38
267.752	86.38
267.984	78.38
268.216	88.38
268.448	82.38
268.681	91.38
268.913	89.38
269.145	85.38
269.377	90.38
269.609	82.38
269.841	83.38
270.073	76.38
270.306	73.38
270.538	73.38
270.77	77.38
271.002	78.38
271.234	79.38
271.466	91.38
271.698	75.38
271.93	88.38
272.162	88.38
272.394	78.38
272.626	88.38
272.858	96.38
273.09	80.38
273.322	90.38
273.553	75.38
273.785	82.38
274.017	81.38
274.249	104.38
274.481	95.38
274.713	96.38
274.945	90.38
275.176	83.38
275.408	81.38
275.64	83.38
275.872	71.38
276.104	95.38
276.335	102.38
276.567	96.38
276.799	104.38
277.031	85.38
277.262	79.38
277.494	94.38
277.726	81.38
277.957	75.38
278.189	88.38
278.421	91.38
278.652	78.38
278.884	100.38
279.115	78.38
279.347	75.38
279.579	80.38
279.81	88.38
280.042	85.38
280.273	100.38
280.505	96.38
280.736	99.38
280.968	96.38
281.199	71.38
281.431	77.38
281.662	76.38
281.894	96.38
282.125	107.38
282.356	106.38
282.588	139.38
282.819	101.38
283.051	87.38
283.282	97.38
283.513	94.38
283.745	72.38
283.976	80.38
284.207	86.38
284.439	97.38
284.67	95.38
284.901	98.38
285.132	85.38
285.364	99.38
285.595	76.38
285.826	79.38
286.057	95.38
286.288	85.38
286.52	89.38
286.751	80.38
286.982	86.38
287.213	67.38
287.444	93.38
287.675	89.38
287.906	88.38
288.138	89.38
288.369	95.38
288.6	104.38
288.831	85.38
289.062	91.38
289.293	76.38
289.524	84.38
289.755	79.38
289.986	83.38
290.217	80.38
290.448	78.38
290.679	96.38
290.91	88.38
291.141	92.38
291.371	78.38
291.602	74.38
291.833	90.38
292.064	81.38
292.295	89.38
292.526	88.38
292.757	79.38
292.987	79.38
293.218	84.38
293.449	88.38
293.68	97.38
293.91	100.38
294.141	97.38
294.372	74.38
294.603	84.38
294.833	101.38
295.064	91.38
295.295	75.38
295.525	87.38
295.756	100.38
295.987	108.38
296.217	120.38
296.448	115.38
296.679	77.38
296.909	82.38
297.14	87.38
297.37	95.38
297.601	72.38
297.831	84.38
298.062	74.38
298.292	87.38
298.523	91.38
298.753	82.38
298.984	80.38
299.214	80.38
299.445	101.38
299.675	103.38
299.905	101.38
300.136	106.38
300.366	91.38
300.597	80.38
300.827	94.38
301.057	97.38
301.288	93.38
301.518	88.38
301.748	85.38
301.979	99.38
302.209	89.38
302.439	87.38
302.669	88.38
302.9	77.38
303.13	89.38
303.36	84.38
303.59	93.38
303.82	96.38
304.051	89.38
304.281	99.38
304.511	88.38
304.741	90.38
304.971	79.38
305.201	103.38
305.431	97.38
305.661	91.38
305.891	83.38
306.121	103.38
306.352	101.38
306.582	96.38
306.812	100.38
307.042	88.38
307.272	93.38
307.502	93.38
307.731	80.38
307.961	85.38
308.191	82.38
308.421	75.38
308.651	106.38
308.881	96.38
309.111	96.38
309.341	85.38
309.571	88.38
309.8	99.38
310.03	88.38
310.26	110.38
310.49	80.38
310.72	90.38
310.949	101.38
311.179	100.38
311.409	97.38
311.639	83.38
311.868	77.38
312.098	84.38
312.328	89.38
312.557	89.38
312.787	90.38
313.017	102.38
313.246	96.38
313.476	91.38
313.706	75.38
313.935	87.38
314.165	103.38
314.394	98.38
314.624	95.38
314.853	92.38
315.083	93.38
315.312	86.38
315.542	94.38
315.771	92.38
316.001	99.38
316.23	100.38
316.46	88.38
316.689	95.38
316.919	83.38
317.148	98.38
317.377	94.38
317.607	99.38
317.836	98.38
318.065	97.38
318.295	90.38
318.524	76.38
318.753	88.38
318.983	84.38
319.212	97.38
319.441	103.38
319.67	98.38
319.9	93.38
320.129	85.38
320.358	111.38
320.587	108.38
320.816	101.38
321.046	87.38
321.275	102.38
321.504	91.38
321.733	93.38
321.962	109.38
322.191	103.38
322.42	98.38
322.649	96.38
322.878	116.38
323.108	110.38
323.337	108.38
323.566	125.38
323.795	132.38
324.024	185.38
324.253	359.38
324.482	696.38
324.71	1516.38
324.939	1897.38
325.168	695.38
325.397	218.38
325.626	146.38
325.855	120.38
326.084	119.38
326.313	119.38
326.542	148.38
326.77	215.38
326.999	393.38
327.228	812.38
327.457	1483.38
327.686	1157.38
327.914	339.38
328.143	180.38
328.372	165.38
328.6	128.38
328.829	119.38
329.058	120.38
329.287	130.38
329.515	113.38
329.744	102.38
329.972	100.38
330.201	119.38
330.43	137.38
330.658	124.38
330.887	135.38
331.115	124.38
331.344	91.38
331.572	88.38
331.801	108.38
332.03	89.38
332.258	85.38
332.486	94.38
332.715	92.38
332.943	90.38
333.172	91.38
333.4	94.38
333.629	107.38
333.857	118.38
334.085	102.38
334.314	120.38
334.542	138.38
334.771	153.38
334.999	95.38
335.227	98.38
335.455	93.38
335.684	85.38
335.912	104.38
336.14	90.38
336.369	105.38
336.597	98.38
336.825	101.38
337.053	96.38
337.281	107.38
337.51	91.38
337.738	90.38
337.966	84.38
338.194	95.38
338.422	80.38
338.65	86.38
338.878	96.38
339.106	85.38
339.334	98.38
339.562	90.38
339.79	94.38
340.018	78.38
340.246	99.38
340.474	90.38
340.702	93.38
340.93	85.38
341.158	87.38
341.386	93.38
341.614	119.38
341.842	88.38
342.07	94.38
342.298	86.38
342.526	87.38
342.754	91.38
342.981	90.38
343.209	90.38
343.437	100.38
343.665	91.38
343.893	90.38
344.12	92.38
344.348	73.38
344.576	95.38
344.804	93.38
345.031	104.38
345.259	101.38
345.487	94.38
345.714	88.38
345.942	79.38
346.17	98.38
346.397	91.38
346.625	85.38
346.853	94.38
347.08	95.38
347.308	97.38
347.535	82.38
347.763	97.38
347.99	88.38
348.218	99.38
348.445	103.38
348.673	99.38
348.9	101.38
349.128	79.38
349.355	78.38
349.583	87.38
349.81	80.38
350.037	81.38
350.265	91.38
350.492	108.38
350.72	92.38
350.947	93.38
351.174	108.38
351.402	111.38
351.629	100.38
351.856	99.38
352.083	98.38
352.311	102.38
352.538	109.38
352.765	104.38
352.992	108.38
353.22	116.38
353.447	92.38
353.674	91.38
353.901	96.38
354.128	79.38
354.355	95.38
354.583	86.38
354.81	105.38
355.037	83.38
355.264	88.38
355.491	84.38
355.718	91.38
355.945	89.38
356.172	82.38
356.399	93.38
356.626	103.38
356.853	89.38
357.08	88.38
357.307	88.38
357.534	80.38
357.761	98.38
357.988	82.38
358.215	105.38
358.441	91.38
358.668	85.38
358.895	83.38
359.122	83.38
359.349	81.38
359.576	80.38
359.802	104.38
360.029	116.38
360.256	110.38
360.483	89.38
360.709	91.38
360.936	92.38
361.163	97.38
361.39	93.38
361.616	98.38
361.843	98.38
362.07	88.38
362.296	100.38
362.523	97.38
362.749	94.38
362.976	107.38
363.203	101.38
363.429	104.38
363.656	81.38
363.882	83.38
364.109	87.38
364.335	76.38
364.562	87.38
364.788	81.38
365.015	93.38
365.241	100.38
365.468	101.38
365.694	89.38
365.92	89.38
366.147	77.38
366.373	91.38
366.599	92.38
366.826	107.38
367.052	95.38
367.278	76.38
367.505	88.38
367.731	92.38
367.957	83.38
368.184	94.38
368.41	90.38
368.636	113.38
368.862	125.38
369.089	103.38
369.315	107.38
369.541	91.38
369.767	91.38
369.993	91.38
370.219	97.38
370.445	97.38
370.672	85.38
370.898	102.38
371.124	94.38
371.35	94.38
371.576	91.38
371.802	88.38
372.028	88.38
372.254	89.38
372.48	87.38
372.706	74.38
372.932	91.38
373.158	88.38
373.384	86.38
373.61	67.38
373.835	95.38
374.061	82.38
374.287	92.38
374.513	100.38
374.739	83.38
374.965	84.38
375.191	86.38
375.416	96.38
375.642	89.38
375.868	97.38
376.094	81.38
376.319	96.38
376.545	94.38
376.771	89.38
376.997	79.38
377.222	93.38
377.448	87.38
377.674	87.38
377.899	92.38
378.125	88.38
378.35	75.38
378.576	87.38
378.802	91.38
379.027	88.38
379.253	96.38
379.478	97.38
379.704	74.38
379.929	97.38
380.155	80.38
380.38	99.38
380.606	101.38
380.831	83.38
381.057	94.38
381.282	98.38
381.507	82.38
381.733	82.38
381.958	81.38
382.184	103.38
382.409	98.38
382.634	97.38
382.86	92.38
383.085	86.38
383.31	92.38
383.535	89.38
383.761	96.38
383.986	107.38
384.211	83.38
384.436	79.38
384.662	102.38
384.887	95.38
385.112	97.38
385.337	98.38
385.562	97.38
385.787	104.38
386.013	110.38
386.238	112.38
386.463	98.38
386.688	92.38
386.913	98.38
387.138	93.38
387.363	109.38
387.588	109.38
387.813	104.38
388.038	98.38
388.263	104.38
388.488	98.38
388.713	94.38
388.938	85.38
389.163	87.38
389.387	90.38
389.612	86.38
389.837	88.38
390.062	92.38
390.287	105.38
390.512	95.38
390.736	88.38
390.961	94.38
391.186	94.38
391.411	92.38
391.636	98.38
391.86	85.38
392.085	93.38
392.31	81.38
392.534	77.38
392.759	78.38
392.984	93.38
393.208	84.38
393.433	84.38
393.658	93.38
393.882	81.38
394.107	79.38
394.331	88.38
394.556	79.38
394.78	81.38
395.005	87.38
395.229	95.38
395.454	67.38
395.678	82.38
395.903	87.38
396.127	89.38
396.352	92.38
396.576	98.38
396.801	82.38
397.025	74.38
397.249	90.38
397.474	84.38
397.698	89.38
397.922	82.38
398.147	89.38
398.371	69.38
398.595	89.38
398.82	91.38
399.044	79.38
399.268	69.38
399.492	84.38
399.717	79.38
399.941	85.38
400.165	80.38
400.389	94.38
400.613	84.38
400.837	81.38
401.062	83.38
401.286	88.38
401.51	96.38
401.734	95.38
401.958	98.38
402.182	120.38
402.406	151.38
402.63	114.38
402.854	84.38
403.078	83.38
403.302	92.38
403.526	75.38
403.75	92.38
403.974	89.38
404.198	84.38
404.422	87.38
404.645	79.38
404.869	83.38
405.093	106.38
405.317	91.38
405.541	87.38
405.765	92.38
405.988	109.38
406.212	148.38
406.436	199.38
406.66	147.38
406.883	106.38
407.107	71.38
407.331	92.38
407.555	85.38
407.778	105.38
408.002	77.38
408.226	87.38
408.449	96.38
408.673	88.38
408.896	85.38
409.12	96.38
409.344	97.38
409.567	81.38
409.791	81.38
410.014	84.38
410.238	89.38
410.461	96.38
410.685	83.38
410.908	105.38
411.132	99.38
411.355	87.38
411.578	98.38
411.802	84.38
412.025	89.38
412.249	98.38
412.472	109.38
412.695	85.38
412.919	88.38
413.142	80.38
413.365	80.38
413.589	81.38
413.812	92.38
414.035	87.38
414.258	87.38
414.482	91.38
414.705	93.38
414.928	73.38
415.151	79.38
415.374	95.38
415.597	69.38
415.821	116.38
416.044	78.38
416.267	95.38
416.49	75.38
416.713	95.38
416.936	89.38
417.159	85.38
417.382	82.38
417.605	96.38
417.828	93.38
418.051	89.38
418.274	78.38
418.497	89.38
418.72	82.38
418.943	82.38
419.166	75.38
419.389	79.38
419.611	84.38
419.834	90.38
420.057	86.38
420.28	92.38
420.503	81.38
420.726	73.38
420.948	89.38
421.171	81.38
421.394	85.38
421.617	84.38
421.839	87.38
422.062	82.38
422.285	88.38
422.507	89.38
422.73	96.38
422.953	86.38
423.175	85.38
423.398	88.38
423.621	105.38
423.843	80.38
424.066	82.38
424.288	87.38
424.511	82.38
424.733	83.38
424.956	95.38
425.178	91.38
425.401	85.38
425.623	93.38
425.846	83.38
426.068	99.38
426.291	79.38
426.513	94.38
426.735	92.38
426.958	81.38
427.18	99.38
427.402	122.38
427.625	162.38
427.847	114.38
428.069	97.38
428.292	81.38
428.514	89.38
428.736	67.38
428.958	75.38
429.181	87.38
429.403	80.38
429.625	96.38
429.847	93.38
430.069	97.38
430.292	89.38
430.514	79.38
430.736	89.38
430.958	87.38
431.18	68.38
431.402	83.38
431.624	80.38
431.846	96.38
432.068	93.38
432.29	91.38
432.512	73.38
432.734	79.38
432.956	92.38
433.178	82.38
433.4	93.38
433.622	96.38
433.844	87.38
434.066	82.38
434.287	87.38
434.509	96.38
434.731	89.38
434.953	98.38
435.175	90.38
435.397	78.38
435.618	85.38
435.84	96.38
436.062	109.38
436.284	113.38
436.505	95.38
436.727	100.38
436.949	91.38
437.17	94.38
437.392	93.38
437.614	100.38
437.835	128.38
438.057	117.38
438.278	97.38
438.5	92.38
438.721	122.38
438.943	98.38
439.165	97.38
439.386	104.38
439.608	74.38
439.829	95.38
440.05	116.38
440.272	126.38
440.493	98.38
440.715	86.38
440.936	79.38
441.158	92.38
441.379	83.38
441.6	92.38
441.822	85.38
442.043	98.38
442.264	91.38
442.486	91.38
442.707	83.38
442.928	81.38
443.149	125.38
443.371	113.38
443.592	103.38
443.813	104.38
444.034	111.38
444.255	79.38
444.476	95.38
444.698	86.38
444.919	93.38
445.14	124.38
445.361	120.38
445.582	115.38
445.803	132.38
446.024	115.38
446.245	118.38
446.466	93.38
446.687	78.38
446.908	82.38
447.129	95.38
447.35	107.38
447.571	87.38
447.792	88.38
448.013	110.38
448.234	98.38
448.455	102.38
448.675	105.38
448.896	116.38
449.117	104.38
449.338	104.38
449.559	120.38
449.779	126.38
450	109.38
450.221	72.38
450.442	87.38
450.662	87.38
450.883	94.38
451.104	97.38
451.324	97.38
451.545	69.38
451.766	77.38
451.986	95.38
452.207	94.38
452.428	73.38
452.648	90.38
452.869	96.38
453.089	93.38
453.31	120.38
453.53	88.38
453.751	85.38
453.971	112.38
454.192	112.38
454.412	85.38
454.633	87.38
454.853	74.38
455.073	94.38
455.294	93.38
455.514	93.38
455.734	84.38
455.955	77.38
456.175	82.38
456.395	111.38
456.616	88.38
456.836	92.38
457.056	77.38
457.276	78.38
457.497	88.38
457.717	69.38
457.937	85.38
458.157	88.38
458.377	87.38
458.598	104.38
458.818	135.38
459.038	139.38
459.258	111.38
459.478	74.38
459.698	76.38
459.918	96.38
460.138	88.38
460.358	91.38
460.578	85.38
460.798	77.38
461.018	85.38
461.238	90.38
461.458	98.38
461.678	79.38
461.898	93.38
462.118	89.38
462.338	87.38
462.558	76.38
462.777	92.38
462.997	84.38
463.217	80.38
463.437	85.38
463.657	80.38
463.876	88.38
464.096	82.38
464.316	95.38
464.536	83.38
464.755	90.38
464.975	101.38
465.195	144.38
465.414	146.38
465.634	96.38
465.854	85.38
466.073	89.38
466.293	94.38
466.512	86.38
466.732	81.38
466.951	76.38
467.171	94.38
467.391	85.38
467.61	87.38
467.829	91.38
468.049	100.38
468.268	114.38
468.488	92.38
468.707	89.38
468.927	94.38
469.146	73.38
469.365	91.38
469.585	89.38
469.804	94.38
470.023	89.38
470.243	90.38
470.462	100.38
470.681	103.38
470.901	86.38
471.12	87.38
471.339	85.38
471.558	86.38
471.777	85.38
471.997	92.38
472.216	115.38
472.435	170.38
472.654	106.38
472.873	88.38
473.092	84.38
473.311	74.38
473.53	83.38
473.749	99.38
473.968	88.38
474.187	101.38
474.406	85.38
474.625	91.38
474.844	98.38
475.063	84.38
475.282	89.38
475.501	76.38
475.72	97.38
475.939	99.38
476.158	92.38
476.377	97.38
476.596	78.38
476.814	87.38
477.033	81.38
477.252	95.38
477.471	88.38
477.69	88.38
477.908	96.38
478.127	87.38
478.346	83.38
478.564	92.38
478.783	85.38
479.002	91.38
479.22	87.38
479.439	91.38
479.658	98.38
479.876	95.38
480.095	92.38
480.313	103.38
480.532	89.38
480.751	106.38
480.969	115.38
481.188	243.38
481.406	173.38
481.624	92.38
481.843	93.38
482.061	84.38
482.28	88.38
482.498	89.38
482.717	95.38
482.935	91.38
483.153	90.38
483.372	85.38
483.59	91.38
483.808	83.38
484.027	107.38
484.245	85.38
484.463	89.38
484.681	98.38
484.9	91.38
485.118	103.38
485.336	89.38
485.554	97.38
485.772	93.38
485.99	113.38
486.209	116.38
486.427	104.38
486.645	106.38
486.863	98.38
487.081	93.38
487.299	101.38
487.517	97.38
487.735	82.38
487.953	92.38
488.171	107.38
488.389	93.38
488.607	87.38
488.825	98.38
489.043	75.38
489.261	97.38
489.479	85.38
489.696	89.38
489.914	96.38
490.132	85.38
490.35	89.38
490.568	83.38
490.786	107.38
491.003	75.38
491.221	87.38
491.439	85.38
491.657	94.38
491.874	97.38
492.092	89.38
492.31	72.38
492.527	76.38
492.745	94.38
492.963	92.38
493.18	91.38
493.398	82.38
493.615	87.38
493.833	91.38
494.05	93.38
494.268	79.38
494.485	79.38
494.703	94.38
494.92	90.38
495.138	88.38
495.355	102.38
495.573	89.38
495.79	92.38
496.008	94.38
496.225	89.38
496.442	96.38
496.66	101.38
496.877	76.38
497.094	91.38
497.312	88.38
497.529	101.38
497.746	95.38
497.963	92.38
498.181	104.38
498.398	110.38
498.615	101.38
498.832	103.38
499.049	85.38
499.267	95.38
499.484	89.38
499.701	84.38
499.918	94.38
500.135	85.38
500.352	99.38
500.569	74.38
500.786	95.38
501.003	83.38
501.22	97.38
501.437	96.38
501.654	91.38
501.871	94.38
502.088	95.38
502.305	98.38
502.522	94.38
502.739	93.38
502.956	87.38
503.172	85.38
503.389	96.38
503.606	93.38
503.823	92.38
504.04	76.38
504.256	100.38
504.473	89.38
504.69	92.38
504.907	85.38
505.123	95.38
505.34	100.38
505.557	89.38
505.773	91.38
505.99	85.38
506.207	87.38
506.423	87.38
506.64	89.38
506.856	90.38
507.073	79.38
507.289	85.38
507.506	113.38
507.722	111.38
507.939	105.38
508.155	90.38
508.372	89.38
508.588	85.38
508.805	86.38
509.021	82.38
509.238	106.38
509.454	100.38
509.67	93.38
509.887	119.38
510.103	130.38
510.319	195.38
510.536	735.38
510.752	2297.38
510.968	618.38
511.184	161.38
511.401	103.38
511.617	91.38
511.833	83.38
512.049	88.38
512.265	85.38
512.481	107.38
512.698	72.38
512.914	84.38
513.13	100.38
513.346	81.38
513.562	100.38
513.778	92.38
513.994	107.38
514.21	98.38
514.426	123.38
514.642	140.38
514.858	126.38
515.074	164.38
515.29	384.38
515.506	1326.38
515.721	482.38
515.937	140.38
516.153	105.38
516.369	107.38
516.585	90.38
