Data from Circ_1994_H10_HRD10591_00089.txt Node
Date: Wed Jan 03 11:40:48 EST 2024
User: Yrep
Spectrometer: HR+D1059
Trigger mode: 1
Integration Time (sec): 1.000000E-1
Scans to average: 1
Electric dark correction enabled: true
Nonlinearity correction enabled: false
Boxcar width: 0
XAxis mode: Wavelengths
Number of Pixels in Spectrum: 2048
>>>>>Begin Spectral Data<<<<<
223.165	-13.88
223.4	-13.88
223.635	-13.88
223.869	-29.88
224.104	-28.88
224.338	-7.88
224.573	-5.88
224.808	-12.88
225.042	-6.88
225.277	1.12
225.511	-5.88
225.746	4.12
225.98	-7.88
226.215	9.12
226.449	35.12
226.683	24.12
226.918	16.12
227.152	30.12
227.387	37.12
227.621	48.12
227.856	44.12
228.09	34.12
228.324	57.12
228.559	52.12
228.793	45.12
229.027	54.12
229.262	66.12
229.496	63.12
229.73	80.12
229.964	73.12
230.199	79.12
230.433	68.12
230.667	83.12
230.901	64.12
231.136	71.12
231.37	80.12
231.604	74.12
231.838	88.12
232.072	79.12
232.306	86.12
232.541	87.12
232.775	72.12
233.009	90.12
233.243	98.12
233.477	91.12
233.711	70.12
233.945	71.12
234.179	82.12
234.413	82.12
234.647	81.12
234.881	79.12
235.115	81.12
235.349	84.12
235.583	81.12
235.817	74.12
236.051	88.12
236.285	84.12
236.519	70.12
236.753	72.12
236.987	97.12
237.221	80.12
237.455	89.12
237.689	63.12
237.922	75.12
238.156	81.12
238.39	78.12
238.624	70.12
238.858	81.12
239.091	80.12
239.325	87.12
239.559	81.12
239.793	67.12
240.027	92.12
240.26	86.12
240.494	67.12
240.728	89.12
240.961	80.12
241.195	78.12
241.429	72.12
241.662	66.12
241.896	72.12
242.13	76.12
242.363	74.12
242.597	76.12
242.83	75.12
243.064	79.12
243.298	73.12
243.531	67.12
243.765	63.12
243.998	78.12
244.232	80.12
244.465	84.12
244.699	80.12
244.932	75.12
245.166	74.12
245.399	80.12
245.633	75.12
245.866	80.12
246.099	69.12
246.333	76.12
246.566	55.12
246.8	88.12
247.033	93.12
247.266	80.12
247.5	87.12
247.733	85.12
247.966	74.12
248.2	80.12
248.433	81.12
248.666	66.12
248.899	84.12
249.133	83.12
249.366	88.12
249.599	92.12
249.832	85.12
250.066	69.12
250.299	78.12
250.532	81.12
250.765	76.12
250.998	81.12
251.231	88.12
251.465	64.12
251.698	90.12
251.931	91.12
252.164	77.12
252.397	86.12
252.63	77.12
252.863	83.12
253.096	77.12
253.329	65.12
253.562	89.12
253.795	72.12
254.028	83.12
254.261	83.12
254.494	86.12
254.727	91.12
254.96	78.12
255.193	78.12
255.426	84.12
255.659	74.12
255.892	79.12
256.124	88.12
256.357	86.12
256.59	76.12
256.823	78.12
257.056	85.12
257.289	88.12
257.521	73.12
257.754	77.12
257.987	83.12
258.22	77.12
258.452	79.12
258.685	81.12
258.918	81.12
259.151	81.12
259.383	84.12
259.616	77.12
259.849	77.12
260.081	78.12
260.314	84.12
260.547	87.12
260.779	74.12
261.012	95.12
261.244	72.12
261.477	104.12
261.71	93.12
261.942	111.12
262.175	98.12
262.407	88.12
262.64	83.12
262.872	82.12
263.105	73.12
263.337	82.12
263.57	73.12
263.802	75.12
264.035	81.12
264.267	85.12
264.499	85.12
264.732	70.12
264.964	82.12
265.197	87.12
265.429	82.12
265.661	95.12
265.894	100.12
266.126	90.12
266.358	81.12
266.591	85.12
266.823	90.12
267.055	82.12
267.287	90.12
267.52	85.12
267.752	87.12
267.984	83.12
268.216	86.12
268.448	98.12
268.681	75.12
268.913	78.12
269.145	78.12
269.377	93.12
269.609	89.12
269.841	85.12
270.073	74.12
270.306	97.12
270.538	84.12
270.77	65.12
271.002	84.12
271.234	90.12
271.466	80.12
271.698	86.12
271.93	75.12
272.162	84.12
272.394	89.12
272.626	87.12
272.858	83.12
273.09	89.12
273.322	89.12
273.553	80.12
273.785	106.12
274.017	82.12
274.249	80.12
274.481	84.12
274.713	81.12
274.945	93.12
275.176	88.12
275.408	81.12
275.64	104.12
275.872	90.12
276.104	86.12
276.335	84.12
276.567	98.12
276.799	102.12
277.031	101.12
277.262	88.12
277.494	82.12
277.726	92.12
277.957	88.12
278.189	93.12
278.421	74.12
278.652	86.12
278.884	83.12
279.115	90.12
279.347	83.12
279.579	96.12
279.81	98.12
280.042	93.12
280.273	86.12
280.505	89.12
280.736	87.12
280.968	84.12
281.199	61.12
281.431	104.12
281.662	90.12
281.894	96.12
282.125	100.12
282.356	125.12
282.588	132.12
282.819	102.12
283.051	83.12
283.282	83.12
283.513	92.12
283.745	80.12
283.976	89.12
284.207	89.12
284.439	89.12
284.67	89.12
284.901	97.12
285.132	99.12
285.364	99.12
285.595	83.12
285.826	87.12
286.057	84.12
286.288	99.12
286.52	100.12
286.751	85.12
286.982	90.12
287.213	80.12
287.444	83.12
287.675	87.12
287.906	89.12
288.138	89.12
288.369	94.12
288.6	86.12
288.831	89.12
289.062	100.12
289.293	87.12
289.524	94.12
289.755	80.12
289.986	81.12
290.217	100.12
290.448	83.12
290.679	79.12
290.91	98.12
291.141	89.12
291.371	85.12
291.602	82.12
291.833	93.12
292.064	75.12
292.295	100.12
292.526	74.12
292.757	83.12
292.987	88.12
293.218	74.12
293.449	85.12
293.68	82.12
293.91	94.12
294.141	90.12
294.372	90.12
294.603	88.12
294.833	91.12
295.064	85.12
295.295	79.12
295.525	95.12
295.756	105.12
295.987	101.12
296.217	124.12
296.448	121.12
296.679	98.12
296.909	81.12
297.14	94.12
297.37	71.12
297.601	88.12
297.831	105.12
298.062	89.12
298.292	92.12
298.523	86.12
298.753	91.12
298.984	89.12
299.214	81.12
299.445	101.12
299.675	94.12
299.905	85.12
300.136	87.12
300.366	99.12
300.597	98.12
300.827	89.12
301.057	101.12
301.288	95.12
301.518	88.12
301.748	88.12
301.979	86.12
302.209	89.12
302.439	88.12
302.669	75.12
302.9	87.12
303.13	84.12
303.36	92.12
303.59	92.12
303.82	94.12
304.051	86.12
304.281	86.12
304.511	85.12
304.741	100.12
304.971	92.12
305.201	95.12
305.431	82.12
305.661	85.12
305.891	80.12
306.121	96.12
306.352	99.12
306.582	113.12
306.812	94.12
307.042	105.12
307.272	93.12
307.502	99.12
307.731	106.12
307.961	92.12
308.191	85.12
308.421	86.12
308.651	92.12
308.881	76.12
309.111	82.12
309.341	95.12
309.571	102.12
309.8	90.12
310.03	84.12
310.26	92.12
310.49	102.12
310.72	94.12
310.949	93.12
311.179	100.12
311.409	75.12
311.639	93.12
311.868	106.12
312.098	93.12
312.328	94.12
312.557	105.12
312.787	107.12
313.017	106.12
313.246	103.12
313.476	95.12
313.706	85.12
313.935	86.12
314.165	113.12
314.394	94.12
314.624	103.12
314.853	103.12
315.083	101.12
315.312	92.12
315.542	86.12
315.771	95.12
316.001	93.12
316.23	95.12
316.46	94.12
316.689	100.12
316.919	97.12
317.148	72.12
317.377	100.12
317.607	86.12
317.836	72.12
318.065	92.12
318.295	84.12
318.524	101.12
318.753	85.12
318.983	92.12
319.212	106.12
319.441	100.12
319.67	115.12
319.9	93.12
320.129	105.12
320.358	93.12
320.587	93.12
320.816	94.12
321.046	95.12
321.275	80.12
321.504	89.12
321.733	97.12
321.962	108.12
322.191	90.12
322.42	96.12
322.649	109.12
322.878	96.12
323.108	117.12
323.337	131.12
323.566	138.12
323.795	141.12
324.024	186.12
324.253	331.12
324.482	684.12
324.71	1317.12
324.939	1726.12
325.168	645.12
325.397	210.12
325.626	137.12
325.855	121.12
326.084	114.12
326.313	121.12
326.542	132.12
326.77	209.12
326.999	376.12
327.228	768.12
327.457	1353.12
327.686	1066.12
327.914	317.12
328.143	190.12
328.372	160.12
328.6	133.12
328.829	108.12
329.058	112.12
329.287	124.12
329.515	113.12
329.744	108.12
329.972	115.12
330.201	159.12
330.43	203.12
330.658	149.12
330.887	117.12
331.115	105.12
331.344	96.12
331.572	102.12
331.801	112.12
332.03	88.12
332.258	103.12
332.486	92.12
332.715	100.12
332.943	96.12
333.172	91.12
333.4	96.12
333.629	111.12
333.857	101.12
334.085	133.12
334.314	185.12
334.542	227.12
334.771	210.12
334.999	115.12
335.227	102.12
335.455	85.12
335.684	94.12
335.912	102.12
336.14	102.12
336.369	96.12
336.597	114.12
336.825	94.12
337.053	94.12
337.281	97.12
337.51	96.12
337.738	90.12
337.966	85.12
338.194	100.12
338.422	94.12
338.65	87.12
338.878	96.12
339.106	97.12
339.334	92.12
339.562	94.12
339.79	79.12
340.018	106.12
340.246	97.12
340.474	81.12
340.702	87.12
340.93	84.12
341.158	100.12
341.386	96.12
341.614	94.12
341.842	91.12
342.07	80.12
342.298	97.12
342.526	68.12
342.754	93.12
342.981	83.12
343.209	87.12
343.437	81.12
343.665	88.12
343.893	86.12
344.12	92.12
344.348	98.12
344.576	79.12
344.804	85.12
345.031	94.12
345.259	99.12
345.487	95.12
345.714	101.12
345.942	89.12
346.17	91.12
346.397	94.12
346.625	86.12
346.853	97.12
347.08	85.12
347.308	96.12
347.535	92.12
347.763	99.12
347.99	84.12
348.218	104.12
348.445	101.12
348.673	101.12
348.9	93.12
349.128	101.12
349.355	95.12
349.583	87.12
349.81	102.12
350.037	77.12
350.265	96.12
350.492	86.12
350.72	111.12
350.947	89.12
351.174	102.12
351.402	106.12
351.629	96.12
351.856	102.12
352.083	88.12
352.311	93.12
352.538	97.12
352.765	108.12
352.992	110.12
353.22	104.12
353.447	108.12
353.674	96.12
353.901	107.12
354.128	91.12
354.355	99.12
354.583	108.12
354.81	95.12
355.037	99.12
355.264	89.12
355.491	94.12
355.718	94.12
355.945	83.12
356.172	113.12
356.399	88.12
356.626	89.12
356.853	81.12
357.08	106.12
357.307	78.12
357.534	86.12
357.761	81.12
357.988	100.12
358.215	94.12
358.441	98.12
358.668	109.12
358.895	86.12
359.122	91.12
359.349	86.12
359.576	96.12
359.802	90.12
360.029	97.12
360.256	112.12
360.483	95.12
360.709	98.12
360.936	99.12
361.163	110.12
361.39	84.12
361.616	95.12
361.843	78.12
362.07	87.12
362.296	101.12
362.523	89.12
362.749	88.12
362.976	93.12
363.203	89.12
363.429	90.12
363.656	98.12
363.882	85.12
364.109	82.12
364.335	92.12
364.562	80.12
364.788	101.12
365.015	93.12
365.241	99.12
365.468	109.12
365.694	95.12
365.92	73.12
366.147	78.12
366.373	89.12
366.599	99.12
366.826	77.12
367.052	94.12
367.278	95.12
367.505	88.12
367.731	86.12
367.957	92.12
368.184	92.12
368.41	99.12
368.636	110.12
368.862	117.12
369.089	110.12
369.315	97.12
369.541	84.12
369.767	93.12
369.993	95.12
370.219	93.12
370.445	78.12
370.672	90.12
370.898	83.12
371.124	72.12
371.35	84.12
371.576	77.12
371.802	76.12
372.028	83.12
372.254	91.12
372.48	68.12
372.706	83.12
372.932	89.12
373.158	97.12
373.384	82.12
373.61	96.12
373.835	86.12
374.061	87.12
374.287	89.12
374.513	77.12
374.739	91.12
374.965	97.12
375.191	87.12
375.416	83.12
375.642	84.12
375.868	86.12
376.094	78.12
376.319	85.12
376.545	86.12
376.771	86.12
376.997	102.12
377.222	87.12
377.448	77.12
377.674	92.12
377.899	93.12
378.125	95.12
378.35	92.12
378.576	89.12
378.802	87.12
379.027	91.12
379.253	84.12
379.478	81.12
379.704	80.12
379.929	91.12
380.155	103.12
380.38	90.12
380.606	89.12
380.831	88.12
381.057	91.12
381.282	98.12
381.507	92.12
381.733	96.12
381.958	88.12
382.184	106.12
382.409	109.12
382.634	109.12
382.86	100.12
383.085	98.12
383.31	101.12
383.535	98.12
383.761	99.12
383.986	110.12
384.211	102.12
384.436	102.12
384.662	100.12
384.887	91.12
385.112	93.12
385.337	99.12
385.562	95.12
385.787	96.12
386.013	99.12
386.238	107.12
386.463	103.12
386.688	102.12
386.913	96.12
387.138	115.12
387.363	97.12
387.588	81.12
387.813	92.12
388.038	106.12
388.263	118.12
388.488	114.12
388.713	83.12
388.938	68.12
389.163	84.12
389.387	93.12
389.612	112.12
389.837	97.12
390.062	92.12
390.287	90.12
390.512	85.12
390.736	91.12
390.961	82.12
391.186	84.12
391.411	99.12
391.636	91.12
391.86	93.12
392.085	88.12
392.31	94.12
392.534	69.12
392.759	85.12
392.984	82.12
393.208	85.12
393.433	99.12
393.658	90.12
393.882	82.12
394.107	89.12
394.331	94.12
394.556	88.12
394.78	93.12
395.005	72.12
395.229	96.12
395.454	99.12
395.678	90.12
395.903	83.12
396.127	104.12
396.352	90.12
396.576	91.12
396.801	99.12
397.025	81.12
397.249	85.12
397.474	99.12
397.698	99.12
397.922	96.12
398.147	78.12
398.371	84.12
398.595	79.12
398.82	92.12
399.044	89.12
399.268	88.12
399.492	77.12
399.717	81.12
399.941	92.12
400.165	99.12
400.389	95.12
400.613	77.12
400.837	69.12
401.062	97.12
401.286	90.12
401.51	80.12
401.734	90.12
401.958	97.12
402.182	116.12
402.406	141.12
402.63	106.12
402.854	87.12
403.078	93.12
403.302	101.12
403.526	81.12
403.75	93.12
403.974	86.12
404.198	88.12
404.422	74.12
404.645	96.12
404.869	96.12
405.093	96.12
405.317	97.12
405.541	98.12
405.765	91.12
405.988	101.12
406.212	153.12
406.436	186.12
406.66	126.12
406.883	89.12
407.107	91.12
407.331	94.12
407.555	109.12
407.778	100.12
408.002	80.12
408.226	100.12
408.449	106.12
408.673	94.12
408.896	92.12
409.12	84.12
409.344	85.12
409.567	89.12
409.791	104.12
410.014	99.12
410.238	92.12
410.461	90.12
410.685	92.12
410.908	88.12
411.132	105.12
411.355	99.12
411.578	88.12
411.802	86.12
412.025	72.12
412.249	86.12
412.472	83.12
412.695	88.12
412.919	89.12
413.142	91.12
413.365	90.12
413.589	79.12
413.812	82.12
414.035	84.12
414.258	89.12
414.482	93.12
414.705	91.12
414.928	100.12
415.151	88.12
415.374	85.12
415.597	102.12
415.821	89.12
416.044	86.12
416.267	80.12
416.49	81.12
416.713	85.12
416.936	96.12
417.159	89.12
417.382	90.12
417.605	85.12
417.828	83.12
418.051	85.12
418.274	78.12
418.497	79.12
418.72	94.12
418.943	92.12
419.166	86.12
419.389	94.12
419.611	82.12
419.834	100.12
420.057	85.12
420.28	82.12
420.503	85.12
420.726	86.12
420.948	83.12
421.171	100.12
421.394	95.12
421.617	85.12
421.839	83.12
422.062	86.12
422.285	96.12
422.507	83.12
422.73	95.12
422.953	81.12
423.175	90.12
423.398	97.12
423.621	91.12
423.843	97.12
424.066	84.12
424.288	88.12
424.511	93.12
424.733	81.12
424.956	90.12
425.178	98.12
425.401	88.12
425.623	97.12
425.846	82.12
426.068	97.12
426.291	84.12
426.513	92.12
426.735	85.12
426.958	97.12
427.18	95.12
427.402	133.12
427.625	150.12
427.847	137.12
428.069	115.12
428.292	98.12
428.514	81.12
428.736	88.12
428.958	79.12
429.181	81.12
429.403	81.12
429.625	84.12
429.847	77.12
430.069	108.12
430.292	105.12
430.514	90.12
430.736	76.12
430.958	89.12
431.18	84.12
431.402	76.12
431.624	90.12
431.846	88.12
432.068	88.12
432.29	101.12
432.512	80.12
432.734	94.12
432.956	95.12
433.178	96.12
433.4	95.12
433.622	94.12
433.844	77.12
434.066	94.12
434.287	87.12
434.509	88.12
434.731	103.12
434.953	78.12
435.175	81.12
435.397	84.12
435.618	86.12
435.84	101.12
436.062	96.12
436.284	89.12
436.505	107.12
436.727	89.12
436.949	98.12
437.17	97.12
437.392	86.12
437.614	89.12
437.835	76.12
438.057	124.12
438.278	107.12
438.5	107.12
438.721	106.12
438.943	100.12
439.165	80.12
439.386	94.12
439.608	93.12
439.829	90.12
440.05	104.12
440.272	121.12
440.493	90.12
440.715	84.12
440.936	72.12
441.158	70.12
441.379	100.12
441.6	89.12
441.822	76.12
442.043	82.12
442.264	87.12
442.486	90.12
442.707	88.12
442.928	102.12
443.149	117.12
443.371	120.12
443.592	95.12
443.813	92.12
444.034	105.12
444.255	77.12
444.476	77.12
444.698	76.12
444.919	93.12
445.14	105.12
445.361	115.12
445.582	113.12
445.803	128.12
446.024	123.12
446.245	129.12
446.466	108.12
446.687	93.12
446.908	86.12
447.129	76.12
447.35	88.12
447.571	84.12
447.792	78.12
448.013	103.12
448.234	98.12
448.455	89.12
448.675	93.12
448.896	114.12
449.117	113.12
449.338	90.12
449.559	118.12
449.779	124.12
450	90.12
450.221	92.12
450.442	86.12
450.662	101.12
450.883	102.12
451.104	96.12
451.324	89.12
451.545	83.12
451.766	78.12
451.986	100.12
452.207	82.12
452.428	95.12
452.648	85.12
452.869	104.12
453.089	97.12
453.31	104.12
453.53	92.12
453.751	86.12
453.971	97.12
454.192	92.12
454.412	106.12
454.633	88.12
454.853	76.12
455.073	77.12
455.294	74.12
455.514	92.12
455.734	94.12
455.955	97.12
456.175	94.12
456.395	91.12
456.616	72.12
456.836	77.12
457.056	88.12
457.276	75.12
457.497	100.12
457.717	95.12
457.937	78.12
458.157	81.12
458.377	77.12
458.598	102.12
458.818	130.12
459.038	141.12
459.258	100.12
459.478	86.12
459.698	78.12
459.918	91.12
460.138	88.12
460.358	85.12
460.578	72.12
460.798	69.12
461.018	81.12
461.238	91.12
461.458	86.12
461.678	80.12
461.898	93.12
462.118	82.12
462.338	93.12
462.558	80.12
462.777	93.12
462.997	78.12
463.217	89.12
463.437	83.12
463.657	95.12
463.876	85.12
464.096	86.12
464.316	88.12
464.536	91.12
464.755	86.12
464.975	99.12
465.195	140.12
465.414	125.12
465.634	104.12
465.854	99.12
466.073	81.12
466.293	93.12
466.512	77.12
466.732	86.12
466.951	96.12
467.171	94.12
467.391	103.12
467.61	93.12
467.829	96.12
468.049	118.12
468.268	120.12
468.488	81.12
468.707	72.12
468.927	77.12
469.146	84.12
469.365	101.12
469.585	102.12
469.804	107.12
470.023	86.12
470.243	97.12
470.462	99.12
470.681	106.12
470.901	90.12
471.12	88.12
471.339	98.12
471.558	100.12
471.777	94.12
471.997	110.12
472.216	179.12
472.435	275.12
472.654	124.12
472.873	87.12
473.092	91.12
473.311	74.12
473.53	84.12
473.749	74.12
473.968	86.12
474.187	95.12
474.406	96.12
474.625	91.12
474.844	74.12
475.063	86.12
475.282	78.12
475.501	82.12
475.72	92.12
475.939	97.12
476.158	94.12
476.377	98.12
476.596	87.12
476.814	80.12
477.033	83.12
477.252	96.12
477.471	96.12
477.69	97.12
477.908	76.12
478.127	96.12
478.346	91.12
478.564	97.12
478.783	93.12
479.002	105.12
479.22	89.12
479.439	99.12
479.658	102.12
479.876	88.12
480.095	85.12
480.313	97.12
480.532	88.12
480.751	100.12
480.969	184.12
481.188	456.12
481.406	284.12
481.624	110.12
481.843	87.12
482.061	88.12
482.28	90.12
482.498	76.12
482.717	79.12
482.935	87.12
483.153	91.12
483.372	88.12
483.59	88.12
483.808	84.12
484.027	86.12
484.245	96.12
484.463	96.12
484.681	94.12
484.9	87.12
485.118	88.12
485.336	86.12
485.554	97.12
485.772	89.12
485.99	90.12
486.209	105.12
486.427	101.12
486.645	103.12
486.863	110.12
487.081	95.12
487.299	92.12
487.517	91.12
487.735	83.12
487.953	81.12
488.171	86.12
488.389	102.12
488.607	93.12
488.825	88.12
489.043	92.12
489.261	92.12
489.479	97.12
489.696	97.12
489.914	84.12
490.132	95.12
490.35	92.12
490.568	79.12
490.786	98.12
491.003	88.12
491.221	94.12
491.439	80.12
491.657	85.12
491.874	94.12
492.092	86.12
492.31	111.12
492.527	80.12
492.745	86.12
492.963	94.12
493.18	86.12
493.398	100.12
493.615	89.12
493.833	85.12
494.05	86.12
494.268	92.12
494.485	90.12
494.703	80.12
494.92	98.12
495.138	86.12
495.355	82.12
495.573	81.12
495.79	73.12
496.008	99.12
496.225	97.12
496.442	103.12
496.66	85.12
496.877	88.12
497.094	91.12
497.312	77.12
497.529	98.12
497.746	84.12
497.963	88.12
498.181	100.12
498.398	89.12
498.615	100.12
498.832	99.12
499.049	76.12
499.267	73.12
499.484	82.12
499.701	93.12
499.918	97.12
500.135	90.12
500.352	98.12
500.569	97.12
500.786	88.12
501.003	97.12
501.22	84.12
501.437	89.12
501.654	94.12
501.871	99.12
502.088	82.12
502.305	85.12
502.522	74.12
502.739	93.12
502.956	86.12
503.172	75.12
503.389	90.12
503.606	108.12
503.823	92.12
504.04	96.12
504.256	101.12
504.473	87.12
504.69	93.12
504.907	92.12
505.123	91.12
505.34	94.12
505.557	94.12
505.773	83.12
505.99	83.12
506.207	97.12
506.423	96.12
506.64	90.12
506.856	92.12
507.073	89.12
507.289	98.12
507.506	93.12
507.722	99.12
507.939	115.12
508.155	90.12
508.372	72.12
508.588	94.12
508.805	101.12
509.021	109.12
509.238	99.12
509.454	100.12
509.67	101.12
509.887	101.12
510.103	139.12
510.319	204.12
510.536	653.12
510.752	1958.12
510.968	561.12
511.184	134.12
511.401	98.12
511.617	91.12
511.833	89.12
512.049	74.12
512.265	100.12
512.481	102.12
512.698	83.12
512.914	91.12
513.13	81.12
513.346	100.12
513.562	97.12
513.778	91.12
513.994	105.12
514.21	104.12
514.426	108.12
514.642	129.12
514.858	113.12
515.074	140.12
515.29	347.12
515.506	1127.12
515.721	410.12
515.937	141.12
516.153	109.12
