Data from Circ_1994_H10_HRD10591_00016.txt Node
Date: Wed Jan 03 11:40:33 EST 2024
User: Yrep
Spectrometer: HR+D1059
Trigger mode: 1
Integration Time (sec): 1.000000E-1
Scans to average: 1
Electric dark correction enabled: true
Nonlinearity correction enabled: false
Boxcar width: 0
XAxis mode: Wavelengths
Number of Pixels in Spectrum: 2048
>>>>>Begin Spectral Data<<<<<
223.165	-13.94
223.4	-13.94
223.635	-13.94
223.869	-20.94
224.104	-12.94
224.338	-10.94
224.573	-8.94
224.808	-13.94
225.042	-3.94
225.277	-1.94
225.511	-8.94
225.746	9.06
225.98	5.06
226.215	10.06
226.449	16.06
226.683	8.06
226.918	27.06
227.152	21.06
227.387	44.06
227.621	41.06
227.856	45.06
228.09	44.06
228.324	42.06
228.559	61.06
228.793	69.06
229.027	70.06
229.262	83.06
229.496	84.06
229.73	82.06
229.964	88.06
230.199	83.06
230.433	71.06
230.667	85.06
230.901	68.06
231.136	73.06
231.37	92.06
231.604	86.06
231.838	85.06
232.072	84.06
232.306	73.06
232.541	88.06
232.775	82.06
233.009	95.06
233.243	89.06
233.477	86.06
233.711	77.06
233.945	93.06
234.179	80.06
234.413	84.06
234.647	86.06
234.881	77.06
235.115	84.06
235.349	87.06
235.583	79.06
235.817	87.06
236.051	74.06
236.285	100.06
236.519	69.06
236.753	82.06
236.987	81.06
237.221	82.06
237.455	96.06
237.689	87.06
237.922	98.06
238.156	76.06
238.39	74.06
238.624	68.06
238.858	76.06
239.091	81.06
239.325	84.06
239.559	79.06
239.793	78.06
240.027	76.06
240.26	66.06
240.494	89.06
240.728	78.06
240.961	71.06
241.195	72.06
241.429	82.06
241.662	82.06
241.896	80.06
242.13	81.06
242.363	89.06
242.597	95.06
242.83	60.06
243.064	64.06
243.298	82.06
243.531	97.06
243.765	86.06
243.998	86.06
244.232	96.06
244.465	80.06
244.699	84.06
244.932	76.06
245.166	67.06
245.399	80.06
245.633	80.06
245.866	89.06
246.099	77.06
246.333	88.06
246.566	67.06
246.8	88.06
247.033	78.06
247.266	80.06
247.5	90.06
247.733	87.06
247.966	71.06
248.2	74.06
248.433	87.06
248.666	82.06
248.899	90.06
249.133	82.06
249.366	89.06
249.599	86.06
249.832	90.06
250.066	93.06
250.299	73.06
250.532	87.06
250.765	82.06
250.998	91.06
251.231	87.06
251.465	78.06
251.698	94.06
251.931	90.06
252.164	70.06
252.397	81.06
252.63	76.06
252.863	93.06
253.096	89.06
253.329	85.06
253.562	84.06
253.795	77.06
254.028	92.06
254.261	95.06
254.494	82.06
254.727	87.06
254.96	89.06
255.193	88.06
255.426	69.06
255.659	84.06
255.892	71.06
256.124	78.06
256.357	91.06
256.59	91.06
256.823	85.06
257.056	85.06
257.289	71.06
257.521	84.06
257.754	92.06
257.987	92.06
258.22	86.06
258.452	93.06
258.685	82.06
258.918	85.06
259.151	90.06
259.383	96.06
259.616	85.06
259.849	89.06
260.081	93.06
260.314	84.06
260.547	66.06
260.779	94.06
261.012	84.06
261.244	89.06
261.477	82.06
261.71	82.06
261.942	105.06
262.175	121.06
262.407	80.06
262.64	95.06
262.872	82.06
263.105	93.06
263.337	94.06
263.57	89.06
263.802	100.06
264.035	100.06
264.267	90.06
264.499	92.06
264.732	85.06
264.964	76.06
265.197	77.06
265.429	89.06
265.661	80.06
265.894	86.06
266.126	91.06
266.358	87.06
266.591	82.06
266.823	90.06
267.055	79.06
267.287	89.06
267.52	90.06
267.752	91.06
267.984	87.06
268.216	81.06
268.448	93.06
268.681	78.06
268.913	84.06
269.145	78.06
269.377	58.06
269.609	76.06
269.841	92.06
270.073	81.06
270.306	94.06
270.538	93.06
270.77	93.06
271.002	77.06
271.234	73.06
271.466	85.06
271.698	86.06
271.93	88.06
272.162	77.06
272.394	86.06
272.626	82.06
272.858	85.06
273.09	96.06
273.322	88.06
273.553	96.06
273.785	83.06
274.017	89.06
274.249	98.06
274.481	85.06
274.713	85.06
274.945	101.06
275.176	80.06
275.408	84.06
275.64	72.06
275.872	90.06
276.104	94.06
276.335	103.06
276.567	98.06
276.799	112.06
277.031	102.06
277.262	96.06
277.494	87.06
277.726	87.06
277.957	90.06
278.189	106.06
278.421	94.06
278.652	95.06
278.884	85.06
279.115	93.06
279.347	88.06
279.579	83.06
279.81	88.06
280.042	87.06
280.273	93.06
280.505	94.06
280.736	83.06
280.968	87.06
281.199	84.06
281.431	90.06
281.662	95.06
281.894	89.06
282.125	92.06
282.356	118.06
282.588	135.06
282.819	122.06
283.051	80.06
283.282	89.06
283.513	96.06
283.745	88.06
283.976	84.06
284.207	89.06
284.439	82.06
284.67	98.06
284.901	97.06
285.132	102.06
285.364	94.06
285.595	88.06
285.826	86.06
286.057	97.06
286.288	101.06
286.52	94.06
286.751	100.06
286.982	84.06
287.213	87.06
287.444	94.06
287.675	70.06
287.906	98.06
288.138	100.06
288.369	101.06
288.6	105.06
288.831	89.06
289.062	79.06
289.293	85.06
289.524	98.06
289.755	73.06
289.986	88.06
290.217	101.06
290.448	98.06
290.679	85.06
290.91	103.06
291.141	81.06
291.371	86.06
291.602	91.06
291.833	80.06
292.064	92.06
292.295	85.06
292.526	103.06
292.757	94.06
292.987	111.06
293.218	80.06
293.449	97.06
293.68	109.06
293.91	85.06
294.141	99.06
294.372	105.06
294.603	82.06
294.833	92.06
295.064	87.06
295.295	95.06
295.525	90.06
295.756	100.06
295.987	100.06
296.217	135.06
296.448	116.06
296.679	103.06
296.909	104.06
297.14	105.06
297.37	96.06
297.601	92.06
297.831	80.06
298.062	81.06
298.292	99.06
298.523	87.06
298.753	79.06
298.984	88.06
299.214	81.06
299.445	94.06
299.675	93.06
299.905	90.06
300.136	97.06
300.366	69.06
300.597	101.06
300.827	86.06
301.057	106.06
301.288	103.06
301.518	105.06
301.748	80.06
301.979	96.06
302.209	98.06
302.439	90.06
302.669	87.06
302.9	98.06
303.13	94.06
303.36	97.06
303.59	98.06
303.82	106.06
304.051	104.06
304.281	97.06
304.511	99.06
304.741	94.06
304.971	101.06
305.201	102.06
305.431	85.06
305.661	108.06
305.891	97.06
306.121	107.06
306.352	103.06
306.582	107.06
306.812	88.06
307.042	100.06
307.272	92.06
307.502	108.06
307.731	98.06
307.961	101.06
308.191	87.06
308.421	94.06
308.651	100.06
308.881	89.06
309.111	92.06
309.341	94.06
309.571	89.06
309.8	100.06
310.03	105.06
310.26	109.06
310.49	110.06
310.72	105.06
310.949	105.06
311.179	98.06
311.409	97.06
311.639	109.06
311.868	98.06
312.098	105.06
312.328	95.06
312.557	105.06
312.787	98.06
313.017	94.06
313.246	98.06
313.476	104.06
313.706	101.06
313.935	95.06
314.165	80.06
314.394	81.06
314.624	97.06
314.853	91.06
315.083	87.06
315.312	98.06
315.542	91.06
315.771	77.06
316.001	95.06
316.23	95.06
316.46	104.06
316.689	94.06
316.919	93.06
317.148	94.06
317.377	101.06
317.607	96.06
317.836	86.06
318.065	96.06
318.295	104.06
318.524	96.06
318.753	101.06
318.983	106.06
319.212	101.06
319.441	105.06
319.67	106.06
319.9	97.06
320.129	82.06
320.358	102.06
320.587	90.06
320.816	94.06
321.046	94.06
321.275	100.06
321.504	100.06
321.733	95.06
321.962	93.06
322.191	96.06
322.42	96.06
322.649	112.06
322.878	105.06
323.108	117.06
323.337	120.06
323.566	126.06
323.795	135.06
324.024	169.06
324.253	327.06
324.482	657.06
324.71	1315.06
324.939	1670.06
325.168	625.06
325.397	214.06
325.626	142.06
325.855	127.06
326.084	119.06
326.313	136.06
326.542	135.06
326.77	187.06
326.999	373.06
327.228	725.06
327.457	1310.06
327.686	1048.06
327.914	298.06
328.143	174.06
328.372	142.06
328.6	128.06
328.829	106.06
329.058	116.06
329.287	134.06
329.515	104.06
329.744	101.06
329.972	111.06
330.201	122.06
330.43	133.06
330.658	122.06
330.887	131.06
331.115	109.06
331.344	87.06
331.572	90.06
331.801	93.06
332.03	110.06
332.258	101.06
332.486	97.06
332.715	115.06
332.943	99.06
333.172	100.06
333.4	101.06
333.629	111.06
333.857	119.06
334.085	120.06
334.314	103.06
334.542	113.06
334.771	122.06
334.999	106.06
335.227	98.06
335.455	93.06
335.684	103.06
335.912	94.06
336.14	112.06
336.369	104.06
336.597	92.06
336.825	89.06
337.053	96.06
337.281	102.06
337.51	112.06
337.738	93.06
337.966	95.06
338.194	86.06
338.422	98.06
338.65	96.06
338.878	98.06
339.106	112.06
339.334	100.06
339.562	98.06
339.79	97.06
340.018	92.06
340.246	96.06
340.474	89.06
340.702	103.06
340.93	89.06
341.158	95.06
341.386	111.06
341.614	95.06
341.842	101.06
342.07	106.06
342.298	96.06
342.526	80.06
342.754	82.06
342.981	83.06
343.209	97.06
343.437	106.06
343.665	106.06
343.893	87.06
344.12	109.06
344.348	97.06
344.576	98.06
344.804	103.06
345.031	98.06
345.259	116.06
345.487	88.06
345.714	98.06
345.942	94.06
346.17	105.06
346.397	89.06
346.625	88.06
346.853	101.06
347.08	99.06
347.308	101.06
347.535	108.06
347.763	87.06
347.99	91.06
348.218	103.06
348.445	108.06
348.673	93.06
348.9	100.06
349.128	109.06
349.355	100.06
349.583	103.06
349.81	86.06
350.037	97.06
350.265	95.06
350.492	105.06
350.72	95.06
350.947	84.06
351.174	101.06
351.402	110.06
351.629	105.06
351.856	80.06
352.083	107.06
352.311	111.06
352.538	122.06
352.765	119.06
352.992	124.06
353.22	113.06
353.447	99.06
353.674	105.06
353.901	93.06
354.128	102.06
354.355	97.06
354.583	96.06
354.81	106.06
355.037	99.06
355.264	105.06
355.491	86.06
355.718	88.06
355.945	94.06
356.172	96.06
356.399	107.06
356.626	111.06
356.853	100.06
357.08	103.06
357.307	86.06
357.534	101.06
357.761	105.06
357.988	100.06
358.215	100.06
358.441	97.06
358.668	97.06
358.895	92.06
359.122	97.06
359.349	85.06
359.576	95.06
359.802	95.06
360.029	113.06
360.256	106.06
360.483	78.06
360.709	84.06
360.936	92.06
361.163	92.06
361.39	97.06
361.616	103.06
361.843	89.06
362.07	99.06
362.296	99.06
362.523	87.06
362.749	98.06
362.976	108.06
363.203	99.06
363.429	104.06
363.656	97.06
363.882	90.06
364.109	91.06
364.335	99.06
364.562	99.06
364.788	102.06
365.015	103.06
365.241	101.06
365.468	107.06
365.694	107.06
365.92	103.06
366.147	88.06
366.373	89.06
366.599	94.06
366.826	99.06
367.052	88.06
367.278	97.06
367.505	87.06
367.731	102.06
367.957	98.06
368.184	99.06
368.41	99.06
368.636	111.06
368.862	128.06
369.089	106.06
369.315	96.06
369.541	86.06
369.767	89.06
369.993	84.06
370.219	98.06
370.445	98.06
370.672	91.06
370.898	83.06
371.124	101.06
371.35	89.06
371.576	98.06
371.802	92.06
372.028	102.06
372.254	98.06
372.48	85.06
372.706	94.06
372.932	109.06
373.158	111.06
373.384	102.06
373.61	104.06
373.835	96.06
374.061	89.06
374.287	94.06
374.513	95.06
374.739	102.06
374.965	96.06
375.191	97.06
375.416	88.06
375.642	102.06
375.868	90.06
376.094	89.06
376.319	104.06
376.545	98.06
376.771	86.06
376.997	89.06
377.222	93.06
377.448	93.06
377.674	96.06
377.899	86.06
378.125	85.06
378.35	95.06
378.576	97.06
378.802	98.06
379.027	98.06
379.253	96.06
379.478	101.06
379.704	97.06
379.929	112.06
380.155	97.06
380.38	100.06
380.606	86.06
380.831	102.06
381.057	97.06
381.282	92.06
381.507	92.06
381.733	102.06
381.958	90.06
382.184	85.06
382.409	94.06
382.634	109.06
382.86	104.06
383.085	106.06
383.31	96.06
383.535	99.06
383.761	100.06
383.986	85.06
384.211	92.06
384.436	111.06
384.662	110.06
384.887	96.06
385.112	107.06
385.337	86.06
385.562	102.06
385.787	104.06
386.013	106.06
386.238	109.06
386.463	107.06
386.688	114.06
386.913	100.06
387.138	98.06
387.363	112.06
387.588	96.06
387.813	111.06
388.038	106.06
388.263	118.06
388.488	120.06
388.713	97.06
388.938	95.06
389.163	103.06
389.387	102.06
389.612	98.06
389.837	93.06
390.062	97.06
390.287	85.06
390.512	93.06
390.736	89.06
390.961	100.06
391.186	86.06
391.411	100.06
391.636	104.06
391.86	94.06
392.085	80.06
392.31	88.06
392.534	91.06
392.759	95.06
392.984	100.06
393.208	91.06
393.433	103.06
393.658	109.06
393.882	94.06
394.107	90.06
394.331	87.06
394.556	95.06
394.78	110.06
395.005	109.06
395.229	90.06
395.454	100.06
395.678	96.06
395.903	80.06
396.127	88.06
396.352	85.06
396.576	90.06
396.801	86.06
397.025	94.06
397.249	80.06
397.474	106.06
397.698	96.06
397.922	81.06
398.147	88.06
398.371	89.06
398.595	88.06
398.82	94.06
399.044	92.06
399.268	88.06
399.492	96.06
399.717	97.06
399.941	108.06
400.165	88.06
400.389	87.06
400.613	95.06
400.837	93.06
401.062	86.06
401.286	77.06
401.51	89.06
401.734	98.06
401.958	95.06
402.182	120.06
402.406	137.06
402.63	113.06
402.854	96.06
403.078	97.06
403.302	89.06
403.526	101.06
403.75	86.06
403.974	101.06
404.198	81.06
404.422	101.06
404.645	95.06
404.869	97.06
405.093	101.06
405.317	88.06
405.541	94.06
405.765	91.06
405.988	105.06
406.212	151.06
406.436	203.06
406.66	128.06
406.883	91.06
407.107	101.06
407.331	95.06
407.555	102.06
407.778	102.06
408.002	105.06
408.226	84.06
408.449	96.06
408.673	98.06
408.896	85.06
409.12	89.06
409.344	83.06
409.567	96.06
409.791	92.06
410.014	101.06
410.238	98.06
410.461	103.06
410.685	116.06
410.908	113.06
411.132	101.06
411.355	100.06
411.578	99.06
411.802	77.06
412.025	81.06
412.249	92.06
412.472	102.06
412.695	104.06
412.919	86.06
413.142	86.06
413.365	91.06
413.589	103.06
413.812	98.06
414.035	92.06
414.258	97.06
414.482	95.06
414.705	102.06
414.928	93.06
415.151	101.06
415.374	93.06
415.597	93.06
415.821	89.06
416.044	89.06
416.267	87.06
416.49	96.06
416.713	80.06
416.936	100.06
417.159	80.06
417.382	97.06
417.605	101.06
417.828	101.06
418.051	90.06
418.274	94.06
418.497	92.06
418.72	87.06
418.943	97.06
419.166	99.06
419.389	92.06
419.611	110.06
419.834	94.06
420.057	86.06
420.28	88.06
420.503	95.06
420.726	76.06
420.948	94.06
421.171	109.06
421.394	107.06
421.617	98.06
421.839	98.06
422.062	95.06
422.285	96.06
422.507	92.06
422.73	99.06
422.953	97.06
423.175	83.06
423.398	93.06
423.621	93.06
423.843	85.06
424.066	92.06
424.288	87.06
424.511	93.06
424.733	94.06
424.956	98.06
425.178	89.06
425.401	93.06
425.623	97.06
425.846	96.06
426.068	88.06
426.291	91.06
426.513	102.06
426.735	101.06
426.958	87.06
427.18	96.06
427.402	114.06
427.625	145.06
427.847	130.06
428.069	110.06
428.292	99.06
428.514	93.06
428.736	63.06
428.958	103.06
429.181	97.06
429.403	90.06
429.625	102.06
429.847	78.06
430.069	104.06
430.292	89.06
430.514	74.06
430.736	84.06
430.958	95.06
431.18	88.06
431.402	94.06
431.624	78.06
431.846	94.06
432.068	92.06
432.29	100.06
432.512	106.06
432.734	88.06
432.956	85.06
433.178	93.06
433.4	108.06
433.622	81.06
433.844	100.06
434.066	100.06
434.287	92.06
434.509	90.06
434.731	93.06
434.953	93.06
435.175	81.06
435.397	92.06
435.618	87.06
435.84	108.06
436.062	106.06
436.284	118.06
436.505	89.06
436.727	105.06
436.949	90.06
437.17	94.06
437.392	82.06
437.614	84.06
437.835	93.06
438.057	114.06
438.278	110.06
438.5	90.06
438.721	107.06
438.943	109.06
439.165	89.06
439.386	95.06
439.608	92.06
439.829	95.06
440.05	121.06
440.272	132.06
440.493	84.06
440.715	82.06
440.936	97.06
441.158	96.06
441.379	96.06
441.6	96.06
441.822	97.06
442.043	105.06
442.264	102.06
442.486	82.06
442.707	88.06
442.928	111.06
443.149	132.06
443.371	113.06
443.592	107.06
443.813	105.06
444.034	102.06
444.255	104.06
444.476	87.06
444.698	93.06
444.919	87.06
445.14	141.06
445.361	109.06
445.582	109.06
445.803	125.06
446.024	113.06
446.245	104.06
446.466	96.06
446.687	91.06
446.908	83.06
447.129	88.06
447.35	77.06
447.571	102.06
447.792	93.06
448.013	105.06
448.234	113.06
448.455	105.06
448.675	108.06
448.896	101.06
449.117	80.06
449.338	96.06
449.559	122.06
449.779	118.06
450	93.06
450.221	93.06
450.442	81.06
450.662	93.06
450.883	102.06
451.104	114.06
451.324	92.06
451.545	86.06
451.766	78.06
451.986	85.06
452.207	97.06
452.428	89.06
452.648	111.06
452.869	97.06
453.089	118.06
453.31	121.06
453.53	97.06
453.751	104.06
453.971	97.06
454.192	109.06
454.412	92.06
454.633	87.06
454.853	97.06
455.073	89.06
455.294	83.06
455.514	103.06
455.734	85.06
455.955	92.06
456.175	85.06
456.395	96.06
456.616	97.06
456.836	101.06
457.056	85.06
457.276	83.06
457.497	91.06
457.717	95.06
457.937	91.06
458.157	89.06
458.377	78.06
458.598	112.06
458.818	132.06
459.038	136.06
459.258	105.06
459.478	96.06
459.698	82.06
459.918	96.06
460.138	90.06
460.358	86.06
460.578	89.06
460.798	86.06
461.018	86.06
461.238	85.06
461.458	93.06
461.678	96.06
461.898	97.06
462.118	78.06
462.338	93.06
462.558	90.06
462.777	84.06
462.997	87.06
463.217	80.06
463.437	83.06
463.657	87.06
463.876	81.06
464.096	89.06
464.316	96.06
464.536	84.06
464.755	98.06
464.975	107.06
465.195	151.06
465.414	137.06
465.634	86.06
465.854	89.06
466.073	94.06
466.293	86.06
466.512	91.06
466.732	86.06
466.951	90.06
467.171	84.06
467.391	87.06
467.61	98.06
467.829	94.06
468.049	99.06
468.268	108.06
468.488	90.06
468.707	95.06
468.927	83.06
469.146	83.06
469.365	72.06
469.585	94.06
469.804	95.06
470.023	92.06
470.243	83.06
470.462	104.06
470.681	112.06
470.901	88.06
471.12	95.06
471.339	86.06
471.558	94.06
471.777	97.06
471.997	96.06
472.216	106.06
472.435	132.06
472.654	96.06
472.873	94.06
473.092	89.06
473.311	96.06
473.53	93.06
473.749	81.06
473.968	100.06
474.187	113.06
474.406	92.06
474.625	94.06
474.844	82.06
475.063	80.06
475.282	88.06
475.501	76.06
475.72	98.06
475.939	92.06
476.158	87.06
476.377	102.06
476.596	91.06
476.814	104.06
477.033	94.06
477.252	94.06
477.471	92.06
477.69	77.06
477.908	97.06
478.127	100.06
478.346	101.06
478.564	88.06
478.783	101.06
479.002	92.06
479.22	87.06
479.439	107.06
479.658	110.06
479.876	92.06
480.095	85.06
480.313	96.06
480.532	90.06
480.751	92.06
480.969	100.06
481.188	164.06
481.406	119.06
481.624	113.06
481.843	103.06
482.061	78.06
482.28	102.06
482.498	91.06
482.717	93.06
482.935	95.06
483.153	81.06
483.372	103.06
483.59	98.06
483.808	99.06
484.027	100.06
484.245	84.06
484.463	84.06
484.681	92.06
484.9	105.06
485.118	102.06
485.336	98.06
485.554	106.06
485.772	109.06
485.99	97.06
486.209	116.06
486.427	105.06
486.645	101.06
486.863	112.06
487.081	104.06
487.299	93.06
487.517	99.06
487.735	93.06
487.953	84.06
488.171	97.06
488.389	102.06
488.607	98.06
488.825	115.06
489.043	98.06
489.261	89.06
489.479	92.06
489.696	88.06
489.914	108.06
490.132	90.06
490.35	100.06
490.568	105.06
490.786	92.06
491.003	93.06
491.221	87.06
491.439	82.06
491.657	106.06
491.874	102.06
492.092	91.06
492.31	84.06
492.527	93.06
492.745	94.06
492.963	106.06
493.18	89.06
493.398	82.06
493.615	102.06
493.833	94.06
494.05	84.06
494.268	90.06
494.485	89.06
494.703	84.06
494.92	108.06
495.138	102.06
495.355	82.06
495.573	98.06
495.79	99.06
496.008	98.06
496.225	98.06
496.442	94.06
496.66	93.06
496.877	93.06
497.094	95.06
497.312	84.06
497.529	98.06
497.746	91.06
497.963	79.06
498.181	93.06
498.398	97.06
498.615	106.06
498.832	97.06
499.049	90.06
499.267	90.06
499.484	104.06
499.701	87.06
499.918	81.06
500.135	102.06
500.352	102.06
500.569	88.06
500.786	100.06
501.003	88.06
501.22	108.06
501.437	84.06
501.654	100.06
501.871	113.06
502.088	92.06
502.305	105.06
502.522	105.06
502.739	94.06
502.956	90.06
503.172	89.06
503.389	95.06
503.606	103.06
503.823	89.06
504.04	98.06
504.256	110.06
504.473	101.06
504.69	97.06
504.907	100.06
505.123	88.06
505.34	92.06
505.557	87.06
505.773	69.06
505.99	86.06
506.207	94.06
506.423	101.06
506.64	109.06
506.856	99.06
507.073	95.06
507.289	89.06
507.506	84.06
507.722	99.06
507.939	116.06
508.155	89.06
508.372	88.06
508.588	93.06
508.805	114.06
509.021	108.06
509.238	97.06
509.454	119.06
509.67	100.06
509.887	100.06
510.103	127.06
510.319	202.06
510.536	676.06
510.752	2024.06
510.968	559.06
511.184	160.06
511.401	93.06
511.617	94.06
511.833	101.06
512.049	99.06
512.265	90.06
512.481	90.06
512.698	96.06
512.914	106.06
513.13	93.06
513.346	82.06
513.562	108.06
513.778	105.06
513.994	93.06
514.21	93.06
514.426	109.06
