Data from Circ_1994_H10_HRD10591_00011.txt Node
Date: Wed Jan 03 11:40:32 EST 2024
User: Yrep
Spectrometer: HR+D1059
Trigger mode: 1
Integration Time (sec): 1.000000E-1
Scans to average: 1
Electric dark correction enabled: true
Nonlinearity correction enabled: false
Boxcar width: 0
XAxis mode: Wavelengths
Number of Pixels in Spectrum: 2048
>>>>>Begin Spectral Data<<<<<
223.165	-20.75
223.4	-20.75
223.635	-20.75
223.869	-34.75
224.104	-16.75
224.338	-17.75
224.573	-16.75
224.808	-5.75
225.042	-8.75
225.277	-1.75
225.511	3.25
225.746	-4.75
225.98	1.25
226.215	16.25
226.449	19.25
226.683	21.25
226.918	27.25
227.152	39.25
227.387	44.25
227.621	33.25
227.856	42.25
228.09	47.25
228.324	65.25
228.559	51.25
228.793	57.25
229.027	55.25
229.262	62.25
229.496	67.25
229.73	59.25
229.964	81.25
230.199	84.25
230.433	69.25
230.667	75.25
230.901	79.25
231.136	75.25
231.37	78.25
231.604	88.25
231.838	80.25
232.072	77.25
232.306	72.25
232.541	64.25
232.775	82.25
233.009	89.25
233.243	76.25
233.477	81.25
233.711	98.25
233.945	77.25
234.179	97.25
234.413	65.25
234.647	90.25
234.881	75.25
235.115	77.25
235.349	82.25
235.583	86.25
235.817	81.25
236.051	72.25
236.285	66.25
236.519	76.25
236.753	71.25
236.987	85.25
237.221	88.25
237.455	87.25
237.689	69.25
237.922	64.25
238.156	68.25
238.39	60.25
238.624	79.25
238.858	77.25
239.091	76.25
239.325	78.25
239.559	81.25
239.793	74.25
240.027	79.25
240.26	89.25
240.494	86.25
240.728	84.25
240.961	75.25
241.195	81.25
241.429	77.25
241.662	87.25
241.896	73.25
242.13	76.25
242.363	67.25
242.597	68.25
242.83	64.25
243.064	79.25
243.298	69.25
243.531	73.25
243.765	81.25
243.998	84.25
244.232	74.25
244.465	92.25
244.699	77.25
244.932	84.25
245.166	75.25
245.399	84.25
245.633	83.25
245.866	71.25
246.099	79.25
246.333	74.25
246.566	79.25
246.8	69.25
247.033	76.25
247.266	68.25
247.5	77.25
247.733	80.25
247.966	86.25
248.2	84.25
248.433	81.25
248.666	72.25
248.899	73.25
249.133	82.25
249.366	91.25
249.599	90.25
249.832	88.25
250.066	73.25
250.299	84.25
250.532	71.25
250.765	72.25
250.998	63.25
251.231	78.25
251.465	79.25
251.698	71.25
251.931	85.25
252.164	88.25
252.397	86.25
252.63	88.25
252.863	65.25
253.096	80.25
253.329	74.25
253.562	77.25
253.795	67.25
254.028	76.25
254.261	75.25
254.494	71.25
254.727	82.25
254.96	76.25
255.193	76.25
255.426	64.25
255.659	72.25
255.892	83.25
256.124	78.25
256.357	67.25
256.59	64.25
256.823	67.25
257.056	83.25
257.289	80.25
257.521	82.25
257.754	79.25
257.987	89.25
258.22	82.25
258.452	66.25
258.685	84.25
258.918	81.25
259.151	89.25
259.383	84.25
259.616	90.25
259.849	81.25
260.081	73.25
260.314	87.25
260.547	79.25
260.779	69.25
261.012	79.25
261.244	66.25
261.477	91.25
261.71	83.25
261.942	110.25
262.175	91.25
262.407	73.25
262.64	88.25
262.872	82.25
263.105	87.25
263.337	79.25
263.57	88.25
263.802	66.25
264.035	75.25
264.267	75.25
264.499	89.25
264.732	97.25
264.964	75.25
265.197	92.25
265.429	91.25
265.661	78.25
265.894	82.25
266.126	73.25
266.358	96.25
266.591	91.25
266.823	72.25
267.055	71.25
267.287	76.25
267.52	73.25
267.752	88.25
267.984	81.25
268.216	89.25
268.448	85.25
268.681	75.25
268.913	85.25
269.145	80.25
269.377	80.25
269.609	66.25
269.841	87.25
270.073	77.25
270.306	93.25
270.538	85.25
270.77	84.25
271.002	77.25
271.234	76.25
271.466	78.25
271.698	93.25
271.93	69.25
272.162	78.25
272.394	81.25
272.626	73.25
272.858	63.25
273.09	76.25
273.322	71.25
273.553	80.25
273.785	90.25
274.017	84.25
274.249	80.25
274.481	97.25
274.713	82.25
274.945	79.25
275.176	87.25
275.408	87.25
275.64	75.25
275.872	86.25
276.104	91.25
276.335	96.25
276.567	93.25
276.799	98.25
277.031	95.25
277.262	87.25
277.494	89.25
277.726	88.25
277.957	77.25
278.189	94.25
278.421	81.25
278.652	77.25
278.884	81.25
279.115	80.25
279.347	84.25
279.579	84.25
279.81	75.25
280.042	96.25
280.273	94.25
280.505	84.25
280.736	87.25
280.968	84.25
281.199	75.25
281.431	81.25
281.662	77.25
281.894	88.25
282.125	97.25
282.356	114.25
282.588	107.25
282.819	104.25
283.051	90.25
283.282	87.25
283.513	97.25
283.745	79.25
283.976	95.25
284.207	89.25
284.439	80.25
284.67	75.25
284.901	86.25
285.132	77.25
285.364	83.25
285.595	83.25
285.826	83.25
286.057	71.25
286.288	81.25
286.52	72.25
286.751	73.25
286.982	98.25
287.213	91.25
287.444	87.25
287.675	76.25
287.906	83.25
288.138	85.25
288.369	84.25
288.6	88.25
288.831	68.25
289.062	91.25
289.293	94.25
289.524	88.25
289.755	84.25
289.986	82.25
290.217	83.25
290.448	86.25
290.679	94.25
290.91	91.25
291.141	89.25
291.371	94.25
291.602	97.25
291.833	87.25
292.064	81.25
292.295	77.25
292.526	83.25
292.757	91.25
292.987	91.25
293.218	83.25
293.449	78.25
293.68	89.25
293.91	93.25
294.141	83.25
294.372	107.25
294.603	92.25
294.833	72.25
295.064	80.25
295.295	90.25
295.525	82.25
295.756	81.25
295.987	108.25
296.217	132.25
296.448	115.25
296.679	91.25
296.909	78.25
297.14	95.25
297.37	85.25
297.601	83.25
297.831	100.25
298.062	91.25
298.292	90.25
298.523	84.25
298.753	93.25
298.984	96.25
299.214	96.25
299.445	82.25
299.675	89.25
299.905	98.25
300.136	96.25
300.366	97.25
300.597	106.25
300.827	100.25
301.057	99.25
301.288	96.25
301.518	94.25
301.748	86.25
301.979	101.25
302.209	95.25
302.439	88.25
302.669	90.25
302.9	84.25
303.13	83.25
303.36	105.25
303.59	96.25
303.82	100.25
304.051	97.25
304.281	84.25
304.511	95.25
304.741	89.25
304.971	90.25
305.201	87.25
305.431	89.25
305.661	96.25
305.891	85.25
306.121	80.25
306.352	103.25
306.582	95.25
306.812	79.25
307.042	98.25
307.272	97.25
307.502	90.25
307.731	95.25
307.961	78.25
308.191	94.25
308.421	86.25
308.651	82.25
308.881	103.25
309.111	83.25
309.341	91.25
309.571	92.25
309.8	91.25
310.03	110.25
310.26	94.25
310.49	84.25
310.72	97.25
310.949	84.25
311.179	97.25
311.409	86.25
311.639	102.25
311.868	90.25
312.098	81.25
312.328	96.25
312.557	96.25
312.787	98.25
313.017	95.25
313.246	89.25
313.476	79.25
313.706	86.25
313.935	99.25
314.165	98.25
314.394	99.25
314.624	88.25
314.853	84.25
315.083	98.25
315.312	81.25
315.542	77.25
315.771	94.25
316.001	84.25
316.23	76.25
316.46	99.25
316.689	88.25
316.919	93.25
317.148	109.25
317.377	81.25
317.607	86.25
317.836	79.25
318.065	83.25
318.295	92.25
318.524	87.25
318.753	95.25
318.983	87.25
319.212	91.25
319.441	96.25
319.67	105.25
319.9	103.25
320.129	99.25
320.358	81.25
320.587	96.25
320.816	105.25
321.046	87.25
321.275	90.25
321.504	88.25
321.733	95.25
321.962	91.25
322.191	101.25
322.42	115.25
322.649	110.25
322.878	105.25
323.108	106.25
323.337	114.25
323.566	122.25
323.795	140.25
324.024	187.25
324.253	340.25
324.482	702.25
324.71	1409.25
324.939	1839.25
325.168	670.25
325.397	215.25
325.626	139.25
325.855	131.25
326.084	120.25
326.313	116.25
326.542	136.25
326.77	217.25
326.999	429.25
327.228	803.25
327.457	1462.25
327.686	1144.25
327.914	331.25
328.143	184.25
328.372	137.25
328.6	111.25
328.829	99.25
329.058	137.25
329.287	121.25
329.515	104.25
329.744	101.25
329.972	91.25
330.201	103.25
330.43	117.25
330.658	112.25
330.887	133.25
331.115	121.25
331.344	98.25
331.572	111.25
331.801	100.25
332.03	99.25
332.258	101.25
332.486	96.25
332.715	101.25
332.943	105.25
333.172	100.25
333.4	108.25
333.629	88.25
333.857	105.25
334.085	111.25
334.314	98.25
334.542	124.25
334.771	109.25
334.999	99.25
335.227	95.25
335.455	86.25
335.684	92.25
335.912	100.25
336.14	92.25
336.369	100.25
336.597	100.25
336.825	108.25
337.053	74.25
337.281	99.25
337.51	87.25
337.738	90.25
337.966	102.25
338.194	94.25
338.422	86.25
338.65	87.25
338.878	87.25
339.106	85.25
339.334	98.25
339.562	84.25
339.79	87.25
340.018	87.25
340.246	84.25
340.474	88.25
340.702	98.25
340.93	87.25
341.158	86.25
341.386	97.25
341.614	100.25
341.842	89.25
342.07	92.25
342.298	92.25
342.526	92.25
342.754	101.25
342.981	99.25
343.209	95.25
343.437	91.25
343.665	95.25
343.893	98.25
344.12	85.25
344.348	92.25
344.576	92.25
344.804	86.25
345.031	103.25
345.259	106.25
345.487	104.25
345.714	96.25
345.942	81.25
346.17	94.25
346.397	87.25
346.625	91.25
346.853	85.25
347.08	90.25
347.308	90.25
347.535	105.25
347.763	93.25
347.99	110.25
348.218	100.25
348.445	101.25
348.673	95.25
348.9	100.25
349.128	87.25
349.355	103.25
349.583	88.25
349.81	90.25
350.037	86.25
350.265	97.25
350.492	86.25
350.72	91.25
350.947	100.25
351.174	112.25
351.402	98.25
351.629	107.25
351.856	113.25
352.083	107.25
352.311	111.25
352.538	118.25
352.765	120.25
352.992	113.25
353.22	109.25
353.447	107.25
353.674	99.25
353.901	89.25
354.128	100.25
354.355	93.25
354.583	100.25
354.81	95.25
355.037	100.25
355.264	92.25
355.491	97.25
355.718	86.25
355.945	98.25
356.172	93.25
356.399	104.25
356.626	95.25
356.853	89.25
357.08	98.25
357.307	91.25
357.534	92.25
357.761	94.25
357.988	92.25
358.215	100.25
358.441	91.25
358.668	93.25
358.895	88.25
359.122	88.25
359.349	93.25
359.576	88.25
359.802	100.25
360.029	92.25
360.256	90.25
360.483	102.25
360.709	95.25
360.936	79.25
361.163	103.25
361.39	98.25
361.616	93.25
361.843	92.25
362.07	91.25
362.296	93.25
362.523	89.25
362.749	75.25
362.976	95.25
363.203	91.25
363.429	76.25
363.656	99.25
363.882	84.25
364.109	89.25
364.335	83.25
364.562	84.25
364.788	90.25
365.015	88.25
365.241	90.25
365.468	100.25
365.694	89.25
365.92	99.25
366.147	82.25
366.373	82.25
366.599	73.25
366.826	88.25
367.052	77.25
367.278	97.25
367.505	82.25
367.731	98.25
367.957	107.25
368.184	92.25
368.41	99.25
368.636	98.25
368.862	116.25
369.089	94.25
369.315	79.25
369.541	92.25
369.767	90.25
369.993	95.25
370.219	84.25
370.445	96.25
370.672	97.25
370.898	101.25
371.124	97.25
371.35	82.25
371.576	80.25
371.802	85.25
372.028	98.25
372.254	92.25
372.48	91.25
372.706	91.25
372.932	80.25
373.158	101.25
373.384	99.25
373.61	81.25
373.835	84.25
374.061	104.25
374.287	107.25
374.513	91.25
374.739	99.25
374.965	90.25
375.191	95.25
375.416	107.25
375.642	101.25
375.868	93.25
376.094	83.25
376.319	93.25
376.545	94.25
376.771	87.25
376.997	88.25
377.222	96.25
377.448	87.25
377.674	66.25
377.899	82.25
378.125	91.25
378.35	100.25
378.576	94.25
378.802	86.25
379.027	92.25
379.253	97.25
379.478	92.25
379.704	84.25
379.929	94.25
380.155	91.25
380.38	92.25
380.606	93.25
380.831	98.25
381.057	106.25
381.282	87.25
381.507	98.25
381.733	101.25
381.958	81.25
382.184	86.25
382.409	98.25
382.634	95.25
382.86	88.25
383.085	98.25
383.31	99.25
383.535	97.25
383.761	99.25
383.986	110.25
384.211	90.25
384.436	98.25
384.662	105.25
384.887	107.25
385.112	96.25
385.337	97.25
385.562	105.25
385.787	92.25
386.013	101.25
386.238	112.25
386.463	123.25
386.688	106.25
386.913	101.25
387.138	111.25
387.363	112.25
387.588	96.25
387.813	99.25
388.038	101.25
388.263	108.25
388.488	117.25
388.713	104.25
388.938	81.25
389.163	90.25
389.387	93.25
389.612	82.25
389.837	92.25
390.062	98.25
390.287	83.25
390.512	89.25
390.736	87.25
390.961	94.25
391.186	97.25
391.411	86.25
391.636	105.25
391.86	80.25
392.085	88.25
392.31	75.25
392.534	80.25
392.759	94.25
392.984	88.25
393.208	91.25
393.433	96.25
393.658	101.25
393.882	95.25
394.107	97.25
394.331	87.25
394.556	95.25
394.78	88.25
395.005	98.25
395.229	83.25
395.454	81.25
395.678	90.25
395.903	79.25
396.127	101.25
396.352	91.25
396.576	92.25
396.801	99.25
397.025	93.25
397.249	91.25
397.474	92.25
397.698	90.25
397.922	101.25
398.147	84.25
398.371	74.25
398.595	79.25
398.82	91.25
399.044	88.25
399.268	79.25
399.492	96.25
399.717	92.25
399.941	89.25
400.165	91.25
400.389	79.25
400.613	92.25
400.837	80.25
401.062	101.25
401.286	72.25
401.51	97.25
401.734	83.25
401.958	81.25
402.182	122.25
402.406	143.25
402.63	117.25
402.854	92.25
403.078	75.25
403.302	89.25
403.526	85.25
403.75	86.25
403.974	95.25
404.198	92.25
404.422	85.25
404.645	70.25
404.869	90.25
405.093	88.25
405.317	106.25
405.541	93.25
405.765	90.25
405.988	109.25
406.212	152.25
406.436	208.25
406.66	124.25
406.883	105.25
407.107	88.25
407.331	94.25
407.555	82.25
407.778	99.25
408.002	96.25
408.226	94.25
408.449	95.25
408.673	92.25
408.896	107.25
409.12	89.25
409.344	88.25
409.567	95.25
409.791	96.25
410.014	94.25
410.238	84.25
410.461	97.25
410.685	98.25
410.908	99.25
411.132	104.25
411.355	93.25
411.578	78.25
411.802	82.25
412.025	97.25
412.249	85.25
412.472	82.25
412.695	92.25
412.919	98.25
413.142	72.25
413.365	89.25
413.589	92.25
413.812	92.25
414.035	86.25
414.258	89.25
414.482	81.25
414.705	96.25
414.928	86.25
415.151	107.25
415.374	103.25
415.597	92.25
415.821	81.25
416.044	91.25
416.267	91.25
416.49	89.25
416.713	71.25
416.936	81.25
417.159	93.25
417.382	75.25
417.605	91.25
417.828	91.25
418.051	82.25
418.274	90.25
418.497	104.25
418.72	100.25
418.943	85.25
419.166	96.25
419.389	87.25
419.611	86.25
419.834	85.25
420.057	101.25
420.28	101.25
420.503	83.25
420.726	86.25
420.948	94.25
421.171	94.25
421.394	104.25
421.617	95.25
421.839	84.25
422.062	93.25
422.285	93.25
422.507	111.25
422.73	89.25
422.953	98.25
423.175	106.25
423.398	86.25
423.621	90.25
423.843	83.25
424.066	87.25
424.288	87.25
424.511	100.25
424.733	92.25
424.956	104.25
425.178	83.25
425.401	91.25
425.623	87.25
425.846	90.25
426.068	83.25
426.291	94.25
426.513	102.25
426.735	85.25
426.958	96.25
427.18	95.25
427.402	124.25
427.625	146.25
427.847	114.25
428.069	107.25
428.292	93.25
428.514	92.25
428.736	85.25
428.958	92.25
429.181	93.25
429.403	104.25
429.625	87.25
429.847	98.25
430.069	92.25
430.292	79.25
430.514	71.25
430.736	85.25
430.958	83.25
431.18	92.25
431.402	95.25
431.624	95.25
431.846	95.25
432.068	85.25
432.29	92.25
432.512	97.25
432.734	92.25
432.956	99.25
433.178	113.25
433.4	95.25
433.622	103.25
433.844	88.25
434.066	86.25
434.287	84.25
434.509	82.25
434.731	98.25
434.953	88.25
435.175	101.25
435.397	98.25
435.618	88.25
435.84	97.25
436.062	113.25
436.284	114.25
436.505	91.25
436.727	97.25
436.949	82.25
437.17	80.25
437.392	94.25
437.614	93.25
437.835	81.25
438.057	99.25
438.278	107.25
438.5	108.25
438.721	121.25
438.943	107.25
439.165	80.25
439.386	104.25
439.608	88.25
439.829	83.25
440.05	116.25
440.272	121.25
440.493	101.25
440.715	88.25
440.936	95.25
441.158	77.25
441.379	73.25
441.6	92.25
441.822	89.25
442.043	102.25
442.264	107.25
442.486	97.25
442.707	89.25
442.928	102.25
443.149	137.25
443.371	120.25
443.592	116.25
443.813	103.25
444.034	111.25
444.255	83.25
444.476	98.25
444.698	91.25
444.919	84.25
445.14	122.25
445.361	117.25
445.582	109.25
445.803	140.25
446.024	129.25
446.245	121.25
446.466	99.25
446.687	89.25
446.908	83.25
447.129	91.25
447.35	102.25
447.571	88.25
447.792	82.25
448.013	102.25
448.234	91.25
448.455	109.25
448.675	99.25
448.896	108.25
449.117	100.25
449.338	91.25
449.559	125.25
449.779	115.25
450	79.25
450.221	89.25
450.442	95.25
450.662	81.25
450.883	91.25
451.104	91.25
451.324	89.25
451.545	84.25
451.766	84.25
451.986	93.25
452.207	78.25
452.428	90.25
452.648	86.25
452.869	118.25
453.089	107.25
453.31	97.25
453.53	100.25
453.751	94.25
453.971	92.25
454.192	103.25
454.412	97.25
454.633	75.25
454.853	75.25
455.073	83.25
455.294	87.25
455.514	89.25
455.734	93.25
455.955	96.25
456.175	82.25
456.395	85.25
456.616	90.25
456.836	91.25
457.056	90.25
457.276	92.25
457.497	79.25
457.717	91.25
457.937	92.25
458.157	84.25
458.377	98.25
458.598	95.25
458.818	132.25
459.038	143.25
459.258	103.25
459.478	88.25
459.698	92.25
459.918	97.25
460.138	77.25
460.358	83.25
460.578	91.25
460.798	100.25
461.018	83.25
461.238	72.25
461.458	100.25
461.678	87.25
461.898	89.25
462.118	82.25
462.338	100.25
462.558	72.25
462.777	98.25
462.997	89.25
463.217	78.25
463.437	86.25
463.657	76.25
463.876	79.25
464.096	97.25
464.316	93.25
464.536	96.25
464.755	99.25
464.975	95.25
465.195	129.25
465.414	135.25
465.634	98.25
465.854	87.25
466.073	89.25
466.293	100.25
466.512	84.25
466.732	94.25
466.951	87.25
467.171	97.25
467.391	89.25
467.61	94.25
467.829	93.25
468.049	90.25
468.268	107.25
468.488	97.25
468.707	71.25
468.927	77.25
469.146	87.25
469.365	78.25
469.585	87.25
469.804	92.25
470.023	96.25
470.243	79.25
470.462	88.25
470.681	108.25
470.901	81.25
471.12	82.25
471.339	90.25
471.558	85.25
471.777	91.25
471.997	88.25
472.216	99.25
472.435	107.25
472.654	94.25
472.873	93.25
473.092	87.25
473.311	77.25
473.53	87.25
473.749	89.25
473.968	95.25
474.187	107.25
474.406	103.25
474.625	81.25
474.844	76.25
475.063	73.25
475.282	89.25
475.501	96.25
475.72	92.25
475.939	93.25
476.158	73.25
476.377	89.25
476.596	89.25
476.814	92.25
477.033	77.25
477.252	89.25
477.471	86.25
477.69	93.25
477.908	88.25
478.127	82.25
478.346	99.25
478.564	89.25
478.783	95.25
479.002	92.25
479.22	84.25
479.439	84.25
479.658	83.25
479.876	83.25
480.095	95.25
480.313	91.25
480.532	95.25
480.751	97.25
480.969	99.25
481.188	140.25
481.406	124.25
481.624	83.25
481.843	75.25
482.061	86.25
482.28	88.25
482.498	82.25
482.717	91.25
482.935	86.25
483.153	90.25
483.372	99.25
483.59	101.25
483.808	89.25
484.027	87.25
484.245	90.25
484.463	73.25
484.681	105.25
484.9	84.25
485.118	96.25
485.336	91.25
485.554	91.25
485.772	103.25
485.99	99.25
486.209	97.25
486.427	92.25
486.645	99.25
486.863	103.25
487.081	106.25
487.299	90.25
487.517	96.25
487.735	85.25
487.953	83.25
488.171	80.25
488.389	88.25
488.607	97.25
488.825	91.25
489.043	83.25
489.261	88.25
489.479	88.25
489.696	104.25
489.914	86.25
490.132	97.25
490.35	102.25
490.568	76.25
490.786	86.25
491.003	84.25
491.221	83.25
491.439	96.25
491.657	90.25
491.874	80.25
492.092	89.25
492.31	85.25
492.527	80.25
492.745	88.25
492.963	104.25
493.18	89.25
493.398	84.25
493.615	88.25
493.833	82.25
494.05	93.25
494.268	75.25
494.485	93.25
494.703	89.25
494.92	84.25
495.138	96.25
495.355	97.25
495.573	89.25
495.79	83.25
496.008	98.25
496.225	84.25
496.442	96.25
496.66	99.25
496.877	98.25
497.094	100.25
497.312	93.25
497.529	94.25
497.746	91.25
497.963	89.25
498.181	73.25
498.398	92.25
498.615	105.25
498.832	115.25
499.049	78.25
499.267	100.25
499.484	83.25
499.701	68.25
499.918	99.25
500.135	79.25
500.352	93.25
500.569	89.25
500.786	80.25
501.003	92.25
501.22	84.25
501.437	92.25
501.654	78.25
501.871	101.25
502.088	95.25
502.305	87.25
502.522	83.25
502.739	88.25
502.956	77.25
503.172	91.25
503.389	76.25
503.606	90.25
503.823	95.25
504.04	83.25
504.256	91.25
504.473	101.25
504.69	92.25
504.907	85.25
505.123	85.25
505.34	75.25
505.557	92.25
505.773	90.25
505.99	89.25
506.207	82.25
506.423	75.25
506.64	94.25
506.856	83.25
507.073	95.25
507.289	83.25
507.506	101.25
507.722	103.25
507.939	83.25
508.155	85.25
508.372	83.25
508.588	87.25
508.805	88.25
509.021	97.25
509.238	81.25
509.454	85.25
509.67	93.25
509.887	120.25
510.103	120.25
510.319	196.25
510.536	673.25
510.752	2060.25
510.968	576.25
511.184	145.25
511.401	105.25
511.617	104.25
511.833	105.25
512.049	94.25
512.265	80.25
512.481	91.25
512.698	90.25
512.914	82.25
513.13	86.25
513.346	97.25
513.562	87.25
513.778	99.25
513.994	84.25
514.21	111.25
514.426	115.25
514.642	127.25
514.858	110.25
515.074	143.25
515.29	375.25
515.506	1185.25
515.721	449.25
515.937	127.25
516.153	107.25
516.369	106.25
