Data from Circ_1994_H10_HRD10591_00040.txt Node
Date: Wed Jan 03 11:40:38 EST 2024
User: Yrep
Spectrometer: HR+D1059
Trigger mode: 1
Integration Time (sec): 1.000000E-1
Scans to average: 1
Electric dark correction enabled: true
Nonlinearity correction enabled: false
Boxcar width: 0
XAxis mode: Wavelengths
Number of Pixels in Spectrum: 2048
>>>>>Begin Spectral Data<<<<<
223.165	-7.44
223.4	-7.44
223.635	-7.44
223.869	-12.44
224.104	-32.44
224.338	-1.44
224.573	-7.44
224.808	-17.44
225.042	1.56
225.277	0.56
225.511	6.56
225.746	2.56
225.98	1.56
226.215	14.56
226.449	17.56
226.683	7.56
226.918	17.56
227.152	8.56
227.387	38.56
227.621	47.56
227.856	51.56
228.09	62.56
228.324	57.56
228.559	56.56
228.793	54.56
229.027	65.56
229.262	78.56
229.496	69.56
229.73	84.56
229.964	85.56
230.199	86.56
230.433	85.56
230.667	79.56
230.901	84.56
231.136	81.56
231.37	83.56
231.604	71.56
231.838	83.56
232.072	78.56
232.306	85.56
232.541	83.56
232.775	95.56
233.009	74.56
233.243	81.56
233.477	82.56
233.711	97.56
233.945	93.56
234.179	87.56
234.413	95.56
234.647	93.56
234.881	82.56
235.115	82.56
235.349	84.56
235.583	77.56
235.817	79.56
236.051	87.56
236.285	91.56
236.519	79.56
236.753	91.56
236.987	84.56
237.221	88.56
237.455	85.56
237.689	81.56
237.922	80.56
238.156	65.56
238.39	98.56
238.624	91.56
238.858	59.56
239.091	85.56
239.325	87.56
239.559	95.56
239.793	72.56
240.027	79.56
240.26	72.56
240.494	89.56
240.728	75.56
240.961	78.56
241.195	94.56
241.429	73.56
241.662	66.56
241.896	80.56
242.13	78.56
242.363	75.56
242.597	77.56
242.83	79.56
243.064	82.56
243.298	89.56
243.531	81.56
243.765	72.56
243.998	74.56
244.232	92.56
244.465	81.56
244.699	104.56
244.932	110.56
245.166	96.56
245.399	83.56
245.633	85.56
245.866	87.56
246.099	78.56
246.333	88.56
246.566	89.56
246.8	91.56
247.033	80.56
247.266	85.56
247.5	72.56
247.733	64.56
247.966	73.56
248.2	99.56
248.433	85.56
248.666	85.56
248.899	94.56
249.133	91.56
249.366	83.56
249.599	102.56
249.832	82.56
250.066	97.56
250.299	97.56
250.532	80.56
250.765	80.56
250.998	86.56
251.231	75.56
251.465	93.56
251.698	81.56
251.931	82.56
252.164	70.56
252.397	81.56
252.63	87.56
252.863	89.56
253.096	95.56
253.329	101.56
253.562	91.56
253.795	90.56
254.028	79.56
254.261	89.56
254.494	89.56
254.727	90.56
254.96	94.56
255.193	79.56
255.426	77.56
255.659	84.56
255.892	83.56
256.124	79.56
256.357	90.56
256.59	90.56
256.823	91.56
257.056	99.56
257.289	82.56
257.521	90.56
257.754	93.56
257.987	99.56
258.22	87.56
258.452	99.56
258.685	87.56
258.918	99.56
259.151	79.56
259.383	91.56
259.616	90.56
259.849	80.56
260.081	89.56
260.314	100.56
260.547	89.56
260.779	73.56
261.012	88.56
261.244	91.56
261.477	84.56
261.71	79.56
261.942	109.56
262.175	113.56
262.407	99.56
262.64	93.56
262.872	71.56
263.105	89.56
263.337	88.56
263.57	100.56
263.802	103.56
264.035	88.56
264.267	79.56
264.499	88.56
264.732	85.56
264.964	88.56
265.197	96.56
265.429	87.56
265.661	91.56
265.894	87.56
266.126	82.56
266.358	81.56
266.591	94.56
266.823	72.56
267.055	91.56
267.287	104.56
267.52	86.56
267.752	94.56
267.984	94.56
268.216	89.56
268.448	95.56
268.681	83.56
268.913	97.56
269.145	89.56
269.377	101.56
269.609	90.56
269.841	89.56
270.073	110.56
270.306	94.56
270.538	85.56
270.77	91.56
271.002	93.56
271.234	83.56
271.466	89.56
271.698	88.56
271.93	89.56
272.162	76.56
272.394	101.56
272.626	83.56
272.858	99.56
273.09	85.56
273.322	113.56
273.553	87.56
273.785	86.56
274.017	86.56
274.249	81.56
274.481	91.56
274.713	100.56
274.945	95.56
275.176	101.56
275.408	112.56
275.64	87.56
275.872	97.56
276.104	99.56
276.335	97.56
276.567	103.56
276.799	102.56
277.031	97.56
277.262	105.56
277.494	100.56
277.726	90.56
277.957	91.56
278.189	101.56
278.421	94.56
278.652	80.56
278.884	99.56
279.115	85.56
279.347	95.56
279.579	103.56
279.81	100.56
280.042	93.56
280.273	101.56
280.505	93.56
280.736	95.56
280.968	105.56
281.199	95.56
281.431	86.56
281.662	98.56
281.894	105.56
282.125	110.56
282.356	122.56
282.588	123.56
282.819	111.56
283.051	96.56
283.282	97.56
283.513	81.56
283.745	82.56
283.976	85.56
284.207	94.56
284.439	87.56
284.67	91.56
284.901	89.56
285.132	108.56
285.364	74.56
285.595	93.56
285.826	97.56
286.057	96.56
286.288	70.56
286.52	86.56
286.751	85.56
286.982	98.56
287.213	103.56
287.444	85.56
287.675	85.56
287.906	90.56
288.138	89.56
288.369	100.56
288.6	81.56
288.831	88.56
289.062	102.56
289.293	100.56
289.524	101.56
289.755	105.56
289.986	73.56
290.217	84.56
290.448	101.56
290.679	91.56
290.91	88.56
291.141	89.56
291.371	89.56
291.602	85.56
291.833	104.56
292.064	86.56
292.295	95.56
292.526	109.56
292.757	97.56
292.987	96.56
293.218	87.56
293.449	91.56
293.68	99.56
293.91	78.56
294.141	89.56
294.372	87.56
294.603	93.56
294.833	98.56
295.064	87.56
295.295	88.56
295.525	93.56
295.756	106.56
295.987	126.56
296.217	144.56
296.448	125.56
296.679	91.56
296.909	97.56
297.14	93.56
297.37	98.56
297.601	80.56
297.831	96.56
298.062	101.56
298.292	93.56
298.523	92.56
298.753	86.56
298.984	80.56
299.214	93.56
299.445	102.56
299.675	107.56
299.905	112.56
300.136	105.56
300.366	89.56
300.597	82.56
300.827	86.56
301.057	112.56
301.288	110.56
301.518	93.56
301.748	83.56
301.979	98.56
302.209	93.56
302.439	89.56
302.669	103.56
302.9	108.56
303.13	96.56
303.36	95.56
303.59	113.56
303.82	105.56
304.051	88.56
304.281	109.56
304.511	106.56
304.741	106.56
304.971	104.56
305.201	97.56
305.431	90.56
305.661	97.56
305.891	114.56
306.121	101.56
306.352	93.56
306.582	101.56
306.812	87.56
307.042	93.56
307.272	112.56
307.502	114.56
307.731	99.56
307.961	99.56
308.191	96.56
308.421	96.56
308.651	99.56
308.881	103.56
309.111	99.56
309.341	105.56
309.571	106.56
309.8	106.56
310.03	113.56
310.26	106.56
310.49	98.56
310.72	93.56
310.949	92.56
311.179	113.56
311.409	98.56
311.639	97.56
311.868	95.56
312.098	93.56
312.328	92.56
312.557	101.56
312.787	109.56
313.017	100.56
313.246	89.56
313.476	106.56
313.706	98.56
313.935	111.56
314.165	99.56
314.394	98.56
314.624	102.56
314.853	73.56
315.083	95.56
315.312	96.56
315.542	98.56
315.771	87.56
316.001	96.56
316.23	99.56
316.46	103.56
316.689	90.56
316.919	110.56
317.148	106.56
317.377	114.56
317.607	93.56
317.836	111.56
318.065	101.56
318.295	101.56
318.524	102.56
318.753	96.56
318.983	92.56
319.212	102.56
319.441	106.56
319.67	95.56
319.9	85.56
320.129	112.56
320.358	90.56
320.587	91.56
320.816	102.56
321.046	114.56
321.275	94.56
321.504	117.56
321.733	97.56
321.962	97.56
322.191	108.56
322.42	119.56
322.649	107.56
322.878	130.56
323.108	125.56
323.337	129.56
323.566	141.56
323.795	153.56
324.024	209.56
324.253	383.56
324.482	776.56
324.71	1611.56
324.939	2053.56
325.168	763.56
325.397	225.56
325.626	161.56
325.855	128.56
326.084	134.56
326.313	141.56
326.542	155.56
326.77	217.56
326.999	438.56
327.228	890.56
327.457	1629.56
327.686	1242.56
327.914	350.56
328.143	211.56
328.372	173.56
328.6	129.56
328.829	118.56
329.058	125.56
329.287	128.56
329.515	106.56
329.744	126.56
329.972	101.56
330.201	124.56
330.43	147.56
330.658	125.56
330.887	149.56
331.115	129.56
331.344	104.56
331.572	115.56
331.801	118.56
332.03	104.56
332.258	103.56
332.486	104.56
332.715	103.56
332.943	89.56
333.172	102.56
333.4	105.56
333.629	106.56
333.857	119.56
334.085	133.56
334.314	135.56
334.542	160.56
334.771	165.56
334.999	121.56
335.227	93.56
335.455	95.56
335.684	102.56
335.912	106.56
336.14	115.56
336.369	115.56
336.597	107.56
336.825	115.56
337.053	103.56
337.281	106.56
337.51	89.56
337.738	101.56
337.966	95.56
338.194	91.56
338.422	90.56
338.65	86.56
338.878	98.56
339.106	90.56
339.334	97.56
339.562	92.56
339.79	100.56
340.018	101.56
340.246	103.56
340.474	113.56
340.702	90.56
340.93	97.56
341.158	86.56
341.386	117.56
341.614	105.56
341.842	101.56
342.07	111.56
342.298	104.56
342.526	98.56
342.754	100.56
342.981	93.56
343.209	106.56
343.437	104.56
343.665	99.56
343.893	89.56
344.12	105.56
344.348	93.56
344.576	107.56
344.804	97.56
345.031	121.56
345.259	111.56
345.487	96.56
345.714	109.56
345.942	98.56
346.17	102.56
346.397	101.56
346.625	99.56
346.853	104.56
347.08	97.56
347.308	101.56
347.535	97.56
347.763	107.56
347.99	116.56
348.218	110.56
348.445	109.56
348.673	113.56
348.9	98.56
349.128	95.56
349.355	96.56
349.583	106.56
349.81	112.56
350.037	90.56
350.265	98.56
350.492	101.56
350.72	100.56
350.947	114.56
351.174	115.56
351.402	105.56
351.629	97.56
351.856	111.56
352.083	103.56
352.311	105.56
352.538	109.56
352.765	111.56
352.992	118.56
353.22	120.56
353.447	110.56
353.674	118.56
353.901	113.56
354.128	100.56
354.355	94.56
354.583	110.56
354.81	103.56
355.037	103.56
355.264	104.56
355.491	108.56
355.718	104.56
355.945	109.56
356.172	102.56
356.399	98.56
356.626	105.56
356.853	108.56
357.08	97.56
357.307	97.56
357.534	93.56
357.761	99.56
357.988	100.56
358.215	97.56
358.441	82.56
358.668	87.56
358.895	77.56
359.122	86.56
359.349	94.56
359.576	97.56
359.802	117.56
360.029	111.56
360.256	122.56
360.483	94.56
360.709	92.56
360.936	100.56
361.163	101.56
361.39	99.56
361.616	109.56
361.843	94.56
362.07	106.56
362.296	106.56
362.523	110.56
362.749	103.56
362.976	93.56
363.203	95.56
363.429	98.56
363.656	94.56
363.882	98.56
364.109	110.56
364.335	102.56
364.562	111.56
364.788	100.56
365.015	95.56
365.241	110.56
365.468	137.56
365.694	119.56
365.92	99.56
366.147	92.56
366.373	95.56
366.599	94.56
366.826	85.56
367.052	95.56
367.278	106.56
367.505	94.56
367.731	87.56
367.957	79.56
368.184	96.56
368.41	77.56
368.636	103.56
368.862	124.56
369.089	125.56
369.315	89.56
369.541	109.56
369.767	106.56
369.993	85.56
370.219	102.56
370.445	81.56
370.672	79.56
370.898	96.56
371.124	103.56
371.35	94.56
371.576	81.56
371.802	97.56
372.028	97.56
372.254	88.56
372.48	86.56
372.706	97.56
372.932	89.56
373.158	104.56
373.384	101.56
373.61	95.56
373.835	87.56
374.061	84.56
374.287	84.56
374.513	87.56
374.739	103.56
374.965	101.56
375.191	95.56
375.416	98.56
375.642	91.56
375.868	101.56
376.094	101.56
376.319	87.56
376.545	96.56
376.771	111.56
376.997	87.56
377.222	106.56
377.448	102.56
377.674	100.56
377.899	86.56
378.125	87.56
378.35	95.56
378.576	86.56
378.802	89.56
379.027	88.56
379.253	106.56
379.478	101.56
379.704	93.56
379.929	98.56
380.155	110.56
380.38	104.56
380.606	83.56
380.831	107.56
381.057	95.56
381.282	98.56
381.507	110.56
381.733	107.56
381.958	107.56
382.184	106.56
382.409	102.56
382.634	105.56
382.86	105.56
383.085	102.56
383.31	110.56
383.535	107.56
383.761	97.56
383.986	97.56
384.211	94.56
384.436	102.56
384.662	98.56
384.887	102.56
385.112	104.56
385.337	104.56
385.562	110.56
385.787	106.56
386.013	99.56
386.238	112.56
386.463	104.56
386.688	107.56
386.913	102.56
387.138	101.56
387.363	101.56
387.588	91.56
387.813	107.56
388.038	97.56
388.263	101.56
388.488	127.56
388.713	113.56
388.938	105.56
389.163	102.56
389.387	98.56
389.612	92.56
389.837	100.56
390.062	107.56
390.287	97.56
390.512	93.56
390.736	103.56
390.961	84.56
391.186	91.56
391.411	84.56
391.636	91.56
391.86	83.56
392.085	93.56
392.31	79.56
392.534	87.56
392.759	104.56
392.984	99.56
393.208	103.56
393.433	90.56
393.658	87.56
393.882	85.56
394.107	87.56
394.331	83.56
394.556	100.56
394.78	95.56
395.005	82.56
395.229	106.56
395.454	106.56
395.678	93.56
395.903	93.56
396.127	107.56
396.352	106.56
396.576	75.56
396.801	94.56
397.025	95.56
397.249	100.56
397.474	81.56
397.698	89.56
397.922	100.56
398.147	86.56
398.371	97.56
398.595	95.56
398.82	96.56
399.044	90.56
399.268	99.56
399.492	90.56
399.717	101.56
399.941	89.56
400.165	100.56
400.389	88.56
400.613	104.56
400.837	97.56
401.062	97.56
401.286	85.56
401.51	91.56
401.734	102.56
401.958	100.56
402.182	116.56
402.406	182.56
402.63	122.56
402.854	88.56
403.078	92.56
403.302	97.56
403.526	88.56
403.75	103.56
403.974	84.56
404.198	99.56
404.422	86.56
404.645	93.56
404.869	86.56
405.093	89.56
405.317	90.56
405.541	97.56
405.765	91.56
405.988	112.56
406.212	181.56
406.436	229.56
406.66	144.56
406.883	99.56
407.107	96.56
407.331	86.56
407.555	95.56
407.778	99.56
408.002	88.56
408.226	85.56
408.449	90.56
408.673	93.56
408.896	102.56
409.12	92.56
409.344	105.56
409.567	97.56
409.791	95.56
410.014	92.56
410.238	88.56
410.461	102.56
410.685	101.56
410.908	92.56
411.132	97.56
411.355	98.56
411.578	105.56
411.802	93.56
412.025	95.56
412.249	87.56
412.472	99.56
412.695	104.56
412.919	99.56
413.142	95.56
413.365	96.56
413.589	97.56
413.812	84.56
414.035	94.56
414.258	82.56
414.482	99.56
414.705	96.56
414.928	101.56
415.151	93.56
415.374	94.56
415.597	95.56
415.821	102.56
416.044	79.56
416.267	96.56
416.49	103.56
416.713	90.56
416.936	100.56
417.159	87.56
417.382	88.56
417.605	94.56
417.828	94.56
418.051	87.56
418.274	90.56
418.497	89.56
418.72	106.56
418.943	95.56
419.166	94.56
419.389	64.56
419.611	91.56
419.834	98.56
420.057	113.56
420.28	84.56
420.503	94.56
420.726	89.56
420.948	98.56
421.171	106.56
421.394	99.56
421.617	97.56
421.839	90.56
422.062	87.56
422.285	104.56
422.507	104.56
422.73	100.56
422.953	98.56
423.175	86.56
423.398	72.56
423.621	86.56
423.843	86.56
424.066	95.56
424.288	87.56
424.511	96.56
424.733	85.56
424.956	102.56
425.178	97.56
425.401	93.56
425.623	99.56
425.846	83.56
426.068	86.56
426.291	98.56
426.513	95.56
426.735	97.56
426.958	98.56
427.18	114.56
427.402	121.56
427.625	157.56
427.847	145.56
428.069	115.56
428.292	93.56
428.514	99.56
428.736	89.56
428.958	93.56
429.181	71.56
429.403	103.56
429.625	78.56
429.847	102.56
430.069	85.56
430.292	91.56
430.514	84.56
430.736	96.56
430.958	104.56
431.18	74.56
431.402	92.56
431.624	94.56
431.846	82.56
432.068	94.56
432.29	102.56
432.512	110.56
432.734	76.56
432.956	97.56
433.178	103.56
433.4	98.56
433.622	103.56
433.844	93.56
434.066	91.56
434.287	94.56
434.509	94.56
434.731	88.56
434.953	90.56
435.175	94.56
435.397	91.56
435.618	97.56
435.84	104.56
436.062	120.56
436.284	118.56
436.505	106.56
436.727	114.56
436.949	83.56
437.17	89.56
437.392	94.56
437.614	102.56
437.835	105.56
438.057	121.56
438.278	105.56
438.5	104.56
438.721	103.56
438.943	98.56
439.165	93.56
439.386	82.56
439.608	97.56
439.829	101.56
440.05	135.56
440.272	140.56
440.493	93.56
440.715	81.56
440.936	86.56
441.158	89.56
441.379	85.56
441.6	96.56
441.822	91.56
442.043	90.56
442.264	102.56
442.486	112.56
442.707	94.56
442.928	111.56
443.149	105.56
443.371	126.56
443.592	125.56
443.813	107.56
444.034	110.56
444.255	88.56
444.476	85.56
444.698	87.56
444.919	89.56
445.14	120.56
445.361	127.56
445.582	111.56
445.803	134.56
446.024	125.56
446.245	121.56
446.466	96.56
446.687	114.56
446.908	90.56
447.129	99.56
447.35	80.56
447.571	95.56
447.792	91.56
448.013	107.56
448.234	108.56
448.455	104.56
448.675	113.56
448.896	117.56
449.117	102.56
449.338	97.56
449.559	128.56
449.779	133.56
450	95.56
450.221	94.56
450.442	89.56
450.662	102.56
450.883	106.56
451.104	105.56
451.324	104.56
451.545	96.56
451.766	96.56
451.986	97.56
452.207	88.56
452.428	101.56
452.648	100.56
452.869	116.56
453.089	113.56
453.31	123.56
453.53	94.56
453.751	100.56
453.971	114.56
454.192	123.56
454.412	102.56
454.633	98.56
454.853	79.56
455.073	96.56
455.294	112.56
455.514	114.56
455.734	89.56
455.955	92.56
456.175	98.56
456.395	88.56
456.616	90.56
456.836	107.56
457.056	105.56
457.276	92.56
457.497	83.56
457.717	89.56
457.937	89.56
458.157	83.56
458.377	103.56
458.598	117.56
458.818	135.56
459.038	161.56
459.258	131.56
459.478	99.56
459.698	92.56
459.918	104.56
460.138	91.56
460.358	95.56
460.578	88.56
460.798	96.56
461.018	102.56
461.238	92.56
461.458	98.56
461.678	102.56
461.898	96.56
462.118	97.56
462.338	84.56
462.558	75.56
462.777	80.56
462.997	92.56
463.217	94.56
463.437	90.56
463.657	90.56
463.876	79.56
464.096	107.56
464.316	102.56
464.536	105.56
464.755	111.56
464.975	110.56
465.195	168.56
465.414	157.56
465.634	91.56
465.854	104.56
466.073	91.56
466.293	102.56
466.512	109.56
466.732	93.56
466.951	98.56
467.171	106.56
467.391	105.56
467.61	106.56
467.829	102.56
468.049	115.56
468.268	119.56
468.488	105.56
468.707	90.56
468.927	97.56
469.146	91.56
469.365	96.56
469.585	93.56
469.804	97.56
470.023	109.56
470.243	100.56
470.462	95.56
470.681	106.56
470.901	101.56
471.12	94.56
471.339	107.56
471.558	100.56
471.777	77.56
471.997	102.56
472.216	117.56
472.435	141.56
472.654	115.56
472.873	94.56
473.092	91.56
473.311	77.56
473.53	88.56
473.749	100.56
473.968	101.56
474.187	116.56
474.406	102.56
474.625	100.56
474.844	97.56
475.063	96.56
475.282	90.56
475.501	98.56
475.72	84.56
475.939	110.56
476.158	86.56
476.377	90.56
476.596	90.56
476.814	102.56
477.033	112.56
477.252	73.56
477.471	89.56
477.69	100.56
477.908	79.56
478.127	95.56
478.346	85.56
478.564	102.56
478.783	99.56
479.002	111.56
479.22	112.56
479.439	100.56
479.658	105.56
479.876	95.56
480.095	99.56
480.313	88.56
480.532	108.56
480.751	105.56
480.969	127.56
481.188	258.56
481.406	194.56
481.624	101.56
481.843	81.56
482.061	100.56
482.28	87.56
482.498	99.56
482.717	101.56
482.935	99.56
483.153	84.56
483.372	91.56
483.59	85.56
483.808	100.56
484.027	106.56
484.245	97.56
484.463	87.56
484.681	104.56
484.9	105.56
485.118	111.56
485.336	89.56
485.554	93.56
485.772	110.56
485.99	113.56
486.209	107.56
486.427	107.56
486.645	111.56
486.863	109.56
487.081	92.56
487.299	109.56
487.517	101.56
487.735	104.56
487.953	107.56
488.171	90.56
488.389	91.56
488.607	102.56
488.825	81.56
489.043	71.56
489.261	102.56
489.479	101.56
489.696	100.56
489.914	95.56
490.132	89.56
490.35	96.56
490.568	109.56
490.786	105.56
491.003	89.56
491.221	93.56
491.439	106.56
491.657	104.56
491.874	103.56
492.092	107.56
492.31	86.56
492.527	104.56
492.745	87.56
492.963	96.56
493.18	84.56
493.398	89.56
493.615	97.56
493.833	94.56
494.05	97.56
494.268	84.56
494.485	98.56
494.703	99.56
494.92	112.56
495.138	85.56
495.355	102.56
495.573	89.56
495.79	102.56
496.008	86.56
496.225	102.56
496.442	78.56
496.66	105.56
496.877	105.56
497.094	102.56
497.312	98.56
497.529	98.56
497.746	86.56
497.963	99.56
498.181	99.56
498.398	97.56
498.615	114.56
498.832	106.56
499.049	90.56
499.267	94.56
499.484	93.56
499.701	85.56
499.918	105.56
500.135	99.56
500.352	80.56
500.569	93.56
500.786	109.56
501.003	78.56
501.22	85.56
501.437	106.56
501.654	90.56
501.871	104.56
502.088	95.56
502.305	91.56
502.522	95.56
502.739	78.56
502.956	96.56
503.172	86.56
503.389	94.56
503.606	102.56
503.823	91.56
504.04	88.56
504.256	95.56
504.473	97.56
504.69	98.56
504.907	104.56
505.123	88.56
505.34	101.56
505.557	101.56
505.773	88.56
505.99	106.56
506.207	90.56
506.423	106.56
506.64	84.56
506.856	94.56
507.073	113.56
507.289	99.56
507.506	111.56
507.722	104.56
507.939	121.56
508.155	102.56
508.372	93.56
508.588	93.56
508.805	99.56
509.021	97.56
509.238	108.56
509.454	109.56
509.67	107.56
509.887	112.56
510.103	131.56
510.319	198.56
510.536	771.56
510.752	2424.56
510.968	653.56
511.184	155.56
511.401	118.56
511.617	95.56
511.833	117.56
512.049	102.56
512.265	96.56
512.481	101.56
512.698	90.56
512.914	83.56
