Data from Circ_1994_H10_HRD10591_00100.txt Node
Date: Wed Jan 03 11:40:50 EST 2024
User: Yrep
Spectrometer: HR+D1059
Trigger mode: 1
Integration Time (sec): 1.000000E-1
Scans to average: 1
Electric dark correction enabled: true
Nonlinearity correction enabled: false
Boxcar width: 0
XAxis mode: Wavelengths
Number of Pixels in Spectrum: 2048
>>>>>Begin Spectral Data<<<<<
223.165	-13.31
223.4	-13.31
223.635	-13.31
223.869	-21.31
224.104	-29.31
224.338	-7.31
224.573	-12.31
224.808	-8.31
225.042	-12.31
225.277	-5.31
225.511	-4.31
225.746	-0.31
225.98	4.69
226.215	11.69
226.449	17.69
226.683	14.69
226.918	31.69
227.152	33.69
227.387	31.69
227.621	41.69
227.856	40.69
228.09	50.69
228.324	48.69
228.559	50.69
228.793	69.69
229.027	58.69
229.262	67.69
229.496	75.69
229.73	74.69
229.964	91.69
230.199	88.69
230.433	86.69
230.667	89.69
230.901	80.69
231.136	69.69
231.37	56.69
231.604	84.69
231.838	90.69
232.072	85.69
232.306	81.69
232.541	84.69
232.775	79.69
233.009	91.69
233.243	81.69
233.477	85.69
233.711	78.69
233.945	81.69
234.179	76.69
234.413	90.69
234.647	89.69
234.881	85.69
235.115	92.69
235.349	80.69
235.583	67.69
235.817	71.69
236.051	85.69
236.285	83.69
236.519	89.69
236.753	70.69
236.987	92.69
237.221	98.69
237.455	85.69
237.689	77.69
237.922	78.69
238.156	79.69
238.39	70.69
238.624	81.69
238.858	70.69
239.091	78.69
239.325	77.69
239.559	81.69
239.793	81.69
240.027	76.69
240.26	70.69
240.494	64.69
240.728	57.69
240.961	90.69
241.195	91.69
241.429	81.69
241.662	67.69
241.896	67.69
242.13	71.69
242.363	67.69
242.597	76.69
242.83	81.69
243.064	78.69
243.298	64.69
243.531	93.69
243.765	76.69
243.998	77.69
244.232	89.69
244.465	88.69
244.699	74.69
244.932	59.69
245.166	85.69
245.399	86.69
245.633	74.69
245.866	76.69
246.099	82.69
246.333	78.69
246.566	73.69
246.8	79.69
247.033	63.69
247.266	77.69
247.5	73.69
247.733	75.69
247.966	79.69
248.2	79.69
248.433	81.69
248.666	83.69
248.899	80.69
249.133	66.69
249.366	88.69
249.599	92.69
249.832	95.69
250.066	84.69
250.299	77.69
250.532	77.69
250.765	89.69
250.998	93.69
251.231	77.69
251.465	91.69
251.698	80.69
251.931	82.69
252.164	84.69
252.397	93.69
252.63	80.69
252.863	74.69
253.096	71.69
253.329	93.69
253.562	70.69
253.795	92.69
254.028	96.69
254.261	97.69
254.494	81.69
254.727	71.69
254.96	86.69
255.193	87.69
255.426	83.69
255.659	83.69
255.892	85.69
256.124	73.69
256.357	97.69
256.59	80.69
256.823	94.69
257.056	90.69
257.289	96.69
257.521	94.69
257.754	88.69
257.987	81.69
258.22	78.69
258.452	88.69
258.685	90.69
258.918	79.69
259.151	79.69
259.383	82.69
259.616	82.69
259.849	78.69
260.081	86.69
260.314	83.69
260.547	94.69
260.779	84.69
261.012	74.69
261.244	93.69
261.477	85.69
261.71	91.69
261.942	103.69
262.175	106.69
262.407	92.69
262.64	90.69
262.872	88.69
263.105	79.69
263.337	83.69
263.57	81.69
263.802	96.69
264.035	83.69
264.267	87.69
264.499	88.69
264.732	80.69
264.964	87.69
265.197	91.69
265.429	86.69
265.661	89.69
265.894	89.69
266.126	90.69
266.358	100.69
266.591	96.69
266.823	90.69
267.055	85.69
267.287	78.69
267.52	83.69
267.752	87.69
267.984	80.69
268.216	77.69
268.448	86.69
268.681	94.69
268.913	96.69
269.145	97.69
269.377	85.69
269.609	73.69
269.841	74.69
270.073	70.69
270.306	75.69
270.538	79.69
270.77	85.69
271.002	80.69
271.234	94.69
271.466	75.69
271.698	78.69
271.93	81.69
272.162	80.69
272.394	91.69
272.626	79.69
272.858	82.69
273.09	85.69
273.322	81.69
273.553	77.69
273.785	91.69
274.017	79.69
274.249	76.69
274.481	62.69
274.713	91.69
274.945	88.69
275.176	84.69
275.408	81.69
275.64	88.69
275.872	80.69
276.104	83.69
276.335	84.69
276.567	99.69
276.799	108.69
277.031	91.69
277.262	96.69
277.494	76.69
277.726	87.69
277.957	95.69
278.189	86.69
278.421	85.69
278.652	87.69
278.884	94.69
279.115	100.69
279.347	78.69
279.579	82.69
279.81	84.69
280.042	100.69
280.273	99.69
280.505	83.69
280.736	78.69
280.968	83.69
281.199	81.69
281.431	90.69
281.662	78.69
281.894	94.69
282.125	114.69
282.356	110.69
282.588	120.69
282.819	102.69
283.051	93.69
283.282	99.69
283.513	91.69
283.745	78.69
283.976	103.69
284.207	89.69
284.439	75.69
284.67	91.69
284.901	92.69
285.132	92.69
285.364	75.69
285.595	84.69
285.826	83.69
286.057	90.69
286.288	85.69
286.52	86.69
286.751	82.69
286.982	90.69
287.213	84.69
287.444	92.69
287.675	87.69
287.906	97.69
288.138	84.69
288.369	105.69
288.6	73.69
288.831	97.69
289.062	84.69
289.293	108.69
289.524	95.69
289.755	89.69
289.986	80.69
290.217	97.69
290.448	94.69
290.679	87.69
290.91	97.69
291.141	84.69
291.371	95.69
291.602	85.69
291.833	98.69
292.064	102.69
292.295	97.69
292.526	78.69
292.757	83.69
292.987	90.69
293.218	85.69
293.449	91.69
293.68	85.69
293.91	91.69
294.141	83.69
294.372	83.69
294.603	94.69
294.833	74.69
295.064	90.69
295.295	95.69
295.525	99.69
295.756	93.69
295.987	105.69
296.217	116.69
296.448	129.69
296.679	93.69
296.909	86.69
297.14	98.69
297.37	96.69
297.601	89.69
297.831	82.69
298.062	96.69
298.292	89.69
298.523	78.69
298.753	84.69
298.984	78.69
299.214	93.69
299.445	91.69
299.675	90.69
299.905	83.69
300.136	82.69
300.366	76.69
300.597	93.69
300.827	89.69
301.057	101.69
301.288	111.69
301.518	99.69
301.748	84.69
301.979	97.69
302.209	91.69
302.439	73.69
302.669	93.69
302.9	84.69
303.13	95.69
303.36	90.69
303.59	115.69
303.82	111.69
304.051	97.69
304.281	93.69
304.511	86.69
304.741	85.69
304.971	85.69
305.201	83.69
305.431	86.69
305.661	77.69
305.891	89.69
306.121	101.69
306.352	91.69
306.582	86.69
306.812	83.69
307.042	87.69
307.272	88.69
307.502	101.69
307.731	110.69
307.961	108.69
308.191	94.69
308.421	87.69
308.651	95.69
308.881	84.69
309.111	98.69
309.341	92.69
309.571	83.69
309.8	70.69
310.03	96.69
310.26	100.69
310.49	95.69
310.72	101.69
310.949	101.69
311.179	99.69
311.409	77.69
311.639	107.69
311.868	91.69
312.098	86.69
312.328	97.69
312.557	102.69
312.787	102.69
313.017	101.69
313.246	81.69
313.476	96.69
313.706	87.69
313.935	94.69
314.165	99.69
314.394	94.69
314.624	100.69
314.853	106.69
315.083	89.69
315.312	96.69
315.542	90.69
315.771	92.69
316.001	85.69
316.23	91.69
316.46	102.69
316.689	82.69
316.919	99.69
317.148	98.69
317.377	98.69
317.607	98.69
317.836	96.69
318.065	91.69
318.295	98.69
318.524	101.69
318.753	93.69
318.983	95.69
319.212	98.69
319.441	91.69
319.67	85.69
319.9	91.69
320.129	99.69
320.358	93.69
320.587	87.69
320.816	88.69
321.046	98.69
321.275	97.69
321.504	87.69
321.733	91.69
321.962	103.69
322.191	118.69
322.42	93.69
322.649	97.69
322.878	116.69
323.108	106.69
323.337	109.69
323.566	115.69
323.795	135.69
324.024	199.69
324.253	357.69
324.482	711.69
324.71	1487.69
324.939	1903.69
325.168	709.69
325.397	223.69
325.626	150.69
325.855	126.69
326.084	132.69
326.313	121.69
326.542	131.69
326.77	204.69
326.999	404.69
327.228	834.69
327.457	1499.69
327.686	1160.69
327.914	333.69
328.143	196.69
328.372	187.69
328.6	133.69
328.829	117.69
329.058	114.69
329.287	118.69
329.515	118.69
329.744	112.69
329.972	136.69
330.201	178.69
330.43	232.69
330.658	169.69
330.887	141.69
331.115	117.69
331.344	86.69
331.572	110.69
331.801	90.69
332.03	99.69
332.258	110.69
332.486	95.69
332.715	83.69
332.943	84.69
333.172	111.69
333.4	103.69
333.629	83.69
333.857	119.69
334.085	133.69
334.314	198.69
334.542	283.69
334.771	224.69
334.999	117.69
335.227	84.69
335.455	100.69
335.684	100.69
335.912	90.69
336.14	91.69
336.369	103.69
336.597	102.69
336.825	89.69
337.053	91.69
337.281	83.69
337.51	86.69
337.738	86.69
337.966	93.69
338.194	93.69
338.422	109.69
338.65	98.69
338.878	84.69
339.106	97.69
339.334	100.69
339.562	89.69
339.79	91.69
340.018	90.69
340.246	89.69
340.474	82.69
340.702	90.69
340.93	80.69
341.158	87.69
341.386	100.69
341.614	102.69
341.842	106.69
342.07	106.69
342.298	91.69
342.526	95.69
342.754	79.69
342.981	89.69
343.209	89.69
343.437	99.69
343.665	78.69
343.893	97.69
344.12	80.69
344.348	86.69
344.576	82.69
344.804	92.69
345.031	91.69
345.259	97.69
345.487	87.69
345.714	102.69
345.942	100.69
346.17	111.69
346.397	89.69
346.625	102.69
346.853	97.69
347.08	96.69
347.308	92.69
347.535	92.69
347.763	95.69
347.99	98.69
348.218	105.69
348.445	100.69
348.673	91.69
348.9	103.69
349.128	89.69
349.355	84.69
349.583	107.69
349.81	102.69
350.037	98.69
350.265	101.69
350.492	92.69
350.72	98.69
350.947	84.69
351.174	98.69
351.402	117.69
351.629	93.69
351.856	89.69
352.083	102.69
352.311	106.69
352.538	103.69
352.765	78.69
352.992	94.69
353.22	105.69
353.447	100.69
353.674	102.69
353.901	89.69
354.128	91.69
354.355	79.69
354.583	106.69
354.81	101.69
355.037	95.69
355.264	104.69
355.491	90.69
355.718	99.69
355.945	85.69
356.172	91.69
356.399	91.69
356.626	86.69
356.853	93.69
357.08	94.69
357.307	92.69
357.534	80.69
357.761	94.69
357.988	104.69
358.215	107.69
358.441	97.69
358.668	92.69
358.895	87.69
359.122	97.69
359.349	95.69
359.576	84.69
359.802	98.69
360.029	103.69
360.256	112.69
360.483	90.69
360.709	103.69
360.936	103.69
361.163	97.69
361.39	101.69
361.616	97.69
361.843	103.69
362.07	97.69
362.296	96.69
362.523	92.69
362.749	89.69
362.976	98.69
363.203	98.69
363.429	89.69
363.656	89.69
363.882	86.69
364.109	86.69
364.335	96.69
364.562	73.69
364.788	77.69
365.015	114.69
365.241	101.69
365.468	115.69
365.694	96.69
365.92	97.69
366.147	93.69
366.373	89.69
366.599	94.69
366.826	77.69
367.052	92.69
367.278	101.69
367.505	95.69
367.731	101.69
367.957	86.69
368.184	91.69
368.41	108.69
368.636	111.69
368.862	110.69
369.089	107.69
369.315	74.69
369.541	85.69
369.767	104.69
369.993	99.69
370.219	84.69
370.445	86.69
370.672	80.69
370.898	86.69
371.124	82.69
371.35	79.69
371.576	87.69
371.802	96.69
372.028	82.69
372.254	80.69
372.48	84.69
372.706	82.69
372.932	86.69
373.158	98.69
373.384	98.69
373.61	91.69
373.835	108.69
374.061	98.69
374.287	89.69
374.513	87.69
374.739	79.69
374.965	90.69
375.191	86.69
375.416	83.69
375.642	94.69
375.868	101.69
376.094	99.69
376.319	74.69
376.545	83.69
376.771	88.69
376.997	106.69
377.222	94.69
377.448	95.69
377.674	74.69
377.899	101.69
378.125	98.69
378.35	85.69
378.576	85.69
378.802	93.69
379.027	94.69
379.253	103.69
379.478	88.69
379.704	92.69
379.929	95.69
380.155	95.69
380.38	93.69
380.606	94.69
380.831	103.69
381.057	105.69
381.282	97.69
381.507	97.69
381.733	97.69
381.958	93.69
382.184	92.69
382.409	85.69
382.634	99.69
382.86	86.69
383.085	102.69
383.31	94.69
383.535	102.69
383.761	95.69
383.986	96.69
384.211	106.69
384.436	93.69
384.662	101.69
384.887	95.69
385.112	103.69
385.337	95.69
385.562	96.69
385.787	95.69
386.013	94.69
386.238	109.69
386.463	110.69
386.688	107.69
386.913	96.69
387.138	105.69
387.363	83.69
387.588	104.69
387.813	101.69
388.038	101.69
388.263	103.69
388.488	101.69
388.713	92.69
388.938	90.69
389.163	87.69
389.387	106.69
389.612	102.69
389.837	91.69
390.062	90.69
390.287	91.69
390.512	82.69
390.736	70.69
390.961	91.69
391.186	89.69
391.411	95.69
391.636	93.69
391.86	92.69
392.085	95.69
392.31	81.69
392.534	81.69
392.759	81.69
392.984	77.69
393.208	89.69
393.433	95.69
393.658	99.69
393.882	77.69
394.107	77.69
394.331	92.69
394.556	88.69
394.78	100.69
395.005	81.69
395.229	82.69
395.454	87.69
395.678	84.69
395.903	71.69
396.127	91.69
396.352	103.69
396.576	98.69
396.801	71.69
397.025	92.69
397.249	90.69
397.474	99.69
397.698	101.69
397.922	90.69
398.147	101.69
398.371	81.69
398.595	81.69
398.82	83.69
399.044	90.69
399.268	93.69
399.492	92.69
399.717	82.69
399.941	90.69
400.165	88.69
400.389	90.69
400.613	81.69
400.837	86.69
401.062	92.69
401.286	88.69
401.51	90.69
401.734	97.69
401.958	95.69
402.182	118.69
402.406	149.69
402.63	117.69
402.854	92.69
403.078	105.69
403.302	76.69
403.526	93.69
403.75	86.69
403.974	96.69
404.198	90.69
404.422	97.69
404.645	90.69
404.869	96.69
405.093	94.69
405.317	97.69
405.541	85.69
405.765	98.69
405.988	101.69
406.212	153.69
406.436	197.69
406.66	129.69
406.883	105.69
407.107	91.69
407.331	90.69
407.555	95.69
407.778	91.69
408.002	87.69
408.226	99.69
408.449	101.69
408.673	98.69
408.896	95.69
409.12	97.69
409.344	90.69
409.567	90.69
409.791	75.69
410.014	82.69
410.238	92.69
410.461	89.69
410.685	97.69
410.908	94.69
411.132	107.69
411.355	100.69
411.578	85.69
411.802	91.69
412.025	91.69
412.249	92.69
412.472	106.69
412.695	93.69
412.919	87.69
413.142	89.69
413.365	104.69
413.589	78.69
413.812	94.69
414.035	101.69
414.258	92.69
414.482	79.69
414.705	82.69
414.928	85.69
415.151	77.69
415.374	91.69
415.597	92.69
415.821	83.69
416.044	84.69
416.267	89.69
416.49	89.69
416.713	87.69
416.936	85.69
417.159	85.69
417.382	82.69
417.605	88.69
417.828	87.69
418.051	89.69
418.274	93.69
418.497	94.69
418.72	84.69
418.943	86.69
419.166	84.69
419.389	90.69
419.611	77.69
419.834	94.69
420.057	96.69
420.28	89.69
420.503	85.69
420.726	77.69
420.948	93.69
421.171	79.69
421.394	85.69
421.617	83.69
421.839	88.69
422.062	58.69
422.285	98.69
422.507	95.69
422.73	102.69
422.953	107.69
423.175	94.69
423.398	109.69
423.621	99.69
423.843	75.69
424.066	84.69
424.288	93.69
424.511	89.69
424.733	99.69
424.956	117.69
425.178	97.69
425.401	95.69
425.623	77.69
425.846	83.69
426.068	83.69
426.291	89.69
426.513	93.69
426.735	86.69
426.958	93.69
427.18	113.69
427.402	141.69
427.625	159.69
427.847	146.69
428.069	129.69
428.292	96.69
428.514	95.69
428.736	86.69
428.958	76.69
429.181	88.69
429.403	82.69
429.625	86.69
429.847	97.69
430.069	101.69
430.292	98.69
430.514	98.69
430.736	77.69
430.958	82.69
431.18	92.69
431.402	79.69
431.624	87.69
431.846	81.69
432.068	83.69
432.29	84.69
432.512	81.69
432.734	85.69
432.956	85.69
433.178	93.69
433.4	96.69
433.622	101.69
433.844	90.69
434.066	84.69
434.287	87.69
434.509	82.69
434.731	90.69
434.953	75.69
435.175	84.69
435.397	93.69
435.618	88.69
435.84	104.69
436.062	118.69
436.284	99.69
436.505	102.69
436.727	111.69
436.949	103.69
437.17	79.69
437.392	91.69
437.614	93.69
437.835	98.69
438.057	107.69
438.278	96.69
438.5	86.69
438.721	116.69
438.943	91.69
439.165	86.69
439.386	77.69
439.608	81.69
439.829	90.69
440.05	114.69
440.272	130.69
440.493	95.69
440.715	86.69
440.936	79.69
441.158	79.69
441.379	98.69
441.6	101.69
441.822	106.69
442.043	93.69
442.264	109.69
442.486	94.69
442.707	76.69
442.928	97.69
443.149	97.69
443.371	114.69
443.592	117.69
443.813	111.69
444.034	112.69
444.255	89.69
444.476	97.69
444.698	86.69
444.919	82.69
445.14	119.69
445.361	139.69
445.582	126.69
445.803	123.69
446.024	125.69
446.245	126.69
446.466	105.69
446.687	89.69
446.908	79.69
447.129	94.69
447.35	91.69
447.571	101.69
447.792	105.69
448.013	82.69
448.234	96.69
448.455	113.69
448.675	105.69
448.896	113.69
449.117	91.69
449.338	102.69
449.559	124.69
449.779	118.69
450	91.69
450.221	99.69
450.442	93.69
450.662	96.69
450.883	102.69
451.104	112.69
451.324	89.69
451.545	85.69
451.766	89.69
451.986	87.69
452.207	87.69
452.428	78.69
452.648	107.69
452.869	105.69
453.089	109.69
453.31	121.69
453.53	86.69
453.751	87.69
453.971	95.69
454.192	92.69
454.412	92.69
454.633	94.69
454.853	82.69
455.073	90.69
455.294	87.69
455.514	100.69
455.734	97.69
455.955	86.69
456.175	91.69
456.395	75.69
456.616	81.69
456.836	75.69
457.056	84.69
457.276	78.69
457.497	88.69
457.717	83.69
457.937	91.69
458.157	94.69
458.377	97.69
458.598	110.69
458.818	134.69
459.038	150.69
459.258	117.69
459.478	81.69
459.698	90.69
459.918	93.69
460.138	86.69
460.358	88.69
460.578	76.69
460.798	87.69
461.018	73.69
461.238	84.69
461.458	81.69
461.678	85.69
461.898	102.69
462.118	82.69
462.338	86.69
462.558	84.69
462.777	95.69
462.997	85.69
463.217	85.69
463.437	96.69
463.657	95.69
463.876	83.69
464.096	90.69
464.316	79.69
464.536	96.69
464.755	86.69
464.975	118.69
465.195	156.69
465.414	149.69
465.634	99.69
465.854	89.69
466.073	84.69
466.293	86.69
466.512	97.69
466.732	87.69
466.951	79.69
467.171	89.69
467.391	103.69
467.61	110.69
467.829	112.69
468.049	150.69
468.268	142.69
468.488	94.69
468.707	87.69
468.927	91.69
469.146	94.69
469.365	83.69
469.585	84.69
469.804	87.69
470.023	97.69
470.243	81.69
470.462	97.69
470.681	115.69
470.901	91.69
471.12	82.69
471.339	89.69
471.558	97.69
471.777	99.69
471.997	99.69
472.216	212.69
472.435	342.69
472.654	149.69
472.873	83.69
473.092	104.69
473.311	97.69
473.53	99.69
473.749	66.69
473.968	113.69
474.187	98.69
474.406	86.69
474.625	107.69
474.844	95.69
475.063	90.69
475.282	91.69
475.501	89.69
475.72	98.69
475.939	82.69
476.158	89.69
476.377	87.69
476.596	89.69
476.814	78.69
477.033	82.69
477.252	78.69
477.471	93.69
477.69	93.69
477.908	97.69
478.127	102.69
478.346	93.69
478.564	92.69
478.783	78.69
479.002	86.69
479.22	86.69
479.439	94.69
479.658	97.69
479.876	96.69
480.095	95.69
480.313	89.69
480.532	105.69
480.751	109.69
480.969	191.69
481.188	544.69
481.406	331.69
481.624	128.69
481.843	94.69
482.061	93.69
482.28	98.69
482.498	88.69
482.717	86.69
482.935	92.69
483.153	81.69
483.372	86.69
483.59	75.69
483.808	88.69
484.027	92.69
484.245	88.69
484.463	85.69
484.681	100.69
484.9	93.69
485.118	106.69
485.336	101.69
485.554	100.69
485.772	91.69
485.99	94.69
486.209	103.69
486.427	102.69
486.645	112.69
486.863	102.69
487.081	101.69
487.299	106.69
487.517	82.69
487.735	93.69
487.953	95.69
488.171	99.69
488.389	88.69
488.607	102.69
488.825	91.69
489.043	87.69
489.261	76.69
489.479	85.69
489.696	86.69
489.914	105.69
490.132	77.69
490.35	92.69
490.568	87.69
490.786	76.69
491.003	88.69
491.221	82.69
491.439	83.69
491.657	83.69
491.874	90.69
492.092	91.69
492.31	96.69
492.527	91.69
492.745	85.69
492.963	85.69
493.18	93.69
493.398	92.69
493.615	82.69
493.833	92.69
494.05	90.69
494.268	81.69
494.485	101.69
494.703	86.69
494.92	85.69
495.138	90.69
495.355	84.69
495.573	94.69
495.79	93.69
496.008	111.69
496.225	78.69
496.442	92.69
496.66	89.69
496.877	90.69
497.094	78.69
497.312	106.69
497.529	95.69
497.746	89.69
497.963	112.69
498.181	74.69
498.398	95.69
498.615	107.69
498.832	102.69
499.049	73.69
499.267	95.69
499.484	95.69
499.701	93.69
499.918	92.69
500.135	87.69
500.352	80.69
500.569	77.69
500.786	85.69
501.003	109.69
501.22	97.69
501.437	104.69
501.654	93.69
501.871	102.69
502.088	97.69
502.305	99.69
502.522	97.69
502.739	88.69
502.956	85.69
503.172	93.69
503.389	94.69
503.606	115.69
503.823	101.69
504.04	94.69
504.256	99.69
504.473	80.69
504.69	106.69
504.907	83.69
505.123	87.69
505.34	91.69
505.557	96.69
505.773	108.69
505.99	76.69
506.207	75.69
506.423	90.69
506.64	96.69
506.856	85.69
507.073	93.69
507.289	94.69
507.506	110.69
507.722	104.69
507.939	103.69
508.155	94.69
508.372	94.69
508.588	92.69
508.805	82.69
509.021	93.69
509.238	100.69
509.454	103.69
509.67	99.69
509.887	108.69
510.103	112.69
510.319	209.69
510.536	721.69
510.752	2158.69
510.968	611.69
511.184	157.69
511.401	104.69
511.617	102.69
511.833	102.69
512.049	96.69
512.265	100.69
512.481	87.69
512.698	94.69
512.914	81.69
513.13	117.69
513.346	93.69
513.562	94.69
513.778	96.69
513.994	84.69
514.21	94.69
514.426	106.69
514.642	124.69
514.858	103.69
515.074	150.69
515.29	422.69
515.506	1271.69
515.721	487.69
