Data from Circ_1994_H10_HRD10591_00056.txt Node
Date: Wed Jan 03 11:40:41 EST 2024
User: Yrep
Spectrometer: HR+D1059
Trigger mode: 1
Integration Time (sec): 1.000000E-1
Scans to average: 1
Electric dark correction enabled: true
Nonlinearity correction enabled: false
Boxcar width: 0
XAxis mode: Wavelengths
Number of Pixels in Spectrum: 2048
>>>>>Begin Spectral Data<<<<<
223.165	-12.25
223.4	-12.25
223.635	-12.25
223.869	-12.25
224.104	-28.25
224.338	-20.25
224.573	-11.25
224.808	-8.25
225.042	-10.25
225.277	-8.25
225.511	-7.25
225.746	16.75
225.98	19.75
226.215	3.75
226.449	27.75
226.683	18.75
226.918	17.75
227.152	13.75
227.387	39.75
227.621	38.75
227.856	42.75
228.09	41.75
228.324	47.75
228.559	73.75
228.793	74.75
229.027	61.75
229.262	75.75
229.496	77.75
229.73	90.75
229.964	86.75
230.199	73.75
230.433	71.75
230.667	94.75
230.901	86.75
231.136	87.75
231.37	81.75
231.604	71.75
231.838	94.75
232.072	62.75
232.306	78.75
232.541	81.75
232.775	89.75
233.009	87.75
233.243	79.75
233.477	87.75
233.711	81.75
233.945	77.75
234.179	80.75
234.413	55.75
234.647	89.75
234.881	81.75
235.115	93.75
235.349	91.75
235.583	76.75
235.817	79.75
236.051	89.75
236.285	75.75
236.519	68.75
236.753	87.75
236.987	84.75
237.221	81.75
237.455	78.75
237.689	71.75
237.922	77.75
238.156	59.75
238.39	74.75
238.624	66.75
238.858	65.75
239.091	71.75
239.325	83.75
239.559	80.75
239.793	76.75
240.027	75.75
240.26	76.75
240.494	88.75
240.728	73.75
240.961	74.75
241.195	77.75
241.429	73.75
241.662	60.75
241.896	82.75
242.13	73.75
242.363	75.75
242.597	73.75
242.83	85.75
243.064	77.75
243.298	65.75
243.531	67.75
243.765	69.75
243.998	80.75
244.232	83.75
244.465	71.75
244.699	82.75
244.932	75.75
245.166	80.75
245.399	78.75
245.633	64.75
245.866	68.75
246.099	73.75
246.333	91.75
246.566	79.75
246.8	71.75
247.033	82.75
247.266	79.75
247.5	83.75
247.733	77.75
247.966	72.75
248.2	76.75
248.433	90.75
248.666	76.75
248.899	68.75
249.133	79.75
249.366	79.75
249.599	79.75
249.832	89.75
250.066	65.75
250.299	67.75
250.532	80.75
250.765	85.75
250.998	77.75
251.231	68.75
251.465	80.75
251.698	80.75
251.931	90.75
252.164	71.75
252.397	80.75
252.63	84.75
252.863	78.75
253.096	83.75
253.329	98.75
253.562	88.75
253.795	87.75
254.028	80.75
254.261	79.75
254.494	83.75
254.727	82.75
254.96	96.75
255.193	77.75
255.426	73.75
255.659	75.75
255.892	87.75
256.124	77.75
256.357	68.75
256.59	88.75
256.823	91.75
257.056	80.75
257.289	78.75
257.521	78.75
257.754	75.75
257.987	72.75
258.22	90.75
258.452	71.75
258.685	82.75
258.918	73.75
259.151	77.75
259.383	89.75
259.616	94.75
259.849	78.75
260.081	89.75
260.314	81.75
260.547	76.75
260.779	83.75
261.012	82.75
261.244	94.75
261.477	91.75
261.71	85.75
261.942	111.75
262.175	89.75
262.407	96.75
262.64	83.75
262.872	84.75
263.105	90.75
263.337	103.75
263.57	90.75
263.802	77.75
264.035	89.75
264.267	68.75
264.499	76.75
264.732	83.75
264.964	72.75
265.197	85.75
265.429	75.75
265.661	74.75
265.894	79.75
266.126	73.75
266.358	71.75
266.591	83.75
266.823	88.75
267.055	79.75
267.287	79.75
267.52	91.75
267.752	88.75
267.984	79.75
268.216	81.75
268.448	87.75
268.681	79.75
268.913	82.75
269.145	92.75
269.377	82.75
269.609	80.75
269.841	89.75
270.073	91.75
270.306	84.75
270.538	79.75
270.77	73.75
271.002	81.75
271.234	77.75
271.466	84.75
271.698	88.75
271.93	74.75
272.162	78.75
272.394	92.75
272.626	63.75
272.858	79.75
273.09	81.75
273.322	80.75
273.553	88.75
273.785	87.75
274.017	75.75
274.249	79.75
274.481	79.75
274.713	68.75
274.945	68.75
275.176	90.75
275.408	86.75
275.64	96.75
275.872	84.75
276.104	85.75
276.335	83.75
276.567	93.75
276.799	104.75
277.031	89.75
277.262	97.75
277.494	100.75
277.726	80.75
277.957	88.75
278.189	79.75
278.421	88.75
278.652	80.75
278.884	83.75
279.115	80.75
279.347	87.75
279.579	96.75
279.81	97.75
280.042	84.75
280.273	102.75
280.505	82.75
280.736	75.75
280.968	81.75
281.199	92.75
281.431	80.75
281.662	87.75
281.894	105.75
282.125	100.75
282.356	111.75
282.588	110.75
282.819	108.75
283.051	85.75
283.282	80.75
283.513	78.75
283.745	76.75
283.976	85.75
284.207	83.75
284.439	90.75
284.67	83.75
284.901	74.75
285.132	91.75
285.364	88.75
285.595	80.75
285.826	81.75
286.057	88.75
286.288	83.75
286.52	94.75
286.751	79.75
286.982	72.75
287.213	79.75
287.444	78.75
287.675	81.75
287.906	104.75
288.138	89.75
288.369	87.75
288.6	83.75
288.831	69.75
289.062	84.75
289.293	97.75
289.524	81.75
289.755	83.75
289.986	77.75
290.217	94.75
290.448	86.75
290.679	80.75
290.91	75.75
291.141	96.75
291.371	84.75
291.602	81.75
291.833	94.75
292.064	82.75
292.295	94.75
292.526	97.75
292.757	89.75
292.987	95.75
293.218	91.75
293.449	85.75
293.68	88.75
293.91	81.75
294.141	101.75
294.372	88.75
294.603	85.75
294.833	79.75
295.064	85.75
295.295	78.75
295.525	85.75
295.756	98.75
295.987	110.75
296.217	136.75
296.448	119.75
296.679	91.75
296.909	90.75
297.14	84.75
297.37	83.75
297.601	100.75
297.831	96.75
298.062	98.75
298.292	92.75
298.523	83.75
298.753	82.75
298.984	93.75
299.214	89.75
299.445	90.75
299.675	84.75
299.905	92.75
300.136	95.75
300.366	95.75
300.597	89.75
300.827	72.75
301.057	98.75
301.288	104.75
301.518	80.75
301.748	90.75
301.979	103.75
302.209	92.75
302.439	87.75
302.669	100.75
302.9	89.75
303.13	79.75
303.36	91.75
303.59	96.75
303.82	92.75
304.051	105.75
304.281	90.75
304.511	77.75
304.741	89.75
304.971	105.75
305.201	81.75
305.431	76.75
305.661	88.75
305.891	85.75
306.121	75.75
306.352	85.75
306.582	112.75
306.812	87.75
307.042	92.75
307.272	75.75
307.502	98.75
307.731	99.75
307.961	82.75
308.191	107.75
308.421	92.75
308.651	91.75
308.881	87.75
309.111	95.75
309.341	75.75
309.571	76.75
309.8	86.75
310.03	100.75
310.26	98.75
310.49	94.75
310.72	76.75
310.949	101.75
311.179	95.75
311.409	86.75
311.639	96.75
311.868	95.75
312.098	83.75
312.328	96.75
312.557	97.75
312.787	88.75
313.017	95.75
313.246	78.75
313.476	90.75
313.706	83.75
313.935	81.75
314.165	90.75
314.394	91.75
314.624	103.75
314.853	99.75
315.083	96.75
315.312	83.75
315.542	82.75
315.771	94.75
316.001	81.75
316.23	95.75
316.46	83.75
316.689	83.75
316.919	82.75
317.148	96.75
317.377	105.75
317.607	94.75
317.836	77.75
318.065	85.75
318.295	83.75
318.524	86.75
318.753	80.75
318.983	95.75
319.212	96.75
319.441	105.75
319.67	100.75
319.9	89.75
320.129	81.75
320.358	92.75
320.587	95.75
320.816	95.75
321.046	97.75
321.275	93.75
321.504	96.75
321.733	89.75
321.962	94.75
322.191	96.75
322.42	106.75
322.649	96.75
322.878	107.75
323.108	113.75
323.337	113.75
323.566	120.75
323.795	133.75
324.024	181.75
324.253	336.75
324.482	669.75
324.71	1357.75
324.939	1733.75
325.168	652.75
325.397	207.75
325.626	148.75
325.855	130.75
326.084	110.75
326.313	130.75
326.542	139.75
326.77	199.75
326.999	365.75
327.228	748.75
327.457	1324.75
327.686	1071.75
327.914	329.75
328.143	184.75
328.372	153.75
328.6	116.75
328.829	99.75
329.058	106.75
329.287	116.75
329.515	106.75
329.744	104.75
329.972	107.75
330.201	134.75
330.43	157.75
330.658	124.75
330.887	142.75
331.115	96.75
331.344	90.75
331.572	102.75
331.801	97.75
332.03	92.75
332.258	82.75
332.486	92.75
332.715	98.75
332.943	84.75
333.172	97.75
333.4	106.75
333.629	92.75
333.857	111.75
334.085	118.75
334.314	126.75
334.542	166.75
334.771	171.75
334.999	108.75
335.227	77.75
335.455	90.75
335.684	88.75
335.912	88.75
336.14	89.75
336.369	104.75
336.597	91.75
336.825	89.75
337.053	100.75
337.281	89.75
337.51	93.75
337.738	101.75
337.966	107.75
338.194	106.75
338.422	102.75
338.65	92.75
338.878	75.75
339.106	93.75
339.334	97.75
339.562	100.75
339.79	94.75
340.018	76.75
340.246	76.75
340.474	96.75
340.702	91.75
340.93	94.75
341.158	88.75
341.386	90.75
341.614	85.75
341.842	105.75
342.07	97.75
342.298	93.75
342.526	80.75
342.754	76.75
342.981	81.75
343.209	84.75
343.437	104.75
343.665	83.75
343.893	79.75
344.12	94.75
344.348	95.75
344.576	96.75
344.804	103.75
345.031	85.75
345.259	95.75
345.487	91.75
345.714	92.75
345.942	89.75
346.17	82.75
346.397	97.75
346.625	84.75
346.853	73.75
347.08	101.75
347.308	103.75
347.535	84.75
347.763	88.75
347.99	96.75
348.218	96.75
348.445	105.75
348.673	88.75
348.9	90.75
349.128	85.75
349.355	98.75
349.583	97.75
349.81	80.75
350.037	96.75
350.265	95.75
350.492	94.75
350.72	97.75
350.947	88.75
351.174	93.75
351.402	100.75
351.629	107.75
351.856	103.75
352.083	100.75
352.311	113.75
352.538	103.75
352.765	108.75
352.992	92.75
353.22	114.75
353.447	105.75
353.674	90.75
353.901	95.75
354.128	107.75
354.355	94.75
354.583	86.75
354.81	93.75
355.037	95.75
355.264	95.75
355.491	108.75
355.718	90.75
355.945	91.75
356.172	95.75
356.399	90.75
356.626	91.75
356.853	86.75
357.08	93.75
357.307	91.75
357.534	85.75
357.761	103.75
357.988	77.75
358.215	82.75
358.441	99.75
358.668	81.75
358.895	88.75
359.122	88.75
359.349	84.75
359.576	83.75
359.802	89.75
360.029	101.75
360.256	110.75
360.483	82.75
360.709	90.75
360.936	97.75
361.163	89.75
361.39	108.75
361.616	92.75
361.843	96.75
362.07	95.75
362.296	90.75
362.523	90.75
362.749	79.75
362.976	89.75
363.203	91.75
363.429	97.75
363.656	84.75
363.882	80.75
364.109	99.75
364.335	83.75
364.562	98.75
364.788	82.75
365.015	83.75
365.241	98.75
365.468	106.75
365.694	104.75
365.92	92.75
366.147	78.75
366.373	89.75
366.599	80.75
366.826	91.75
367.052	91.75
367.278	99.75
367.505	91.75
367.731	83.75
367.957	106.75
368.184	97.75
368.41	95.75
368.636	93.75
368.862	104.75
369.089	105.75
369.315	91.75
369.541	85.75
369.767	100.75
369.993	96.75
370.219	99.75
370.445	96.75
370.672	82.75
370.898	90.75
371.124	87.75
371.35	79.75
371.576	88.75
371.802	84.75
372.028	84.75
372.254	83.75
372.48	94.75
372.706	88.75
372.932	94.75
373.158	99.75
373.384	94.75
373.61	92.75
373.835	99.75
374.061	95.75
374.287	90.75
374.513	88.75
374.739	92.75
374.965	87.75
375.191	90.75
375.416	92.75
375.642	100.75
375.868	83.75
376.094	93.75
376.319	90.75
376.545	94.75
376.771	96.75
376.997	95.75
377.222	88.75
377.448	89.75
377.674	91.75
377.899	94.75
378.125	94.75
378.35	78.75
378.576	85.75
378.802	102.75
379.027	96.75
379.253	87.75
379.478	101.75
379.704	93.75
379.929	73.75
380.155	101.75
380.38	103.75
380.606	101.75
380.831	92.75
381.057	100.75
381.282	87.75
381.507	96.75
381.733	84.75
381.958	90.75
382.184	107.75
382.409	101.75
382.634	91.75
382.86	102.75
383.085	100.75
383.31	77.75
383.535	100.75
383.761	110.75
383.986	93.75
384.211	95.75
384.436	79.75
384.662	97.75
384.887	107.75
385.112	103.75
385.337	98.75
385.562	103.75
385.787	101.75
386.013	114.75
386.238	99.75
386.463	93.75
386.688	111.75
386.913	102.75
387.138	102.75
387.363	93.75
387.588	103.75
387.813	97.75
388.038	94.75
388.263	100.75
388.488	101.75
388.713	94.75
388.938	94.75
389.163	104.75
389.387	89.75
389.612	92.75
389.837	84.75
390.062	93.75
390.287	93.75
390.512	101.75
390.736	99.75
390.961	86.75
391.186	97.75
391.411	102.75
391.636	97.75
391.86	77.75
392.085	92.75
392.31	84.75
392.534	72.75
392.759	81.75
392.984	80.75
393.208	80.75
393.433	91.75
393.658	80.75
393.882	74.75
394.107	73.75
394.331	89.75
394.556	99.75
394.78	84.75
395.005	93.75
395.229	87.75
395.454	95.75
395.678	97.75
395.903	94.75
396.127	87.75
396.352	96.75
396.576	84.75
396.801	77.75
397.025	91.75
397.249	77.75
397.474	95.75
397.698	77.75
397.922	92.75
398.147	80.75
398.371	89.75
398.595	95.75
398.82	91.75
399.044	91.75
399.268	96.75
399.492	90.75
399.717	93.75
399.941	99.75
400.165	107.75
400.389	96.75
400.613	88.75
400.837	89.75
401.062	105.75
401.286	94.75
401.51	83.75
401.734	86.75
401.958	91.75
402.182	112.75
402.406	151.75
402.63	106.75
402.854	101.75
403.078	96.75
403.302	94.75
403.526	100.75
403.75	90.75
403.974	84.75
404.198	84.75
404.422	93.75
404.645	96.75
404.869	89.75
405.093	99.75
405.317	94.75
405.541	105.75
405.765	92.75
405.988	113.75
406.212	147.75
406.436	201.75
406.66	127.75
406.883	102.75
407.107	82.75
407.331	92.75
407.555	95.75
407.778	93.75
408.002	74.75
408.226	83.75
408.449	89.75
408.673	91.75
408.896	94.75
409.12	87.75
409.344	91.75
409.567	85.75
409.791	105.75
410.014	63.75
410.238	92.75
410.461	82.75
410.685	95.75
410.908	89.75
411.132	109.75
411.355	100.75
411.578	95.75
411.802	91.75
412.025	82.75
412.249	83.75
412.472	80.75
412.695	82.75
412.919	83.75
413.142	91.75
413.365	82.75
413.589	81.75
413.812	84.75
414.035	84.75
414.258	77.75
414.482	83.75
414.705	79.75
414.928	88.75
415.151	102.75
415.374	90.75
415.597	85.75
415.821	78.75
416.044	79.75
416.267	91.75
416.49	87.75
416.713	86.75
416.936	82.75
417.159	98.75
417.382	97.75
417.605	105.75
417.828	91.75
418.051	85.75
418.274	88.75
418.497	85.75
418.72	97.75
418.943	85.75
419.166	86.75
419.389	92.75
419.611	81.75
419.834	94.75
420.057	74.75
420.28	102.75
420.503	88.75
420.726	89.75
420.948	98.75
421.171	103.75
421.394	102.75
421.617	80.75
421.839	77.75
422.062	82.75
422.285	85.75
422.507	93.75
422.73	97.75
422.953	100.75
423.175	96.75
423.398	92.75
423.621	88.75
423.843	85.75
424.066	77.75
424.288	87.75
424.511	81.75
424.733	94.75
424.956	98.75
425.178	89.75
425.401	98.75
425.623	87.75
425.846	95.75
426.068	92.75
426.291	82.75
426.513	92.75
426.735	91.75
426.958	109.75
427.18	91.75
427.402	124.75
427.625	152.75
427.847	108.75
428.069	107.75
428.292	92.75
428.514	81.75
428.736	88.75
428.958	92.75
429.181	84.75
429.403	87.75
429.625	84.75
429.847	75.75
430.069	99.75
430.292	89.75
430.514	72.75
430.736	78.75
430.958	82.75
431.18	82.75
431.402	91.75
431.624	79.75
431.846	74.75
432.068	88.75
432.29	84.75
432.512	79.75
432.734	85.75
432.956	89.75
433.178	95.75
433.4	85.75
433.622	100.75
433.844	67.75
434.066	93.75
434.287	90.75
434.509	80.75
434.731	104.75
434.953	91.75
435.175	88.75
435.397	94.75
435.618	103.75
435.84	102.75
436.062	109.75
436.284	120.75
436.505	97.75
436.727	83.75
436.949	89.75
437.17	87.75
437.392	86.75
437.614	83.75
437.835	97.75
438.057	108.75
438.278	105.75
438.5	94.75
438.721	105.75
438.943	110.75
439.165	101.75
439.386	99.75
439.608	90.75
439.829	95.75
440.05	120.75
440.272	127.75
440.493	99.75
440.715	83.75
440.936	92.75
441.158	77.75
441.379	94.75
441.6	85.75
441.822	86.75
442.043	89.75
442.264	99.75
442.486	90.75
442.707	101.75
442.928	93.75
443.149	131.75
443.371	120.75
443.592	106.75
443.813	96.75
444.034	98.75
444.255	94.75
444.476	93.75
444.698	84.75
444.919	97.75
445.14	130.75
445.361	116.75
445.582	108.75
445.803	130.75
446.024	127.75
446.245	127.75
446.466	85.75
446.687	79.75
446.908	75.75
447.129	83.75
447.35	92.75
447.571	101.75
447.792	116.75
448.013	101.75
448.234	93.75
448.455	101.75
448.675	110.75
448.896	101.75
449.117	90.75
449.338	88.75
449.559	124.75
449.779	121.75
450	75.75
450.221	83.75
450.442	91.75
450.662	86.75
450.883	102.75
451.104	91.75
451.324	96.75
451.545	74.75
451.766	78.75
451.986	74.75
452.207	85.75
452.428	83.75
452.648	87.75
452.869	103.75
453.089	108.75
453.31	115.75
453.53	83.75
453.751	85.75
453.971	80.75
454.192	89.75
454.412	81.75
454.633	73.75
454.853	83.75
455.073	86.75
455.294	82.75
455.514	89.75
455.734	98.75
455.955	91.75
456.175	94.75
456.395	85.75
456.616	77.75
456.836	88.75
457.056	90.75
457.276	73.75
457.497	81.75
457.717	89.75
457.937	86.75
458.157	74.75
458.377	81.75
458.598	100.75
458.818	128.75
459.038	148.75
459.258	110.75
459.478	84.75
459.698	96.75
459.918	94.75
460.138	94.75
460.358	99.75
460.578	83.75
460.798	84.75
461.018	80.75
461.238	68.75
461.458	93.75
461.678	91.75
461.898	81.75
462.118	87.75
462.338	93.75
462.558	83.75
462.777	83.75
462.997	94.75
463.217	79.75
463.437	90.75
463.657	76.75
463.876	75.75
464.096	101.75
464.316	86.75
464.536	91.75
464.755	85.75
464.975	98.75
465.195	159.75
465.414	143.75
465.634	94.75
465.854	96.75
466.073	89.75
466.293	85.75
466.512	91.75
466.732	88.75
466.951	98.75
467.171	96.75
467.391	88.75
467.61	116.75
467.829	115.75
468.049	88.75
468.268	123.75
468.488	91.75
468.707	92.75
468.927	73.75
469.146	83.75
469.365	77.75
469.585	97.75
469.804	90.75
470.023	80.75
470.243	96.75
470.462	111.75
470.681	111.75
470.901	104.75
471.12	101.75
471.339	89.75
471.558	94.75
471.777	88.75
471.997	94.75
472.216	152.75
472.435	201.75
472.654	115.75
472.873	98.75
473.092	91.75
473.311	92.75
473.53	89.75
473.749	87.75
473.968	94.75
474.187	96.75
474.406	82.75
474.625	102.75
474.844	71.75
475.063	91.75
475.282	92.75
475.501	92.75
475.72	80.75
475.939	91.75
476.158	87.75
476.377	99.75
476.596	79.75
476.814	88.75
477.033	97.75
477.252	92.75
477.471	77.75
477.69	80.75
477.908	82.75
478.127	101.75
478.346	85.75
478.564	94.75
478.783	91.75
479.002	95.75
479.22	97.75
479.439	102.75
479.658	95.75
479.876	88.75
480.095	96.75
480.313	94.75
480.532	93.75
480.751	96.75
480.969	143.75
481.188	298.75
481.406	210.75
481.624	100.75
481.843	90.75
482.061	87.75
482.28	88.75
482.498	90.75
482.717	87.75
482.935	77.75
483.153	91.75
483.372	90.75
483.59	73.75
483.808	89.75
484.027	100.75
484.245	96.75
484.463	95.75
484.681	104.75
484.9	95.75
485.118	111.75
485.336	78.75
485.554	86.75
485.772	92.75
485.99	104.75
486.209	115.75
486.427	102.75
486.645	112.75
486.863	104.75
487.081	94.75
487.299	87.75
487.517	96.75
487.735	100.75
487.953	91.75
488.171	92.75
488.389	92.75
488.607	105.75
488.825	98.75
489.043	82.75
489.261	83.75
489.479	85.75
489.696	86.75
489.914	95.75
490.132	96.75
490.35	92.75
490.568	90.75
490.786	92.75
491.003	82.75
491.221	87.75
491.439	89.75
491.657	92.75
491.874	95.75
492.092	94.75
492.31	90.75
492.527	73.75
492.745	79.75
492.963	93.75
493.18	75.75
493.398	95.75
493.615	91.75
493.833	102.75
494.05	92.75
494.268	91.75
494.485	83.75
494.703	85.75
494.92	81.75
495.138	79.75
495.355	87.75
495.573	88.75
495.79	92.75
496.008	99.75
496.225	96.75
496.442	91.75
496.66	83.75
496.877	87.75
497.094	103.75
497.312	97.75
497.529	99.75
497.746	92.75
497.963	86.75
498.181	77.75
498.398	98.75
498.615	95.75
498.832	101.75
499.049	79.75
499.267	81.75
499.484	88.75
499.701	93.75
499.918	98.75
500.135	79.75
500.352	81.75
500.569	91.75
500.786	88.75
501.003	77.75
501.22	93.75
501.437	103.75
501.654	89.75
501.871	108.75
502.088	97.75
502.305	99.75
502.522	69.75
502.739	80.75
502.956	97.75
503.172	89.75
503.389	96.75
503.606	90.75
503.823	84.75
504.04	92.75
504.256	77.75
504.473	91.75
504.69	78.75
504.907	91.75
505.123	88.75
505.34	72.75
505.557	101.75
505.773	95.75
505.99	99.75
506.207	92.75
506.423	97.75
506.64	92.75
506.856	113.75
507.073	93.75
507.289	100.75
507.506	98.75
507.722	95.75
507.939	93.75
508.155	106.75
508.372	91.75
508.588	81.75
508.805	105.75
509.021	92.75
509.238	90.75
509.454	94.75
509.67	100.75
509.887	98.75
510.103	118.75
510.319	185.75
510.536	667.75
510.752	2159.75
510.968	599.75
511.184	151.75
511.401	112.75
511.617	94.75
511.833	91.75
512.049	104.75
512.265	91.75
512.481	101.75
512.698	93.75
512.914	96.75
513.13	95.75
513.346	89.75
513.562	82.75
513.778	105.75
513.994	82.75
514.21	93.75
514.426	127.75
514.642	115.75
514.858	112.75
515.074	183.75
515.29	381.75
515.506	1211.75
515.721	448.75
515.937	129.75
516.153	95.75
516.369	97.75
