Data from Circ_1994_H10_HRD10591_00044.txt Node
Date: Wed Jan 03 11:40:39 EST 2024
User: Yrep
Spectrometer: HR+D1059
Trigger mode: 1
Integration Time (sec): 1.000000E-1
Scans to average: 1
Electric dark correction enabled: true
Nonlinearity correction enabled: false
Boxcar width: 0
XAxis mode: Wavelengths
Number of Pixels in Spectrum: 2048
>>>>>Begin Spectral Data<<<<<
223.165	-18
223.4	-18
223.635	-18
223.869	-16
224.104	-15
224.338	-17
224.573	-21
224.808	-15
225.042	-20
225.277	-1
225.511	6
225.746	13
225.98	4
226.215	18
226.449	11
226.683	11
226.918	28
227.152	32
227.387	40
227.621	49
227.856	46
228.09	33
228.324	36
228.559	64
228.793	69
229.027	75
229.262	68
229.496	66
229.73	70
229.964	85
230.199	67
230.433	81
230.667	76
230.901	92
231.136	80
231.37	93
231.604	84
231.838	93
232.072	102
232.306	93
232.541	106
232.775	76
233.009	82
233.243	91
233.477	93
233.711	87
233.945	79
234.179	78
234.413	103
234.647	88
234.881	90
235.115	86
235.349	74
235.583	59
235.817	84
236.051	91
236.285	82
236.519	76
236.753	80
236.987	80
237.221	80
237.455	94
237.689	88
237.922	95
238.156	77
238.39	85
238.624	104
238.858	92
239.091	83
239.325	69
239.559	83
239.793	85
240.027	79
240.26	76
240.494	80
240.728	81
240.961	88
241.195	86
241.429	89
241.662	81
241.896	70
242.13	82
242.363	65
242.597	79
242.83	76
243.064	70
243.298	76
243.531	78
243.765	66
243.998	63
244.232	76
244.465	74
244.699	85
244.932	83
245.166	75
245.399	86
245.633	91
245.866	80
246.099	74
246.333	90
246.566	78
246.8	66
247.033	78
247.266	93
247.5	69
247.733	87
247.966	74
248.2	84
248.433	91
248.666	88
248.899	81
249.133	83
249.366	101
249.599	106
249.832	76
250.066	77
250.299	75
250.532	72
250.765	82
250.998	76
251.231	82
251.465	90
251.698	78
251.931	86
252.164	79
252.397	83
252.63	97
252.863	80
253.096	92
253.329	76
253.562	80
253.795	84
254.028	88
254.261	73
254.494	90
254.727	83
254.96	91
255.193	77
255.426	80
255.659	90
255.892	85
256.124	85
256.357	89
256.59	72
256.823	97
257.056	83
257.289	89
257.521	93
257.754	71
257.987	87
258.22	80
258.452	87
258.685	95
258.918	88
259.151	88
259.383	90
259.616	78
259.849	92
260.081	74
260.314	79
260.547	86
260.779	74
261.012	95
261.244	96
261.477	94
261.71	95
261.942	123
262.175	111
262.407	95
262.64	98
262.872	81
263.105	87
263.337	85
263.57	76
263.802	85
264.035	80
264.267	95
264.499	91
264.732	78
264.964	92
265.197	94
265.429	88
265.661	84
265.894	95
266.126	92
266.358	88
266.591	88
266.823	102
267.055	92
267.287	79
267.52	70
267.752	74
267.984	72
268.216	70
268.448	80
268.681	92
268.913	80
269.145	91
269.377	83
269.609	81
269.841	80
270.073	94
270.306	110
270.538	92
270.77	82
271.002	77
271.234	87
271.466	91
271.698	93
271.93	63
272.162	90
272.394	91
272.626	105
272.858	84
273.09	91
273.322	75
273.553	87
273.785	90
274.017	79
274.249	84
274.481	87
274.713	87
274.945	79
275.176	104
275.408	69
275.64	81
275.872	92
276.104	87
276.335	95
276.567	106
276.799	119
277.031	104
277.262	98
277.494	75
277.726	98
277.957	79
278.189	82
278.421	85
278.652	87
278.884	80
279.115	81
279.347	95
279.579	96
279.81	95
280.042	93
280.273	99
280.505	100
280.736	80
280.968	81
281.199	84
281.431	108
281.662	91
281.894	92
282.125	101
282.356	106
282.588	120
282.819	115
283.051	98
283.282	83
283.513	81
283.745	98
283.976	95
284.207	76
284.439	103
284.67	79
284.901	87
285.132	78
285.364	79
285.595	84
285.826	92
286.057	92
286.288	86
286.52	99
286.751	92
286.982	102
287.213	83
287.444	95
287.675	94
287.906	91
288.138	94
288.369	99
288.6	97
288.831	85
289.062	86
289.293	86
289.524	97
289.755	92
289.986	82
290.217	90
290.448	106
290.679	96
290.91	92
291.141	94
291.371	93
291.602	100
291.833	91
292.064	79
292.295	82
292.526	104
292.757	93
292.987	90
293.218	77
293.449	78
293.68	99
293.91	97
294.141	106
294.372	101
294.603	83
294.833	78
295.064	83
295.295	93
295.525	99
295.756	116
295.987	107
296.217	140
296.448	117
296.679	94
296.909	94
297.14	101
297.37	95
297.601	103
297.831	97
298.062	96
298.292	88
298.523	102
298.753	86
298.984	88
299.214	87
299.445	92
299.675	104
299.905	102
300.136	86
300.366	102
300.597	95
300.827	102
301.057	106
301.288	98
301.518	83
301.748	95
301.979	107
302.209	80
302.439	85
302.669	101
302.9	99
303.13	97
303.36	92
303.59	110
303.82	114
304.051	93
304.281	90
304.511	105
304.741	95
304.971	92
305.201	98
305.431	107
305.661	92
305.891	100
306.121	83
306.352	98
306.582	104
306.812	98
307.042	90
307.272	92
307.502	91
307.731	111
307.961	103
308.191	85
308.421	83
308.651	89
308.881	102
309.111	95
309.341	95
309.571	87
309.8	86
310.03	91
310.26	97
310.49	98
310.72	104
310.949	104
311.179	111
311.409	108
311.639	100
311.868	87
312.098	98
312.328	111
312.557	92
312.787	107
313.017	109
313.246	103
313.476	95
313.706	96
313.935	82
314.165	90
314.394	99
314.624	87
314.853	99
315.083	97
315.312	86
315.542	90
315.771	90
316.001	95
316.23	95
316.46	91
316.689	83
316.919	94
317.148	96
317.377	90
317.607	92
317.836	90
318.065	83
318.295	86
318.524	92
318.753	95
318.983	93
319.212	95
319.441	124
319.67	111
319.9	91
320.129	93
320.358	101
320.587	96
320.816	113
321.046	92
321.275	99
321.504	96
321.733	108
321.962	99
322.191	103
322.42	84
322.649	97
322.878	103
323.108	112
323.337	127
323.566	124
323.795	129
324.024	189
324.253	343
324.482	724
324.71	1478
324.939	1892
325.168	694
325.397	228
325.626	142
325.855	122
326.084	126
326.313	144
326.542	153
326.77	199
326.999	401
327.228	815
327.457	1468
327.686	1156
327.914	342
328.143	191
328.372	141
328.6	133
328.829	111
329.058	114
329.287	128
329.515	108
329.744	89
329.972	111
330.201	117
330.43	152
330.658	142
330.887	130
331.115	112
331.344	95
331.572	115
331.801	110
332.03	104
332.258	95
332.486	88
332.715	88
332.943	92
333.172	95
333.4	97
333.629	99
333.857	123
334.085	108
334.314	116
334.542	175
334.771	152
334.999	106
335.227	117
335.455	108
335.684	94
335.912	93
336.14	101
336.369	105
336.597	99
336.825	82
337.053	95
337.281	96
337.51	105
337.738	93
337.966	99
338.194	105
338.422	93
338.65	86
338.878	92
339.106	95
339.334	92
339.562	99
339.79	87
340.018	74
340.246	84
340.474	77
340.702	93
340.93	99
341.158	94
341.386	91
341.614	109
341.842	102
342.07	95
342.298	98
342.526	80
342.754	98
342.981	90
343.209	107
343.437	107
343.665	104
343.893	103
344.12	103
344.348	88
344.576	88
344.804	91
345.031	88
345.259	109
345.487	101
345.714	85
345.942	96
346.17	95
346.397	101
346.625	82
346.853	79
347.08	99
347.308	98
347.535	106
347.763	99
347.99	109
348.218	101
348.445	108
348.673	104
348.9	106
349.128	96
349.355	93
349.583	90
349.81	95
350.037	76
350.265	102
350.492	90
350.72	103
350.947	97
351.174	114
351.402	117
351.629	96
351.856	98
352.083	104
352.311	118
352.538	103
352.765	120
352.992	111
353.22	118
353.447	92
353.674	94
353.901	96
354.128	91
354.355	88
354.583	101
354.81	92
355.037	98
355.264	95
355.491	87
355.718	83
355.945	109
356.172	88
356.399	77
356.626	97
356.853	101
357.08	100
357.307	94
357.534	92
357.761	83
357.988	98
358.215	105
358.441	85
358.668	87
358.895	86
359.122	99
359.349	81
359.576	87
359.802	100
360.029	100
360.256	112
360.483	92
360.709	89
360.936	98
361.163	93
361.39	99
361.616	93
361.843	92
362.07	102
362.296	100
362.523	87
362.749	103
362.976	78
363.203	100
363.429	90
363.656	95
363.882	85
364.109	95
364.335	90
364.562	90
364.788	77
365.015	95
365.241	99
365.468	108
365.694	107
365.92	90
366.147	94
366.373	97
366.599	90
366.826	96
367.052	88
367.278	92
367.505	92
367.731	94
367.957	88
368.184	80
368.41	87
368.636	103
368.862	104
369.089	96
369.315	95
369.541	78
369.767	88
369.993	93
370.219	99
370.445	87
370.672	77
370.898	92
371.124	91
371.35	89
371.576	91
371.802	89
372.028	100
372.254	81
372.48	89
372.706	89
372.932	106
373.158	102
373.384	103
373.61	92
373.835	96
374.061	99
374.287	99
374.513	97
374.739	106
374.965	88
375.191	98
375.416	101
375.642	112
375.868	103
376.094	81
376.319	91
376.545	88
376.771	80
376.997	111
377.222	85
377.448	104
377.674	101
377.899	85
378.125	102
378.35	85
378.576	98
378.802	81
379.027	91
379.253	100
379.478	101
379.704	97
379.929	82
380.155	96
380.38	99
380.606	93
380.831	94
381.057	94
381.282	102
381.507	118
381.733	92
381.958	93
382.184	108
382.409	93
382.634	104
382.86	110
383.085	93
383.31	95
383.535	99
383.761	92
383.986	88
384.211	91
384.436	100
384.662	88
384.887	103
385.112	101
385.337	108
385.562	95
385.787	95
386.013	91
386.238	101
386.463	91
386.688	108
386.913	108
387.138	95
387.363	94
387.588	99
387.813	106
388.038	99
388.263	115
388.488	92
388.713	101
388.938	87
389.163	107
389.387	112
389.612	90
389.837	86
390.062	87
390.287	88
390.512	87
390.736	94
390.961	89
391.186	96
391.411	93
391.636	89
391.86	95
392.085	74
392.31	76
392.534	96
392.759	87
392.984	79
393.208	92
393.433	97
393.658	90
393.882	84
394.107	79
394.331	102
394.556	92
394.78	99
395.005	88
395.229	80
395.454	83
395.678	70
395.903	88
396.127	78
396.352	86
396.576	87
396.801	89
397.025	77
397.249	96
397.474	82
397.698	84
397.922	91
398.147	92
398.371	83
398.595	83
398.82	87
399.044	88
399.268	92
399.492	84
399.717	83
399.941	85
400.165	93
400.389	97
400.613	93
400.837	96
401.062	87
401.286	101
401.51	99
401.734	93
401.958	89
402.182	119
402.406	147
402.63	136
402.854	86
403.078	86
403.302	96
403.526	92
403.75	66
403.974	95
404.198	83
404.422	91
404.645	95
404.869	93
405.093	82
405.317	100
405.541	106
405.765	103
405.988	111
406.212	158
406.436	191
406.66	133
406.883	94
407.107	90
407.331	98
407.555	111
407.778	92
408.002	87
408.226	90
408.449	91
408.673	88
408.896	111
409.12	93
409.344	85
409.567	84
409.791	71
410.014	93
410.238	95
410.461	95
410.685	93
410.908	95
411.132	103
411.355	96
411.578	101
411.802	95
412.025	111
412.249	98
412.472	93
412.695	103
412.919	85
413.142	94
413.365	82
413.589	77
413.812	76
414.035	108
414.258	105
414.482	94
414.705	90
414.928	92
415.151	88
415.374	82
415.597	100
415.821	100
416.044	79
416.267	101
416.49	88
416.713	91
416.936	95
417.159	91
417.382	82
417.605	85
417.828	96
418.051	83
418.274	87
418.497	104
418.72	87
418.943	99
419.166	99
419.389	80
419.611	82
419.834	86
420.057	99
420.28	93
420.503	90
420.726	94
420.948	88
421.171	86
421.394	83
421.617	93
421.839	91
422.062	90
422.285	80
422.507	94
422.73	98
422.953	86
423.175	91
423.398	99
423.621	87
423.843	90
424.066	86
424.288	85
424.511	90
424.733	90
424.956	113
425.178	102
425.401	80
425.623	93
425.846	96
426.068	82
426.291	106
426.513	97
426.735	95
426.958	96
427.18	91
427.402	111
427.625	136
427.847	115
428.069	109
428.292	96
428.514	90
428.736	92
428.958	85
429.181	70
429.403	86
429.625	103
429.847	93
430.069	88
430.292	77
430.514	94
430.736	78
430.958	85
431.18	82
431.402	71
431.624	85
431.846	85
432.068	79
432.29	79
432.512	80
432.734	87
432.956	100
433.178	100
433.4	96
433.622	77
433.844	101
434.066	86
434.287	95
434.509	91
434.731	85
434.953	95
435.175	89
435.397	84
435.618	85
435.84	107
436.062	118
436.284	95
436.505	85
436.727	91
436.949	86
437.17	94
437.392	86
437.614	92
437.835	93
438.057	100
438.278	104
438.5	99
438.721	117
438.943	92
439.165	85
439.386	98
439.608	92
439.829	89
440.05	122
440.272	112
440.493	97
440.715	92
440.936	76
441.158	77
441.379	84
441.6	85
441.822	95
442.043	112
442.264	95
442.486	98
442.707	83
442.928	87
443.149	130
443.371	120
443.592	98
443.813	100
444.034	90
444.255	83
444.476	90
444.698	90
444.919	86
445.14	143
445.361	125
445.582	95
445.803	125
446.024	125
446.245	118
446.466	101
446.687	92
446.908	77
447.129	80
447.35	104
447.571	88
447.792	104
448.013	93
448.234	93
448.455	79
448.675	111
448.896	101
449.117	103
449.338	100
449.559	110
449.779	108
450	95
450.221	79
450.442	78
450.662	80
450.883	101
451.104	122
451.324	110
451.545	75
451.766	98
451.986	91
452.207	85
452.428	78
452.648	94
452.869	110
453.089	111
453.31	111
453.53	102
453.751	88
453.971	103
454.192	112
454.412	101
454.633	82
454.853	79
455.073	82
455.294	77
455.514	102
455.734	94
455.955	91
456.175	85
456.395	94
456.616	86
456.836	84
457.056	72
457.276	88
457.497	84
457.717	98
457.937	98
458.157	74
458.377	84
458.598	103
458.818	142
459.038	133
459.258	118
459.478	81
459.698	94
459.918	83
460.138	85
460.358	72
460.578	95
460.798	86
461.018	94
461.238	87
461.458	88
461.678	97
461.898	87
462.118	97
462.338	83
462.558	90
462.777	90
462.997	86
463.217	89
463.437	77
463.657	96
463.876	84
464.096	110
464.316	90
464.536	99
464.755	102
464.975	89
465.195	159
465.414	144
465.634	104
465.854	75
466.073	78
466.293	83
466.512	80
466.732	89
466.951	88
467.171	92
467.391	82
467.61	124
467.829	95
468.049	106
468.268	118
468.488	80
468.707	86
468.927	89
469.146	92
469.365	85
469.585	83
469.804	80
470.023	80
470.243	87
470.462	84
470.681	91
470.901	95
471.12	78
471.339	98
471.558	78
471.777	93
471.997	96
472.216	149
472.435	165
472.654	104
472.873	100
473.092	80
473.311	82
473.53	88
473.749	92
473.968	82
474.187	98
474.406	82
474.625	83
474.844	82
475.063	83
475.282	87
475.501	94
475.72	96
475.939	94
476.158	102
476.377	90
476.596	86
476.814	79
477.033	83
477.252	79
477.471	98
477.69	92
477.908	96
478.127	90
478.346	91
478.564	99
478.783	94
479.002	94
479.22	98
479.439	94
479.658	105
479.876	105
480.095	86
480.313	79
480.532	106
480.751	99
480.969	124
481.188	252
481.406	177
481.624	107
481.843	94
482.061	91
482.28	92
482.498	85
482.717	99
482.935	90
483.153	71
483.372	83
483.59	91
483.808	83
484.027	91
484.245	100
484.463	88
484.681	95
484.9	102
485.118	92
485.336	115
485.554	106
485.772	101
485.99	92
486.209	107
486.427	96
486.645	101
486.863	114
487.081	87
487.299	94
487.517	91
487.735	92
487.953	90
488.171	96
488.389	95
488.607	94
488.825	97
489.043	83
489.261	102
489.479	94
489.696	91
489.914	101
490.132	97
490.35	111
490.568	101
490.786	91
491.003	76
491.221	84
491.439	79
491.657	83
491.874	98
492.092	92
492.31	103
492.527	99
492.745	101
492.963	79
493.18	88
493.398	103
493.615	104
493.833	84
494.05	99
494.268	92
494.485	92
494.703	99
494.92	93
495.138	95
495.355	99
495.573	89
495.79	92
496.008	92
496.225	93
496.442	94
496.66	89
496.877	89
497.094	86
497.312	93
497.529	94
497.746	95
497.963	99
498.181	97
498.398	89
498.615	111
498.832	86
499.049	95
499.267	94
499.484	93
499.701	103
499.918	92
500.135	79
500.352	95
500.569	98
500.786	101
501.003	108
501.22	99
501.437	108
501.654	88
501.871	122
502.088	104
502.305	97
502.522	104
502.739	94
502.956	86
503.172	86
503.389	96
503.606	110
503.823	99
504.04	97
504.256	76
504.473	105
504.69	93
504.907	95
505.123	87
505.34	92
505.557	83
505.773	90
505.99	92
506.207	90
506.423	87
506.64	86
506.856	95
507.073	87
507.289	94
507.506	109
507.722	122
507.939	103
508.155	114
508.372	96
508.588	99
508.805	100
509.021	91
509.238	98
509.454	102
509.67	95
509.887	111
510.103	119
510.319	210
510.536	738
510.752	2228
510.968	610
511.184	156
511.401	114
511.617	91
511.833	93
512.049	95
512.265	76
512.481	86
512.698	87
512.914	93
513.13	91
513.346	97
513.562	103
513.778	104
513.994	92
514.21	88
514.426	106
514.642	115
514.858	118
515.074	173
515.29	402
515.506	1294
515.721	490
515.937	135
516.153	96
516.369	97
516.585	93
516.801	88
517.016	92
517.232	79
517.448	80
517.664	110
517.879	96
518.095	102
518.311	96
518.527	93
518.742	93
518.958	100
519.173	92
519.389	90
519.605	85
519.82	96
520.036	106
520.251	120
520.467	115
520.682	107
520.898	96
521.113	131
521.329	143
521.544	183
521.76	491
521.975	2126
522.19	1243
522.406	263
522.621	121
522.836	85
523.052	99
523.267	86
523.482	98
523.698	98
523.913	112
524.128	104
524.343	101
524.559	93
524.774	94
524.989	110
525.204	103
525.419	118
525.634	84
525.849	93
526.064	98
526.28	96
526.495	92
526.71	84
526.925	93
527.14	86
527.355	89
527.57	93
527.785	87
527.999	83
528.214	93
528.429	83
528.644	80
528.859	101
529.074	87
529.289	129
529.503	152
529.718	100
529.933	99
530.148	83
530.363	97
530.577	102
530.792	89
531.007	94
531.221	97
531.436	100
531.651	90
531.865	107
532.08	104
532.295	85
532.509	102
532.724	94
532.938	100
533.153	94
533.367	95
533.582	87
533.796	95
534.011	95
534.225	97
534.44	92
534.654	88
534.868	83
535.083	98
535.297	102
535.511	115
535.726	87
535.94	111
536.154	97
536.369	86
536.583	97
536.797	96
537.011	89
537.225	84
537.44	95
537.654	87
537.868	98
538.082	76
538.296	102
538.51	98
538.724	95
538.938	93
539.153	94
539.367	104
539.581	94
539.795	84
540.009	97
540.222	92
540.436	104
540.65	83
540.864	83
541.078	83
541.292	92
541.506	91
541.72	88
541.934	91
542.147	84
542.361	88
542.575	92
542.789	93
543.002	98
543.216	91
543.43	87
543.644	98
543.857	82
544.071	76
544.285	95
544.498	91
544.712	85
544.925	78
545.139	83
545.352	96
545.566	94
545.779	80
545.993	93
546.206	87
546.42	91
546.633	88
546.847	89
547.06	97
547.274	93
547.487	101
547.7	90
547.914	88
548.127	93
548.34	104
548.554	88
548.767	92
548.98	78
549.193	93
549.407	89
549.62	95
549.833	99
550.046	84
550.259	98
550.473	91
550.686	91
550.899	102
551.112	85
551.325	72
551.538	86
551.751	84
551.964	89
552.177	90
552.39	77
552.603	79
552.816	93
553.029	104
553.242	98
553.455	92
553.667	110
553.88	91
554.093	104
554.306	99
554.519	103
554.732	107
554.944	98
555.157	87
555.37	99
555.583	109
555.795	86
556.008	100
556.221	78
556.433	72
556.646	95
556.859	94
557.071	92
557.284	88
557.496	89
557.709	91
557.921	92
558.134	103
558.346	86
558.559	103
558.771	92
558.984	78
559.196	91
559.409	101
559.621	103
559.833	81
560.046	88
560.258	101
560.47	112
560.683	94
560.895	81
561.107	86
561.32	95
561.532	97
561.744	92
561.956	87
562.168	98
562.381	94
562.593	96
562.805	86
563.017	85
563.229	89
563.441	90
563.653	92
563.865	91
564.077	84
564.289	90
564.501	96
564.713	86
564.925	93
565.137	116
565.349	98
565.561	86
565.773	92
565.985	93
566.197	95
566.408	88
566.62	97
566.832	104
567.044	95
567.255	94
567.467	88
567.679	92
567.891	83
568.102	86
568.314	91
568.526	94
568.737	80
568.949	82
569.161	91
569.372	78
569.584	92
569.795	101
570.007	117
570.218	226
570.43	135
570.641	100
570.853	104
571.064	89
571.276	78
571.487	95
571.698	95
571.91	81
572.121	93
572.333	81
572.544	83
572.755	78
572.966	87
573.178	86
573.389	93
573.6	87
573.811	88
574.023	94
574.234	82
574.445	101
574.656	96
574.867	78
575.078	93
575.289	93
575.501	85
575.712	85
575.923	91
576.134	100
576.345	91
576.556	94
576.767	89
576.978	85
577.188	98
577.399	96
577.61	90
577.821	88
578.032	129
578.243	258
578.454	705
578.665	208
578.875	110
579.086	98
579.297	85
579.508	95
579.718	80
579.929	86
580.14	96
580.35	98
580.561	83
580.772	71
580.982	91
581.193	80
581.403	95
581.614	94
581.825	102
582.035	89
582.246	81
582.456	92
582.667	90
582.877	81
583.087	85
583.298	97
583.508	84
583.719	92
