Data from Circ_1994_H10_HRD10591_00035.txt Node
Date: Wed Jan 03 11:40:37 EST 2024
User: Yrep
Spectrometer: HR+D1059
Trigger mode: 1
Integration Time (sec): 1.000000E-1
Scans to average: 1
Electric dark correction enabled: true
Nonlinearity correction enabled: false
Boxcar width: 0
XAxis mode: Wavelengths
Number of Pixels in Spectrum: 2048
>>>>>Begin Spectral Data<<<<<
223.165	-17.81
223.4	-17.81
223.635	-17.81
223.869	-19.81
224.104	-20.81
224.338	-33.81
224.573	-11.81
224.808	-25.81
225.042	-4.81
225.277	-3.81
225.511	12.19
225.746	15.19
225.98	-4.81
226.215	7.19
226.449	21.19
226.683	24.19
226.918	30.19
227.152	33.19
227.387	39.19
227.621	34.19
227.856	36.19
228.09	46.19
228.324	63.19
228.559	48.19
228.793	59.19
229.027	53.19
229.262	60.19
229.496	75.19
229.73	84.19
229.964	82.19
230.199	80.19
230.433	75.19
230.667	83.19
230.901	82.19
231.136	67.19
231.37	71.19
231.604	75.19
231.838	70.19
232.072	94.19
232.306	83.19
232.541	94.19
232.775	75.19
233.009	68.19
233.243	74.19
233.477	73.19
233.711	84.19
233.945	86.19
234.179	82.19
234.413	88.19
234.647	68.19
234.881	76.19
235.115	76.19
235.349	84.19
235.583	77.19
235.817	80.19
236.051	76.19
236.285	67.19
236.519	85.19
236.753	85.19
236.987	86.19
237.221	99.19
237.455	89.19
237.689	65.19
237.922	61.19
238.156	78.19
238.39	82.19
238.624	75.19
238.858	72.19
239.091	64.19
239.325	79.19
239.559	79.19
239.793	61.19
240.027	68.19
240.26	78.19
240.494	84.19
240.728	87.19
240.961	81.19
241.195	74.19
241.429	62.19
241.662	65.19
241.896	58.19
242.13	68.19
242.363	68.19
242.597	76.19
242.83	84.19
243.064	68.19
243.298	69.19
243.531	88.19
243.765	78.19
243.998	74.19
244.232	101.19
244.465	87.19
244.699	93.19
244.932	72.19
245.166	69.19
245.399	68.19
245.633	74.19
245.866	77.19
246.099	82.19
246.333	84.19
246.566	93.19
246.8	61.19
247.033	78.19
247.266	88.19
247.5	67.19
247.733	89.19
247.966	74.19
248.2	89.19
248.433	79.19
248.666	70.19
248.899	84.19
249.133	80.19
249.366	99.19
249.599	94.19
249.832	58.19
250.066	84.19
250.299	99.19
250.532	73.19
250.765	72.19
250.998	86.19
251.231	94.19
251.465	85.19
251.698	83.19
251.931	77.19
252.164	90.19
252.397	85.19
252.63	76.19
252.863	84.19
253.096	85.19
253.329	81.19
253.562	82.19
253.795	86.19
254.028	86.19
254.261	82.19
254.494	77.19
254.727	76.19
254.96	82.19
255.193	76.19
255.426	86.19
255.659	81.19
255.892	76.19
256.124	72.19
256.357	82.19
256.59	88.19
256.823	83.19
257.056	62.19
257.289	102.19
257.521	80.19
257.754	77.19
257.987	81.19
258.22	78.19
258.452	78.19
258.685	84.19
258.918	85.19
259.151	69.19
259.383	87.19
259.616	81.19
259.849	74.19
260.081	80.19
260.314	87.19
260.547	76.19
260.779	83.19
261.012	83.19
261.244	84.19
261.477	91.19
261.71	83.19
261.942	89.19
262.175	110.19
262.407	82.19
262.64	75.19
262.872	75.19
263.105	76.19
263.337	82.19
263.57	89.19
263.802	78.19
264.035	77.19
264.267	73.19
264.499	79.19
264.732	70.19
264.964	89.19
265.197	88.19
265.429	80.19
265.661	98.19
265.894	86.19
266.126	82.19
266.358	89.19
266.591	67.19
266.823	98.19
267.055	85.19
267.287	95.19
267.52	66.19
267.752	70.19
267.984	84.19
268.216	80.19
268.448	76.19
268.681	94.19
268.913	78.19
269.145	75.19
269.377	79.19
269.609	93.19
269.841	70.19
270.073	64.19
270.306	83.19
270.538	83.19
270.77	94.19
271.002	74.19
271.234	86.19
271.466	90.19
271.698	76.19
271.93	78.19
272.162	94.19
272.394	85.19
272.626	87.19
272.858	88.19
273.09	82.19
273.322	90.19
273.553	77.19
273.785	84.19
274.017	81.19
274.249	80.19
274.481	85.19
274.713	94.19
274.945	88.19
275.176	87.19
275.408	100.19
275.64	91.19
275.872	67.19
276.104	81.19
276.335	88.19
276.567	92.19
276.799	97.19
277.031	109.19
277.262	91.19
277.494	100.19
277.726	95.19
277.957	74.19
278.189	74.19
278.421	80.19
278.652	100.19
278.884	89.19
279.115	82.19
279.347	84.19
279.579	92.19
279.81	82.19
280.042	91.19
280.273	85.19
280.505	79.19
280.736	78.19
280.968	84.19
281.199	88.19
281.431	81.19
281.662	81.19
281.894	79.19
282.125	81.19
282.356	112.19
282.588	139.19
282.819	99.19
283.051	98.19
283.282	84.19
283.513	82.19
283.745	68.19
283.976	88.19
284.207	92.19
284.439	76.19
284.67	85.19
284.901	82.19
285.132	87.19
285.364	105.19
285.595	84.19
285.826	90.19
286.057	98.19
286.288	89.19
286.52	74.19
286.751	98.19
286.982	96.19
287.213	82.19
287.444	89.19
287.675	77.19
287.906	83.19
288.138	81.19
288.369	80.19
288.6	81.19
288.831	79.19
289.062	80.19
289.293	93.19
289.524	86.19
289.755	85.19
289.986	81.19
290.217	81.19
290.448	67.19
290.679	81.19
290.91	82.19
291.141	81.19
291.371	89.19
291.602	96.19
291.833	72.19
292.064	71.19
292.295	82.19
292.526	84.19
292.757	78.19
292.987	85.19
293.218	82.19
293.449	72.19
293.68	82.19
293.91	97.19
294.141	83.19
294.372	89.19
294.603	82.19
294.833	77.19
295.064	77.19
295.295	93.19
295.525	93.19
295.756	92.19
295.987	104.19
296.217	139.19
296.448	112.19
296.679	99.19
296.909	94.19
297.14	93.19
297.37	89.19
297.601	88.19
297.831	84.19
298.062	99.19
298.292	96.19
298.523	72.19
298.753	97.19
298.984	91.19
299.214	96.19
299.445	93.19
299.675	90.19
299.905	94.19
300.136	93.19
300.366	98.19
300.597	101.19
300.827	102.19
301.057	102.19
301.288	103.19
301.518	88.19
301.748	79.19
301.979	98.19
302.209	96.19
302.439	96.19
302.669	92.19
302.9	84.19
303.13	78.19
303.36	83.19
303.59	84.19
303.82	91.19
304.051	96.19
304.281	89.19
304.511	99.19
304.741	84.19
304.971	84.19
305.201	91.19
305.431	106.19
305.661	92.19
305.891	82.19
306.121	90.19
306.352	87.19
306.582	94.19
306.812	74.19
307.042	90.19
307.272	87.19
307.502	101.19
307.731	90.19
307.961	81.19
308.191	90.19
308.421	93.19
308.651	84.19
308.881	95.19
309.111	85.19
309.341	90.19
309.571	99.19
309.8	94.19
310.03	93.19
310.26	82.19
310.49	90.19
310.72	101.19
310.949	98.19
311.179	96.19
311.409	84.19
311.639	90.19
311.868	105.19
312.098	93.19
312.328	97.19
312.557	101.19
312.787	98.19
313.017	102.19
313.246	102.19
313.476	104.19
313.706	87.19
313.935	92.19
314.165	88.19
314.394	89.19
314.624	81.19
314.853	99.19
315.083	106.19
315.312	80.19
315.542	87.19
315.771	108.19
316.001	95.19
316.23	88.19
316.46	93.19
316.689	85.19
316.919	83.19
317.148	94.19
317.377	79.19
317.607	86.19
317.836	89.19
318.065	97.19
318.295	99.19
318.524	86.19
318.753	83.19
318.983	99.19
319.212	106.19
319.441	92.19
319.67	107.19
319.9	97.19
320.129	102.19
320.358	107.19
320.587	93.19
320.816	91.19
321.046	90.19
321.275	97.19
321.504	93.19
321.733	91.19
321.962	103.19
322.191	93.19
322.42	108.19
322.649	105.19
322.878	123.19
323.108	114.19
323.337	130.19
323.566	122.19
323.795	141.19
324.024	186.19
324.253	325.19
324.482	706.19
324.71	1452.19
324.939	1866.19
325.168	696.19
325.397	226.19
325.626	136.19
325.855	138.19
326.084	125.19
326.313	125.19
326.542	140.19
326.77	201.19
326.999	395.19
327.228	814.19
327.457	1445.19
327.686	1130.19
327.914	330.19
328.143	186.19
328.372	155.19
328.6	118.19
328.829	109.19
329.058	115.19
329.287	115.19
329.515	124.19
329.744	97.19
329.972	115.19
330.201	120.19
330.43	139.19
330.658	122.19
330.887	125.19
331.115	115.19
331.344	94.19
331.572	85.19
331.801	91.19
332.03	96.19
332.258	101.19
332.486	96.19
332.715	102.19
332.943	91.19
333.172	97.19
333.4	100.19
333.629	94.19
333.857	114.19
334.085	123.19
334.314	120.19
334.542	148.19
334.771	139.19
334.999	115.19
335.227	87.19
335.455	91.19
335.684	102.19
335.912	109.19
336.14	118.19
336.369	88.19
336.597	86.19
336.825	100.19
337.053	99.19
337.281	103.19
337.51	90.19
337.738	93.19
337.966	97.19
338.194	103.19
338.422	90.19
338.65	118.19
338.878	79.19
339.106	99.19
339.334	93.19
339.562	94.19
339.79	96.19
340.018	80.19
340.246	90.19
340.474	90.19
340.702	91.19
340.93	95.19
341.158	101.19
341.386	101.19
341.614	97.19
341.842	104.19
342.07	84.19
342.298	88.19
342.526	94.19
342.754	102.19
342.981	91.19
343.209	89.19
343.437	85.19
343.665	88.19
343.893	88.19
344.12	92.19
344.348	78.19
344.576	75.19
344.804	83.19
345.031	94.19
345.259	92.19
345.487	93.19
345.714	86.19
345.942	98.19
346.17	96.19
346.397	88.19
346.625	95.19
346.853	104.19
347.08	93.19
347.308	95.19
347.535	89.19
347.763	100.19
347.99	96.19
348.218	100.19
348.445	106.19
348.673	101.19
348.9	112.19
349.128	93.19
349.355	95.19
349.583	86.19
349.81	103.19
350.037	87.19
350.265	94.19
350.492	90.19
350.72	89.19
350.947	111.19
351.174	107.19
351.402	95.19
351.629	92.19
351.856	98.19
352.083	103.19
352.311	120.19
352.538	116.19
352.765	99.19
352.992	117.19
353.22	116.19
353.447	104.19
353.674	101.19
353.901	103.19
354.128	93.19
354.355	85.19
354.583	92.19
354.81	95.19
355.037	96.19
355.264	96.19
355.491	101.19
355.718	86.19
355.945	91.19
356.172	105.19
356.399	97.19
356.626	101.19
356.853	84.19
357.08	86.19
357.307	95.19
357.534	102.19
357.761	109.19
357.988	89.19
358.215	92.19
358.441	88.19
358.668	95.19
358.895	92.19
359.122	93.19
359.349	90.19
359.576	100.19
359.802	102.19
360.029	113.19
360.256	93.19
360.483	96.19
360.709	96.19
360.936	89.19
361.163	94.19
361.39	86.19
361.616	76.19
361.843	91.19
362.07	98.19
362.296	110.19
362.523	83.19
362.749	87.19
362.976	97.19
363.203	91.19
363.429	101.19
363.656	89.19
363.882	97.19
364.109	84.19
364.335	111.19
364.562	93.19
364.788	78.19
365.015	82.19
365.241	97.19
365.468	113.19
365.694	107.19
365.92	82.19
366.147	77.19
366.373	81.19
366.599	94.19
366.826	101.19
367.052	83.19
367.278	89.19
367.505	106.19
367.731	88.19
367.957	85.19
368.184	88.19
368.41	111.19
368.636	109.19
368.862	96.19
369.089	94.19
369.315	97.19
369.541	104.19
369.767	98.19
369.993	103.19
370.219	98.19
370.445	96.19
370.672	89.19
370.898	90.19
371.124	78.19
371.35	90.19
371.576	102.19
371.802	80.19
372.028	86.19
372.254	95.19
372.48	101.19
372.706	77.19
372.932	92.19
373.158	90.19
373.384	90.19
373.61	100.19
373.835	100.19
374.061	93.19
374.287	90.19
374.513	95.19
374.739	80.19
374.965	76.19
375.191	86.19
375.416	81.19
375.642	95.19
375.868	100.19
376.094	92.19
376.319	101.19
376.545	81.19
376.771	80.19
376.997	86.19
377.222	93.19
377.448	92.19
377.674	82.19
377.899	93.19
378.125	78.19
378.35	77.19
378.576	94.19
378.802	106.19
379.027	86.19
379.253	83.19
379.478	97.19
379.704	88.19
379.929	104.19
380.155	86.19
380.38	93.19
380.606	88.19
380.831	98.19
381.057	94.19
381.282	90.19
381.507	92.19
381.733	90.19
381.958	93.19
382.184	92.19
382.409	96.19
382.634	99.19
382.86	106.19
383.085	97.19
383.31	110.19
383.535	109.19
383.761	115.19
383.986	91.19
384.211	108.19
384.436	90.19
384.662	98.19
384.887	106.19
385.112	100.19
385.337	93.19
385.562	101.19
385.787	101.19
386.013	98.19
386.238	108.19
386.463	107.19
386.688	104.19
386.913	88.19
387.138	93.19
387.363	94.19
387.588	100.19
387.813	96.19
388.038	111.19
388.263	114.19
388.488	110.19
388.713	94.19
388.938	96.19
389.163	97.19
389.387	91.19
389.612	96.19
389.837	90.19
390.062	97.19
390.287	93.19
390.512	105.19
390.736	96.19
390.961	90.19
391.186	85.19
391.411	102.19
391.636	101.19
391.86	87.19
392.085	81.19
392.31	74.19
392.534	92.19
392.759	84.19
392.984	84.19
393.208	86.19
393.433	96.19
393.658	85.19
393.882	96.19
394.107	89.19
394.331	82.19
394.556	81.19
394.78	82.19
395.005	102.19
395.229	79.19
395.454	88.19
395.678	99.19
395.903	100.19
396.127	86.19
396.352	102.19
396.576	77.19
396.801	85.19
397.025	87.19
397.249	96.19
397.474	85.19
397.698	85.19
397.922	83.19
398.147	85.19
398.371	83.19
398.595	83.19
398.82	92.19
399.044	78.19
399.268	82.19
399.492	86.19
399.717	99.19
399.941	105.19
400.165	72.19
400.389	87.19
400.613	76.19
400.837	82.19
401.062	89.19
401.286	86.19
401.51	95.19
401.734	88.19
401.958	106.19
402.182	122.19
402.406	128.19
402.63	110.19
402.854	90.19
403.078	81.19
403.302	91.19
403.526	80.19
403.75	97.19
403.974	98.19
404.198	90.19
404.422	85.19
404.645	80.19
404.869	89.19
405.093	86.19
405.317	90.19
405.541	93.19
405.765	94.19
405.988	107.19
406.212	138.19
406.436	198.19
406.66	132.19
406.883	100.19
407.107	102.19
407.331	87.19
407.555	89.19
407.778	82.19
408.002	100.19
408.226	75.19
408.449	88.19
408.673	93.19
408.896	86.19
409.12	91.19
409.344	92.19
409.567	91.19
409.791	98.19
410.014	96.19
410.238	95.19
410.461	86.19
410.685	89.19
410.908	94.19
411.132	107.19
411.355	106.19
411.578	97.19
411.802	94.19
412.025	78.19
412.249	92.19
412.472	86.19
412.695	110.19
412.919	96.19
413.142	86.19
413.365	94.19
413.589	98.19
413.812	96.19
414.035	88.19
414.258	78.19
414.482	98.19
414.705	81.19
414.928	87.19
415.151	93.19
415.374	93.19
415.597	94.19
415.821	92.19
416.044	72.19
416.267	87.19
416.49	82.19
416.713	96.19
416.936	92.19
417.159	97.19
417.382	91.19
417.605	84.19
417.828	81.19
418.051	93.19
418.274	76.19
418.497	93.19
418.72	100.19
418.943	83.19
419.166	99.19
419.389	96.19
419.611	80.19
419.834	88.19
420.057	93.19
420.28	87.19
420.503	85.19
420.726	96.19
420.948	105.19
421.171	87.19
421.394	94.19
421.617	88.19
421.839	91.19
422.062	94.19
422.285	100.19
422.507	96.19
422.73	105.19
422.953	87.19
423.175	79.19
423.398	81.19
423.621	85.19
423.843	72.19
424.066	100.19
424.288	82.19
424.511	89.19
424.733	102.19
424.956	113.19
425.178	102.19
425.401	91.19
425.623	81.19
425.846	79.19
426.068	84.19
426.291	93.19
426.513	92.19
426.735	81.19
426.958	102.19
427.18	90.19
427.402	104.19
427.625	143.19
427.847	120.19
428.069	107.19
428.292	91.19
428.514	78.19
428.736	84.19
428.958	69.19
429.181	88.19
429.403	85.19
429.625	88.19
429.847	105.19
430.069	90.19
430.292	92.19
430.514	85.19
430.736	59.19
430.958	84.19
431.18	92.19
431.402	80.19
431.624	91.19
431.846	96.19
432.068	90.19
432.29	83.19
432.512	95.19
432.734	77.19
432.956	84.19
433.178	92.19
433.4	86.19
433.622	98.19
433.844	96.19
434.066	93.19
434.287	90.19
434.509	88.19
434.731	76.19
434.953	86.19
435.175	91.19
435.397	92.19
435.618	86.19
435.84	102.19
436.062	110.19
436.284	95.19
436.505	98.19
436.727	87.19
436.949	97.19
437.17	104.19
437.392	72.19
437.614	80.19
437.835	102.19
438.057	114.19
438.278	96.19
438.5	102.19
438.721	98.19
438.943	93.19
439.165	81.19
439.386	84.19
439.608	84.19
439.829	105.19
440.05	110.19
440.272	133.19
440.493	93.19
440.715	93.19
440.936	86.19
441.158	81.19
441.379	83.19
441.6	84.19
441.822	88.19
442.043	85.19
442.264	102.19
442.486	102.19
442.707	97.19
442.928	104.19
443.149	111.19
443.371	108.19
443.592	110.19
443.813	111.19
444.034	100.19
444.255	94.19
444.476	94.19
444.698	93.19
444.919	80.19
445.14	137.19
445.361	107.19
445.582	124.19
445.803	118.19
446.024	129.19
446.245	113.19
446.466	128.19
446.687	81.19
446.908	93.19
447.129	85.19
447.35	83.19
447.571	89.19
447.792	96.19
448.013	101.19
448.234	96.19
448.455	87.19
448.675	122.19
448.896	114.19
449.117	98.19
449.338	84.19
449.559	117.19
449.779	124.19
450	103.19
450.221	92.19
450.442	83.19
450.662	80.19
450.883	94.19
451.104	112.19
451.324	92.19
451.545	80.19
451.766	96.19
451.986	98.19
452.207	88.19
452.428	95.19
452.648	88.19
452.869	104.19
453.089	98.19
453.31	120.19
453.53	96.19
453.751	85.19
453.971	108.19
454.192	123.19
454.412	98.19
454.633	93.19
454.853	85.19
455.073	91.19
455.294	82.19
455.514	96.19
455.734	83.19
455.955	84.19
456.175	73.19
456.395	81.19
456.616	105.19
456.836	83.19
457.056	84.19
457.276	94.19
457.497	74.19
457.717	89.19
457.937	96.19
458.157	98.19
458.377	89.19
458.598	96.19
458.818	134.19
459.038	128.19
459.258	91.19
459.478	90.19
459.698	95.19
459.918	92.19
460.138	89.19
460.358	81.19
460.578	90.19
460.798	91.19
461.018	76.19
461.238	83.19
461.458	76.19
461.678	101.19
461.898	99.19
462.118	88.19
462.338	94.19
462.558	80.19
462.777	83.19
462.997	88.19
463.217	90.19
463.437	89.19
463.657	82.19
463.876	92.19
464.096	91.19
464.316	94.19
464.536	93.19
464.755	93.19
464.975	105.19
465.195	140.19
465.414	148.19
465.634	94.19
465.854	94.19
466.073	91.19
466.293	86.19
466.512	92.19
466.732	86.19
466.951	83.19
467.171	92.19
467.391	86.19
467.61	95.19
467.829	101.19
468.049	100.19
468.268	108.19
468.488	98.19
468.707	97.19
468.927	88.19
469.146	97.19
469.365	76.19
469.585	80.19
469.804	97.19
470.023	94.19
470.243	80.19
470.462	105.19
470.681	112.19
470.901	86.19
471.12	79.19
471.339	89.19
471.558	100.19
471.777	94.19
471.997	111.19
472.216	122.19
472.435	156.19
472.654	100.19
472.873	89.19
473.092	72.19
473.311	92.19
473.53	88.19
473.749	108.19
473.968	92.19
474.187	99.19
474.406	82.19
474.625	98.19
474.844	95.19
475.063	86.19
475.282	74.19
475.501	92.19
475.72	81.19
475.939	82.19
476.158	89.19
476.377	75.19
476.596	87.19
476.814	88.19
477.033	91.19
477.252	94.19
477.471	86.19
477.69	84.19
477.908	83.19
478.127	83.19
478.346	77.19
478.564	90.19
478.783	113.19
479.002	89.19
479.22	100.19
479.439	88.19
479.658	101.19
479.876	91.19
480.095	86.19
480.313	96.19
480.532	97.19
480.751	100.19
480.969	117.19
481.188	234.19
481.406	166.19
481.624	83.19
481.843	86.19
482.061	106.19
482.28	85.19
482.498	78.19
482.717	90.19
482.935	94.19
483.153	91.19
483.372	95.19
483.59	84.19
483.808	94.19
484.027	93.19
484.245	98.19
484.463	96.19
484.681	101.19
484.9	91.19
485.118	105.19
485.336	97.19
485.554	90.19
485.772	99.19
485.99	116.19
486.209	108.19
486.427	112.19
486.645	115.19
486.863	94.19
487.081	75.19
487.299	101.19
487.517	94.19
487.735	84.19
487.953	101.19
488.171	84.19
488.389	88.19
488.607	96.19
488.825	85.19
489.043	89.19
489.261	90.19
489.479	88.19
489.696	92.19
489.914	82.19
490.132	82.19
490.35	89.19
490.568	89.19
490.786	84.19
491.003	86.19
491.221	84.19
491.439	90.19
491.657	109.19
491.874	83.19
492.092	79.19
492.31	92.19
492.527	86.19
492.745	101.19
492.963	103.19
493.18	91.19
493.398	81.19
493.615	94.19
493.833	110.19
494.05	78.19
494.268	73.19
494.485	97.19
494.703	85.19
494.92	79.19
495.138	88.19
495.355	90.19
495.573	98.19
495.79	94.19
496.008	86.19
496.225	86.19
496.442	92.19
496.66	95.19
496.877	93.19
497.094	97.19
497.312	100.19
497.529	82.19
497.746	94.19
497.963	94.19
498.181	98.19
498.398	93.19
498.615	99.19
498.832	97.19
499.049	89.19
499.267	93.19
499.484	99.19
499.701	91.19
499.918	94.19
500.135	85.19
500.352	102.19
500.569	85.19
500.786	82.19
501.003	93.19
501.22	84.19
501.437	94.19
501.654	92.19
501.871	109.19
502.088	77.19
502.305	88.19
502.522	88.19
502.739	96.19
502.956	89.19
503.172	96.19
503.389	96.19
503.606	90.19
503.823	87.19
504.04	82.19
504.256	90.19
504.473	90.19
504.69	100.19
504.907	106.19
505.123	94.19
505.34	78.19
505.557	100.19
505.773	76.19
505.99	93.19
506.207	88.19
506.423	86.19
506.64	91.19
506.856	87.19
507.073	108.19
507.289	98.19
507.506	92.19
507.722	107.19
507.939	97.19
508.155	93.19
508.372	100.19
508.588	98.19
508.805	96.19
509.021	95.19
509.238	101.19
509.454	94.19
509.67	97.19
509.887	112.19
510.103	126.19
510.319	212.19
510.536	715.19
510.752	2238.19
510.968	615.19
511.184	161.19
511.401	109.19
511.617	113.19
511.833	89.19
512.049	88.19
512.265	97.19
512.481	86.19
512.698	84.19
512.914	96.19
513.13	92.19
513.346	91.19
513.562	89.19
513.778	99.19
513.994	79.19
514.21	85.19
514.426	126.19
514.642	118.19
514.858	108.19
515.074	146.19
515.29	412.19
515.506	1279.19
515.721	470.19
515.937	131.19
