Data from Circ_1994_H10_HRD10591_00017.txt Node
Date: Wed Jan 03 11:40:33 EST 2024
User: Yrep
Spectrometer: HR+D1059
Trigger mode: 1
Integration Time (sec): 1.000000E-1
Scans to average: 1
Electric dark correction enabled: true
Nonlinearity correction enabled: false
Boxcar width: 0
XAxis mode: Wavelengths
Number of Pixels in Spectrum: 2048
>>>>>Begin Spectral Data<<<<<
223.165	-12.25
223.4	-12.25
223.635	-12.25
223.869	-2.25
224.104	-23.25
224.338	-25.25
224.573	-12.25
224.808	-13.25
225.042	-4.25
225.277	-18.25
225.511	-0.25
225.746	10.75
225.98	18.75
226.215	3.75
226.449	12.75
226.683	15.75
226.918	22.75
227.152	26.75
227.387	24.75
227.621	34.75
227.856	57.75
228.09	48.75
228.324	60.75
228.559	36.75
228.793	61.75
229.027	56.75
229.262	73.75
229.496	83.75
229.73	78.75
229.964	94.75
230.199	66.75
230.433	86.75
230.667	94.75
230.901	76.75
231.136	92.75
231.37	80.75
231.604	80.75
231.838	83.75
232.072	75.75
232.306	73.75
232.541	76.75
232.775	79.75
233.009	89.75
233.243	75.75
233.477	83.75
233.711	69.75
233.945	80.75
234.179	80.75
234.413	85.75
234.647	85.75
234.881	76.75
235.115	84.75
235.349	69.75
235.583	85.75
235.817	70.75
236.051	77.75
236.285	76.75
236.519	70.75
236.753	78.75
236.987	78.75
237.221	89.75
237.455	72.75
237.689	74.75
237.922	78.75
238.156	56.75
238.39	75.75
238.624	65.75
238.858	86.75
239.091	81.75
239.325	88.75
239.559	75.75
239.793	84.75
240.027	81.75
240.26	80.75
240.494	75.75
240.728	74.75
240.961	83.75
241.195	82.75
241.429	78.75
241.662	64.75
241.896	77.75
242.13	68.75
242.363	77.75
242.597	84.75
242.83	84.75
243.064	84.75
243.298	76.75
243.531	81.75
243.765	78.75
243.998	75.75
244.232	79.75
244.465	69.75
244.699	84.75
244.932	82.75
245.166	73.75
245.399	86.75
245.633	88.75
245.866	78.75
246.099	77.75
246.333	92.75
246.566	81.75
246.8	98.75
247.033	73.75
247.266	73.75
247.5	64.75
247.733	80.75
247.966	58.75
248.2	94.75
248.433	85.75
248.666	81.75
248.899	91.75
249.133	89.75
249.366	96.75
249.599	93.75
249.832	84.75
250.066	88.75
250.299	84.75
250.532	74.75
250.765	66.75
250.998	64.75
251.231	84.75
251.465	71.75
251.698	78.75
251.931	92.75
252.164	76.75
252.397	83.75
252.63	72.75
252.863	82.75
253.096	76.75
253.329	78.75
253.562	88.75
253.795	80.75
254.028	86.75
254.261	81.75
254.494	100.75
254.727	94.75
254.96	72.75
255.193	82.75
255.426	76.75
255.659	77.75
255.892	99.75
256.124	87.75
256.357	80.75
256.59	86.75
256.823	92.75
257.056	98.75
257.289	82.75
257.521	62.75
257.754	84.75
257.987	68.75
258.22	65.75
258.452	76.75
258.685	74.75
258.918	70.75
259.151	88.75
259.383	92.75
259.616	81.75
259.849	89.75
260.081	68.75
260.314	64.75
260.547	72.75
260.779	80.75
261.012	84.75
261.244	85.75
261.477	81.75
261.71	96.75
261.942	104.75
262.175	101.75
262.407	76.75
262.64	86.75
262.872	74.75
263.105	76.75
263.337	81.75
263.57	81.75
263.802	88.75
264.035	84.75
264.267	81.75
264.499	88.75
264.732	77.75
264.964	88.75
265.197	85.75
265.429	80.75
265.661	81.75
265.894	83.75
266.126	89.75
266.358	86.75
266.591	80.75
266.823	85.75
267.055	88.75
267.287	77.75
267.52	79.75
267.752	85.75
267.984	77.75
268.216	69.75
268.448	81.75
268.681	80.75
268.913	79.75
269.145	97.75
269.377	70.75
269.609	86.75
269.841	77.75
270.073	62.75
270.306	82.75
270.538	82.75
270.77	83.75
271.002	89.75
271.234	83.75
271.466	77.75
271.698	88.75
271.93	94.75
272.162	72.75
272.394	73.75
272.626	83.75
272.858	72.75
273.09	86.75
273.322	81.75
273.553	93.75
273.785	86.75
274.017	85.75
274.249	74.75
274.481	85.75
274.713	81.75
274.945	72.75
275.176	81.75
275.408	89.75
275.64	87.75
275.872	74.75
276.104	83.75
276.335	82.75
276.567	104.75
276.799	109.75
277.031	86.75
277.262	78.75
277.494	87.75
277.726	83.75
277.957	80.75
278.189	83.75
278.421	89.75
278.652	84.75
278.884	95.75
279.115	98.75
279.347	78.75
279.579	90.75
279.81	91.75
280.042	92.75
280.273	87.75
280.505	94.75
280.736	88.75
280.968	86.75
281.199	92.75
281.431	79.75
281.662	99.75
281.894	90.75
282.125	97.75
282.356	105.75
282.588	127.75
282.819	83.75
283.051	97.75
283.282	80.75
283.513	91.75
283.745	91.75
283.976	90.75
284.207	102.75
284.439	88.75
284.67	88.75
284.901	81.75
285.132	83.75
285.364	95.75
285.595	72.75
285.826	87.75
286.057	84.75
286.288	84.75
286.52	85.75
286.751	85.75
286.982	93.75
287.213	98.75
287.444	86.75
287.675	84.75
287.906	98.75
288.138	84.75
288.369	99.75
288.6	88.75
288.831	82.75
289.062	79.75
289.293	83.75
289.524	79.75
289.755	93.75
289.986	77.75
290.217	103.75
290.448	65.75
290.679	94.75
290.91	85.75
291.141	88.75
291.371	92.75
291.602	80.75
291.833	86.75
292.064	88.75
292.295	82.75
292.526	97.75
292.757	92.75
292.987	78.75
293.218	71.75
293.449	91.75
293.68	92.75
293.91	82.75
294.141	94.75
294.372	87.75
294.603	77.75
294.833	86.75
295.064	75.75
295.295	95.75
295.525	95.75
295.756	103.75
295.987	106.75
296.217	136.75
296.448	118.75
296.679	100.75
296.909	88.75
297.14	89.75
297.37	79.75
297.601	84.75
297.831	84.75
298.062	85.75
298.292	85.75
298.523	92.75
298.753	71.75
298.984	79.75
299.214	90.75
299.445	84.75
299.675	96.75
299.905	101.75
300.136	91.75
300.366	99.75
300.597	99.75
300.827	92.75
301.057	89.75
301.288	82.75
301.518	93.75
301.748	91.75
301.979	91.75
302.209	83.75
302.439	92.75
302.669	87.75
302.9	88.75
303.13	82.75
303.36	95.75
303.59	90.75
303.82	100.75
304.051	91.75
304.281	83.75
304.511	85.75
304.741	83.75
304.971	82.75
305.201	92.75
305.431	106.75
305.661	101.75
305.891	84.75
306.121	94.75
306.352	94.75
306.582	94.75
306.812	99.75
307.042	92.75
307.272	91.75
307.502	85.75
307.731	104.75
307.961	93.75
308.191	95.75
308.421	98.75
308.651	84.75
308.881	88.75
309.111	78.75
309.341	85.75
309.571	100.75
309.8	99.75
310.03	92.75
310.26	97.75
310.49	101.75
310.72	99.75
310.949	102.75
311.179	89.75
311.409	108.75
311.639	97.75
311.868	86.75
312.098	103.75
312.328	100.75
312.557	97.75
312.787	95.75
313.017	82.75
313.246	90.75
313.476	85.75
313.706	85.75
313.935	104.75
314.165	106.75
314.394	102.75
314.624	95.75
314.853	83.75
315.083	77.75
315.312	94.75
315.542	82.75
315.771	74.75
316.001	101.75
316.23	88.75
316.46	88.75
316.689	80.75
316.919	98.75
317.148	88.75
317.377	86.75
317.607	97.75
317.836	99.75
318.065	98.75
318.295	92.75
318.524	96.75
318.753	82.75
318.983	88.75
319.212	104.75
319.441	102.75
319.67	86.75
319.9	89.75
320.129	97.75
320.358	89.75
320.587	96.75
320.816	90.75
321.046	100.75
321.275	94.75
321.504	94.75
321.733	109.75
321.962	93.75
322.191	103.75
322.42	98.75
322.649	103.75
322.878	110.75
323.108	116.75
323.337	109.75
323.566	115.75
323.795	144.75
324.024	176.75
324.253	304.75
324.482	636.75
324.71	1326.75
324.939	1668.75
325.168	626.75
325.397	201.75
325.626	148.75
325.855	128.75
326.084	129.75
326.313	122.75
326.542	129.75
326.77	205.75
326.999	371.75
327.228	717.75
327.457	1279.75
327.686	1022.75
327.914	284.75
328.143	168.75
328.372	137.75
328.6	125.75
328.829	100.75
329.058	116.75
329.287	116.75
329.515	97.75
329.744	112.75
329.972	102.75
330.201	115.75
330.43	118.75
330.658	107.75
330.887	108.75
331.115	101.75
331.344	91.75
331.572	110.75
331.801	96.75
332.03	99.75
332.258	101.75
332.486	95.75
332.715	80.75
332.943	89.75
333.172	97.75
333.4	97.75
333.629	97.75
333.857	114.75
334.085	100.75
334.314	104.75
334.542	118.75
334.771	108.75
334.999	97.75
335.227	88.75
335.455	106.75
335.684	110.75
335.912	116.75
336.14	106.75
336.369	100.75
336.597	90.75
336.825	101.75
337.053	102.75
337.281	99.75
337.51	93.75
337.738	93.75
337.966	77.75
338.194	92.75
338.422	81.75
338.65	110.75
338.878	106.75
339.106	80.75
339.334	77.75
339.562	82.75
339.79	94.75
340.018	85.75
340.246	92.75
340.474	92.75
340.702	102.75
340.93	97.75
341.158	84.75
341.386	87.75
341.614	101.75
341.842	83.75
342.07	85.75
342.298	83.75
342.526	84.75
342.754	88.75
342.981	101.75
343.209	81.75
343.437	97.75
343.665	77.75
343.893	107.75
344.12	99.75
344.348	105.75
344.576	85.75
344.804	102.75
345.031	102.75
345.259	98.75
345.487	96.75
345.714	93.75
345.942	95.75
346.17	90.75
346.397	83.75
346.625	80.75
346.853	88.75
347.08	91.75
347.308	105.75
347.535	86.75
347.763	101.75
347.99	108.75
348.218	101.75
348.445	107.75
348.673	81.75
348.9	92.75
349.128	104.75
349.355	88.75
349.583	87.75
349.81	95.75
350.037	87.75
350.265	102.75
350.492	94.75
350.72	105.75
350.947	105.75
351.174	104.75
351.402	91.75
351.629	95.75
351.856	100.75
352.083	91.75
352.311	107.75
352.538	112.75
352.765	110.75
352.992	107.75
353.22	108.75
353.447	99.75
353.674	94.75
353.901	85.75
354.128	102.75
354.355	99.75
354.583	101.75
354.81	97.75
355.037	95.75
355.264	99.75
355.491	93.75
355.718	92.75
355.945	83.75
356.172	95.75
356.399	116.75
356.626	98.75
356.853	81.75
357.08	92.75
357.307	87.75
357.534	97.75
357.761	98.75
357.988	99.75
358.215	91.75
358.441	96.75
358.668	88.75
358.895	92.75
359.122	83.75
359.349	88.75
359.576	98.75
359.802	99.75
360.029	107.75
360.256	96.75
360.483	84.75
360.709	88.75
360.936	82.75
361.163	94.75
361.39	94.75
361.616	83.75
361.843	98.75
362.07	101.75
362.296	99.75
362.523	105.75
362.749	85.75
362.976	89.75
363.203	80.75
363.429	85.75
363.656	102.75
363.882	107.75
364.109	78.75
364.335	97.75
364.562	93.75
364.788	93.75
365.015	90.75
365.241	93.75
365.468	101.75
365.694	121.75
365.92	96.75
366.147	84.75
366.373	88.75
366.599	87.75
366.826	92.75
367.052	97.75
367.278	92.75
367.505	88.75
367.731	91.75
367.957	95.75
368.184	84.75
368.41	92.75
368.636	107.75
368.862	116.75
369.089	97.75
369.315	102.75
369.541	87.75
369.767	93.75
369.993	94.75
370.219	87.75
370.445	80.75
370.672	106.75
370.898	94.75
371.124	85.75
371.35	75.75
371.576	97.75
371.802	101.75
372.028	100.75
372.254	95.75
372.48	96.75
372.706	82.75
372.932	101.75
373.158	85.75
373.384	92.75
373.61	85.75
373.835	90.75
374.061	92.75
374.287	101.75
374.513	89.75
374.739	92.75
374.965	83.75
375.191	73.75
375.416	92.75
375.642	99.75
375.868	89.75
376.094	77.75
376.319	84.75
376.545	86.75
376.771	88.75
376.997	90.75
377.222	88.75
377.448	99.75
377.674	86.75
377.899	83.75
378.125	88.75
378.35	101.75
378.576	85.75
378.802	102.75
379.027	86.75
379.253	102.75
379.478	90.75
379.704	86.75
379.929	81.75
380.155	90.75
380.38	87.75
380.606	70.75
380.831	90.75
381.057	105.75
381.282	99.75
381.507	115.75
381.733	111.75
381.958	84.75
382.184	94.75
382.409	89.75
382.634	99.75
382.86	105.75
383.085	106.75
383.31	100.75
383.535	102.75
383.761	99.75
383.986	105.75
384.211	119.75
384.436	92.75
384.662	95.75
384.887	96.75
385.112	98.75
385.337	109.75
385.562	101.75
385.787	93.75
386.013	117.75
386.238	95.75
386.463	107.75
386.688	100.75
386.913	101.75
387.138	115.75
387.363	102.75
387.588	90.75
387.813	101.75
388.038	107.75
388.263	113.75
388.488	115.75
388.713	90.75
388.938	88.75
389.163	86.75
389.387	97.75
389.612	99.75
389.837	102.75
390.062	95.75
390.287	95.75
390.512	93.75
390.736	92.75
390.961	95.75
391.186	101.75
391.411	95.75
391.636	93.75
391.86	91.75
392.085	89.75
392.31	76.75
392.534	80.75
392.759	79.75
392.984	95.75
393.208	105.75
393.433	102.75
393.658	91.75
393.882	95.75
394.107	70.75
394.331	90.75
394.556	85.75
394.78	103.75
395.005	99.75
395.229	85.75
395.454	93.75
395.678	89.75
395.903	79.75
396.127	86.75
396.352	99.75
396.576	82.75
396.801	90.75
397.025	94.75
397.249	93.75
397.474	93.75
397.698	100.75
397.922	96.75
398.147	96.75
398.371	79.75
398.595	91.75
398.82	105.75
399.044	82.75
399.268	79.75
399.492	101.75
399.717	92.75
399.941	84.75
400.165	88.75
400.389	88.75
400.613	90.75
400.837	88.75
401.062	86.75
401.286	76.75
401.51	80.75
401.734	95.75
401.958	84.75
402.182	117.75
402.406	138.75
402.63	115.75
402.854	98.75
403.078	83.75
403.302	86.75
403.526	96.75
403.75	83.75
403.974	93.75
404.198	97.75
404.422	91.75
404.645	96.75
404.869	83.75
405.093	82.75
405.317	96.75
405.541	97.75
405.765	108.75
405.988	110.75
406.212	155.75
406.436	186.75
406.66	137.75
406.883	86.75
407.107	81.75
407.331	87.75
407.555	104.75
407.778	83.75
408.002	93.75
408.226	99.75
408.449	89.75
408.673	97.75
408.896	92.75
409.12	88.75
409.344	91.75
409.567	95.75
409.791	98.75
410.014	87.75
410.238	94.75
410.461	93.75
410.685	83.75
410.908	108.75
411.132	104.75
411.355	107.75
411.578	86.75
411.802	88.75
412.025	79.75
412.249	98.75
412.472	101.75
412.695	96.75
412.919	110.75
413.142	80.75
413.365	82.75
413.589	85.75
413.812	96.75
414.035	83.75
414.258	92.75
414.482	91.75
414.705	84.75
414.928	90.75
415.151	94.75
415.374	91.75
415.597	90.75
415.821	92.75
416.044	86.75
416.267	91.75
416.49	76.75
416.713	98.75
416.936	93.75
417.159	92.75
417.382	84.75
417.605	84.75
417.828	85.75
418.051	76.75
418.274	81.75
418.497	86.75
418.72	96.75
418.943	86.75
419.166	98.75
419.389	82.75
419.611	78.75
419.834	88.75
420.057	105.75
420.28	86.75
420.503	94.75
420.726	85.75
420.948	95.75
421.171	99.75
421.394	93.75
421.617	106.75
421.839	97.75
422.062	85.75
422.285	91.75
422.507	102.75
422.73	93.75
422.953	98.75
423.175	93.75
423.398	72.75
423.621	107.75
423.843	99.75
424.066	79.75
424.288	86.75
424.511	97.75
424.733	96.75
424.956	97.75
425.178	85.75
425.401	90.75
425.623	109.75
425.846	89.75
426.068	81.75
426.291	82.75
426.513	100.75
426.735	89.75
426.958	88.75
427.18	95.75
427.402	126.75
427.625	132.75
427.847	136.75
428.069	121.75
428.292	94.75
428.514	77.75
428.736	90.75
428.958	86.75
429.181	81.75
429.403	97.75
429.625	86.75
429.847	88.75
430.069	102.75
430.292	88.75
430.514	87.75
430.736	91.75
430.958	83.75
431.18	83.75
431.402	97.75
431.624	79.75
431.846	84.75
432.068	99.75
432.29	84.75
432.512	90.75
432.734	100.75
432.956	78.75
433.178	97.75
433.4	95.75
433.622	85.75
433.844	67.75
434.066	92.75
434.287	90.75
434.509	92.75
434.731	88.75
434.953	90.75
435.175	81.75
435.397	79.75
435.618	84.75
435.84	99.75
436.062	102.75
436.284	117.75
436.505	98.75
436.727	105.75
436.949	94.75
437.17	90.75
437.392	79.75
437.614	80.75
437.835	106.75
438.057	120.75
438.278	111.75
438.5	109.75
438.721	109.75
438.943	101.75
439.165	77.75
439.386	86.75
439.608	80.75
439.829	84.75
440.05	121.75
440.272	113.75
440.493	88.75
440.715	84.75
440.936	86.75
441.158	86.75
441.379	80.75
441.6	76.75
441.822	97.75
442.043	105.75
442.264	104.75
442.486	94.75
442.707	76.75
442.928	105.75
443.149	125.75
443.371	117.75
443.592	77.75
443.813	105.75
444.034	113.75
444.255	86.75
444.476	75.75
444.698	100.75
444.919	83.75
445.14	102.75
445.361	115.75
445.582	102.75
445.803	127.75
446.024	124.75
446.245	129.75
446.466	99.75
446.687	95.75
446.908	83.75
447.129	80.75
447.35	96.75
447.571	84.75
447.792	83.75
448.013	89.75
448.234	102.75
448.455	95.75
448.675	114.75
448.896	105.75
449.117	98.75
449.338	108.75
449.559	98.75
449.779	115.75
450	100.75
450.221	97.75
450.442	93.75
450.662	91.75
450.883	106.75
451.104	97.75
451.324	89.75
451.545	92.75
451.766	84.75
451.986	68.75
452.207	92.75
452.428	84.75
452.648	103.75
452.869	99.75
453.089	112.75
453.31	98.75
453.53	100.75
453.751	100.75
453.971	89.75
454.192	107.75
454.412	98.75
454.633	96.75
454.853	70.75
455.073	86.75
455.294	95.75
455.514	89.75
455.734	97.75
455.955	93.75
456.175	86.75
456.395	88.75
456.616	77.75
456.836	83.75
457.056	82.75
457.276	94.75
457.497	95.75
457.717	80.75
457.937	80.75
458.157	82.75
458.377	88.75
458.598	106.75
458.818	128.75
459.038	133.75
459.258	96.75
459.478	83.75
459.698	92.75
459.918	99.75
460.138	83.75
460.358	76.75
460.578	72.75
460.798	83.75
461.018	76.75
461.238	91.75
461.458	87.75
461.678	80.75
461.898	74.75
462.118	78.75
462.338	84.75
462.558	95.75
462.777	83.75
462.997	91.75
463.217	94.75
463.437	69.75
463.657	88.75
463.876	98.75
464.096	82.75
464.316	86.75
464.536	96.75
464.755	93.75
464.975	96.75
465.195	138.75
465.414	129.75
465.634	92.75
465.854	86.75
466.073	92.75
466.293	97.75
466.512	86.75
466.732	79.75
466.951	94.75
467.171	83.75
467.391	94.75
467.61	91.75
467.829	82.75
468.049	95.75
468.268	97.75
468.488	80.75
468.707	92.75
468.927	77.75
469.146	84.75
469.365	80.75
469.585	100.75
469.804	94.75
470.023	97.75
470.243	93.75
470.462	87.75
470.681	99.75
470.901	87.75
471.12	86.75
471.339	75.75
471.558	92.75
471.777	85.75
471.997	91.75
472.216	101.75
472.435	117.75
472.654	92.75
472.873	90.75
473.092	82.75
473.311	89.75
473.53	90.75
473.749	104.75
473.968	84.75
474.187	82.75
474.406	89.75
474.625	81.75
474.844	78.75
475.063	84.75
475.282	81.75
475.501	88.75
475.72	92.75
475.939	82.75
476.158	93.75
476.377	86.75
476.596	105.75
476.814	89.75
477.033	82.75
477.252	85.75
477.471	90.75
477.69	88.75
477.908	81.75
478.127	90.75
478.346	94.75
478.564	89.75
478.783	108.75
479.002	75.75
479.22	79.75
479.439	93.75
479.658	84.75
479.876	88.75
480.095	97.75
480.313	101.75
480.532	99.75
480.751	89.75
480.969	106.75
481.188	167.75
481.406	141.75
481.624	86.75
481.843	87.75
482.061	88.75
482.28	76.75
482.498	95.75
482.717	83.75
482.935	84.75
483.153	95.75
483.372	80.75
483.59	86.75
483.808	89.75
484.027	87.75
484.245	95.75
484.463	105.75
484.681	106.75
484.9	81.75
485.118	93.75
485.336	93.75
485.554	83.75
485.772	87.75
485.99	101.75
486.209	98.75
486.427	112.75
486.645	104.75
486.863	112.75
487.081	110.75
487.299	89.75
487.517	90.75
487.735	91.75
487.953	80.75
488.171	99.75
488.389	88.75
488.607	102.75
488.825	80.75
489.043	94.75
489.261	86.75
489.479	97.75
489.696	81.75
489.914	88.75
490.132	99.75
490.35	73.75
490.568	89.75
490.786	92.75
491.003	84.75
491.221	101.75
491.439	79.75
491.657	90.75
491.874	100.75
492.092	90.75
492.31	80.75
492.527	77.75
492.745	83.75
492.963	73.75
493.18	85.75
493.398	103.75
493.615	88.75
493.833	88.75
494.05	91.75
494.268	106.75
494.485	88.75
494.703	81.75
494.92	86.75
495.138	63.75
495.355	86.75
495.573	84.75
495.79	96.75
496.008	104.75
496.225	101.75
496.442	86.75
496.66	95.75
496.877	86.75
497.094	104.75
497.312	95.75
497.529	84.75
497.746	85.75
497.963	85.75
498.181	98.75
498.398	97.75
498.615	99.75
498.832	90.75
499.049	94.75
499.267	104.75
499.484	85.75
499.701	97.75
499.918	93.75
500.135	99.75
500.352	98.75
500.569	94.75
500.786	95.75
501.003	83.75
501.22	76.75
501.437	94.75
501.654	100.75
501.871	78.75
502.088	107.75
502.305	94.75
502.522	79.75
502.739	90.75
502.956	97.75
503.172	86.75
503.389	101.75
503.606	85.75
503.823	79.75
504.04	86.75
504.256	93.75
504.473	97.75
504.69	86.75
504.907	98.75
505.123	85.75
505.34	90.75
505.557	97.75
505.773	93.75
505.99	81.75
506.207	84.75
506.423	100.75
506.64	90.75
506.856	93.75
507.073	97.75
507.289	96.75
507.506	90.75
507.722	84.75
507.939	100.75
508.155	91.75
508.372	76.75
508.588	86.75
508.805	102.75
509.021	95.75
509.238	109.75
509.454	106.75
509.67	92.75
509.887	104.75
510.103	107.75
510.319	190.75
510.536	616.75
510.752	1954.75
510.968	536.75
511.184	146.75
511.401	123.75
511.617	89.75
511.833	99.75
512.049	86.75
512.265	79.75
512.481	88.75
512.698	100.75
512.914	86.75
513.13	98.75
513.346	89.75
513.562	86.75
513.778	96.75
513.994	97.75
514.21	94.75
514.426	111.75
514.642	133.75
514.858	108.75
515.074	129.75
515.29	370.75
515.506	1096.75
515.721	408.75
515.937	120.75
516.153	92.75
