Data from Circ_1994_H10_HRD10591_00084.txt Node
Date: Wed Jan 03 11:40:47 EST 2024
User: Yrep
Spectrometer: HR+D1059
Trigger mode: 1
Integration Time (sec): 1.000000E-1
Scans to average: 1
Electric dark correction enabled: true
Nonlinearity correction enabled: false
Boxcar width: 0
XAxis mode: Wavelengths
Number of Pixels in Spectrum: 2048
>>>>>Begin Spectral Data<<<<<
223.165	-21.25
223.4	-21.25
223.635	-21.25
223.869	-24.25
224.104	-11.25
224.338	-10.25
224.573	-14.25
224.808	-19.25
225.042	-8.25
225.277	-2.25
225.511	-4.25
225.746	1.75
225.98	3.75
226.215	10.75
226.449	12.75
226.683	28.75
226.918	26.75
227.152	30.75
227.387	34.75
227.621	25.75
227.856	27.75
228.09	47.75
228.324	54.75
228.559	52.75
228.793	58.75
229.027	57.75
229.262	65.75
229.496	86.75
229.73	77.75
229.964	79.75
230.199	60.75
230.433	70.75
230.667	61.75
230.901	65.75
231.136	82.75
231.37	86.75
231.604	76.75
231.838	71.75
232.072	80.75
232.306	88.75
232.541	94.75
232.775	79.75
233.009	69.75
233.243	75.75
233.477	82.75
233.711	89.75
233.945	63.75
234.179	84.75
234.413	84.75
234.647	84.75
234.881	79.75
235.115	80.75
235.349	58.75
235.583	84.75
235.817	82.75
236.051	66.75
236.285	85.75
236.519	81.75
236.753	64.75
236.987	89.75
237.221	86.75
237.455	81.75
237.689	78.75
237.922	71.75
238.156	66.75
238.39	74.75
238.624	72.75
238.858	66.75
239.091	79.75
239.325	77.75
239.559	89.75
239.793	64.75
240.027	66.75
240.26	77.75
240.494	79.75
240.728	68.75
240.961	70.75
241.195	74.75
241.429	60.75
241.662	65.75
241.896	64.75
242.13	70.75
242.363	82.75
242.597	78.75
242.83	88.75
243.064	70.75
243.298	81.75
243.531	63.75
243.765	94.75
243.998	79.75
244.232	77.75
244.465	92.75
244.699	76.75
244.932	71.75
245.166	73.75
245.399	62.75
245.633	70.75
245.866	79.75
246.099	74.75
246.333	82.75
246.566	77.75
246.8	79.75
247.033	81.75
247.266	75.75
247.5	90.75
247.733	82.75
247.966	75.75
248.2	55.75
248.433	84.75
248.666	76.75
248.899	91.75
249.133	68.75
249.366	81.75
249.599	100.75
249.832	86.75
250.066	87.75
250.299	99.75
250.532	74.75
250.765	67.75
250.998	72.75
251.231	77.75
251.465	79.75
251.698	79.75
251.931	89.75
252.164	81.75
252.397	85.75
252.63	88.75
252.863	72.75
253.096	80.75
253.329	95.75
253.562	86.75
253.795	79.75
254.028	81.75
254.261	70.75
254.494	78.75
254.727	78.75
254.96	68.75
255.193	72.75
255.426	81.75
255.659	79.75
255.892	69.75
256.124	78.75
256.357	80.75
256.59	94.75
256.823	74.75
257.056	85.75
257.289	77.75
257.521	66.75
257.754	70.75
257.987	82.75
258.22	95.75
258.452	79.75
258.685	75.75
258.918	86.75
259.151	82.75
259.383	64.75
259.616	72.75
259.849	86.75
260.081	80.75
260.314	89.75
260.547	80.75
260.779	91.75
261.012	71.75
261.244	82.75
261.477	89.75
261.71	80.75
261.942	87.75
262.175	99.75
262.407	82.75
262.64	71.75
262.872	64.75
263.105	80.75
263.337	88.75
263.57	87.75
263.802	90.75
264.035	75.75
264.267	76.75
264.499	86.75
264.732	83.75
264.964	74.75
265.197	84.75
265.429	66.75
265.661	69.75
265.894	76.75
266.126	76.75
266.358	76.75
266.591	85.75
266.823	72.75
267.055	83.75
267.287	83.75
267.52	70.75
267.752	68.75
267.984	83.75
268.216	85.75
268.448	76.75
268.681	77.75
268.913	80.75
269.145	90.75
269.377	75.75
269.609	71.75
269.841	70.75
270.073	77.75
270.306	75.75
270.538	78.75
270.77	89.75
271.002	83.75
271.234	76.75
271.466	86.75
271.698	83.75
271.93	72.75
272.162	72.75
272.394	92.75
272.626	83.75
272.858	74.75
273.09	71.75
273.322	78.75
273.553	78.75
273.785	80.75
274.017	75.75
274.249	82.75
274.481	82.75
274.713	73.75
274.945	83.75
275.176	76.75
275.408	75.75
275.64	98.75
275.872	93.75
276.104	87.75
276.335	95.75
276.567	90.75
276.799	99.75
277.031	112.75
277.262	100.75
277.494	91.75
277.726	79.75
277.957	72.75
278.189	83.75
278.421	88.75
278.652	77.75
278.884	89.75
279.115	82.75
279.347	83.75
279.579	90.75
279.81	78.75
280.042	113.75
280.273	93.75
280.505	67.75
280.736	84.75
280.968	82.75
281.199	88.75
281.431	64.75
281.662	88.75
281.894	108.75
282.125	100.75
282.356	99.75
282.588	119.75
282.819	111.75
283.051	93.75
283.282	84.75
283.513	87.75
283.745	84.75
283.976	68.75
284.207	86.75
284.439	86.75
284.67	83.75
284.901	86.75
285.132	64.75
285.364	76.75
285.595	81.75
285.826	84.75
286.057	70.75
286.288	71.75
286.52	73.75
286.751	84.75
286.982	80.75
287.213	100.75
287.444	73.75
287.675	82.75
287.906	79.75
288.138	72.75
288.369	102.75
288.6	77.75
288.831	88.75
289.062	77.75
289.293	92.75
289.524	89.75
289.755	106.75
289.986	87.75
290.217	79.75
290.448	75.75
290.679	82.75
290.91	76.75
291.141	94.75
291.371	95.75
291.602	81.75
291.833	89.75
292.064	88.75
292.295	88.75
292.526	86.75
292.757	95.75
292.987	85.75
293.218	89.75
293.449	103.75
293.68	76.75
293.91	80.75
294.141	82.75
294.372	90.75
294.603	92.75
294.833	98.75
295.064	80.75
295.295	89.75
295.525	80.75
295.756	88.75
295.987	94.75
296.217	126.75
296.448	121.75
296.679	87.75
296.909	85.75
297.14	81.75
297.37	86.75
297.601	74.75
297.831	93.75
298.062	83.75
298.292	80.75
298.523	95.75
298.753	82.75
298.984	88.75
299.214	84.75
299.445	82.75
299.675	93.75
299.905	86.75
300.136	84.75
300.366	88.75
300.597	91.75
300.827	81.75
301.057	97.75
301.288	101.75
301.518	91.75
301.748	80.75
301.979	98.75
302.209	76.75
302.439	95.75
302.669	84.75
302.9	78.75
303.13	87.75
303.36	96.75
303.59	88.75
303.82	80.75
304.051	86.75
304.281	89.75
304.511	97.75
304.741	84.75
304.971	81.75
305.201	83.75
305.431	91.75
305.661	95.75
305.891	89.75
306.121	83.75
306.352	82.75
306.582	83.75
306.812	84.75
307.042	88.75
307.272	103.75
307.502	94.75
307.731	95.75
307.961	84.75
308.191	79.75
308.421	77.75
308.651	92.75
308.881	94.75
309.111	96.75
309.341	90.75
309.571	80.75
309.8	91.75
310.03	84.75
310.26	104.75
310.49	85.75
310.72	96.75
310.949	98.75
311.179	87.75
311.409	86.75
311.639	101.75
311.868	96.75
312.098	88.75
312.328	74.75
312.557	90.75
312.787	111.75
313.017	110.75
313.246	100.75
313.476	90.75
313.706	85.75
313.935	88.75
314.165	89.75
314.394	88.75
314.624	114.75
314.853	114.75
315.083	95.75
315.312	90.75
315.542	86.75
315.771	100.75
316.001	76.75
316.23	91.75
316.46	103.75
316.689	102.75
316.919	95.75
317.148	87.75
317.377	75.75
317.607	72.75
317.836	86.75
318.065	83.75
318.295	104.75
318.524	89.75
318.753	91.75
318.983	91.75
319.212	90.75
319.441	108.75
319.67	110.75
319.9	74.75
320.129	89.75
320.358	81.75
320.587	81.75
320.816	89.75
321.046	98.75
321.275	97.75
321.504	97.75
321.733	94.75
321.962	93.75
322.191	87.75
322.42	101.75
322.649	107.75
322.878	106.75
323.108	107.75
323.337	110.75
323.566	123.75
323.795	147.75
324.024	189.75
324.253	354.75
324.482	700.75
324.71	1352.75
324.939	1809.75
325.168	688.75
325.397	219.75
325.626	125.75
325.855	127.75
326.084	107.75
326.313	128.75
326.542	132.75
326.77	203.75
326.999	398.75
327.228	786.75
327.457	1437.75
327.686	1129.75
327.914	316.75
328.143	192.75
328.372	171.75
328.6	122.75
328.829	127.75
329.058	118.75
329.287	111.75
329.515	105.75
329.744	121.75
329.972	114.75
330.201	166.75
330.43	185.75
330.658	125.75
330.887	127.75
331.115	111.75
331.344	105.75
331.572	85.75
331.801	92.75
332.03	95.75
332.258	83.75
332.486	87.75
332.715	95.75
332.943	100.75
333.172	93.75
333.4	96.75
333.629	99.75
333.857	110.75
334.085	138.75
334.314	152.75
334.542	246.75
334.771	216.75
334.999	122.75
335.227	99.75
335.455	91.75
335.684	85.75
335.912	96.75
336.14	100.75
336.369	88.75
336.597	92.75
336.825	91.75
337.053	71.75
337.281	95.75
337.51	82.75
337.738	99.75
337.966	94.75
338.194	90.75
338.422	82.75
338.65	85.75
338.878	78.75
339.106	82.75
339.334	83.75
339.562	80.75
339.79	89.75
340.018	96.75
340.246	90.75
340.474	85.75
340.702	95.75
340.93	100.75
341.158	79.75
341.386	76.75
341.614	105.75
341.842	97.75
342.07	102.75
342.298	100.75
342.526	66.75
342.754	74.75
342.981	92.75
343.209	80.75
343.437	99.75
343.665	89.75
343.893	74.75
344.12	87.75
344.348	93.75
344.576	90.75
344.804	89.75
345.031	99.75
345.259	82.75
345.487	80.75
345.714	83.75
345.942	99.75
346.17	102.75
346.397	94.75
346.625	96.75
346.853	89.75
347.08	84.75
347.308	105.75
347.535	116.75
347.763	97.75
347.99	86.75
348.218	99.75
348.445	107.75
348.673	103.75
348.9	87.75
349.128	104.75
349.355	95.75
349.583	94.75
349.81	95.75
350.037	81.75
350.265	87.75
350.492	89.75
350.72	75.75
350.947	112.75
351.174	107.75
351.402	97.75
351.629	97.75
351.856	90.75
352.083	90.75
352.311	95.75
352.538	95.75
352.765	106.75
352.992	101.75
353.22	103.75
353.447	106.75
353.674	88.75
353.901	83.75
354.128	102.75
354.355	92.75
354.583	91.75
354.81	100.75
355.037	96.75
355.264	97.75
355.491	77.75
355.718	90.75
355.945	91.75
356.172	79.75
356.399	91.75
356.626	82.75
356.853	84.75
357.08	94.75
357.307	82.75
357.534	89.75
357.761	104.75
357.988	80.75
358.215	83.75
358.441	84.75
358.668	88.75
358.895	93.75
359.122	83.75
359.349	94.75
359.576	87.75
359.802	88.75
360.029	99.75
360.256	105.75
360.483	79.75
360.709	89.75
360.936	83.75
361.163	95.75
361.39	80.75
361.616	87.75
361.843	86.75
362.07	84.75
362.296	92.75
362.523	83.75
362.749	90.75
362.976	98.75
363.203	113.75
363.429	71.75
363.656	77.75
363.882	95.75
364.109	91.75
364.335	81.75
364.562	89.75
364.788	94.75
365.015	99.75
365.241	96.75
365.468	95.75
365.694	91.75
365.92	95.75
366.147	78.75
366.373	78.75
366.599	82.75
366.826	76.75
367.052	107.75
367.278	94.75
367.505	88.75
367.731	94.75
367.957	86.75
368.184	70.75
368.41	76.75
368.636	77.75
368.862	97.75
369.089	97.75
369.315	79.75
369.541	84.75
369.767	80.75
369.993	86.75
370.219	86.75
370.445	92.75
370.672	91.75
370.898	83.75
371.124	87.75
371.35	75.75
371.576	72.75
371.802	82.75
372.028	85.75
372.254	80.75
372.48	90.75
372.706	106.75
372.932	95.75
373.158	92.75
373.384	94.75
373.61	95.75
373.835	78.75
374.061	87.75
374.287	94.75
374.513	77.75
374.739	86.75
374.965	88.75
375.191	96.75
375.416	88.75
375.642	83.75
375.868	97.75
376.094	98.75
376.319	107.75
376.545	83.75
376.771	71.75
376.997	87.75
377.222	99.75
377.448	94.75
377.674	98.75
377.899	83.75
378.125	84.75
378.35	90.75
378.576	95.75
378.802	99.75
379.027	103.75
379.253	93.75
379.478	102.75
379.704	81.75
379.929	104.75
380.155	84.75
380.38	95.75
380.606	99.75
380.831	91.75
381.057	102.75
381.282	86.75
381.507	89.75
381.733	92.75
381.958	87.75
382.184	90.75
382.409	96.75
382.634	112.75
382.86	101.75
383.085	103.75
383.31	90.75
383.535	99.75
383.761	90.75
383.986	86.75
384.211	89.75
384.436	86.75
384.662	99.75
384.887	85.75
385.112	85.75
385.337	95.75
385.562	86.75
385.787	95.75
386.013	99.75
386.238	103.75
386.463	104.75
386.688	100.75
386.913	92.75
387.138	95.75
387.363	94.75
387.588	90.75
387.813	95.75
388.038	99.75
388.263	102.75
388.488	96.75
388.713	98.75
388.938	93.75
389.163	88.75
389.387	97.75
389.612	86.75
389.837	92.75
390.062	78.75
390.287	95.75
390.512	94.75
390.736	92.75
390.961	86.75
391.186	87.75
391.411	92.75
391.636	88.75
391.86	77.75
392.085	103.75
392.31	87.75
392.534	75.75
392.759	88.75
392.984	79.75
393.208	67.75
393.433	87.75
393.658	72.75
393.882	75.75
394.107	90.75
394.331	90.75
394.556	96.75
394.78	98.75
395.005	84.75
395.229	77.75
395.454	81.75
395.678	83.75
395.903	79.75
396.127	96.75
396.352	83.75
396.576	83.75
396.801	108.75
397.025	82.75
397.249	78.75
397.474	81.75
397.698	80.75
397.922	81.75
398.147	89.75
398.371	80.75
398.595	79.75
398.82	76.75
399.044	77.75
399.268	63.75
399.492	86.75
399.717	83.75
399.941	76.75
400.165	74.75
400.389	92.75
400.613	76.75
400.837	75.75
401.062	91.75
401.286	79.75
401.51	100.75
401.734	81.75
401.958	106.75
402.182	120.75
402.406	124.75
402.63	114.75
402.854	92.75
403.078	91.75
403.302	80.75
403.526	98.75
403.75	80.75
403.974	89.75
404.198	96.75
404.422	96.75
404.645	81.75
404.869	95.75
405.093	88.75
405.317	93.75
405.541	102.75
405.765	107.75
405.988	104.75
406.212	155.75
406.436	211.75
406.66	125.75
406.883	96.75
407.107	86.75
407.331	76.75
407.555	83.75
407.778	88.75
408.002	88.75
408.226	73.75
408.449	86.75
408.673	89.75
408.896	98.75
409.12	79.75
409.344	83.75
409.567	98.75
409.791	86.75
410.014	82.75
410.238	99.75
410.461	91.75
410.685	97.75
410.908	100.75
411.132	102.75
411.355	91.75
411.578	98.75
411.802	78.75
412.025	92.75
412.249	83.75
412.472	94.75
412.695	94.75
412.919	91.75
413.142	83.75
413.365	76.75
413.589	90.75
413.812	101.75
414.035	93.75
414.258	84.75
414.482	93.75
414.705	90.75
414.928	88.75
415.151	91.75
415.374	78.75
415.597	86.75
415.821	82.75
416.044	73.75
416.267	95.75
416.49	79.75
416.713	84.75
416.936	76.75
417.159	91.75
417.382	81.75
417.605	85.75
417.828	82.75
418.051	85.75
418.274	80.75
418.497	87.75
418.72	79.75
418.943	93.75
419.166	86.75
419.389	87.75
419.611	78.75
419.834	84.75
420.057	79.75
420.28	80.75
420.503	93.75
420.726	86.75
420.948	97.75
421.171	80.75
421.394	98.75
421.617	89.75
421.839	84.75
422.062	75.75
422.285	93.75
422.507	93.75
422.73	95.75
422.953	95.75
423.175	88.75
423.398	88.75
423.621	85.75
423.843	102.75
424.066	88.75
424.288	79.75
424.511	82.75
424.733	98.75
424.956	94.75
425.178	93.75
425.401	87.75
425.623	106.75
425.846	89.75
426.068	100.75
426.291	87.75
426.513	87.75
426.735	82.75
426.958	78.75
427.18	88.75
427.402	119.75
427.625	152.75
427.847	129.75
428.069	111.75
428.292	93.75
428.514	83.75
428.736	95.75
428.958	70.75
429.181	93.75
429.403	84.75
429.625	85.75
429.847	83.75
430.069	92.75
430.292	89.75
430.514	70.75
430.736	82.75
430.958	89.75
431.18	79.75
431.402	83.75
431.624	86.75
431.846	79.75
432.068	102.75
432.29	81.75
432.512	70.75
432.734	82.75
432.956	79.75
433.178	96.75
433.4	93.75
433.622	93.75
433.844	88.75
434.066	94.75
434.287	95.75
434.509	96.75
434.731	83.75
434.953	83.75
435.175	78.75
435.397	105.75
435.618	87.75
435.84	94.75
436.062	121.75
436.284	106.75
436.505	92.75
436.727	82.75
436.949	88.75
437.17	83.75
437.392	82.75
437.614	89.75
437.835	95.75
438.057	125.75
438.278	90.75
438.5	98.75
438.721	111.75
438.943	76.75
439.165	78.75
439.386	84.75
439.608	99.75
439.829	86.75
440.05	121.75
440.272	121.75
440.493	98.75
440.715	77.75
440.936	90.75
441.158	88.75
441.379	99.75
441.6	102.75
441.822	105.75
442.043	95.75
442.264	88.75
442.486	100.75
442.707	76.75
442.928	101.75
443.149	115.75
443.371	114.75
443.592	112.75
443.813	104.75
444.034	95.75
444.255	88.75
444.476	83.75
444.698	76.75
444.919	79.75
445.14	120.75
445.361	103.75
445.582	107.75
445.803	112.75
446.024	126.75
446.245	110.75
446.466	92.75
446.687	105.75
446.908	82.75
447.129	86.75
447.35	84.75
447.571	85.75
447.792	68.75
448.013	80.75
448.234	98.75
448.455	91.75
448.675	110.75
448.896	99.75
449.117	84.75
449.338	76.75
449.559	109.75
449.779	119.75
450	88.75
450.221	77.75
450.442	100.75
450.662	88.75
450.883	90.75
451.104	103.75
451.324	90.75
451.545	98.75
451.766	78.75
451.986	78.75
452.207	87.75
452.428	93.75
452.648	80.75
452.869	101.75
453.089	106.75
453.31	98.75
453.53	97.75
453.751	86.75
453.971	97.75
454.192	99.75
454.412	87.75
454.633	84.75
454.853	99.75
455.073	81.75
455.294	100.75
455.514	105.75
455.734	84.75
455.955	88.75
456.175	90.75
456.395	80.75
456.616	91.75
456.836	84.75
457.056	79.75
457.276	78.75
457.497	87.75
457.717	100.75
457.937	88.75
458.157	79.75
458.377	72.75
458.598	90.75
458.818	128.75
459.038	139.75
459.258	110.75
459.478	80.75
459.698	95.75
459.918	79.75
460.138	84.75
460.358	88.75
460.578	91.75
460.798	90.75
461.018	95.75
461.238	92.75
461.458	85.75
461.678	96.75
461.898	75.75
462.118	87.75
462.338	78.75
462.558	76.75
462.777	78.75
462.997	113.75
463.217	84.75
463.437	84.75
463.657	82.75
463.876	78.75
464.096	82.75
464.316	88.75
464.536	91.75
464.755	87.75
464.975	93.75
465.195	148.75
465.414	132.75
465.634	99.75
465.854	73.75
466.073	70.75
466.293	82.75
466.512	85.75
466.732	91.75
466.951	82.75
467.171	97.75
467.391	88.75
467.61	103.75
467.829	95.75
468.049	132.75
468.268	129.75
468.488	81.75
468.707	97.75
468.927	81.75
469.146	87.75
469.365	83.75
469.585	99.75
469.804	98.75
470.023	71.75
470.243	103.75
470.462	82.75
470.681	104.75
470.901	90.75
471.12	114.75
471.339	85.75
471.558	75.75
471.777	89.75
471.997	97.75
472.216	179.75
472.435	281.75
472.654	129.75
472.873	99.75
473.092	81.75
473.311	96.75
473.53	73.75
473.749	102.75
473.968	89.75
474.187	108.75
474.406	82.75
474.625	92.75
474.844	95.75
475.063	92.75
475.282	97.75
475.501	89.75
475.72	86.75
475.939	83.75
476.158	87.75
476.377	86.75
476.596	76.75
476.814	83.75
477.033	78.75
477.252	77.75
477.471	80.75
477.69	94.75
477.908	67.75
478.127	88.75
478.346	99.75
478.564	81.75
478.783	90.75
479.002	95.75
479.22	92.75
479.439	94.75
479.658	97.75
479.876	88.75
480.095	98.75
480.313	96.75
480.532	91.75
480.751	104.75
480.969	179.75
481.188	469.75
481.406	298.75
481.624	117.75
481.843	93.75
482.061	83.75
482.28	83.75
482.498	81.75
482.717	99.75
482.935	80.75
483.153	78.75
483.372	80.75
483.59	83.75
483.808	86.75
484.027	93.75
484.245	86.75
484.463	92.75
484.681	80.75
484.9	80.75
485.118	85.75
485.336	91.75
485.554	92.75
485.772	97.75
485.99	90.75
486.209	107.75
486.427	109.75
486.645	100.75
486.863	105.75
487.081	99.75
487.299	92.75
487.517	99.75
487.735	90.75
487.953	79.75
488.171	83.75
488.389	75.75
488.607	98.75
488.825	90.75
489.043	76.75
489.261	79.75
489.479	82.75
489.696	83.75
489.914	82.75
490.132	75.75
490.35	81.75
490.568	72.75
490.786	80.75
491.003	92.75
491.221	96.75
491.439	78.75
491.657	73.75
491.874	87.75
492.092	76.75
492.31	89.75
492.527	74.75
492.745	91.75
492.963	91.75
493.18	98.75
493.398	92.75
493.615	89.75
493.833	95.75
494.05	82.75
494.268	91.75
494.485	95.75
494.703	88.75
494.92	87.75
495.138	96.75
495.355	92.75
495.573	82.75
495.79	93.75
496.008	79.75
496.225	81.75
496.442	89.75
496.66	81.75
496.877	88.75
497.094	94.75
497.312	82.75
497.529	88.75
497.746	83.75
497.963	75.75
498.181	85.75
498.398	90.75
498.615	92.75
498.832	102.75
499.049	88.75
499.267	98.75
499.484	99.75
499.701	81.75
499.918	76.75
500.135	87.75
500.352	95.75
500.569	74.75
500.786	90.75
501.003	76.75
501.22	91.75
501.437	88.75
501.654	97.75
501.871	95.75
502.088	91.75
502.305	98.75
502.522	92.75
502.739	96.75
502.956	104.75
503.172	80.75
503.389	92.75
503.606	106.75
503.823	72.75
504.04	93.75
504.256	82.75
504.473	81.75
504.69	87.75
504.907	94.75
505.123	72.75
505.34	104.75
505.557	89.75
505.773	88.75
505.99	94.75
506.207	86.75
506.423	83.75
506.64	86.75
506.856	72.75
507.073	90.75
507.289	79.75
507.506	92.75
507.722	99.75
507.939	102.75
508.155	86.75
508.372	92.75
508.588	95.75
508.805	91.75
509.021	95.75
509.238	79.75
509.454	91.75
509.67	76.75
509.887	104.75
510.103	119.75
510.319	186.75
510.536	686.75
510.752	2120.75
510.968	584.75
511.184	141.75
511.401	109.75
511.617	98.75
511.833	90.75
512.049	94.75
512.265	89.75
512.481	90.75
512.698	104.75
512.914	91.75
513.13	86.75
513.346	89.75
513.562	89.75
513.778	91.75
513.994	88.75
514.21	90.75
514.426	106.75
514.642	110.75
514.858	108.75
515.074	156.75
515.29	402.75
515.506	1250.75
515.721	470.75
515.937	150.75
516.153	121.75
516.369	94.75
516.585	93.75
516.801	94.75
517.016	75.75
