Data from Circ_1994_H10_HRD10591_00062.txt Node
Date: Wed Jan 03 11:40:42 EST 2024
User: Yrep
Spectrometer: HR+D1059
Trigger mode: 1
Integration Time (sec): 1.000000E-1
Scans to average: 1
Electric dark correction enabled: true
Nonlinearity correction enabled: false
Boxcar width: 0
XAxis mode: Wavelengths
Number of Pixels in Spectrum: 2048
>>>>>Begin Spectral Data<<<<<
223.165	-19.56
223.4	-19.56
223.635	-19.56
223.869	-16.56
224.104	-16.56
224.338	-19.56
224.573	-18.56
224.808	-7.56
225.042	-23.56
225.277	-3.56
225.511	7.44
225.746	2.44
225.98	-1.56
226.215	15.44
226.449	24.44
226.683	27.44
226.918	25.44
227.152	24.44
227.387	28.44
227.621	59.44
227.856	41.44
228.09	43.44
228.324	50.44
228.559	68.44
228.793	71.44
229.027	83.44
229.262	75.44
229.496	84.44
229.73	85.44
229.964	82.44
230.199	77.44
230.433	80.44
230.667	79.44
230.901	86.44
231.136	95.44
231.37	81.44
231.604	87.44
231.838	96.44
232.072	89.44
232.306	87.44
232.541	82.44
232.775	95.44
233.009	87.44
233.243	82.44
233.477	92.44
233.711	70.44
233.945	84.44
234.179	90.44
234.413	98.44
234.647	89.44
234.881	85.44
235.115	101.44
235.349	78.44
235.583	82.44
235.817	71.44
236.051	83.44
236.285	107.44
236.519	91.44
236.753	96.44
236.987	89.44
237.221	87.44
237.455	106.44
237.689	81.44
237.922	85.44
238.156	77.44
238.39	98.44
238.624	74.44
238.858	86.44
239.091	92.44
239.325	88.44
239.559	82.44
239.793	84.44
240.027	95.44
240.26	90.44
240.494	83.44
240.728	89.44
240.961	84.44
241.195	68.44
241.429	77.44
241.662	82.44
241.896	85.44
242.13	80.44
242.363	88.44
242.597	75.44
242.83	92.44
243.064	76.44
243.298	70.44
243.531	75.44
243.765	92.44
243.998	85.44
244.232	99.44
244.465	88.44
244.699	100.44
244.932	78.44
245.166	85.44
245.399	84.44
245.633	78.44
245.866	91.44
246.099	78.44
246.333	79.44
246.566	89.44
246.8	71.44
247.033	74.44
247.266	77.44
247.5	91.44
247.733	89.44
247.966	84.44
248.2	82.44
248.433	85.44
248.666	71.44
248.899	78.44
249.133	98.44
249.366	106.44
249.599	109.44
249.832	75.44
250.066	83.44
250.299	89.44
250.532	86.44
250.765	77.44
250.998	90.44
251.231	77.44
251.465	83.44
251.698	82.44
251.931	73.44
252.164	92.44
252.397	79.44
252.63	83.44
252.863	87.44
253.096	93.44
253.329	87.44
253.562	93.44
253.795	92.44
254.028	84.44
254.261	86.44
254.494	81.44
254.727	73.44
254.96	86.44
255.193	87.44
255.426	93.44
255.659	75.44
255.892	81.44
256.124	83.44
256.357	75.44
256.59	83.44
256.823	97.44
257.056	88.44
257.289	92.44
257.521	83.44
257.754	86.44
257.987	86.44
258.22	89.44
258.452	89.44
258.685	75.44
258.918	86.44
259.151	98.44
259.383	102.44
259.616	83.44
259.849	85.44
260.081	71.44
260.314	87.44
260.547	89.44
260.779	93.44
261.012	81.44
261.244	86.44
261.477	92.44
261.71	88.44
261.942	97.44
262.175	121.44
262.407	87.44
262.64	92.44
262.872	92.44
263.105	96.44
263.337	83.44
263.57	77.44
263.802	93.44
264.035	105.44
264.267	92.44
264.499	86.44
264.732	78.44
264.964	84.44
265.197	85.44
265.429	101.44
265.661	93.44
265.894	100.44
266.126	77.44
266.358	86.44
266.591	92.44
266.823	83.44
267.055	91.44
267.287	97.44
267.52	97.44
267.752	83.44
267.984	79.44
268.216	97.44
268.448	91.44
268.681	89.44
268.913	90.44
269.145	95.44
269.377	89.44
269.609	95.44
269.841	80.44
270.073	81.44
270.306	77.44
270.538	87.44
270.77	73.44
271.002	88.44
271.234	84.44
271.466	103.44
271.698	99.44
271.93	74.44
272.162	97.44
272.394	98.44
272.626	86.44
272.858	92.44
273.09	90.44
273.322	90.44
273.553	102.44
273.785	99.44
274.017	93.44
274.249	96.44
274.481	95.44
274.713	103.44
274.945	91.44
275.176	91.44
275.408	81.44
275.64	82.44
275.872	86.44
276.104	103.44
276.335	103.44
276.567	100.44
276.799	103.44
277.031	103.44
277.262	101.44
277.494	107.44
277.726	98.44
277.957	89.44
278.189	80.44
278.421	89.44
278.652	106.44
278.884	111.44
279.115	93.44
279.347	86.44
279.579	88.44
279.81	80.44
280.042	103.44
280.273	86.44
280.505	95.44
280.736	85.44
280.968	73.44
281.199	90.44
281.431	106.44
281.662	85.44
281.894	91.44
282.125	108.44
282.356	127.44
282.588	141.44
282.819	121.44
283.051	107.44
283.282	101.44
283.513	107.44
283.745	86.44
283.976	84.44
284.207	90.44
284.439	80.44
284.67	94.44
284.901	97.44
285.132	99.44
285.364	93.44
285.595	89.44
285.826	100.44
286.057	84.44
286.288	78.44
286.52	94.44
286.751	95.44
286.982	91.44
287.213	93.44
287.444	89.44
287.675	105.44
287.906	103.44
288.138	90.44
288.369	89.44
288.6	98.44
288.831	88.44
289.062	84.44
289.293	102.44
289.524	99.44
289.755	92.44
289.986	93.44
290.217	90.44
290.448	95.44
290.679	94.44
290.91	98.44
291.141	90.44
291.371	95.44
291.602	91.44
291.833	92.44
292.064	94.44
292.295	98.44
292.526	94.44
292.757	90.44
292.987	105.44
293.218	100.44
293.449	101.44
293.68	90.44
293.91	103.44
294.141	99.44
294.372	95.44
294.603	96.44
294.833	81.44
295.064	100.44
295.295	105.44
295.525	95.44
295.756	108.44
295.987	115.44
296.217	158.44
296.448	109.44
296.679	91.44
296.909	104.44
297.14	106.44
297.37	90.44
297.601	104.44
297.831	82.44
298.062	92.44
298.292	89.44
298.523	87.44
298.753	95.44
298.984	99.44
299.214	101.44
299.445	97.44
299.675	107.44
299.905	96.44
300.136	106.44
300.366	93.44
300.597	104.44
300.827	101.44
301.057	110.44
301.288	105.44
301.518	107.44
301.748	95.44
301.979	109.44
302.209	95.44
302.439	104.44
302.669	80.44
302.9	91.44
303.13	97.44
303.36	97.44
303.59	111.44
303.82	111.44
304.051	101.44
304.281	110.44
304.511	106.44
304.741	92.44
304.971	97.44
305.201	105.44
305.431	114.44
305.661	97.44
305.891	93.44
306.121	99.44
306.352	99.44
306.582	110.44
306.812	91.44
307.042	96.44
307.272	97.44
307.502	102.44
307.731	98.44
307.961	99.44
308.191	97.44
308.421	100.44
308.651	89.44
308.881	89.44
309.111	93.44
309.341	92.44
309.571	96.44
309.8	95.44
310.03	101.44
310.26	102.44
310.49	91.44
310.72	82.44
310.949	102.44
311.179	104.44
311.409	97.44
311.639	98.44
311.868	95.44
312.098	104.44
312.328	102.44
312.557	103.44
312.787	107.44
313.017	105.44
313.246	104.44
313.476	85.44
313.706	116.44
313.935	94.44
314.165	107.44
314.394	86.44
314.624	105.44
314.853	95.44
315.083	107.44
315.312	108.44
315.542	101.44
315.771	89.44
316.001	100.44
316.23	112.44
316.46	94.44
316.689	85.44
316.919	89.44
317.148	98.44
317.377	97.44
317.607	104.44
317.836	103.44
318.065	93.44
318.295	106.44
318.524	80.44
318.753	106.44
318.983	95.44
319.212	114.44
319.441	121.44
319.67	111.44
319.9	107.44
320.129	106.44
320.358	99.44
320.587	105.44
320.816	106.44
321.046	111.44
321.275	101.44
321.504	98.44
321.733	101.44
321.962	103.44
322.191	104.44
322.42	98.44
322.649	114.44
322.878	123.44
323.108	115.44
323.337	130.44
323.566	127.44
323.795	128.44
324.024	183.44
324.253	345.44
324.482	698.44
324.71	1422.44
324.939	1821.44
325.168	687.44
325.397	232.44
325.626	142.44
325.855	119.44
326.084	123.44
326.313	137.44
326.542	131.44
326.77	211.44
326.999	391.44
327.228	793.44
327.457	1383.44
327.686	1103.44
327.914	359.44
328.143	191.44
328.372	171.44
328.6	134.44
328.829	136.44
329.058	125.44
329.287	120.44
329.515	128.44
329.744	125.44
329.972	121.44
330.201	155.44
330.43	173.44
330.658	150.44
330.887	143.44
331.115	116.44
331.344	116.44
331.572	100.44
331.801	106.44
332.03	108.44
332.258	111.44
332.486	88.44
332.715	84.44
332.943	100.44
333.172	110.44
333.4	105.44
333.629	116.44
333.857	127.44
334.085	131.44
334.314	150.44
334.542	182.44
334.771	183.44
334.999	115.44
335.227	121.44
335.455	103.44
335.684	105.44
335.912	109.44
336.14	100.44
336.369	95.44
336.597	91.44
336.825	108.44
337.053	94.44
337.281	94.44
337.51	96.44
337.738	99.44
337.966	103.44
338.194	87.44
338.422	79.44
338.65	101.44
338.878	96.44
339.106	124.44
339.334	101.44
339.562	100.44
339.79	95.44
340.018	86.44
340.246	95.44
340.474	97.44
340.702	86.44
340.93	89.44
341.158	79.44
341.386	99.44
341.614	107.44
341.842	95.44
342.07	93.44
342.298	101.44
342.526	78.44
342.754	103.44
342.981	91.44
343.209	110.44
343.437	110.44
343.665	90.44
343.893	89.44
344.12	101.44
344.348	96.44
344.576	92.44
344.804	99.44
345.031	100.44
345.259	91.44
345.487	99.44
345.714	99.44
345.942	106.44
346.17	103.44
346.397	101.44
346.625	78.44
346.853	101.44
347.08	85.44
347.308	109.44
347.535	95.44
347.763	111.44
347.99	88.44
348.218	106.44
348.445	107.44
348.673	96.44
348.9	101.44
349.128	97.44
349.355	102.44
349.583	90.44
349.81	100.44
350.037	91.44
350.265	104.44
350.492	81.44
350.72	96.44
350.947	83.44
351.174	128.44
351.402	118.44
351.629	121.44
351.856	109.44
352.083	110.44
352.311	127.44
352.538	111.44
352.765	110.44
352.992	122.44
353.22	112.44
353.447	100.44
353.674	107.44
353.901	114.44
354.128	101.44
354.355	100.44
354.583	100.44
354.81	112.44
355.037	101.44
355.264	97.44
355.491	108.44
355.718	110.44
355.945	105.44
356.172	104.44
356.399	99.44
356.626	87.44
356.853	93.44
357.08	90.44
357.307	101.44
357.534	90.44
357.761	94.44
357.988	118.44
358.215	102.44
358.441	88.44
358.668	99.44
358.895	100.44
359.122	87.44
359.349	93.44
359.576	97.44
359.802	106.44
360.029	123.44
360.256	112.44
360.483	93.44
360.709	95.44
360.936	92.44
361.163	89.44
361.39	100.44
361.616	103.44
361.843	89.44
362.07	105.44
362.296	105.44
362.523	102.44
362.749	89.44
362.976	95.44
363.203	97.44
363.429	88.44
363.656	108.44
363.882	97.44
364.109	89.44
364.335	101.44
364.562	97.44
364.788	95.44
365.015	101.44
365.241	105.44
365.468	121.44
365.694	97.44
365.92	100.44
366.147	105.44
366.373	93.44
366.599	93.44
366.826	95.44
367.052	79.44
367.278	87.44
367.505	86.44
367.731	92.44
367.957	95.44
368.184	104.44
368.41	111.44
368.636	111.44
368.862	137.44
369.089	104.44
369.315	110.44
369.541	109.44
369.767	101.44
369.993	98.44
370.219	101.44
370.445	88.44
370.672	98.44
370.898	99.44
371.124	89.44
371.35	98.44
371.576	103.44
371.802	101.44
372.028	99.44
372.254	102.44
372.48	92.44
372.706	96.44
372.932	95.44
373.158	103.44
373.384	102.44
373.61	103.44
373.835	88.44
374.061	95.44
374.287	97.44
374.513	82.44
374.739	86.44
374.965	87.44
375.191	95.44
375.416	99.44
375.642	89.44
375.868	90.44
376.094	89.44
376.319	82.44
376.545	93.44
376.771	107.44
376.997	104.44
377.222	98.44
377.448	99.44
377.674	99.44
377.899	92.44
378.125	91.44
378.35	105.44
378.576	105.44
378.802	96.44
379.027	102.44
379.253	105.44
379.478	102.44
379.704	90.44
379.929	83.44
380.155	90.44
380.38	89.44
380.606	92.44
380.831	83.44
381.057	103.44
381.282	107.44
381.507	101.44
381.733	94.44
381.958	85.44
382.184	120.44
382.409	80.44
382.634	89.44
382.86	100.44
383.085	107.44
383.31	117.44
383.535	99.44
383.761	101.44
383.986	94.44
384.211	109.44
384.436	98.44
384.662	108.44
384.887	111.44
385.112	98.44
385.337	108.44
385.562	105.44
385.787	102.44
386.013	104.44
386.238	115.44
386.463	112.44
386.688	105.44
386.913	95.44
387.138	117.44
387.363	106.44
387.588	98.44
387.813	101.44
388.038	101.44
388.263	108.44
388.488	110.44
388.713	106.44
388.938	102.44
389.163	108.44
389.387	97.44
389.612	98.44
389.837	106.44
390.062	93.44
390.287	93.44
390.512	101.44
390.736	96.44
390.961	96.44
391.186	102.44
391.411	109.44
391.636	88.44
391.86	98.44
392.085	84.44
392.31	94.44
392.534	86.44
392.759	95.44
392.984	93.44
393.208	95.44
393.433	89.44
393.658	94.44
393.882	74.44
394.107	93.44
394.331	88.44
394.556	86.44
394.78	100.44
395.005	99.44
395.229	91.44
395.454	99.44
395.678	97.44
395.903	104.44
396.127	103.44
396.352	102.44
396.576	97.44
396.801	85.44
397.025	93.44
397.249	91.44
397.474	98.44
397.698	96.44
397.922	95.44
398.147	89.44
398.371	70.44
398.595	90.44
398.82	104.44
399.044	97.44
399.268	94.44
399.492	93.44
399.717	92.44
399.941	112.44
400.165	85.44
400.389	86.44
400.613	107.44
400.837	88.44
401.062	87.44
401.286	108.44
401.51	101.44
401.734	89.44
401.958	109.44
402.182	109.44
402.406	152.44
402.63	113.44
402.854	99.44
403.078	103.44
403.302	92.44
403.526	102.44
403.75	104.44
403.974	89.44
404.198	102.44
404.422	74.44
404.645	106.44
404.869	109.44
405.093	92.44
405.317	99.44
405.541	105.44
405.765	103.44
405.988	126.44
406.212	178.44
406.436	236.44
406.66	157.44
406.883	103.44
407.107	111.44
407.331	96.44
407.555	109.44
407.778	97.44
408.002	102.44
408.226	98.44
408.449	84.44
408.673	82.44
408.896	98.44
409.12	92.44
409.344	105.44
409.567	93.44
409.791	94.44
410.014	90.44
410.238	95.44
410.461	94.44
410.685	91.44
410.908	75.44
411.132	109.44
411.355	97.44
411.578	90.44
411.802	87.44
412.025	103.44
412.249	91.44
412.472	77.44
412.695	103.44
412.919	104.44
413.142	95.44
413.365	98.44
413.589	97.44
413.812	93.44
414.035	92.44
414.258	81.44
414.482	110.44
414.705	89.44
414.928	92.44
415.151	87.44
415.374	107.44
415.597	93.44
415.821	83.44
416.044	95.44
416.267	102.44
416.49	97.44
416.713	84.44
416.936	95.44
417.159	102.44
417.382	97.44
417.605	103.44
417.828	103.44
418.051	89.44
418.274	95.44
418.497	89.44
418.72	81.44
418.943	89.44
419.166	100.44
419.389	89.44
419.611	103.44
419.834	97.44
420.057	89.44
420.28	97.44
420.503	96.44
420.726	82.44
420.948	78.44
421.171	100.44
421.394	101.44
421.617	90.44
421.839	97.44
422.062	100.44
422.285	109.44
422.507	108.44
422.73	125.44
422.953	92.44
423.175	91.44
423.398	105.44
423.621	90.44
423.843	89.44
424.066	80.44
424.288	104.44
424.511	98.44
424.733	105.44
424.956	101.44
425.178	81.44
425.401	113.44
425.623	97.44
425.846	90.44
426.068	85.44
426.291	85.44
426.513	96.44
426.735	88.44
426.958	117.44
427.18	93.44
427.402	133.44
427.625	166.44
427.847	129.44
428.069	117.44
428.292	89.44
428.514	95.44
428.736	89.44
428.958	88.44
429.181	83.44
429.403	93.44
429.625	80.44
429.847	87.44
430.069	110.44
430.292	72.44
430.514	86.44
430.736	74.44
430.958	84.44
431.18	94.44
431.402	87.44
431.624	80.44
431.846	93.44
432.068	84.44
432.29	97.44
432.512	93.44
432.734	81.44
432.956	96.44
433.178	83.44
433.4	90.44
433.622	93.44
433.844	104.44
434.066	111.44
434.287	93.44
434.509	95.44
434.731	93.44
434.953	97.44
435.175	103.44
435.397	94.44
435.618	102.44
435.84	109.44
436.062	115.44
436.284	102.44
436.505	102.44
436.727	107.44
436.949	84.44
437.17	89.44
437.392	98.44
437.614	104.44
437.835	106.44
438.057	119.44
438.278	104.44
438.5	118.44
438.721	144.44
438.943	109.44
439.165	91.44
439.386	94.44
439.608	104.44
439.829	104.44
440.05	120.44
440.272	135.44
440.493	98.44
440.715	91.44
440.936	82.44
441.158	95.44
441.379	97.44
441.6	94.44
441.822	101.44
442.043	99.44
442.264	103.44
442.486	105.44
442.707	102.44
442.928	95.44
443.149	127.44
443.371	118.44
443.592	97.44
443.813	106.44
444.034	114.44
444.255	101.44
444.476	97.44
444.698	90.44
444.919	92.44
445.14	126.44
445.361	118.44
445.582	129.44
445.803	134.44
446.024	136.44
446.245	127.44
446.466	107.44
446.687	94.44
446.908	97.44
447.129	102.44
447.35	98.44
447.571	96.44
447.792	113.44
448.013	112.44
448.234	104.44
448.455	103.44
448.675	111.44
448.896	114.44
449.117	99.44
449.338	109.44
449.559	117.44
449.779	115.44
450	104.44
450.221	97.44
450.442	96.44
450.662	105.44
450.883	97.44
451.104	118.44
451.324	89.44
451.545	97.44
451.766	80.44
451.986	94.44
452.207	80.44
452.428	89.44
452.648	117.44
452.869	118.44
453.089	112.44
453.31	119.44
453.53	103.44
453.751	99.44
453.971	100.44
454.192	114.44
454.412	90.44
454.633	81.44
454.853	86.44
455.073	82.44
455.294	99.44
455.514	126.44
455.734	92.44
455.955	85.44
456.175	79.44
456.395	77.44
456.616	82.44
456.836	110.44
457.056	86.44
457.276	88.44
457.497	78.44
457.717	97.44
457.937	96.44
458.157	98.44
458.377	98.44
458.598	103.44
458.818	161.44
459.038	144.44
459.258	107.44
459.478	100.44
459.698	91.44
459.918	100.44
460.138	90.44
460.358	96.44
460.578	87.44
460.798	99.44
461.018	95.44
461.238	75.44
461.458	90.44
461.678	83.44
461.898	81.44
462.118	93.44
462.338	90.44
462.558	80.44
462.777	84.44
462.997	88.44
463.217	82.44
463.437	89.44
463.657	87.44
463.876	103.44
464.096	97.44
464.316	91.44
464.536	99.44
464.755	97.44
464.975	96.44
465.195	141.44
465.414	154.44
465.634	103.44
465.854	80.44
466.073	82.44
466.293	97.44
466.512	98.44
466.732	85.44
466.951	89.44
467.171	95.44
467.391	97.44
467.61	106.44
467.829	107.44
468.049	118.44
468.268	130.44
468.488	97.44
468.707	84.44
468.927	85.44
469.146	99.44
469.365	108.44
469.585	93.44
469.804	93.44
470.023	105.44
470.243	104.44
470.462	107.44
470.681	106.44
470.901	94.44
471.12	81.44
471.339	102.44
471.558	91.44
471.777	109.44
471.997	100.44
472.216	152.44
472.435	223.44
472.654	105.44
472.873	106.44
473.092	96.44
473.311	89.44
473.53	105.44
473.749	86.44
473.968	100.44
474.187	84.44
474.406	109.44
474.625	89.44
474.844	105.44
475.063	102.44
475.282	85.44
475.501	94.44
475.72	97.44
475.939	80.44
476.158	85.44
476.377	95.44
476.596	80.44
476.814	102.44
477.033	86.44
477.252	100.44
477.471	98.44
477.69	94.44
477.908	90.44
478.127	102.44
478.346	106.44
478.564	101.44
478.783	93.44
479.002	106.44
479.22	99.44
479.439	93.44
479.658	115.44
479.876	90.44
480.095	100.44
480.313	100.44
480.532	89.44
480.751	109.44
480.969	167.44
481.188	373.44
481.406	240.44
481.624	117.44
481.843	95.44
482.061	88.44
482.28	91.44
482.498	97.44
482.717	95.44
482.935	80.44
483.153	99.44
483.372	90.44
483.59	98.44
483.808	107.44
484.027	103.44
484.245	93.44
484.463	90.44
484.681	105.44
484.9	103.44
485.118	95.44
485.336	113.44
485.554	100.44
485.772	104.44
485.99	112.44
486.209	112.44
486.427	103.44
486.645	121.44
486.863	114.44
487.081	105.44
487.299	113.44
487.517	106.44
487.735	105.44
487.953	89.44
488.171	85.44
488.389	110.44
488.607	89.44
488.825	91.44
489.043	82.44
489.261	83.44
489.479	91.44
489.696	94.44
489.914	106.44
490.132	94.44
490.35	90.44
490.568	91.44
490.786	99.44
491.003	90.44
491.221	98.44
491.439	104.44
491.657	97.44
491.874	105.44
492.092	107.44
492.31	93.44
492.527	83.44
492.745	99.44
492.963	84.44
493.18	87.44
493.398	102.44
493.615	107.44
493.833	111.44
494.05	91.44
494.268	80.44
494.485	85.44
494.703	96.44
494.92	92.44
495.138	87.44
495.355	98.44
495.573	85.44
495.79	97.44
496.008	107.44
496.225	84.44
496.442	84.44
496.66	92.44
496.877	90.44
497.094	97.44
497.312	103.44
497.529	91.44
497.746	97.44
497.963	90.44
498.181	92.44
498.398	99.44
498.615	97.44
498.832	107.44
499.049	89.44
499.267	75.44
499.484	80.44
499.701	107.44
499.918	108.44
500.135	98.44
500.352	95.44
500.569	94.44
500.786	100.44
501.003	95.44
501.22	89.44
501.437	94.44
501.654	104.44
501.871	103.44
502.088	90.44
502.305	93.44
502.522	93.44
502.739	93.44
502.956	86.44
503.172	98.44
503.389	90.44
503.606	94.44
503.823	94.44
504.04	85.44
504.256	92.44
504.473	83.44
504.69	91.44
504.907	102.44
505.123	88.44
505.34	98.44
505.557	87.44
505.773	96.44
505.99	89.44
506.207	81.44
506.423	93.44
506.64	87.44
506.856	103.44
507.073	98.44
507.289	100.44
507.506	93.44
507.722	106.44
507.939	107.44
508.155	95.44
508.372	89.44
508.588	103.44
508.805	104.44
509.021	93.44
509.238	137.44
509.454	111.44
509.67	98.44
509.887	100.44
510.103	136.44
510.319	205.44
510.536	787.44
510.752	2433.44
510.968	688.44
511.184	171.44
511.401	107.44
511.617	109.44
511.833	102.44
512.049	98.44
512.265	99.44
512.481	98.44
512.698	104.44
512.914	89.44
