Data from Circ_1994_H10_HRD10591_00028.txt Node
Date: Wed Jan 03 11:40:36 EST 2024
User: Yrep
Spectrometer: HR+D1059
Trigger mode: 1
Integration Time (sec): 1.000000E-1
Scans to average: 1
Electric dark correction enabled: true
Nonlinearity correction enabled: false
Boxcar width: 0
XAxis mode: Wavelengths
Number of Pixels in Spectrum: 2048
>>>>>Begin Spectral Data<<<<<
223.165	-30.06
223.4	-30.06
223.635	-30.06
223.869	-26.06
224.104	-16.06
224.338	-21.06
224.573	-16.06
224.808	-9.06
225.042	-12.06
225.277	6.94
225.511	3.94
225.746	14.94
225.98	20.94
226.215	1.94
226.449	9.94
226.683	17.94
226.918	20.94
227.152	32.94
227.387	40.94
227.621	43.94
227.856	47.94
228.09	55.94
228.324	64.94
228.559	59.94
228.793	68.94
229.027	67.94
229.262	56.94
229.496	67.94
229.73	91.94
229.964	71.94
230.199	66.94
230.433	79.94
230.667	73.94
230.901	83.94
231.136	81.94
231.37	69.94
231.604	80.94
231.838	87.94
232.072	76.94
232.306	80.94
232.541	98.94
232.775	79.94
233.009	78.94
233.243	85.94
233.477	63.94
233.711	84.94
233.945	77.94
234.179	71.94
234.413	72.94
234.647	76.94
234.881	76.94
235.115	68.94
235.349	89.94
235.583	84.94
235.817	76.94
236.051	85.94
236.285	80.94
236.519	74.94
236.753	75.94
236.987	69.94
237.221	72.94
237.455	75.94
237.689	82.94
237.922	93.94
238.156	65.94
238.39	77.94
238.624	76.94
238.858	75.94
239.091	77.94
239.325	67.94
239.559	77.94
239.793	85.94
240.027	81.94
240.26	95.94
240.494	75.94
240.728	67.94
240.961	75.94
241.195	78.94
241.429	77.94
241.662	80.94
241.896	80.94
242.13	82.94
242.363	67.94
242.597	68.94
242.83	76.94
243.064	66.94
243.298	75.94
243.531	74.94
243.765	66.94
243.998	73.94
244.232	93.94
244.465	81.94
244.699	78.94
244.932	75.94
245.166	76.94
245.399	78.94
245.633	78.94
245.866	72.94
246.099	73.94
246.333	79.94
246.566	96.94
246.8	89.94
247.033	73.94
247.266	92.94
247.5	83.94
247.733	71.94
247.966	95.94
248.2	81.94
248.433	74.94
248.666	72.94
248.899	88.94
249.133	90.94
249.366	97.94
249.599	88.94
249.832	83.94
250.066	87.94
250.299	83.94
250.532	76.94
250.765	69.94
250.998	90.94
251.231	79.94
251.465	79.94
251.698	74.94
251.931	81.94
252.164	83.94
252.397	73.94
252.63	83.94
252.863	78.94
253.096	89.94
253.329	80.94
253.562	75.94
253.795	73.94
254.028	73.94
254.261	84.94
254.494	76.94
254.727	75.94
254.96	93.94
255.193	99.94
255.426	87.94
255.659	76.94
255.892	85.94
256.124	80.94
256.357	68.94
256.59	68.94
256.823	82.94
257.056	85.94
257.289	79.94
257.521	64.94
257.754	59.94
257.987	79.94
258.22	85.94
258.452	85.94
258.685	90.94
258.918	82.94
259.151	85.94
259.383	82.94
259.616	82.94
259.849	71.94
260.081	91.94
260.314	79.94
260.547	92.94
260.779	87.94
261.012	87.94
261.244	88.94
261.477	81.94
261.71	90.94
261.942	106.94
262.175	115.94
262.407	102.94
262.64	81.94
262.872	83.94
263.105	88.94
263.337	80.94
263.57	75.94
263.802	77.94
264.035	80.94
264.267	79.94
264.499	80.94
264.732	78.94
264.964	88.94
265.197	94.94
265.429	77.94
265.661	73.94
265.894	79.94
266.126	83.94
266.358	80.94
266.591	75.94
266.823	77.94
267.055	90.94
267.287	84.94
267.52	87.94
267.752	101.94
267.984	81.94
268.216	82.94
268.448	85.94
268.681	85.94
268.913	91.94
269.145	78.94
269.377	81.94
269.609	91.94
269.841	87.94
270.073	80.94
270.306	83.94
270.538	75.94
270.77	60.94
271.002	81.94
271.234	84.94
271.466	96.94
271.698	87.94
271.93	76.94
272.162	87.94
272.394	79.94
272.626	85.94
272.858	80.94
273.09	82.94
273.322	76.94
273.553	85.94
273.785	93.94
274.017	93.94
274.249	77.94
274.481	71.94
274.713	88.94
274.945	83.94
275.176	108.94
275.408	76.94
275.64	95.94
275.872	81.94
276.104	83.94
276.335	95.94
276.567	85.94
276.799	102.94
277.031	92.94
277.262	90.94
277.494	100.94
277.726	91.94
277.957	84.94
278.189	72.94
278.421	86.94
278.652	90.94
278.884	81.94
279.115	77.94
279.347	81.94
279.579	91.94
279.81	83.94
280.042	93.94
280.273	96.94
280.505	95.94
280.736	80.94
280.968	84.94
281.199	101.94
281.431	89.94
281.662	77.94
281.894	88.94
282.125	77.94
282.356	115.94
282.588	125.94
282.819	108.94
283.051	88.94
283.282	68.94
283.513	85.94
283.745	95.94
283.976	93.94
284.207	98.94
284.439	77.94
284.67	69.94
284.901	78.94
285.132	84.94
285.364	88.94
285.595	92.94
285.826	81.94
286.057	91.94
286.288	79.94
286.52	87.94
286.751	77.94
286.982	84.94
287.213	102.94
287.444	100.94
287.675	84.94
287.906	85.94
288.138	92.94
288.369	95.94
288.6	76.94
288.831	100.94
289.062	94.94
289.293	92.94
289.524	106.94
289.755	83.94
289.986	83.94
290.217	86.94
290.448	76.94
290.679	90.94
290.91	89.94
291.141	77.94
291.371	94.94
291.602	84.94
291.833	76.94
292.064	83.94
292.295	82.94
292.526	99.94
292.757	92.94
292.987	99.94
293.218	79.94
293.449	92.94
293.68	92.94
293.91	97.94
294.141	90.94
294.372	91.94
294.603	74.94
294.833	84.94
295.064	80.94
295.295	83.94
295.525	83.94
295.756	100.94
295.987	127.94
296.217	126.94
296.448	128.94
296.679	91.94
296.909	89.94
297.14	89.94
297.37	98.94
297.601	85.94
297.831	93.94
298.062	85.94
298.292	92.94
298.523	86.94
298.753	83.94
298.984	106.94
299.214	96.94
299.445	104.94
299.675	99.94
299.905	92.94
300.136	91.94
300.366	92.94
300.597	80.94
300.827	92.94
301.057	96.94
301.288	96.94
301.518	90.94
301.748	76.94
301.979	105.94
302.209	96.94
302.439	86.94
302.669	77.94
302.9	77.94
303.13	88.94
303.36	91.94
303.59	108.94
303.82	108.94
304.051	101.94
304.281	93.94
304.511	97.94
304.741	82.94
304.971	94.94
305.201	94.94
305.431	94.94
305.661	85.94
305.891	90.94
306.121	94.94
306.352	93.94
306.582	114.94
306.812	84.94
307.042	98.94
307.272	107.94
307.502	98.94
307.731	97.94
307.961	84.94
308.191	90.94
308.421	93.94
308.651	92.94
308.881	108.94
309.111	99.94
309.341	92.94
309.571	92.94
309.8	99.94
310.03	90.94
310.26	96.94
310.49	94.94
310.72	100.94
310.949	96.94
311.179	96.94
311.409	93.94
311.639	80.94
311.868	90.94
312.098	112.94
312.328	80.94
312.557	92.94
312.787	105.94
313.017	100.94
313.246	87.94
313.476	93.94
313.706	92.94
313.935	92.94
314.165	104.94
314.394	99.94
314.624	89.94
314.853	101.94
315.083	90.94
315.312	87.94
315.542	89.94
315.771	92.94
316.001	85.94
316.23	83.94
316.46	92.94
316.689	91.94
316.919	86.94
317.148	90.94
317.377	99.94
317.607	90.94
317.836	89.94
318.065	92.94
318.295	78.94
318.524	83.94
318.753	97.94
318.983	94.94
319.212	104.94
319.441	111.94
319.67	110.94
319.9	100.94
320.129	95.94
320.358	89.94
320.587	92.94
320.816	89.94
321.046	98.94
321.275	105.94
321.504	107.94
321.733	89.94
321.962	92.94
322.191	90.94
322.42	105.94
322.649	110.94
322.878	90.94
323.108	110.94
323.337	119.94
323.566	139.94
323.795	143.94
324.024	193.94
324.253	354.94
324.482	697.94
324.71	1369.94
324.939	1845.94
325.168	695.94
325.397	229.94
325.626	143.94
325.855	116.94
326.084	120.94
326.313	122.94
326.542	139.94
326.77	205.94
326.999	395.94
327.228	810.94
327.457	1443.94
327.686	1159.94
327.914	319.94
328.143	206.94
328.372	157.94
328.6	118.94
328.829	97.94
329.058	122.94
329.287	114.94
329.515	109.94
329.744	95.94
329.972	124.94
330.201	130.94
330.43	140.94
330.658	127.94
330.887	145.94
331.115	110.94
331.344	111.94
331.572	109.94
331.801	99.94
332.03	91.94
332.258	97.94
332.486	85.94
332.715	93.94
332.943	105.94
333.172	90.94
333.4	94.94
333.629	99.94
333.857	104.94
334.085	111.94
334.314	119.94
334.542	130.94
334.771	135.94
334.999	95.94
335.227	114.94
335.455	95.94
335.684	107.94
335.912	95.94
336.14	95.94
336.369	94.94
336.597	100.94
336.825	112.94
337.053	88.94
337.281	75.94
337.51	83.94
337.738	90.94
337.966	104.94
338.194	84.94
338.422	91.94
338.65	92.94
338.878	94.94
339.106	81.94
339.334	95.94
339.562	92.94
339.79	95.94
340.018	93.94
340.246	84.94
340.474	76.94
340.702	84.94
340.93	75.94
341.158	96.94
341.386	93.94
341.614	100.94
341.842	96.94
342.07	90.94
342.298	90.94
342.526	89.94
342.754	77.94
342.981	87.94
343.209	82.94
343.437	93.94
343.665	89.94
343.893	94.94
344.12	96.94
344.348	96.94
344.576	89.94
344.804	89.94
345.031	80.94
345.259	105.94
345.487	112.94
345.714	85.94
345.942	89.94
346.17	89.94
346.397	85.94
346.625	85.94
346.853	101.94
347.08	89.94
347.308	89.94
347.535	98.94
347.763	107.94
347.99	92.94
348.218	116.94
348.445	89.94
348.673	93.94
348.9	94.94
349.128	87.94
349.355	88.94
349.583	88.94
349.81	98.94
350.037	96.94
350.265	89.94
350.492	88.94
350.72	87.94
350.947	97.94
351.174	99.94
351.402	97.94
351.629	93.94
351.856	99.94
352.083	112.94
352.311	110.94
352.538	97.94
352.765	109.94
352.992	105.94
353.22	118.94
353.447	99.94
353.674	96.94
353.901	86.94
354.128	84.94
354.355	105.94
354.583	96.94
354.81	81.94
355.037	91.94
355.264	103.94
355.491	91.94
355.718	108.94
355.945	93.94
356.172	80.94
356.399	88.94
356.626	104.94
356.853	104.94
357.08	94.94
357.307	81.94
357.534	85.94
357.761	100.94
357.988	102.94
358.215	91.94
358.441	83.94
358.668	79.94
358.895	94.94
359.122	106.94
359.349	110.94
359.576	89.94
359.802	88.94
360.029	115.94
360.256	88.94
360.483	103.94
360.709	89.94
360.936	88.94
361.163	98.94
361.39	97.94
361.616	103.94
361.843	79.94
362.07	99.94
362.296	96.94
362.523	80.94
362.749	95.94
362.976	87.94
363.203	93.94
363.429	89.94
363.656	100.94
363.882	85.94
364.109	89.94
364.335	95.94
364.562	91.94
364.788	85.94
365.015	99.94
365.241	79.94
365.468	99.94
365.694	103.94
365.92	93.94
366.147	94.94
366.373	88.94
366.599	80.94
366.826	88.94
367.052	88.94
367.278	77.94
367.505	95.94
367.731	100.94
367.957	98.94
368.184	85.94
368.41	98.94
368.636	95.94
368.862	116.94
369.089	107.94
369.315	102.94
369.541	79.94
369.767	95.94
369.993	89.94
370.219	78.94
370.445	75.94
370.672	91.94
370.898	106.94
371.124	87.94
371.35	84.94
371.576	84.94
371.802	81.94
372.028	79.94
372.254	79.94
372.48	88.94
372.706	92.94
372.932	84.94
373.158	89.94
373.384	97.94
373.61	89.94
373.835	90.94
374.061	92.94
374.287	78.94
374.513	89.94
374.739	82.94
374.965	93.94
375.191	95.94
375.416	96.94
375.642	84.94
375.868	83.94
376.094	85.94
376.319	90.94
376.545	71.94
376.771	79.94
376.997	84.94
377.222	85.94
377.448	84.94
377.674	88.94
377.899	80.94
378.125	106.94
378.35	83.94
378.576	95.94
378.802	86.94
379.027	104.94
379.253	88.94
379.478	102.94
379.704	94.94
379.929	88.94
380.155	89.94
380.38	85.94
380.606	92.94
380.831	86.94
381.057	105.94
381.282	98.94
381.507	77.94
381.733	91.94
381.958	91.94
382.184	88.94
382.409	96.94
382.634	98.94
382.86	96.94
383.085	93.94
383.31	88.94
383.535	98.94
383.761	101.94
383.986	102.94
384.211	106.94
384.436	81.94
384.662	109.94
384.887	92.94
385.112	106.94
385.337	109.94
385.562	107.94
385.787	97.94
386.013	106.94
386.238	111.94
386.463	82.94
386.688	106.94
386.913	101.94
387.138	91.94
387.363	101.94
387.588	97.94
387.813	102.94
388.038	96.94
388.263	101.94
388.488	97.94
388.713	87.94
388.938	94.94
389.163	97.94
389.387	99.94
389.612	98.94
389.837	87.94
390.062	83.94
390.287	79.94
390.512	84.94
390.736	89.94
390.961	94.94
391.186	87.94
391.411	94.94
391.636	84.94
391.86	87.94
392.085	91.94
392.31	80.94
392.534	81.94
392.759	92.94
392.984	84.94
393.208	93.94
393.433	92.94
393.658	89.94
393.882	87.94
394.107	84.94
394.331	73.94
394.556	79.94
394.78	85.94
395.005	111.94
395.229	84.94
395.454	89.94
395.678	97.94
395.903	76.94
396.127	94.94
396.352	92.94
396.576	80.94
396.801	94.94
397.025	81.94
397.249	81.94
397.474	88.94
397.698	78.94
397.922	75.94
398.147	73.94
398.371	84.94
398.595	93.94
398.82	92.94
399.044	100.94
399.268	78.94
399.492	74.94
399.717	75.94
399.941	77.94
400.165	85.94
400.389	84.94
400.613	85.94
400.837	80.94
401.062	83.94
401.286	74.94
401.51	79.94
401.734	79.94
401.958	79.94
402.182	110.94
402.406	151.94
402.63	116.94
402.854	97.94
403.078	76.94
403.302	73.94
403.526	89.94
403.75	76.94
403.974	89.94
404.198	90.94
404.422	96.94
404.645	82.94
404.869	83.94
405.093	99.94
405.317	97.94
405.541	95.94
405.765	101.94
405.988	101.94
406.212	155.94
406.436	211.94
406.66	130.94
406.883	99.94
407.107	93.94
407.331	100.94
407.555	91.94
407.778	83.94
408.002	81.94
408.226	107.94
408.449	91.94
408.673	95.94
408.896	88.94
409.12	88.94
409.344	90.94
409.567	92.94
409.791	105.94
410.014	86.94
410.238	77.94
410.461	91.94
410.685	84.94
410.908	100.94
411.132	98.94
411.355	98.94
411.578	101.94
411.802	74.94
412.025	75.94
412.249	80.94
412.472	93.94
412.695	79.94
412.919	89.94
413.142	97.94
413.365	95.94
413.589	91.94
413.812	83.94
414.035	89.94
414.258	81.94
414.482	91.94
414.705	113.94
414.928	87.94
415.151	89.94
415.374	89.94
415.597	88.94
415.821	65.94
416.044	65.94
416.267	81.94
416.49	91.94
416.713	86.94
416.936	81.94
417.159	97.94
417.382	85.94
417.605	90.94
417.828	80.94
418.051	90.94
418.274	102.94
418.497	78.94
418.72	89.94
418.943	97.94
419.166	77.94
419.389	88.94
419.611	92.94
419.834	89.94
420.057	71.94
420.28	74.94
420.503	73.94
420.726	102.94
420.948	79.94
421.171	93.94
421.394	96.94
421.617	83.94
421.839	81.94
422.062	94.94
422.285	93.94
422.507	91.94
422.73	107.94
422.953	84.94
423.175	89.94
423.398	76.94
423.621	75.94
423.843	92.94
424.066	90.94
424.288	72.94
424.511	93.94
424.733	72.94
424.956	99.94
425.178	97.94
425.401	99.94
425.623	89.94
425.846	82.94
426.068	91.94
426.291	98.94
426.513	74.94
426.735	77.94
426.958	83.94
427.18	101.94
427.402	114.94
427.625	146.94
427.847	125.94
428.069	96.94
428.292	95.94
428.514	86.94
428.736	81.94
428.958	89.94
429.181	87.94
429.403	74.94
429.625	91.94
429.847	83.94
430.069	92.94
430.292	79.94
430.514	87.94
430.736	83.94
430.958	94.94
431.18	77.94
431.402	79.94
431.624	85.94
431.846	82.94
432.068	81.94
432.29	90.94
432.512	93.94
432.734	91.94
432.956	93.94
433.178	100.94
433.4	83.94
433.622	90.94
433.844	89.94
434.066	96.94
434.287	96.94
434.509	89.94
434.731	91.94
434.953	96.94
435.175	83.94
435.397	76.94
435.618	91.94
435.84	96.94
436.062	98.94
436.284	88.94
436.505	101.94
436.727	102.94
436.949	91.94
437.17	85.94
437.392	95.94
437.614	100.94
437.835	105.94
438.057	120.94
438.278	101.94
438.5	96.94
438.721	117.94
438.943	96.94
439.165	89.94
439.386	79.94
439.608	88.94
439.829	98.94
440.05	92.94
440.272	117.94
440.493	84.94
440.715	88.94
440.936	84.94
441.158	88.94
441.379	87.94
441.6	80.94
441.822	87.94
442.043	86.94
442.264	106.94
442.486	101.94
442.707	84.94
442.928	104.94
443.149	117.94
443.371	121.94
443.592	108.94
443.813	97.94
444.034	102.94
444.255	92.94
444.476	83.94
444.698	84.94
444.919	89.94
445.14	117.94
445.361	122.94
445.582	100.94
445.803	140.94
446.024	125.94
446.245	128.94
446.466	107.94
446.687	93.94
446.908	79.94
447.129	83.94
447.35	93.94
447.571	83.94
447.792	83.94
448.013	69.94
448.234	103.94
448.455	82.94
448.675	106.94
448.896	115.94
449.117	95.94
449.338	86.94
449.559	106.94
449.779	111.94
450	92.94
450.221	89.94
450.442	90.94
450.662	83.94
450.883	84.94
451.104	97.94
451.324	79.94
451.545	79.94
451.766	78.94
451.986	76.94
452.207	80.94
452.428	100.94
452.648	101.94
452.869	100.94
453.089	100.94
453.31	112.94
453.53	94.94
453.751	101.94
453.971	92.94
454.192	85.94
454.412	92.94
454.633	80.94
454.853	82.94
455.073	78.94
455.294	74.94
455.514	89.94
455.734	95.94
455.955	84.94
456.175	90.94
456.395	80.94
456.616	88.94
456.836	79.94
457.056	68.94
457.276	88.94
457.497	94.94
457.717	86.94
457.937	87.94
458.157	92.94
458.377	91.94
458.598	90.94
458.818	132.94
459.038	122.94
459.258	116.94
459.478	95.94
459.698	76.94
459.918	95.94
460.138	87.94
460.358	90.94
460.578	69.94
460.798	90.94
461.018	87.94
461.238	94.94
461.458	96.94
461.678	92.94
461.898	92.94
462.118	98.94
462.338	84.94
462.558	88.94
462.777	71.94
462.997	88.94
463.217	91.94
463.437	79.94
463.657	83.94
463.876	97.94
464.096	84.94
464.316	77.94
464.536	87.94
464.755	82.94
464.975	105.94
465.195	169.94
465.414	145.94
465.634	89.94
465.854	90.94
466.073	92.94
466.293	95.94
466.512	90.94
466.732	101.94
466.951	89.94
467.171	92.94
467.391	92.94
467.61	91.94
467.829	86.94
468.049	82.94
468.268	89.94
468.488	92.94
468.707	86.94
468.927	72.94
469.146	94.94
469.365	84.94
469.585	90.94
469.804	92.94
470.023	107.94
470.243	96.94
470.462	107.94
470.681	107.94
470.901	86.94
471.12	83.94
471.339	83.94
471.558	85.94
471.777	83.94
471.997	89.94
472.216	99.94
472.435	140.94
472.654	91.94
472.873	97.94
473.092	67.94
473.311	89.94
473.53	91.94
473.749	92.94
473.968	89.94
474.187	93.94
474.406	96.94
474.625	82.94
474.844	86.94
475.063	77.94
475.282	76.94
475.501	81.94
475.72	96.94
475.939	86.94
476.158	84.94
476.377	92.94
476.596	100.94
476.814	88.94
477.033	77.94
477.252	83.94
477.471	72.94
477.69	80.94
477.908	86.94
478.127	94.94
478.346	80.94
478.564	79.94
478.783	102.94
479.002	83.94
479.22	94.94
479.439	106.94
479.658	106.94
479.876	82.94
480.095	93.94
480.313	92.94
480.532	105.94
480.751	89.94
480.969	109.94
481.188	219.94
481.406	160.94
481.624	86.94
481.843	99.94
482.061	91.94
482.28	97.94
482.498	83.94
482.717	85.94
482.935	86.94
483.153	87.94
483.372	80.94
483.59	85.94
483.808	79.94
484.027	89.94
484.245	94.94
484.463	85.94
484.681	105.94
484.9	95.94
485.118	101.94
485.336	86.94
485.554	83.94
485.772	88.94
485.99	106.94
486.209	103.94
486.427	103.94
486.645	111.94
486.863	110.94
487.081	101.94
487.299	97.94
487.517	89.94
487.735	96.94
487.953	99.94
488.171	97.94
488.389	102.94
488.607	89.94
488.825	85.94
489.043	79.94
489.261	80.94
489.479	91.94
489.696	84.94
489.914	76.94
490.132	95.94
490.35	82.94
490.568	85.94
490.786	93.94
491.003	98.94
491.221	83.94
491.439	93.94
491.657	92.94
491.874	87.94
492.092	96.94
492.31	91.94
492.527	94.94
492.745	93.94
492.963	88.94
493.18	88.94
493.398	100.94
493.615	89.94
493.833	92.94
494.05	92.94
494.268	78.94
494.485	99.94
494.703	83.94
494.92	88.94
495.138	73.94
495.355	98.94
495.573	73.94
495.79	88.94
496.008	99.94
496.225	94.94
496.442	108.94
496.66	88.94
496.877	96.94
497.094	87.94
497.312	81.94
497.529	89.94
497.746	88.94
497.963	87.94
498.181	103.94
498.398	104.94
498.615	107.94
498.832	92.94
499.049	78.94
499.267	78.94
499.484	85.94
499.701	74.94
499.918	95.94
500.135	85.94
500.352	97.94
500.569	86.94
500.786	99.94
501.003	91.94
501.22	93.94
501.437	75.94
501.654	96.94
501.871	108.94
502.088	79.94
502.305	79.94
502.522	99.94
502.739	90.94
502.956	80.94
503.172	76.94
503.389	91.94
503.606	100.94
503.823	111.94
504.04	95.94
504.256	81.94
504.473	88.94
504.69	89.94
504.907	99.94
505.123	91.94
505.34	97.94
505.557	89.94
505.773	96.94
505.99	93.94
506.207	89.94
506.423	90.94
506.64	75.94
506.856	103.94
507.073	83.94
507.289	83.94
507.506	97.94
507.722	107.94
507.939	101.94
508.155	82.94
508.372	97.94
508.588	92.94
508.805	87.94
509.021	91.94
509.238	101.94
509.454	97.94
509.67	102.94
509.887	108.94
510.103	109.94
510.319	199.94
510.536	735.94
510.752	2273.94
510.968	613.94
511.184	147.94
511.401	114.94
511.617	93.94
511.833	90.94
512.049	79.94
512.265	86.94
512.481	73.94
512.698	87.94
512.914	87.94
513.13	78.94
513.346	92.94
513.562	100.94
513.778	97.94
513.994	97.94
514.21	92.94
514.426	119.94
514.642	127.94
514.858	109.94
515.074	156.94
515.29	395.94
515.506	1289.94
515.721	485.94
515.937	134.94
516.153	99.94
516.369	94.94
516.585	92.94
