Data from Circ_1994_H10_HRD10591_00076.txt Node
Date: Wed Jan 03 11:40:45 EST 2024
User: Yrep
Spectrometer: HR+D1059
Trigger mode: 1
Integration Time (sec): 1.000000E-1
Scans to average: 1
Electric dark correction enabled: true
Nonlinearity correction enabled: false
Boxcar width: 0
XAxis mode: Wavelengths
Number of Pixels in Spectrum: 2048
>>>>>Begin Spectral Data<<<<<
223.165	-7.88
223.4	-7.88
223.635	-7.88
223.869	-12.88
224.104	-25.88
224.338	-26.88
224.573	-23.88
224.808	-2.88
225.042	-1.88
225.277	-0.88
225.511	-10.88
225.746	4.12
225.98	4.12
226.215	11.12
226.449	26.12
226.683	6.12
226.918	31.12
227.152	31.12
227.387	34.12
227.621	52.12
227.856	50.12
228.09	28.12
228.324	39.12
228.559	44.12
228.793	61.12
229.027	77.12
229.262	72.12
229.496	79.12
229.73	86.12
229.964	91.12
230.199	84.12
230.433	91.12
230.667	76.12
230.901	85.12
231.136	75.12
231.37	91.12
231.604	79.12
231.838	78.12
232.072	78.12
232.306	83.12
232.541	94.12
232.775	80.12
233.009	77.12
233.243	75.12
233.477	77.12
233.711	80.12
233.945	83.12
234.179	67.12
234.413	85.12
234.647	83.12
234.881	81.12
235.115	73.12
235.349	81.12
235.583	62.12
235.817	80.12
236.051	78.12
236.285	71.12
236.519	80.12
236.753	88.12
236.987	77.12
237.221	72.12
237.455	78.12
237.689	75.12
237.922	70.12
238.156	70.12
238.39	86.12
238.624	74.12
238.858	95.12
239.091	68.12
239.325	71.12
239.559	82.12
239.793	81.12
240.027	74.12
240.26	67.12
240.494	90.12
240.728	80.12
240.961	79.12
241.195	88.12
241.429	82.12
241.662	71.12
241.896	80.12
242.13	82.12
242.363	75.12
242.597	75.12
242.83	97.12
243.064	90.12
243.298	78.12
243.531	88.12
243.765	76.12
243.998	84.12
244.232	91.12
244.465	82.12
244.699	71.12
244.932	86.12
245.166	74.12
245.399	70.12
245.633	74.12
245.866	80.12
246.099	71.12
246.333	93.12
246.566	78.12
246.8	87.12
247.033	84.12
247.266	87.12
247.5	81.12
247.733	82.12
247.966	72.12
248.2	83.12
248.433	85.12
248.666	86.12
248.899	95.12
249.133	76.12
249.366	95.12
249.599	98.12
249.832	82.12
250.066	96.12
250.299	74.12
250.532	81.12
250.765	87.12
250.998	78.12
251.231	72.12
251.465	72.12
251.698	84.12
251.931	85.12
252.164	79.12
252.397	81.12
252.63	87.12
252.863	85.12
253.096	93.12
253.329	78.12
253.562	74.12
253.795	96.12
254.028	86.12
254.261	81.12
254.494	83.12
254.727	85.12
254.96	94.12
255.193	77.12
255.426	76.12
255.659	84.12
255.892	84.12
256.124	86.12
256.357	64.12
256.59	86.12
256.823	82.12
257.056	80.12
257.289	84.12
257.521	95.12
257.754	82.12
257.987	76.12
258.22	90.12
258.452	94.12
258.685	80.12
258.918	83.12
259.151	92.12
259.383	98.12
259.616	84.12
259.849	91.12
260.081	86.12
260.314	87.12
260.547	76.12
260.779	92.12
261.012	86.12
261.244	83.12
261.477	92.12
261.71	71.12
261.942	106.12
262.175	104.12
262.407	77.12
262.64	89.12
262.872	90.12
263.105	106.12
263.337	77.12
263.57	76.12
263.802	78.12
264.035	90.12
264.267	78.12
264.499	74.12
264.732	64.12
264.964	82.12
265.197	76.12
265.429	97.12
265.661	85.12
265.894	78.12
266.126	87.12
266.358	99.12
266.591	90.12
266.823	72.12
267.055	94.12
267.287	88.12
267.52	96.12
267.752	83.12
267.984	95.12
268.216	74.12
268.448	98.12
268.681	98.12
268.913	85.12
269.145	90.12
269.377	87.12
269.609	78.12
269.841	84.12
270.073	102.12
270.306	85.12
270.538	90.12
270.77	87.12
271.002	62.12
271.234	87.12
271.466	93.12
271.698	77.12
271.93	78.12
272.162	88.12
272.394	80.12
272.626	80.12
272.858	81.12
273.09	87.12
273.322	90.12
273.553	84.12
273.785	86.12
274.017	85.12
274.249	79.12
274.481	101.12
274.713	92.12
274.945	102.12
275.176	92.12
275.408	91.12
275.64	95.12
275.872	84.12
276.104	98.12
276.335	91.12
276.567	87.12
276.799	95.12
277.031	96.12
277.262	94.12
277.494	80.12
277.726	93.12
277.957	85.12
278.189	79.12
278.421	79.12
278.652	70.12
278.884	84.12
279.115	96.12
279.347	90.12
279.579	80.12
279.81	90.12
280.042	101.12
280.273	90.12
280.505	86.12
280.736	80.12
280.968	87.12
281.199	100.12
281.431	95.12
281.662	85.12
281.894	87.12
282.125	94.12
282.356	104.12
282.588	135.12
282.819	97.12
283.051	92.12
283.282	94.12
283.513	75.12
283.745	83.12
283.976	92.12
284.207	76.12
284.439	84.12
284.67	89.12
284.901	102.12
285.132	96.12
285.364	104.12
285.595	94.12
285.826	89.12
286.057	83.12
286.288	77.12
286.52	77.12
286.751	84.12
286.982	79.12
287.213	100.12
287.444	83.12
287.675	90.12
287.906	95.12
288.138	80.12
288.369	96.12
288.6	95.12
288.831	110.12
289.062	99.12
289.293	84.12
289.524	88.12
289.755	85.12
289.986	92.12
290.217	86.12
290.448	92.12
290.679	89.12
290.91	99.12
291.141	92.12
291.371	92.12
291.602	96.12
291.833	93.12
292.064	87.12
292.295	87.12
292.526	86.12
292.757	80.12
292.987	86.12
293.218	107.12
293.449	93.12
293.68	98.12
293.91	100.12
294.141	85.12
294.372	93.12
294.603	87.12
294.833	82.12
295.064	91.12
295.295	94.12
295.525	88.12
295.756	94.12
295.987	111.12
296.217	128.12
296.448	126.12
296.679	103.12
296.909	87.12
297.14	92.12
297.37	93.12
297.601	104.12
297.831	96.12
298.062	98.12
298.292	102.12
298.523	93.12
298.753	81.12
298.984	97.12
299.214	92.12
299.445	92.12
299.675	108.12
299.905	91.12
300.136	91.12
300.366	106.12
300.597	87.12
300.827	102.12
301.057	103.12
301.288	116.12
301.518	99.12
301.748	88.12
301.979	116.12
302.209	98.12
302.439	79.12
302.669	97.12
302.9	94.12
303.13	101.12
303.36	99.12
303.59	90.12
303.82	117.12
304.051	91.12
304.281	88.12
304.511	89.12
304.741	76.12
304.971	78.12
305.201	108.12
305.431	87.12
305.661	85.12
305.891	99.12
306.121	91.12
306.352	93.12
306.582	109.12
306.812	83.12
307.042	100.12
307.272	98.12
307.502	108.12
307.731	97.12
307.961	94.12
308.191	107.12
308.421	88.12
308.651	100.12
308.881	91.12
309.111	103.12
309.341	77.12
309.571	115.12
309.8	99.12
310.03	108.12
310.26	94.12
310.49	88.12
310.72	105.12
310.949	98.12
311.179	89.12
311.409	103.12
311.639	95.12
311.868	85.12
312.098	96.12
312.328	101.12
312.557	95.12
312.787	86.12
313.017	106.12
313.246	95.12
313.476	101.12
313.706	104.12
313.935	101.12
314.165	114.12
314.394	93.12
314.624	87.12
314.853	93.12
315.083	94.12
315.312	89.12
315.542	94.12
315.771	98.12
316.001	90.12
316.23	93.12
316.46	97.12
316.689	105.12
316.919	97.12
317.148	86.12
317.377	88.12
317.607	84.12
317.836	85.12
318.065	100.12
318.295	80.12
318.524	83.12
318.753	80.12
318.983	84.12
319.212	104.12
319.441	106.12
319.67	95.12
319.9	101.12
320.129	98.12
320.358	83.12
320.587	102.12
320.816	101.12
321.046	102.12
321.275	90.12
321.504	98.12
321.733	95.12
321.962	97.12
322.191	103.12
322.42	108.12
322.649	103.12
322.878	117.12
323.108	104.12
323.337	124.12
323.566	130.12
323.795	156.12
324.024	188.12
324.253	348.12
324.482	739.12
324.71	1491.12
324.939	1930.12
325.168	719.12
325.397	230.12
325.626	144.12
325.855	129.12
326.084	123.12
326.313	131.12
326.542	126.12
326.77	210.12
326.999	414.12
327.228	821.12
327.457	1458.12
327.686	1183.12
327.914	335.12
328.143	195.12
328.372	170.12
328.6	123.12
328.829	123.12
329.058	112.12
329.287	107.12
329.515	113.12
329.744	112.12
329.972	126.12
330.201	152.12
330.43	198.12
330.658	138.12
330.887	131.12
331.115	127.12
331.344	103.12
331.572	108.12
331.801	97.12
332.03	110.12
332.258	108.12
332.486	84.12
332.715	106.12
332.943	102.12
333.172	96.12
333.4	116.12
333.629	95.12
333.857	115.12
334.085	131.12
334.314	179.12
334.542	225.12
334.771	189.12
334.999	125.12
335.227	106.12
335.455	88.12
335.684	103.12
335.912	101.12
336.14	99.12
336.369	96.12
336.597	99.12
336.825	90.12
337.053	98.12
337.281	100.12
337.51	93.12
337.738	82.12
337.966	90.12
338.194	104.12
338.422	102.12
338.65	103.12
338.878	83.12
339.106	90.12
339.334	74.12
339.562	94.12
339.79	92.12
340.018	98.12
340.246	96.12
340.474	88.12
340.702	82.12
340.93	82.12
341.158	108.12
341.386	97.12
341.614	100.12
341.842	94.12
342.07	95.12
342.298	85.12
342.526	94.12
342.754	92.12
342.981	81.12
343.209	100.12
343.437	118.12
343.665	85.12
343.893	114.12
344.12	90.12
344.348	98.12
344.576	93.12
344.804	99.12
345.031	108.12
345.259	98.12
345.487	90.12
345.714	86.12
345.942	98.12
346.17	104.12
346.397	84.12
346.625	92.12
346.853	86.12
347.08	95.12
347.308	88.12
347.535	110.12
347.763	102.12
347.99	106.12
348.218	108.12
348.445	107.12
348.673	99.12
348.9	95.12
349.128	98.12
349.355	96.12
349.583	99.12
349.81	94.12
350.037	99.12
350.265	93.12
350.492	113.12
350.72	100.12
350.947	94.12
351.174	89.12
351.402	112.12
351.629	96.12
351.856	107.12
352.083	105.12
352.311	110.12
352.538	103.12
352.765	111.12
352.992	97.12
353.22	100.12
353.447	98.12
353.674	93.12
353.901	100.12
354.128	102.12
354.355	85.12
354.583	99.12
354.81	95.12
355.037	84.12
355.264	86.12
355.491	101.12
355.718	83.12
355.945	98.12
356.172	101.12
356.399	104.12
356.626	91.12
356.853	101.12
357.08	102.12
357.307	104.12
357.534	100.12
357.761	94.12
357.988	97.12
358.215	98.12
358.441	99.12
358.668	101.12
358.895	107.12
359.122	89.12
359.349	90.12
359.576	99.12
359.802	90.12
360.029	100.12
360.256	98.12
360.483	99.12
360.709	88.12
360.936	97.12
361.163	84.12
361.39	101.12
361.616	103.12
361.843	98.12
362.07	93.12
362.296	93.12
362.523	95.12
362.749	87.12
362.976	95.12
363.203	92.12
363.429	103.12
363.656	107.12
363.882	86.12
364.109	91.12
364.335	89.12
364.562	86.12
364.788	91.12
365.015	104.12
365.241	98.12
365.468	119.12
365.694	117.12
365.92	116.12
366.147	90.12
366.373	92.12
366.599	95.12
366.826	87.12
367.052	92.12
367.278	79.12
367.505	84.12
367.731	94.12
367.957	107.12
368.184	98.12
368.41	89.12
368.636	94.12
368.862	120.12
369.089	100.12
369.315	96.12
369.541	100.12
369.767	77.12
369.993	86.12
370.219	101.12
370.445	79.12
370.672	91.12
370.898	85.12
371.124	82.12
371.35	88.12
371.576	76.12
371.802	94.12
372.028	90.12
372.254	93.12
372.48	95.12
372.706	73.12
372.932	83.12
373.158	92.12
373.384	96.12
373.61	97.12
373.835	98.12
374.061	90.12
374.287	89.12
374.513	94.12
374.739	95.12
374.965	92.12
375.191	92.12
375.416	106.12
375.642	95.12
375.868	111.12
376.094	91.12
376.319	89.12
376.545	82.12
376.771	93.12
376.997	95.12
377.222	92.12
377.448	83.12
377.674	89.12
377.899	102.12
378.125	91.12
378.35	84.12
378.576	96.12
378.802	96.12
379.027	90.12
379.253	110.12
379.478	88.12
379.704	97.12
379.929	101.12
380.155	99.12
380.38	94.12
380.606	110.12
380.831	94.12
381.057	111.12
381.282	92.12
381.507	100.12
381.733	103.12
381.958	108.12
382.184	93.12
382.409	99.12
382.634	108.12
382.86	82.12
383.085	103.12
383.31	101.12
383.535	101.12
383.761	90.12
383.986	108.12
384.211	99.12
384.436	89.12
384.662	80.12
384.887	110.12
385.112	110.12
385.337	90.12
385.562	102.12
385.787	102.12
386.013	109.12
386.238	110.12
386.463	99.12
386.688	107.12
386.913	97.12
387.138	124.12
387.363	103.12
387.588	103.12
387.813	103.12
388.038	98.12
388.263	106.12
388.488	100.12
388.713	106.12
388.938	89.12
389.163	102.12
389.387	92.12
389.612	91.12
389.837	103.12
390.062	86.12
390.287	97.12
390.512	92.12
390.736	87.12
390.961	95.12
391.186	111.12
391.411	102.12
391.636	96.12
391.86	95.12
392.085	88.12
392.31	80.12
392.534	85.12
392.759	94.12
392.984	78.12
393.208	78.12
393.433	95.12
393.658	96.12
393.882	97.12
394.107	88.12
394.331	93.12
394.556	91.12
394.78	99.12
395.005	98.12
395.229	89.12
395.454	95.12
395.678	96.12
395.903	86.12
396.127	84.12
396.352	98.12
396.576	99.12
396.801	88.12
397.025	70.12
397.249	84.12
397.474	101.12
397.698	93.12
397.922	96.12
398.147	83.12
398.371	94.12
398.595	97.12
398.82	95.12
399.044	102.12
399.268	104.12
399.492	98.12
399.717	100.12
399.941	98.12
400.165	77.12
400.389	90.12
400.613	83.12
400.837	83.12
401.062	85.12
401.286	97.12
401.51	85.12
401.734	89.12
401.958	100.12
402.182	118.12
402.406	154.12
402.63	115.12
402.854	85.12
403.078	98.12
403.302	98.12
403.526	87.12
403.75	83.12
403.974	93.12
404.198	80.12
404.422	98.12
404.645	103.12
404.869	108.12
405.093	110.12
405.317	107.12
405.541	98.12
405.765	85.12
405.988	113.12
406.212	142.12
406.436	210.12
406.66	123.12
406.883	94.12
407.107	96.12
407.331	97.12
407.555	98.12
407.778	85.12
408.002	100.12
408.226	91.12
408.449	93.12
408.673	89.12
408.896	87.12
409.12	95.12
409.344	90.12
409.567	88.12
409.791	87.12
410.014	89.12
410.238	92.12
410.461	83.12
410.685	85.12
410.908	95.12
411.132	110.12
411.355	107.12
411.578	103.12
411.802	87.12
412.025	99.12
412.249	108.12
412.472	93.12
412.695	90.12
412.919	90.12
413.142	92.12
413.365	85.12
413.589	92.12
413.812	85.12
414.035	83.12
414.258	95.12
414.482	99.12
414.705	89.12
414.928	97.12
415.151	80.12
415.374	101.12
415.597	91.12
415.821	77.12
416.044	92.12
416.267	88.12
416.49	84.12
416.713	94.12
416.936	87.12
417.159	77.12
417.382	74.12
417.605	92.12
417.828	78.12
418.051	88.12
418.274	88.12
418.497	77.12
418.72	88.12
418.943	86.12
419.166	86.12
419.389	75.12
419.611	84.12
419.834	84.12
420.057	91.12
420.28	78.12
420.503	74.12
420.726	90.12
420.948	91.12
421.171	84.12
421.394	102.12
421.617	105.12
421.839	88.12
422.062	86.12
422.285	88.12
422.507	81.12
422.73	103.12
422.953	86.12
423.175	97.12
423.398	91.12
423.621	80.12
423.843	87.12
424.066	86.12
424.288	86.12
424.511	92.12
424.733	89.12
424.956	93.12
425.178	98.12
425.401	102.12
425.623	98.12
425.846	105.12
426.068	88.12
426.291	91.12
426.513	96.12
426.735	94.12
426.958	97.12
427.18	98.12
427.402	119.12
427.625	158.12
427.847	124.12
428.069	131.12
428.292	94.12
428.514	97.12
428.736	93.12
428.958	81.12
429.181	93.12
429.403	78.12
429.625	99.12
429.847	91.12
430.069	106.12
430.292	88.12
430.514	86.12
430.736	98.12
430.958	95.12
431.18	98.12
431.402	98.12
431.624	80.12
431.846	74.12
432.068	102.12
432.29	88.12
432.512	109.12
432.734	93.12
432.956	88.12
433.178	107.12
433.4	94.12
433.622	79.12
433.844	102.12
434.066	92.12
434.287	79.12
434.509	89.12
434.731	108.12
434.953	85.12
435.175	88.12
435.397	94.12
435.618	102.12
435.84	101.12
436.062	103.12
436.284	112.12
436.505	96.12
436.727	98.12
436.949	90.12
437.17	87.12
437.392	90.12
437.614	95.12
437.835	111.12
438.057	114.12
438.278	101.12
438.5	102.12
438.721	115.12
438.943	104.12
439.165	96.12
439.386	100.12
439.608	101.12
439.829	104.12
440.05	124.12
440.272	139.12
440.493	108.12
440.715	79.12
440.936	101.12
441.158	86.12
441.379	94.12
441.6	96.12
441.822	96.12
442.043	93.12
442.264	98.12
442.486	104.12
442.707	91.12
442.928	106.12
443.149	134.12
443.371	107.12
443.592	104.12
443.813	108.12
444.034	102.12
444.255	90.12
444.476	94.12
444.698	81.12
444.919	71.12
445.14	120.12
445.361	116.12
445.582	106.12
445.803	127.12
446.024	133.12
446.245	110.12
446.466	111.12
446.687	105.12
446.908	110.12
447.129	82.12
447.35	106.12
447.571	94.12
447.792	93.12
448.013	81.12
448.234	102.12
448.455	87.12
448.675	99.12
448.896	102.12
449.117	100.12
449.338	98.12
449.559	118.12
449.779	124.12
450	103.12
450.221	89.12
450.442	99.12
450.662	102.12
450.883	108.12
451.104	112.12
451.324	90.12
451.545	95.12
451.766	90.12
451.986	80.12
452.207	85.12
452.428	82.12
452.648	98.12
452.869	106.12
453.089	115.12
453.31	116.12
453.53	95.12
453.751	106.12
453.971	104.12
454.192	100.12
454.412	91.12
454.633	98.12
454.853	86.12
455.073	91.12
455.294	88.12
455.514	91.12
455.734	86.12
455.955	96.12
456.175	89.12
456.395	83.12
456.616	96.12
456.836	75.12
457.056	86.12
457.276	74.12
457.497	80.12
457.717	107.12
457.937	90.12
458.157	87.12
458.377	90.12
458.598	92.12
458.818	138.12
459.038	126.12
459.258	108.12
459.478	82.12
459.698	86.12
459.918	86.12
460.138	79.12
460.358	82.12
460.578	92.12
460.798	97.12
461.018	98.12
461.238	84.12
461.458	95.12
461.678	93.12
461.898	96.12
462.118	68.12
462.338	92.12
462.558	87.12
462.777	96.12
462.997	79.12
463.217	92.12
463.437	86.12
463.657	90.12
463.876	94.12
464.096	87.12
464.316	98.12
464.536	93.12
464.755	99.12
464.975	107.12
465.195	147.12
465.414	135.12
465.634	101.12
465.854	93.12
466.073	93.12
466.293	97.12
466.512	79.12
466.732	92.12
466.951	82.12
467.171	87.12
467.391	108.12
467.61	104.12
467.829	97.12
468.049	145.12
468.268	141.12
468.488	108.12
468.707	97.12
468.927	100.12
469.146	92.12
469.365	97.12
469.585	77.12
469.804	94.12
470.023	95.12
470.243	91.12
470.462	101.12
470.681	115.12
470.901	92.12
471.12	98.12
471.339	86.12
471.558	79.12
471.777	92.12
471.997	90.12
472.216	173.12
472.435	294.12
472.654	131.12
472.873	87.12
473.092	77.12
473.311	87.12
473.53	79.12
473.749	84.12
473.968	98.12
474.187	91.12
474.406	95.12
474.625	88.12
474.844	91.12
475.063	99.12
475.282	108.12
475.501	97.12
475.72	94.12
475.939	81.12
476.158	81.12
476.377	92.12
476.596	86.12
476.814	97.12
477.033	99.12
477.252	96.12
477.471	96.12
477.69	91.12
477.908	103.12
478.127	93.12
478.346	82.12
478.564	80.12
478.783	94.12
479.002	103.12
479.22	98.12
479.439	94.12
479.658	103.12
479.876	89.12
480.095	81.12
480.313	96.12
480.532	103.12
480.751	97.12
480.969	169.12
481.188	426.12
481.406	266.12
481.624	121.12
481.843	89.12
482.061	90.12
482.28	92.12
482.498	98.12
482.717	88.12
482.935	99.12
483.153	92.12
483.372	88.12
483.59	89.12
483.808	97.12
484.027	100.12
484.245	88.12
484.463	99.12
484.681	102.12
484.9	91.12
485.118	110.12
485.336	83.12
485.554	101.12
485.772	100.12
485.99	117.12
486.209	101.12
486.427	86.12
486.645	112.12
486.863	104.12
487.081	95.12
487.299	82.12
487.517	90.12
487.735	100.12
487.953	91.12
488.171	101.12
488.389	109.12
488.607	95.12
488.825	88.12
489.043	91.12
489.261	96.12
489.479	86.12
489.696	93.12
489.914	100.12
490.132	83.12
490.35	80.12
490.568	89.12
490.786	92.12
491.003	91.12
491.221	85.12
491.439	85.12
491.657	99.12
491.874	87.12
492.092	86.12
492.31	103.12
492.527	99.12
492.745	88.12
492.963	86.12
493.18	96.12
493.398	91.12
493.615	97.12
493.833	85.12
494.05	99.12
494.268	86.12
494.485	100.12
494.703	105.12
494.92	98.12
495.138	82.12
495.355	76.12
495.573	87.12
495.79	95.12
496.008	94.12
496.225	99.12
496.442	86.12
496.66	102.12
496.877	85.12
497.094	90.12
497.312	86.12
497.529	95.12
497.746	90.12
497.963	95.12
498.181	91.12
498.398	84.12
498.615	117.12
498.832	91.12
499.049	88.12
499.267	100.12
499.484	92.12
499.701	101.12
499.918	98.12
500.135	96.12
500.352	74.12
500.569	89.12
500.786	87.12
501.003	91.12
501.22	94.12
501.437	83.12
501.654	96.12
501.871	102.12
502.088	75.12
502.305	86.12
502.522	95.12
502.739	84.12
502.956	91.12
503.172	112.12
503.389	90.12
503.606	106.12
503.823	107.12
504.04	89.12
504.256	90.12
504.473	84.12
504.69	102.12
504.907	91.12
505.123	92.12
505.34	79.12
505.557	93.12
505.773	100.12
505.99	94.12
506.207	86.12
506.423	97.12
506.64	92.12
506.856	96.12
507.073	88.12
507.289	89.12
507.506	97.12
507.722	111.12
507.939	97.12
508.155	100.12
508.372	96.12
508.588	90.12
508.805	85.12
509.021	86.12
509.238	101.12
509.454	96.12
509.67	94.12
509.887	104.12
510.103	123.12
510.319	208.12
510.536	690.12
510.752	2188.12
510.968	625.12
511.184	165.12
511.401	111.12
511.617	110.12
511.833	106.12
512.049	99.12
512.265	87.12
512.481	87.12
512.698	93.12
512.914	96.12
513.13	94.12
513.346	99.12
513.562	93.12
513.778	97.12
513.994	82.12
514.21	93.12
514.426	114.12
514.642	120.12
514.858	112.12
515.074	141.12
