Data from Circ_1994_H10_HRD10591_00042.txt Node
Date: Wed Jan 03 11:40:38 EST 2024
User: Yrep
Spectrometer: HR+D1059
Trigger mode: 1
Integration Time (sec): 1.000000E-1
Scans to average: 1
Electric dark correction enabled: true
Nonlinearity correction enabled: false
Boxcar width: 0
XAxis mode: Wavelengths
Number of Pixels in Spectrum: 2048
>>>>>Begin Spectral Data<<<<<
223.165	-15.12
223.4	-15.12
223.635	-15.12
223.869	-26.12
224.104	-17.12
224.338	-17.12
224.573	-17.12
224.808	-3.12
225.042	-12.12
225.277	-10.12
225.511	0.88
225.746	4.88
225.98	15.88
226.215	2.88
226.449	18.88
226.683	25.88
226.918	23.88
227.152	24.88
227.387	37.88
227.621	40.88
227.856	59.88
228.09	38.88
228.324	46.88
228.559	45.88
228.793	74.88
229.027	60.88
229.262	73.88
229.496	62.88
229.73	88.88
229.964	79.88
230.199	70.88
230.433	70.88
230.667	76.88
230.901	80.88
231.136	81.88
231.37	82.88
231.604	78.88
231.838	88.88
232.072	78.88
232.306	88.88
232.541	79.88
232.775	73.88
233.009	93.88
233.243	74.88
233.477	81.88
233.711	84.88
233.945	76.88
234.179	79.88
234.413	94.88
234.647	76.88
234.881	88.88
235.115	70.88
235.349	82.88
235.583	84.88
235.817	65.88
236.051	76.88
236.285	68.88
236.519	82.88
236.753	81.88
236.987	101.88
237.221	92.88
237.455	82.88
237.689	94.88
237.922	60.88
238.156	72.88
238.39	76.88
238.624	84.88
238.858	81.88
239.091	73.88
239.325	69.88
239.559	84.88
239.793	68.88
240.027	94.88
240.26	73.88
240.494	69.88
240.728	61.88
240.961	73.88
241.195	80.88
241.429	72.88
241.662	78.88
241.896	90.88
242.13	74.88
242.363	68.88
242.597	80.88
242.83	84.88
243.064	74.88
243.298	78.88
243.531	95.88
243.765	81.88
243.998	72.88
244.232	94.88
244.465	92.88
244.699	83.88
244.932	69.88
245.166	80.88
245.399	85.88
245.633	65.88
245.866	64.88
246.099	77.88
246.333	67.88
246.566	73.88
246.8	85.88
247.033	57.88
247.266	85.88
247.5	86.88
247.733	77.88
247.966	83.88
248.2	86.88
248.433	86.88
248.666	60.88
248.899	96.88
249.133	90.88
249.366	95.88
249.599	101.88
249.832	71.88
250.066	81.88
250.299	77.88
250.532	77.88
250.765	89.88
250.998	72.88
251.231	86.88
251.465	70.88
251.698	62.88
251.931	86.88
252.164	80.88
252.397	73.88
252.63	77.88
252.863	83.88
253.096	82.88
253.329	87.88
253.562	76.88
253.795	72.88
254.028	69.88
254.261	84.88
254.494	76.88
254.727	89.88
254.96	89.88
255.193	93.88
255.426	85.88
255.659	86.88
255.892	92.88
256.124	85.88
256.357	81.88
256.59	88.88
256.823	89.88
257.056	97.88
257.289	87.88
257.521	77.88
257.754	83.88
257.987	80.88
258.22	77.88
258.452	86.88
258.685	81.88
258.918	93.88
259.151	80.88
259.383	84.88
259.616	76.88
259.849	79.88
260.081	89.88
260.314	69.88
260.547	69.88
260.779	78.88
261.012	82.88
261.244	61.88
261.477	92.88
261.71	85.88
261.942	107.88
262.175	115.88
262.407	79.88
262.64	91.88
262.872	74.88
263.105	79.88
263.337	84.88
263.57	91.88
263.802	92.88
264.035	77.88
264.267	75.88
264.499	84.88
264.732	90.88
264.964	79.88
265.197	84.88
265.429	84.88
265.661	69.88
265.894	72.88
266.126	77.88
266.358	79.88
266.591	77.88
266.823	89.88
267.055	84.88
267.287	81.88
267.52	83.88
267.752	91.88
267.984	84.88
268.216	87.88
268.448	62.88
268.681	88.88
268.913	99.88
269.145	85.88
269.377	84.88
269.609	80.88
269.841	91.88
270.073	96.88
270.306	97.88
270.538	89.88
270.77	81.88
271.002	68.88
271.234	84.88
271.466	91.88
271.698	76.88
271.93	90.88
272.162	90.88
272.394	90.88
272.626	84.88
272.858	91.88
273.09	78.88
273.322	87.88
273.553	84.88
273.785	93.88
274.017	87.88
274.249	84.88
274.481	69.88
274.713	81.88
274.945	100.88
275.176	91.88
275.408	98.88
275.64	80.88
275.872	91.88
276.104	75.88
276.335	85.88
276.567	99.88
276.799	105.88
277.031	98.88
277.262	84.88
277.494	78.88
277.726	78.88
277.957	75.88
278.189	63.88
278.421	97.88
278.652	89.88
278.884	90.88
279.115	101.88
279.347	84.88
279.579	82.88
279.81	88.88
280.042	77.88
280.273	96.88
280.505	78.88
280.736	90.88
280.968	87.88
281.199	92.88
281.431	83.88
281.662	91.88
281.894	83.88
282.125	93.88
282.356	119.88
282.588	127.88
282.819	125.88
283.051	81.88
283.282	85.88
283.513	83.88
283.745	92.88
283.976	89.88
284.207	92.88
284.439	91.88
284.67	102.88
284.901	92.88
285.132	89.88
285.364	93.88
285.595	96.88
285.826	81.88
286.057	110.88
286.288	96.88
286.52	79.88
286.751	75.88
286.982	96.88
287.213	88.88
287.444	88.88
287.675	98.88
287.906	90.88
288.138	77.88
288.369	92.88
288.6	88.88
288.831	86.88
289.062	78.88
289.293	83.88
289.524	80.88
289.755	81.88
289.986	88.88
290.217	90.88
290.448	83.88
290.679	93.88
290.91	80.88
291.141	86.88
291.371	86.88
291.602	79.88
291.833	97.88
292.064	68.88
292.295	90.88
292.526	91.88
292.757	96.88
292.987	98.88
293.218	93.88
293.449	78.88
293.68	74.88
293.91	88.88
294.141	85.88
294.372	82.88
294.603	99.88
294.833	81.88
295.064	65.88
295.295	93.88
295.525	98.88
295.756	97.88
295.987	114.88
296.217	143.88
296.448	111.88
296.679	76.88
296.909	101.88
297.14	82.88
297.37	91.88
297.601	80.88
297.831	82.88
298.062	82.88
298.292	78.88
298.523	97.88
298.753	88.88
298.984	83.88
299.214	74.88
299.445	85.88
299.675	82.88
299.905	92.88
300.136	93.88
300.366	86.88
300.597	86.88
300.827	85.88
301.057	74.88
301.288	107.88
301.518	100.88
301.748	85.88
301.979	86.88
302.209	95.88
302.439	83.88
302.669	99.88
302.9	100.88
303.13	98.88
303.36	91.88
303.59	93.88
303.82	103.88
304.051	100.88
304.281	80.88
304.511	96.88
304.741	87.88
304.971	85.88
305.201	84.88
305.431	95.88
305.661	84.88
305.891	93.88
306.121	98.88
306.352	84.88
306.582	102.88
306.812	91.88
307.042	90.88
307.272	101.88
307.502	96.88
307.731	93.88
307.961	93.88
308.191	88.88
308.421	102.88
308.651	90.88
308.881	102.88
309.111	96.88
309.341	93.88
309.571	94.88
309.8	99.88
310.03	100.88
310.26	96.88
310.49	111.88
310.72	102.88
310.949	95.88
311.179	103.88
311.409	99.88
311.639	97.88
311.868	94.88
312.098	93.88
312.328	91.88
312.557	107.88
312.787	98.88
313.017	88.88
313.246	94.88
313.476	81.88
313.706	94.88
313.935	81.88
314.165	100.88
314.394	106.88
314.624	91.88
314.853	84.88
315.083	95.88
315.312	93.88
315.542	87.88
315.771	104.88
316.001	84.88
316.23	88.88
316.46	79.88
316.689	77.88
316.919	101.88
317.148	84.88
317.377	104.88
317.607	94.88
317.836	96.88
318.065	94.88
318.295	78.88
318.524	99.88
318.753	84.88
318.983	99.88
319.212	108.88
319.441	108.88
319.67	107.88
319.9	110.88
320.129	84.88
320.358	102.88
320.587	101.88
320.816	108.88
321.046	104.88
321.275	93.88
321.504	93.88
321.733	77.88
321.962	100.88
322.191	102.88
322.42	94.88
322.649	106.88
322.878	99.88
323.108	109.88
323.337	124.88
323.566	113.88
323.795	140.88
324.024	198.88
324.253	359.88
324.482	740.88
324.71	1466.88
324.939	1914.88
325.168	703.88
325.397	220.88
325.626	152.88
325.855	119.88
326.084	120.88
326.313	132.88
326.542	134.88
326.77	224.88
326.999	406.88
327.228	825.88
327.457	1484.88
327.686	1202.88
327.914	330.88
328.143	170.88
328.372	148.88
328.6	123.88
328.829	100.88
329.058	119.88
329.287	124.88
329.515	106.88
329.744	112.88
329.972	103.88
330.201	130.88
330.43	152.88
330.658	124.88
330.887	124.88
331.115	127.88
331.344	97.88
331.572	100.88
331.801	104.88
332.03	110.88
332.258	88.88
332.486	91.88
332.715	87.88
332.943	100.88
333.172	99.88
333.4	107.88
333.629	97.88
333.857	116.88
334.085	108.88
334.314	123.88
334.542	154.88
334.771	138.88
334.999	106.88
335.227	98.88
335.455	93.88
335.684	95.88
335.912	96.88
336.14	94.88
336.369	105.88
336.597	100.88
336.825	92.88
337.053	86.88
337.281	86.88
337.51	113.88
337.738	98.88
337.966	93.88
338.194	80.88
338.422	96.88
338.65	99.88
338.878	105.88
339.106	90.88
339.334	91.88
339.562	94.88
339.79	64.88
340.018	92.88
340.246	85.88
340.474	85.88
340.702	96.88
340.93	97.88
341.158	86.88
341.386	104.88
341.614	102.88
341.842	90.88
342.07	82.88
342.298	93.88
342.526	90.88
342.754	90.88
342.981	102.88
343.209	86.88
343.437	100.88
343.665	75.88
343.893	80.88
344.12	93.88
344.348	97.88
344.576	96.88
344.804	91.88
345.031	101.88
345.259	101.88
345.487	103.88
345.714	93.88
345.942	88.88
346.17	87.88
346.397	99.88
346.625	89.88
346.853	92.88
347.08	101.88
347.308	91.88
347.535	78.88
347.763	102.88
347.99	95.88
348.218	92.88
348.445	84.88
348.673	87.88
348.9	86.88
349.128	95.88
349.355	100.88
349.583	98.88
349.81	92.88
350.037	104.88
350.265	85.88
350.492	99.88
350.72	91.88
350.947	84.88
351.174	113.88
351.402	113.88
351.629	100.88
351.856	94.88
352.083	81.88
352.311	97.88
352.538	94.88
352.765	100.88
352.992	110.88
353.22	96.88
353.447	89.88
353.674	96.88
353.901	94.88
354.128	98.88
354.355	101.88
354.583	103.88
354.81	91.88
355.037	93.88
355.264	88.88
355.491	82.88
355.718	96.88
355.945	94.88
356.172	86.88
356.399	93.88
356.626	87.88
356.853	99.88
357.08	92.88
357.307	93.88
357.534	105.88
357.761	85.88
357.988	96.88
358.215	95.88
358.441	90.88
358.668	88.88
358.895	88.88
359.122	76.88
359.349	92.88
359.576	94.88
359.802	112.88
360.029	93.88
360.256	115.88
360.483	94.88
360.709	98.88
360.936	109.88
361.163	77.88
361.39	89.88
361.616	108.88
361.843	73.88
362.07	97.88
362.296	103.88
362.523	84.88
362.749	93.88
362.976	100.88
363.203	82.88
363.429	83.88
363.656	92.88
363.882	82.88
364.109	86.88
364.335	96.88
364.562	84.88
364.788	76.88
365.015	93.88
365.241	81.88
365.468	104.88
365.694	99.88
365.92	99.88
366.147	96.88
366.373	90.88
366.599	72.88
366.826	99.88
367.052	89.88
367.278	75.88
367.505	82.88
367.731	92.88
367.957	106.88
368.184	90.88
368.41	91.88
368.636	91.88
368.862	120.88
369.089	105.88
369.315	73.88
369.541	97.88
369.767	102.88
369.993	101.88
370.219	89.88
370.445	94.88
370.672	98.88
370.898	92.88
371.124	85.88
371.35	81.88
371.576	67.88
371.802	79.88
372.028	88.88
372.254	97.88
372.48	93.88
372.706	82.88
372.932	90.88
373.158	85.88
373.384	94.88
373.61	93.88
373.835	101.88
374.061	102.88
374.287	84.88
374.513	96.88
374.739	84.88
374.965	76.88
375.191	92.88
375.416	89.88
375.642	96.88
375.868	95.88
376.094	82.88
376.319	82.88
376.545	93.88
376.771	103.88
376.997	93.88
377.222	91.88
377.448	91.88
377.674	77.88
377.899	96.88
378.125	90.88
378.35	80.88
378.576	91.88
378.802	99.88
379.027	91.88
379.253	99.88
379.478	91.88
379.704	88.88
379.929	101.88
380.155	83.88
380.38	102.88
380.606	80.88
380.831	102.88
381.057	93.88
381.282	110.88
381.507	90.88
381.733	99.88
381.958	99.88
382.184	104.88
382.409	96.88
382.634	91.88
382.86	88.88
383.085	87.88
383.31	95.88
383.535	102.88
383.761	90.88
383.986	92.88
384.211	102.88
384.436	99.88
384.662	88.88
384.887	105.88
385.112	93.88
385.337	102.88
385.562	109.88
385.787	92.88
386.013	93.88
386.238	112.88
386.463	104.88
386.688	99.88
386.913	111.88
387.138	102.88
387.363	104.88
387.588	102.88
387.813	100.88
388.038	100.88
388.263	99.88
388.488	103.88
388.713	110.88
388.938	96.88
389.163	91.88
389.387	92.88
389.612	96.88
389.837	87.88
390.062	89.88
390.287	112.88
390.512	82.88
390.736	78.88
390.961	101.88
391.186	93.88
391.411	100.88
391.636	86.88
391.86	77.88
392.085	75.88
392.31	94.88
392.534	96.88
392.759	95.88
392.984	98.88
393.208	105.88
393.433	96.88
393.658	94.88
393.882	88.88
394.107	92.88
394.331	87.88
394.556	87.88
394.78	92.88
395.005	88.88
395.229	80.88
395.454	74.88
395.678	86.88
395.903	83.88
396.127	102.88
396.352	87.88
396.576	89.88
396.801	90.88
397.025	100.88
397.249	100.88
397.474	84.88
397.698	82.88
397.922	77.88
398.147	99.88
398.371	80.88
398.595	103.88
398.82	79.88
399.044	85.88
399.268	83.88
399.492	73.88
399.717	78.88
399.941	85.88
400.165	91.88
400.389	85.88
400.613	85.88
400.837	89.88
401.062	89.88
401.286	80.88
401.51	102.88
401.734	98.88
401.958	99.88
402.182	115.88
402.406	132.88
402.63	109.88
402.854	98.88
403.078	82.88
403.302	81.88
403.526	96.88
403.75	90.88
403.974	91.88
404.198	97.88
404.422	79.88
404.645	81.88
404.869	82.88
405.093	95.88
405.317	102.88
405.541	105.88
405.765	94.88
405.988	116.88
406.212	167.88
406.436	203.88
406.66	131.88
406.883	93.88
407.107	90.88
407.331	102.88
407.555	95.88
407.778	86.88
408.002	92.88
408.226	89.88
408.449	84.88
408.673	99.88
408.896	89.88
409.12	100.88
409.344	97.88
409.567	83.88
409.791	89.88
410.014	98.88
410.238	103.88
410.461	100.88
410.685	93.88
410.908	95.88
411.132	99.88
411.355	83.88
411.578	92.88
411.802	99.88
412.025	94.88
412.249	78.88
412.472	96.88
412.695	102.88
412.919	102.88
413.142	93.88
413.365	91.88
413.589	89.88
413.812	89.88
414.035	97.88
414.258	93.88
414.482	91.88
414.705	91.88
414.928	92.88
415.151	77.88
415.374	95.88
415.597	88.88
415.821	95.88
416.044	92.88
416.267	93.88
416.49	84.88
416.713	95.88
416.936	91.88
417.159	93.88
417.382	97.88
417.605	82.88
417.828	90.88
418.051	98.88
418.274	75.88
418.497	88.88
418.72	83.88
418.943	86.88
419.166	91.88
419.389	78.88
419.611	90.88
419.834	94.88
420.057	98.88
420.28	91.88
420.503	90.88
420.726	78.88
420.948	88.88
421.171	100.88
421.394	80.88
421.617	83.88
421.839	99.88
422.062	94.88
422.285	86.88
422.507	101.88
422.73	99.88
422.953	102.88
423.175	83.88
423.398	89.88
423.621	93.88
423.843	98.88
424.066	90.88
424.288	82.88
424.511	88.88
424.733	95.88
424.956	94.88
425.178	106.88
425.401	100.88
425.623	98.88
425.846	76.88
426.068	84.88
426.291	79.88
426.513	89.88
426.735	91.88
426.958	92.88
427.18	102.88
427.402	127.88
427.625	156.88
427.847	126.88
428.069	94.88
428.292	92.88
428.514	90.88
428.736	74.88
428.958	84.88
429.181	82.88
429.403	84.88
429.625	83.88
429.847	93.88
430.069	104.88
430.292	103.88
430.514	94.88
430.736	88.88
430.958	86.88
431.18	94.88
431.402	90.88
431.624	74.88
431.846	80.88
432.068	84.88
432.29	92.88
432.512	90.88
432.734	94.88
432.956	91.88
433.178	89.88
433.4	101.88
433.622	93.88
433.844	78.88
434.066	102.88
434.287	81.88
434.509	80.88
434.731	92.88
434.953	91.88
435.175	88.88
435.397	77.88
435.618	80.88
435.84	100.88
436.062	109.88
436.284	99.88
436.505	90.88
436.727	98.88
436.949	97.88
437.17	83.88
437.392	85.88
437.614	90.88
437.835	98.88
438.057	118.88
438.278	102.88
438.5	104.88
438.721	109.88
438.943	95.88
439.165	84.88
439.386	76.88
439.608	86.88
439.829	96.88
440.05	121.88
440.272	130.88
440.493	96.88
440.715	89.88
440.936	82.88
441.158	95.88
441.379	88.88
441.6	96.88
441.822	99.88
442.043	102.88
442.264	94.88
442.486	95.88
442.707	102.88
442.928	98.88
443.149	124.88
443.371	116.88
443.592	85.88
443.813	112.88
444.034	98.88
444.255	92.88
444.476	74.88
444.698	88.88
444.919	74.88
445.14	125.88
445.361	130.88
445.582	113.88
445.803	125.88
446.024	122.88
446.245	128.88
446.466	111.88
446.687	91.88
446.908	83.88
447.129	83.88
447.35	77.88
447.571	86.88
447.792	85.88
448.013	99.88
448.234	110.88
448.455	84.88
448.675	108.88
448.896	120.88
449.117	92.88
449.338	101.88
449.559	129.88
449.779	112.88
450	90.88
450.221	89.88
450.442	76.88
450.662	83.88
450.883	109.88
451.104	99.88
451.324	94.88
451.545	84.88
451.766	87.88
451.986	94.88
452.207	89.88
452.428	95.88
452.648	90.88
452.869	99.88
453.089	102.88
453.31	107.88
453.53	108.88
453.751	91.88
453.971	101.88
454.192	105.88
454.412	87.88
454.633	86.88
454.853	86.88
455.073	82.88
455.294	99.88
455.514	91.88
455.734	79.88
455.955	80.88
456.175	92.88
456.395	91.88
456.616	91.88
456.836	86.88
457.056	78.88
457.276	85.88
457.497	86.88
457.717	92.88
457.937	105.88
458.157	78.88
458.377	79.88
458.598	106.88
458.818	125.88
459.038	136.88
459.258	116.88
459.478	84.88
459.698	81.88
459.918	83.88
460.138	89.88
460.358	86.88
460.578	96.88
460.798	100.88
461.018	76.88
461.238	88.88
461.458	88.88
461.678	83.88
461.898	90.88
462.118	81.88
462.338	80.88
462.558	81.88
462.777	83.88
462.997	85.88
463.217	84.88
463.437	98.88
463.657	91.88
463.876	86.88
464.096	87.88
464.316	89.88
464.536	115.88
464.755	104.88
464.975	98.88
465.195	160.88
465.414	162.88
465.634	92.88
465.854	82.88
466.073	77.88
466.293	91.88
466.512	90.88
466.732	81.88
466.951	76.88
467.171	85.88
467.391	91.88
467.61	97.88
467.829	100.88
468.049	107.88
468.268	104.88
468.488	95.88
468.707	82.88
468.927	73.88
469.146	90.88
469.365	86.88
469.585	93.88
469.804	88.88
470.023	105.88
470.243	84.88
470.462	80.88
470.681	114.88
470.901	93.88
471.12	73.88
471.339	81.88
471.558	95.88
471.777	106.88
471.997	107.88
472.216	113.88
472.435	182.88
472.654	99.88
472.873	89.88
473.092	89.88
473.311	86.88
473.53	86.88
473.749	83.88
473.968	98.88
474.187	107.88
474.406	95.88
474.625	87.88
474.844	81.88
475.063	85.88
475.282	89.88
475.501	88.88
475.72	82.88
475.939	89.88
476.158	84.88
476.377	74.88
476.596	76.88
476.814	66.88
477.033	93.88
477.252	75.88
477.471	90.88
477.69	96.88
477.908	98.88
478.127	97.88
478.346	78.88
478.564	77.88
478.783	83.88
479.002	89.88
479.22	93.88
479.439	114.88
479.658	98.88
479.876	104.88
480.095	90.88
480.313	90.88
480.532	92.88
480.751	89.88
480.969	111.88
481.188	258.88
481.406	188.88
481.624	98.88
481.843	83.88
482.061	85.88
482.28	100.88
482.498	67.88
482.717	80.88
482.935	88.88
483.153	79.88
483.372	83.88
483.59	90.88
483.808	88.88
484.027	89.88
484.245	93.88
484.463	94.88
484.681	93.88
484.9	91.88
485.118	96.88
485.336	91.88
485.554	92.88
485.772	92.88
485.99	109.88
486.209	101.88
486.427	102.88
486.645	114.88
486.863	107.88
487.081	86.88
487.299	103.88
487.517	101.88
487.735	93.88
487.953	83.88
488.171	92.88
488.389	97.88
488.607	94.88
488.825	81.88
489.043	91.88
489.261	84.88
489.479	90.88
489.696	90.88
489.914	98.88
490.132	88.88
490.35	96.88
490.568	83.88
490.786	85.88
491.003	77.88
491.221	90.88
491.439	106.88
491.657	94.88
491.874	85.88
492.092	81.88
492.31	82.88
492.527	78.88
492.745	92.88
492.963	91.88
493.18	93.88
493.398	101.88
493.615	98.88
493.833	89.88
494.05	76.88
494.268	91.88
494.485	110.88
494.703	90.88
494.92	94.88
495.138	77.88
495.355	77.88
495.573	84.88
495.79	80.88
496.008	83.88
496.225	95.88
496.442	87.88
496.66	99.88
496.877	87.88
497.094	75.88
497.312	101.88
497.529	98.88
497.746	94.88
497.963	91.88
498.181	95.88
498.398	79.88
498.615	101.88
498.832	95.88
499.049	109.88
499.267	96.88
499.484	78.88
499.701	80.88
499.918	85.88
500.135	71.88
500.352	93.88
500.569	106.88
500.786	86.88
501.003	87.88
501.22	96.88
501.437	102.88
501.654	90.88
501.871	94.88
502.088	92.88
502.305	95.88
502.522	77.88
502.739	88.88
502.956	90.88
503.172	78.88
503.389	90.88
503.606	94.88
503.823	97.88
504.04	96.88
504.256	97.88
504.473	91.88
504.69	95.88
504.907	85.88
505.123	86.88
505.34	90.88
505.557	87.88
505.773	88.88
505.99	97.88
506.207	92.88
506.423	75.88
506.64	97.88
506.856	96.88
507.073	90.88
507.289	87.88
507.506	101.88
507.722	121.88
507.939	115.88
508.155	98.88
508.372	106.88
508.588	89.88
508.805	82.88
509.021	96.88
509.238	101.88
509.454	98.88
509.67	95.88
509.887	112.88
510.103	136.88
510.319	192.88
510.536	710.88
510.752	2226.88
510.968	611.88
511.184	158.88
511.401	104.88
511.617	90.88
511.833	87.88
512.049	74.88
512.265	81.88
512.481	90.88
512.698	100.88
512.914	80.88
513.13	92.88
513.346	94.88
513.562	99.88
513.778	91.88
513.994	110.88
514.21	102.88
514.426	119.88
514.642	112.88
514.858	113.88
515.074	141.88
515.29	397.88
515.506	1237.88
515.721	446.88
515.937	144.88
