Data from Circ_1994_H10_HRD10591_00010.txt Node
Date: Wed Jan 03 11:40:32 EST 2024
User: Yrep
Spectrometer: HR+D1059
Trigger mode: 1
Integration Time (sec): 1.000000E-1
Scans to average: 1
Electric dark correction enabled: true
Nonlinearity correction enabled: false
Boxcar width: 0
XAxis mode: Wavelengths
Number of Pixels in Spectrum: 2048
>>>>>Begin Spectral Data<<<<<
223.165	-8.56
223.4	-8.56
223.635	-8.56
223.869	-11.56
224.104	-21.56
224.338	-22.56
224.573	-21.56
224.808	-17.56
225.042	-14.56
225.277	-14.56
225.511	-15.56
225.746	0.44
225.98	15.44
226.215	15.44
226.449	8.44
226.683	30.44
226.918	34.44
227.152	43.44
227.387	29.44
227.621	28.44
227.856	44.44
228.09	49.44
228.324	53.44
228.559	49.44
228.793	55.44
229.027	54.44
229.262	64.44
229.496	61.44
229.73	80.44
229.964	77.44
230.199	69.44
230.433	71.44
230.667	74.44
230.901	84.44
231.136	82.44
231.37	76.44
231.604	83.44
231.838	72.44
232.072	71.44
232.306	81.44
232.541	73.44
232.775	93.44
233.009	83.44
233.243	77.44
233.477	84.44
233.711	87.44
233.945	70.44
234.179	82.44
234.413	62.44
234.647	71.44
234.881	84.44
235.115	75.44
235.349	66.44
235.583	76.44
235.817	92.44
236.051	77.44
236.285	74.44
236.519	97.44
236.753	66.44
236.987	78.44
237.221	82.44
237.455	61.44
237.689	80.44
237.922	78.44
238.156	60.44
238.39	77.44
238.624	75.44
238.858	83.44
239.091	53.44
239.325	75.44
239.559	87.44
239.793	79.44
240.027	80.44
240.26	82.44
240.494	80.44
240.728	68.44
240.961	73.44
241.195	85.44
241.429	74.44
241.662	60.44
241.896	90.44
242.13	78.44
242.363	68.44
242.597	76.44
242.83	67.44
243.064	81.44
243.298	79.44
243.531	62.44
243.765	69.44
243.998	74.44
244.232	67.44
244.465	79.44
244.699	70.44
244.932	70.44
245.166	68.44
245.399	81.44
245.633	87.44
245.866	80.44
246.099	82.44
246.333	81.44
246.566	88.44
246.8	66.44
247.033	71.44
247.266	94.44
247.5	82.44
247.733	80.44
247.966	75.44
248.2	82.44
248.433	71.44
248.666	83.44
248.899	89.44
249.133	77.44
249.366	87.44
249.599	85.44
249.832	82.44
250.066	74.44
250.299	75.44
250.532	68.44
250.765	80.44
250.998	84.44
251.231	74.44
251.465	72.44
251.698	73.44
251.931	73.44
252.164	87.44
252.397	77.44
252.63	75.44
252.863	80.44
253.096	77.44
253.329	77.44
253.562	79.44
253.795	81.44
254.028	69.44
254.261	77.44
254.494	91.44
254.727	75.44
254.96	71.44
255.193	64.44
255.426	91.44
255.659	91.44
255.892	87.44
256.124	72.44
256.357	88.44
256.59	71.44
256.823	66.44
257.056	66.44
257.289	84.44
257.521	72.44
257.754	86.44
257.987	76.44
258.22	81.44
258.452	77.44
258.685	86.44
258.918	79.44
259.151	81.44
259.383	71.44
259.616	69.44
259.849	85.44
260.081	101.44
260.314	70.44
260.547	68.44
260.779	82.44
261.012	66.44
261.244	96.44
261.477	92.44
261.71	80.44
261.942	88.44
262.175	99.44
262.407	71.44
262.64	70.44
262.872	82.44
263.105	75.44
263.337	84.44
263.57	90.44
263.802	89.44
264.035	102.44
264.267	84.44
264.499	67.44
264.732	68.44
264.964	80.44
265.197	81.44
265.429	77.44
265.661	75.44
265.894	76.44
266.126	72.44
266.358	64.44
266.591	66.44
266.823	88.44
267.055	84.44
267.287	93.44
267.52	84.44
267.752	75.44
267.984	77.44
268.216	85.44
268.448	93.44
268.681	73.44
268.913	83.44
269.145	83.44
269.377	84.44
269.609	76.44
269.841	73.44
270.073	87.44
270.306	77.44
270.538	78.44
270.77	80.44
271.002	82.44
271.234	88.44
271.466	75.44
271.698	68.44
271.93	89.44
272.162	67.44
272.394	74.44
272.626	88.44
272.858	74.44
273.09	79.44
273.322	96.44
273.553	77.44
273.785	89.44
274.017	85.44
274.249	86.44
274.481	73.44
274.713	78.44
274.945	93.44
275.176	76.44
275.408	88.44
275.64	93.44
275.872	72.44
276.104	102.44
276.335	87.44
276.567	87.44
276.799	96.44
277.031	86.44
277.262	80.44
277.494	92.44
277.726	91.44
277.957	96.44
278.189	89.44
278.421	95.44
278.652	82.44
278.884	99.44
279.115	93.44
279.347	83.44
279.579	93.44
279.81	91.44
280.042	82.44
280.273	73.44
280.505	90.44
280.736	79.44
280.968	91.44
281.199	80.44
281.431	83.44
281.662	87.44
281.894	102.44
282.125	104.44
282.356	98.44
282.588	125.44
282.819	96.44
283.051	84.44
283.282	76.44
283.513	96.44
283.745	86.44
283.976	87.44
284.207	96.44
284.439	77.44
284.67	95.44
284.901	93.44
285.132	95.44
285.364	94.44
285.595	108.44
285.826	93.44
286.057	91.44
286.288	88.44
286.52	75.44
286.751	85.44
286.982	97.44
287.213	87.44
287.444	85.44
287.675	98.44
287.906	83.44
288.138	96.44
288.369	96.44
288.6	77.44
288.831	82.44
289.062	74.44
289.293	85.44
289.524	99.44
289.755	79.44
289.986	68.44
290.217	89.44
290.448	83.44
290.679	95.44
290.91	88.44
291.141	82.44
291.371	95.44
291.602	79.44
291.833	94.44
292.064	90.44
292.295	76.44
292.526	82.44
292.757	79.44
292.987	87.44
293.218	76.44
293.449	90.44
293.68	89.44
293.91	90.44
294.141	89.44
294.372	75.44
294.603	83.44
294.833	78.44
295.064	79.44
295.295	85.44
295.525	84.44
295.756	89.44
295.987	122.44
296.217	115.44
296.448	114.44
296.679	101.44
296.909	92.44
297.14	79.44
297.37	93.44
297.601	87.44
297.831	83.44
298.062	86.44
298.292	93.44
298.523	69.44
298.753	78.44
298.984	84.44
299.214	84.44
299.445	87.44
299.675	92.44
299.905	91.44
300.136	96.44
300.366	88.44
300.597	89.44
300.827	74.44
301.057	94.44
301.288	84.44
301.518	90.44
301.748	91.44
301.979	92.44
302.209	92.44
302.439	79.44
302.669	73.44
302.9	85.44
303.13	98.44
303.36	95.44
303.59	96.44
303.82	106.44
304.051	89.44
304.281	76.44
304.511	95.44
304.741	81.44
304.971	93.44
305.201	93.44
305.431	94.44
305.661	84.44
305.891	102.44
306.121	107.44
306.352	93.44
306.582	104.44
306.812	80.44
307.042	72.44
307.272	83.44
307.502	105.44
307.731	100.44
307.961	79.44
308.191	90.44
308.421	75.44
308.651	80.44
308.881	105.44
309.111	87.44
309.341	85.44
309.571	98.44
309.8	95.44
310.03	103.44
310.26	97.44
310.49	99.44
310.72	92.44
310.949	101.44
311.179	87.44
311.409	96.44
311.639	91.44
311.868	104.44
312.098	100.44
312.328	93.44
312.557	79.44
312.787	88.44
313.017	93.44
313.246	95.44
313.476	101.44
313.706	99.44
313.935	83.44
314.165	102.44
314.394	100.44
314.624	113.44
314.853	97.44
315.083	96.44
315.312	88.44
315.542	98.44
315.771	81.44
316.001	85.44
316.23	113.44
316.46	105.44
316.689	72.44
316.919	92.44
317.148	80.44
317.377	95.44
317.607	96.44
317.836	90.44
318.065	81.44
318.295	90.44
318.524	90.44
318.753	83.44
318.983	83.44
319.212	85.44
319.441	97.44
319.67	102.44
319.9	89.44
320.129	88.44
320.358	97.44
320.587	84.44
320.816	94.44
321.046	106.44
321.275	90.44
321.504	94.44
321.733	103.44
321.962	87.44
322.191	103.44
322.42	99.44
322.649	99.44
322.878	100.44
323.108	101.44
323.337	122.44
323.566	122.44
323.795	149.44
324.024	188.44
324.253	323.44
324.482	657.44
324.71	1349.44
324.939	1781.44
325.168	651.44
325.397	218.44
325.626	141.44
325.855	123.44
326.084	99.44
326.313	111.44
326.542	138.44
326.77	210.44
326.999	376.44
327.228	768.44
327.457	1331.44
327.686	1083.44
327.914	305.44
328.143	159.44
328.372	132.44
328.6	113.44
328.829	111.44
329.058	112.44
329.287	109.44
329.515	92.44
329.744	98.44
329.972	103.44
330.201	115.44
330.43	96.44
330.658	96.44
330.887	136.44
331.115	117.44
331.344	103.44
331.572	93.44
331.801	94.44
332.03	89.44
332.258	92.44
332.486	83.44
332.715	82.44
332.943	76.44
333.172	105.44
333.4	93.44
333.629	111.44
333.857	111.44
334.085	99.44
334.314	96.44
334.542	116.44
334.771	114.44
334.999	90.44
335.227	89.44
335.455	106.44
335.684	96.44
335.912	89.44
336.14	93.44
336.369	99.44
336.597	108.44
336.825	82.44
337.053	90.44
337.281	95.44
337.51	82.44
337.738	111.44
337.966	90.44
338.194	95.44
338.422	90.44
338.65	98.44
338.878	80.44
339.106	89.44
339.334	99.44
339.562	99.44
339.79	110.44
340.018	94.44
340.246	106.44
340.474	91.44
340.702	96.44
340.93	88.44
341.158	79.44
341.386	89.44
341.614	96.44
341.842	84.44
342.07	76.44
342.298	87.44
342.526	100.44
342.754	111.44
342.981	93.44
343.209	98.44
343.437	110.44
343.665	83.44
343.893	95.44
344.12	98.44
344.348	75.44
344.576	83.44
344.804	86.44
345.031	88.44
345.259	100.44
345.487	95.44
345.714	103.44
345.942	92.44
346.17	84.44
346.397	95.44
346.625	92.44
346.853	97.44
347.08	100.44
347.308	90.44
347.535	101.44
347.763	96.44
347.99	99.44
348.218	100.44
348.445	89.44
348.673	91.44
348.9	111.44
349.128	84.44
349.355	92.44
349.583	104.44
349.81	97.44
350.037	90.44
350.265	85.44
350.492	79.44
350.72	93.44
350.947	92.44
351.174	113.44
351.402	108.44
351.629	108.44
351.856	104.44
352.083	91.44
352.311	106.44
352.538	108.44
352.765	98.44
352.992	97.44
353.22	120.44
353.447	106.44
353.674	98.44
353.901	108.44
354.128	85.44
354.355	100.44
354.583	96.44
354.81	93.44
355.037	92.44
355.264	84.44
355.491	96.44
355.718	87.44
355.945	96.44
356.172	81.44
356.399	94.44
356.626	91.44
356.853	99.44
357.08	90.44
357.307	91.44
357.534	87.44
357.761	95.44
357.988	101.44
358.215	94.44
358.441	110.44
358.668	91.44
358.895	91.44
359.122	77.44
359.349	90.44
359.576	91.44
359.802	105.44
360.029	90.44
360.256	96.44
360.483	89.44
360.709	90.44
360.936	98.44
361.163	80.44
361.39	85.44
361.616	89.44
361.843	92.44
362.07	112.44
362.296	77.44
362.523	89.44
362.749	93.44
362.976	84.44
363.203	96.44
363.429	93.44
363.656	95.44
363.882	84.44
364.109	98.44
364.335	93.44
364.562	74.44
364.788	98.44
365.015	100.44
365.241	96.44
365.468	101.44
365.694	100.44
365.92	99.44
366.147	87.44
366.373	87.44
366.599	88.44
366.826	89.44
367.052	87.44
367.278	86.44
367.505	99.44
367.731	76.44
367.957	83.44
368.184	95.44
368.41	99.44
368.636	107.44
368.862	119.44
369.089	101.44
369.315	85.44
369.541	77.44
369.767	95.44
369.993	116.44
370.219	84.44
370.445	95.44
370.672	89.44
370.898	93.44
371.124	87.44
371.35	90.44
371.576	82.44
371.802	101.44
372.028	83.44
372.254	93.44
372.48	92.44
372.706	85.44
372.932	99.44
373.158	95.44
373.384	97.44
373.61	78.44
373.835	96.44
374.061	93.44
374.287	95.44
374.513	91.44
374.739	92.44
374.965	88.44
375.191	92.44
375.416	94.44
375.642	93.44
375.868	80.44
376.094	80.44
376.319	87.44
376.545	91.44
376.771	87.44
376.997	77.44
377.222	100.44
377.448	101.44
377.674	87.44
377.899	93.44
378.125	104.44
378.35	84.44
378.576	83.44
378.802	95.44
379.027	84.44
379.253	69.44
379.478	91.44
379.704	99.44
379.929	96.44
380.155	77.44
380.38	82.44
380.606	83.44
380.831	101.44
381.057	90.44
381.282	91.44
381.507	95.44
381.733	99.44
381.958	95.44
382.184	94.44
382.409	97.44
382.634	91.44
382.86	94.44
383.085	92.44
383.31	107.44
383.535	104.44
383.761	101.44
383.986	92.44
384.211	96.44
384.436	94.44
384.662	105.44
384.887	89.44
385.112	95.44
385.337	106.44
385.562	107.44
385.787	99.44
386.013	111.44
386.238	101.44
386.463	109.44
386.688	112.44
386.913	101.44
387.138	105.44
387.363	107.44
387.588	108.44
387.813	99.44
388.038	112.44
388.263	111.44
388.488	102.44
388.713	93.44
388.938	92.44
389.163	94.44
389.387	90.44
389.612	95.44
389.837	84.44
390.062	93.44
390.287	89.44
390.512	81.44
390.736	83.44
390.961	97.44
391.186	105.44
391.411	85.44
391.636	89.44
391.86	88.44
392.085	80.44
392.31	78.44
392.534	79.44
392.759	83.44
392.984	90.44
393.208	75.44
393.433	83.44
393.658	91.44
393.882	87.44
394.107	79.44
394.331	79.44
394.556	88.44
394.78	96.44
395.005	92.44
395.229	88.44
395.454	94.44
395.678	91.44
395.903	81.44
396.127	77.44
396.352	80.44
396.576	72.44
396.801	68.44
397.025	105.44
397.249	68.44
397.474	92.44
397.698	82.44
397.922	84.44
398.147	78.44
398.371	104.44
398.595	73.44
398.82	94.44
399.044	88.44
399.268	90.44
399.492	83.44
399.717	79.44
399.941	76.44
400.165	79.44
400.389	84.44
400.613	82.44
400.837	75.44
401.062	89.44
401.286	90.44
401.51	91.44
401.734	94.44
401.958	107.44
402.182	87.44
402.406	128.44
402.63	114.44
402.854	103.44
403.078	78.44
403.302	88.44
403.526	100.44
403.75	73.44
403.974	84.44
404.198	90.44
404.422	77.44
404.645	88.44
404.869	95.44
405.093	71.44
405.317	86.44
405.541	93.44
405.765	103.44
405.988	104.44
406.212	143.44
406.436	193.44
406.66	119.44
406.883	96.44
407.107	105.44
407.331	99.44
407.555	89.44
407.778	100.44
408.002	98.44
408.226	73.44
408.449	92.44
408.673	95.44
408.896	90.44
409.12	90.44
409.344	86.44
409.567	99.44
409.791	82.44
410.014	80.44
410.238	99.44
410.461	82.44
410.685	93.44
410.908	90.44
411.132	103.44
411.355	98.44
411.578	90.44
411.802	79.44
412.025	78.44
412.249	94.44
412.472	82.44
412.695	84.44
412.919	87.44
413.142	90.44
413.365	95.44
413.589	81.44
413.812	92.44
414.035	75.44
414.258	93.44
414.482	96.44
414.705	105.44
414.928	89.44
415.151	96.44
415.374	96.44
415.597	96.44
415.821	95.44
416.044	90.44
416.267	95.44
416.49	104.44
416.713	92.44
416.936	77.44
417.159	82.44
417.382	85.44
417.605	85.44
417.828	80.44
418.051	64.44
418.274	87.44
418.497	82.44
418.72	98.44
418.943	90.44
419.166	87.44
419.389	79.44
419.611	94.44
419.834	76.44
420.057	75.44
420.28	99.44
420.503	96.44
420.726	98.44
420.948	92.44
421.171	85.44
421.394	84.44
421.617	92.44
421.839	85.44
422.062	92.44
422.285	87.44
422.507	95.44
422.73	91.44
422.953	104.44
423.175	85.44
423.398	83.44
423.621	95.44
423.843	93.44
424.066	93.44
424.288	89.44
424.511	95.44
424.733	101.44
424.956	100.44
425.178	94.44
425.401	71.44
425.623	93.44
425.846	106.44
426.068	100.44
426.291	104.44
426.513	91.44
426.735	96.44
426.958	93.44
427.18	89.44
427.402	122.44
427.625	156.44
427.847	140.44
428.069	108.44
428.292	91.44
428.514	87.44
428.736	79.44
428.958	94.44
429.181	78.44
429.403	72.44
429.625	99.44
429.847	87.44
430.069	83.44
430.292	73.44
430.514	85.44
430.736	77.44
430.958	87.44
431.18	83.44
431.402	83.44
431.624	79.44
431.846	75.44
432.068	85.44
432.29	71.44
432.512	91.44
432.734	76.44
432.956	82.44
433.178	92.44
433.4	71.44
433.622	89.44
433.844	72.44
434.066	86.44
434.287	87.44
434.509	76.44
434.731	87.44
434.953	98.44
435.175	91.44
435.397	87.44
435.618	89.44
435.84	96.44
436.062	107.44
436.284	104.44
436.505	99.44
436.727	99.44
436.949	100.44
437.17	90.44
437.392	75.44
437.614	91.44
437.835	109.44
438.057	105.44
438.278	97.44
438.5	110.44
438.721	114.44
438.943	92.44
439.165	83.44
439.386	75.44
439.608	98.44
439.829	97.44
440.05	114.44
440.272	130.44
440.493	99.44
440.715	93.44
440.936	91.44
441.158	104.44
441.379	88.44
441.6	90.44
441.822	88.44
442.043	92.44
442.264	103.44
442.486	92.44
442.707	93.44
442.928	96.44
443.149	105.44
443.371	119.44
443.592	107.44
443.813	91.44
444.034	101.44
444.255	92.44
444.476	97.44
444.698	84.44
444.919	81.44
445.14	130.44
445.361	109.44
445.582	107.44
445.803	113.44
446.024	117.44
446.245	117.44
446.466	103.44
446.687	91.44
446.908	88.44
447.129	92.44
447.35	79.44
447.571	95.44
447.792	70.44
448.013	80.44
448.234	95.44
448.455	89.44
448.675	107.44
448.896	99.44
449.117	101.44
449.338	101.44
449.559	112.44
449.779	104.44
450	89.44
450.221	92.44
450.442	95.44
450.662	89.44
450.883	84.44
451.104	104.44
451.324	98.44
451.545	76.44
451.766	77.44
451.986	77.44
452.207	85.44
452.428	91.44
452.648	100.44
452.869	87.44
453.089	105.44
453.31	111.44
453.53	107.44
453.751	103.44
453.971	98.44
454.192	102.44
454.412	88.44
454.633	100.44
454.853	74.44
455.073	85.44
455.294	91.44
455.514	86.44
455.734	90.44
455.955	87.44
456.175	95.44
456.395	81.44
456.616	83.44
456.836	66.44
457.056	74.44
457.276	81.44
457.497	83.44
457.717	97.44
457.937	93.44
458.157	73.44
458.377	85.44
458.598	88.44
458.818	129.44
459.038	136.44
459.258	103.44
459.478	93.44
459.698	80.44
459.918	72.44
460.138	65.44
460.358	68.44
460.578	84.44
460.798	87.44
461.018	88.44
461.238	91.44
461.458	81.44
461.678	91.44
461.898	75.44
462.118	82.44
462.338	95.44
462.558	80.44
462.777	77.44
462.997	88.44
463.217	75.44
463.437	84.44
463.657	87.44
463.876	87.44
464.096	92.44
464.316	93.44
464.536	103.44
464.755	83.44
464.975	98.44
465.195	142.44
465.414	137.44
465.634	77.44
465.854	73.44
466.073	87.44
466.293	98.44
466.512	92.44
466.732	69.44
466.951	88.44
467.171	80.44
467.391	99.44
467.61	90.44
467.829	103.44
468.049	100.44
468.268	79.44
468.488	72.44
468.707	94.44
468.927	60.44
469.146	76.44
469.365	84.44
469.585	76.44
469.804	91.44
470.023	92.44
470.243	77.44
470.462	99.44
470.681	89.44
470.901	89.44
471.12	84.44
471.339	98.44
471.558	88.44
471.777	93.44
471.997	90.44
472.216	90.44
472.435	104.44
472.654	82.44
472.873	75.44
473.092	83.44
473.311	97.44
473.53	78.44
473.749	81.44
473.968	91.44
474.187	104.44
474.406	98.44
474.625	84.44
474.844	83.44
475.063	79.44
475.282	85.44
475.501	84.44
475.72	94.44
475.939	95.44
476.158	98.44
476.377	91.44
476.596	92.44
476.814	84.44
477.033	87.44
477.252	91.44
477.471	84.44
477.69	77.44
477.908	84.44
478.127	83.44
478.346	90.44
478.564	84.44
478.783	107.44
479.002	72.44
479.22	91.44
479.439	103.44
479.658	105.44
479.876	94.44
480.095	100.44
480.313	81.44
480.532	104.44
480.751	83.44
480.969	103.44
481.188	130.44
481.406	121.44
481.624	85.44
481.843	90.44
482.061	91.44
482.28	88.44
482.498	85.44
482.717	93.44
482.935	87.44
483.153	83.44
483.372	95.44
483.59	73.44
483.808	81.44
484.027	88.44
484.245	95.44
484.463	87.44
484.681	106.44
484.9	86.44
485.118	92.44
485.336	100.44
485.554	97.44
485.772	99.44
485.99	97.44
486.209	98.44
486.427	99.44
486.645	104.44
486.863	116.44
487.081	98.44
487.299	109.44
487.517	98.44
487.735	100.44
487.953	79.44
488.171	94.44
488.389	99.44
488.607	96.44
488.825	79.44
489.043	81.44
489.261	88.44
489.479	84.44
489.696	89.44
489.914	96.44
490.132	93.44
490.35	90.44
490.568	83.44
490.786	89.44
491.003	89.44
491.221	83.44
491.439	95.44
491.657	93.44
491.874	101.44
492.092	81.44
492.31	89.44
492.527	95.44
492.745	93.44
492.963	75.44
493.18	71.44
493.398	110.44
493.615	98.44
493.833	84.44
494.05	93.44
494.268	78.44
494.485	84.44
494.703	80.44
494.92	81.44
495.138	79.44
495.355	93.44
495.573	89.44
495.79	90.44
496.008	102.44
496.225	96.44
496.442	91.44
496.66	93.44
496.877	75.44
497.094	98.44
497.312	103.44
497.529	92.44
497.746	80.44
497.963	84.44
498.181	78.44
498.398	94.44
498.615	109.44
498.832	103.44
499.049	94.44
499.267	92.44
499.484	96.44
499.701	88.44
499.918	103.44
500.135	83.44
500.352	75.44
500.569	92.44
500.786	91.44
501.003	83.44
501.22	92.44
501.437	88.44
501.654	92.44
501.871	92.44
502.088	80.44
502.305	95.44
502.522	91.44
502.739	109.44
502.956	77.44
503.172	76.44
503.389	86.44
503.606	92.44
503.823	104.44
504.04	89.44
504.256	93.44
504.473	76.44
504.69	92.44
504.907	88.44
505.123	92.44
505.34	111.44
505.557	100.44
505.773	91.44
505.99	94.44
506.207	85.44
506.423	85.44
506.64	89.44
506.856	92.44
507.073	97.44
507.289	93.44
507.506	92.44
507.722	103.44
507.939	95.44
508.155	91.44
508.372	92.44
508.588	86.44
508.805	99.44
509.021	91.44
509.238	100.44
509.454	83.44
509.67	104.44
509.887	98.44
510.103	122.44
510.319	193.44
510.536	644.44
510.752	2055.44
510.968	580.44
511.184	151.44
511.401	96.44
511.617	92.44
511.833	95.44
512.049	98.44
512.265	81.44
512.481	91.44
512.698	96.44
512.914	93.44
513.13	86.44
513.346	71.44
513.562	86.44
513.778	83.44
513.994	97.44
514.21	92.44
514.426	111.44
514.642	129.44
514.858	116.44
515.074	153.44
515.29	384.44
515.506	1152.44
515.721	439.44
515.937	143.44
516.153	95.44
516.369	92.44
516.585	97.44
