Data from Circ_1994_H10_HRD10591_00013.txt Node
Date: Wed Jan 03 11:40:33 EST 2024
User: Yrep
Spectrometer: HR+D1059
Trigger mode: 1
Integration Time (sec): 1.000000E-1
Scans to average: 1
Electric dark correction enabled: true
Nonlinearity correction enabled: false
Boxcar width: 0
XAxis mode: Wavelengths
Number of Pixels in Spectrum: 2048
>>>>>Begin Spectral Data<<<<<
223.165	1.38
223.4	1.38
223.635	1.38
223.869	-12.62
224.104	-17.62
224.338	-17.62
224.573	-17.62
224.808	-19.62
225.042	-17.62
225.277	7.38
225.511	3.38
225.746	-4.62
225.98	2.38
226.215	6.38
226.449	19.38
226.683	15.38
226.918	28.38
227.152	23.38
227.387	48.38
227.621	53.38
227.856	41.38
228.09	49.38
228.324	48.38
228.559	48.38
228.793	60.38
229.027	58.38
229.262	63.38
229.496	74.38
229.73	79.38
229.964	64.38
230.199	74.38
230.433	63.38
230.667	78.38
230.901	71.38
231.136	81.38
231.37	83.38
231.604	81.38
231.838	91.38
232.072	66.38
232.306	70.38
232.541	73.38
232.775	87.38
233.009	93.38
233.243	91.38
233.477	86.38
233.711	79.38
233.945	86.38
234.179	75.38
234.413	76.38
234.647	79.38
234.881	83.38
235.115	88.38
235.349	80.38
235.583	79.38
235.817	93.38
236.051	97.38
236.285	82.38
236.519	73.38
236.753	79.38
236.987	79.38
237.221	84.38
237.455	76.38
237.689	62.38
237.922	64.38
238.156	76.38
238.39	81.38
238.624	69.38
238.858	73.38
239.091	80.38
239.325	59.38
239.559	63.38
239.793	60.38
240.027	74.38
240.26	72.38
240.494	89.38
240.728	67.38
240.961	77.38
241.195	83.38
241.429	72.38
241.662	69.38
241.896	74.38
242.13	68.38
242.363	68.38
242.597	88.38
242.83	76.38
243.064	66.38
243.298	63.38
243.531	53.38
243.765	76.38
243.998	72.38
244.232	67.38
244.465	77.38
244.699	66.38
244.932	80.38
245.166	75.38
245.399	87.38
245.633	79.38
245.866	89.38
246.099	82.38
246.333	79.38
246.566	66.38
246.8	85.38
247.033	78.38
247.266	73.38
247.5	84.38
247.733	76.38
247.966	82.38
248.2	78.38
248.433	80.38
248.666	79.38
248.899	60.38
249.133	91.38
249.366	92.38
249.599	83.38
249.832	73.38
250.066	79.38
250.299	73.38
250.532	69.38
250.765	76.38
250.998	84.38
251.231	78.38
251.465	80.38
251.698	65.38
251.931	74.38
252.164	73.38
252.397	79.38
252.63	83.38
252.863	90.38
253.096	92.38
253.329	100.38
253.562	85.38
253.795	80.38
254.028	80.38
254.261	80.38
254.494	72.38
254.727	103.38
254.96	73.38
255.193	68.38
255.426	64.38
255.659	64.38
255.892	72.38
256.124	79.38
256.357	77.38
256.59	76.38
256.823	73.38
257.056	85.38
257.289	85.38
257.521	83.38
257.754	59.38
257.987	81.38
258.22	83.38
258.452	87.38
258.685	83.38
258.918	89.38
259.151	86.38
259.383	84.38
259.616	89.38
259.849	75.38
260.081	77.38
260.314	96.38
260.547	94.38
260.779	77.38
261.012	89.38
261.244	83.38
261.477	83.38
261.71	100.38
261.942	108.38
262.175	99.38
262.407	80.38
262.64	87.38
262.872	74.38
263.105	85.38
263.337	83.38
263.57	66.38
263.802	77.38
264.035	67.38
264.267	77.38
264.499	77.38
264.732	76.38
264.964	81.38
265.197	91.38
265.429	85.38
265.661	81.38
265.894	69.38
266.126	81.38
266.358	91.38
266.591	62.38
266.823	84.38
267.055	78.38
267.287	96.38
267.52	80.38
267.752	71.38
267.984	85.38
268.216	79.38
268.448	86.38
268.681	95.38
268.913	81.38
269.145	93.38
269.377	68.38
269.609	87.38
269.841	78.38
270.073	80.38
270.306	88.38
270.538	87.38
270.77	82.38
271.002	83.38
271.234	92.38
271.466	86.38
271.698	67.38
271.93	76.38
272.162	83.38
272.394	72.38
272.626	100.38
272.858	84.38
273.09	91.38
273.322	71.38
273.553	87.38
273.785	87.38
274.017	85.38
274.249	96.38
274.481	88.38
274.713	66.38
274.945	86.38
275.176	91.38
275.408	103.38
275.64	88.38
275.872	96.38
276.104	77.38
276.335	89.38
276.567	100.38
276.799	104.38
277.031	111.38
277.262	94.38
277.494	83.38
277.726	74.38
277.957	74.38
278.189	82.38
278.421	88.38
278.652	96.38
278.884	71.38
279.115	82.38
279.347	73.38
279.579	87.38
279.81	85.38
280.042	83.38
280.273	79.38
280.505	87.38
280.736	75.38
280.968	81.38
281.199	88.38
281.431	80.38
281.662	83.38
281.894	79.38
282.125	76.38
282.356	111.38
282.588	130.38
282.819	104.38
283.051	95.38
283.282	87.38
283.513	81.38
283.745	88.38
283.976	91.38
284.207	89.38
284.439	89.38
284.67	83.38
284.901	89.38
285.132	93.38
285.364	94.38
285.595	89.38
285.826	92.38
286.057	76.38
286.288	76.38
286.52	72.38
286.751	85.38
286.982	77.38
287.213	92.38
287.444	79.38
287.675	79.38
287.906	81.38
288.138	84.38
288.369	81.38
288.6	81.38
288.831	82.38
289.062	75.38
289.293	99.38
289.524	90.38
289.755	85.38
289.986	84.38
290.217	66.38
290.448	93.38
290.679	97.38
290.91	96.38
291.141	91.38
291.371	93.38
291.602	87.38
291.833	99.38
292.064	90.38
292.295	75.38
292.526	84.38
292.757	77.38
292.987	89.38
293.218	75.38
293.449	79.38
293.68	89.38
293.91	88.38
294.141	94.38
294.372	86.38
294.603	95.38
294.833	78.38
295.064	89.38
295.295	92.38
295.525	92.38
295.756	104.38
295.987	103.38
296.217	129.38
296.448	104.38
296.679	84.38
296.909	106.38
297.14	91.38
297.37	92.38
297.601	93.38
297.831	93.38
298.062	82.38
298.292	96.38
298.523	91.38
298.753	85.38
298.984	86.38
299.214	81.38
299.445	88.38
299.675	99.38
299.905	83.38
300.136	97.38
300.366	90.38
300.597	94.38
300.827	101.38
301.057	89.38
301.288	91.38
301.518	100.38
301.748	97.38
301.979	102.38
302.209	93.38
302.439	95.38
302.669	90.38
302.9	79.38
303.13	96.38
303.36	96.38
303.59	93.38
303.82	108.38
304.051	83.38
304.281	94.38
304.511	95.38
304.741	91.38
304.971	80.38
305.201	79.38
305.431	87.38
305.661	96.38
305.891	93.38
306.121	93.38
306.352	95.38
306.582	107.38
306.812	98.38
307.042	84.38
307.272	108.38
307.502	89.38
307.731	85.38
307.961	81.38
308.191	90.38
308.421	71.38
308.651	100.38
308.881	75.38
309.111	90.38
309.341	99.38
309.571	95.38
309.8	78.38
310.03	89.38
310.26	112.38
310.49	96.38
310.72	111.38
310.949	87.38
311.179	98.38
311.409	82.38
311.639	100.38
311.868	91.38
312.098	93.38
312.328	95.38
312.557	84.38
312.787	93.38
313.017	73.38
313.246	100.38
313.476	84.38
313.706	92.38
313.935	88.38
314.165	88.38
314.394	97.38
314.624	88.38
314.853	101.38
315.083	92.38
315.312	98.38
315.542	95.38
315.771	92.38
316.001	86.38
316.23	96.38
316.46	102.38
316.689	83.38
316.919	83.38
317.148	81.38
317.377	99.38
317.607	84.38
317.836	79.38
318.065	81.38
318.295	102.38
318.524	87.38
318.753	82.38
318.983	87.38
319.212	106.38
319.441	108.38
319.67	105.38
319.9	90.38
320.129	86.38
320.358	94.38
320.587	87.38
320.816	88.38
321.046	104.38
321.275	97.38
321.504	96.38
321.733	101.38
321.962	97.38
322.191	95.38
322.42	94.38
322.649	111.38
322.878	113.38
323.108	109.38
323.337	102.38
323.566	119.38
323.795	127.38
324.024	171.38
324.253	335.38
324.482	653.38
324.71	1323.38
324.939	1751.38
325.168	647.38
325.397	219.38
325.626	139.38
325.855	113.38
326.084	117.38
326.313	125.38
326.542	123.38
326.77	196.38
326.999	409.38
327.228	738.38
327.457	1330.38
327.686	1059.38
327.914	301.38
328.143	168.38
328.372	137.38
328.6	114.38
328.829	115.38
329.058	107.38
329.287	113.38
329.515	103.38
329.744	93.38
329.972	96.38
330.201	116.38
330.43	118.38
330.658	122.38
330.887	137.38
331.115	105.38
331.344	89.38
331.572	92.38
331.801	108.38
332.03	105.38
332.258	96.38
332.486	97.38
332.715	104.38
332.943	93.38
333.172	97.38
333.4	99.38
333.629	98.38
333.857	99.38
334.085	119.38
334.314	98.38
334.542	119.38
334.771	103.38
334.999	101.38
335.227	92.38
335.455	103.38
335.684	100.38
335.912	99.38
336.14	113.38
336.369	94.38
336.597	85.38
336.825	96.38
337.053	97.38
337.281	100.38
337.51	85.38
337.738	100.38
337.966	84.38
338.194	99.38
338.422	97.38
338.65	82.38
338.878	96.38
339.106	95.38
339.334	87.38
339.562	94.38
339.79	101.38
340.018	87.38
340.246	88.38
340.474	77.38
340.702	85.38
340.93	92.38
341.158	99.38
341.386	97.38
341.614	108.38
341.842	91.38
342.07	100.38
342.298	91.38
342.526	80.38
342.754	85.38
342.981	97.38
343.209	77.38
343.437	102.38
343.665	91.38
343.893	92.38
344.12	87.38
344.348	81.38
344.576	93.38
344.804	98.38
345.031	101.38
345.259	92.38
345.487	92.38
345.714	104.38
345.942	88.38
346.17	99.38
346.397	99.38
346.625	88.38
346.853	99.38
347.08	84.38
347.308	98.38
347.535	97.38
347.763	97.38
347.99	105.38
348.218	113.38
348.445	86.38
348.673	87.38
348.9	95.38
349.128	89.38
349.355	96.38
349.583	90.38
349.81	98.38
350.037	97.38
350.265	92.38
350.492	103.38
350.72	91.38
350.947	87.38
351.174	119.38
351.402	99.38
351.629	94.38
351.856	107.38
352.083	99.38
352.311	99.38
352.538	114.38
352.765	112.38
352.992	104.38
353.22	104.38
353.447	96.38
353.674	100.38
353.901	92.38
354.128	88.38
354.355	88.38
354.583	100.38
354.81	103.38
355.037	88.38
355.264	93.38
355.491	99.38
355.718	104.38
355.945	100.38
356.172	97.38
356.399	108.38
356.626	91.38
356.853	93.38
357.08	93.38
357.307	91.38
357.534	83.38
357.761	109.38
357.988	82.38
358.215	83.38
358.441	95.38
358.668	104.38
358.895	94.38
359.122	98.38
359.349	93.38
359.576	96.38
359.802	80.38
360.029	98.38
360.256	107.38
360.483	80.38
360.709	103.38
360.936	99.38
361.163	92.38
361.39	101.38
361.616	84.38
361.843	90.38
362.07	93.38
362.296	81.38
362.523	87.38
362.749	81.38
362.976	85.38
363.203	82.38
363.429	96.38
363.656	86.38
363.882	84.38
364.109	83.38
364.335	72.38
364.562	96.38
364.788	98.38
365.015	99.38
365.241	96.38
365.468	109.38
365.694	93.38
365.92	96.38
366.147	92.38
366.373	101.38
366.599	74.38
366.826	96.38
367.052	103.38
367.278	87.38
367.505	107.38
367.731	96.38
367.957	95.38
368.184	97.38
368.41	96.38
368.636	104.38
368.862	111.38
369.089	100.38
369.315	84.38
369.541	81.38
369.767	96.38
369.993	89.38
370.219	78.38
370.445	84.38
370.672	84.38
370.898	87.38
371.124	101.38
371.35	95.38
371.576	99.38
371.802	87.38
372.028	97.38
372.254	73.38
372.48	93.38
372.706	90.38
372.932	81.38
373.158	92.38
373.384	91.38
373.61	89.38
373.835	93.38
374.061	97.38
374.287	95.38
374.513	87.38
374.739	84.38
374.965	87.38
375.191	82.38
375.416	80.38
375.642	94.38
375.868	104.38
376.094	92.38
376.319	87.38
376.545	99.38
376.771	93.38
376.997	95.38
377.222	83.38
377.448	99.38
377.674	83.38
377.899	98.38
378.125	97.38
378.35	95.38
378.576	83.38
378.802	90.38
379.027	81.38
379.253	98.38
379.478	83.38
379.704	105.38
379.929	76.38
380.155	108.38
380.38	80.38
380.606	92.38
380.831	97.38
381.057	101.38
381.282	99.38
381.507	90.38
381.733	105.38
381.958	98.38
382.184	94.38
382.409	88.38
382.634	98.38
382.86	92.38
383.085	96.38
383.31	98.38
383.535	100.38
383.761	97.38
383.986	90.38
384.211	97.38
384.436	95.38
384.662	96.38
384.887	106.38
385.112	93.38
385.337	127.38
385.562	110.38
385.787	107.38
386.013	107.38
386.238	108.38
386.463	113.38
386.688	105.38
386.913	92.38
387.138	116.38
387.363	97.38
387.588	105.38
387.813	94.38
388.038	109.38
388.263	114.38
388.488	96.38
388.713	104.38
388.938	85.38
389.163	101.38
389.387	90.38
389.612	102.38
389.837	84.38
390.062	95.38
390.287	92.38
390.512	81.38
390.736	99.38
390.961	91.38
391.186	81.38
391.411	92.38
391.636	88.38
391.86	96.38
392.085	92.38
392.31	86.38
392.534	92.38
392.759	81.38
392.984	88.38
393.208	90.38
393.433	91.38
393.658	91.38
393.882	83.38
394.107	89.38
394.331	79.38
394.556	90.38
394.78	95.38
395.005	81.38
395.229	91.38
395.454	81.38
395.678	78.38
395.903	94.38
396.127	106.38
396.352	93.38
396.576	89.38
396.801	101.38
397.025	82.38
397.249	89.38
397.474	70.38
397.698	76.38
397.922	78.38
398.147	99.38
398.371	91.38
398.595	79.38
398.82	88.38
399.044	81.38
399.268	85.38
399.492	91.38
399.717	93.38
399.941	74.38
400.165	86.38
400.389	105.38
400.613	98.38
400.837	75.38
401.062	79.38
401.286	86.38
401.51	87.38
401.734	93.38
401.958	95.38
402.182	120.38
402.406	149.38
402.63	127.38
402.854	96.38
403.078	82.38
403.302	88.38
403.526	87.38
403.75	99.38
403.974	92.38
404.198	103.38
404.422	87.38
404.645	88.38
404.869	80.38
405.093	73.38
405.317	87.38
405.541	91.38
405.765	94.38
405.988	102.38
406.212	137.38
406.436	194.38
406.66	130.38
406.883	96.38
407.107	87.38
407.331	89.38
407.555	97.38
407.778	100.38
408.002	97.38
408.226	76.38
408.449	85.38
408.673	90.38
408.896	97.38
409.12	103.38
409.344	94.38
409.567	91.38
409.791	82.38
410.014	99.38
410.238	90.38
410.461	83.38
410.685	93.38
410.908	82.38
411.132	114.38
411.355	84.38
411.578	94.38
411.802	85.38
412.025	95.38
412.249	96.38
412.472	77.38
412.695	87.38
412.919	90.38
413.142	73.38
413.365	87.38
413.589	93.38
413.812	78.38
414.035	91.38
414.258	90.38
414.482	91.38
414.705	82.38
414.928	88.38
415.151	91.38
415.374	86.38
415.597	79.38
415.821	94.38
416.044	88.38
416.267	79.38
416.49	84.38
416.713	88.38
416.936	91.38
417.159	77.38
417.382	85.38
417.605	82.38
417.828	99.38
418.051	87.38
418.274	84.38
418.497	88.38
418.72	91.38
418.943	93.38
419.166	82.38
419.389	80.38
419.611	91.38
419.834	85.38
420.057	99.38
420.28	104.38
420.503	96.38
420.726	90.38
420.948	90.38
421.171	84.38
421.394	102.38
421.617	75.38
421.839	83.38
422.062	91.38
422.285	95.38
422.507	115.38
422.73	111.38
422.953	92.38
423.175	100.38
423.398	75.38
423.621	103.38
423.843	85.38
424.066	94.38
424.288	87.38
424.511	84.38
424.733	98.38
424.956	104.38
425.178	99.38
425.401	85.38
425.623	95.38
425.846	89.38
426.068	84.38
426.291	96.38
426.513	92.38
426.735	77.38
426.958	91.38
427.18	107.38
427.402	115.38
427.625	165.38
427.847	121.38
428.069	97.38
428.292	84.38
428.514	92.38
428.736	91.38
428.958	85.38
429.181	93.38
429.403	94.38
429.625	89.38
429.847	95.38
430.069	92.38
430.292	103.38
430.514	76.38
430.736	89.38
430.958	89.38
431.18	82.38
431.402	88.38
431.624	91.38
431.846	76.38
432.068	96.38
432.29	91.38
432.512	94.38
432.734	83.38
432.956	95.38
433.178	87.38
433.4	95.38
433.622	93.38
433.844	87.38
434.066	92.38
434.287	94.38
434.509	99.38
434.731	98.38
434.953	81.38
435.175	79.38
435.397	94.38
435.618	92.38
435.84	96.38
436.062	108.38
436.284	94.38
436.505	101.38
436.727	91.38
436.949	86.38
437.17	94.38
437.392	83.38
437.614	75.38
437.835	89.38
438.057	119.38
438.278	97.38
438.5	99.38
438.721	121.38
438.943	82.38
439.165	84.38
439.386	75.38
439.608	96.38
439.829	96.38
440.05	98.38
440.272	127.38
440.493	99.38
440.715	83.38
440.936	90.38
441.158	99.38
441.379	90.38
441.6	88.38
441.822	86.38
442.043	97.38
442.264	89.38
442.486	86.38
442.707	91.38
442.928	99.38
443.149	121.38
443.371	119.38
443.592	104.38
443.813	95.38
444.034	96.38
444.255	83.38
444.476	86.38
444.698	82.38
444.919	81.38
445.14	117.38
445.361	111.38
445.582	103.38
445.803	108.38
446.024	117.38
446.245	117.38
446.466	114.38
446.687	96.38
446.908	82.38
447.129	72.38
447.35	80.38
447.571	78.38
447.792	83.38
448.013	96.38
448.234	100.38
448.455	101.38
448.675	106.38
448.896	100.38
449.117	112.38
449.338	101.38
449.559	122.38
449.779	119.38
450	92.38
450.221	74.38
450.442	76.38
450.662	85.38
450.883	105.38
451.104	108.38
451.324	103.38
451.545	93.38
451.766	91.38
451.986	79.38
452.207	85.38
452.428	88.38
452.648	96.38
452.869	108.38
453.089	91.38
453.31	84.38
453.53	91.38
453.751	83.38
453.971	84.38
454.192	109.38
454.412	75.38
454.633	78.38
454.853	82.38
455.073	80.38
455.294	100.38
455.514	83.38
455.734	90.38
455.955	69.38
456.175	95.38
456.395	84.38
456.616	78.38
456.836	79.38
457.056	78.38
457.276	80.38
457.497	93.38
457.717	78.38
457.937	73.38
458.157	75.38
458.377	80.38
458.598	117.38
458.818	139.38
459.038	123.38
459.258	108.38
459.478	84.38
459.698	84.38
459.918	80.38
460.138	86.38
460.358	86.38
460.578	84.38
460.798	88.38
461.018	82.38
461.238	86.38
461.458	97.38
461.678	84.38
461.898	94.38
462.118	80.38
462.338	84.38
462.558	91.38
462.777	76.38
462.997	89.38
463.217	84.38
463.437	95.38
463.657	83.38
463.876	80.38
464.096	87.38
464.316	91.38
464.536	82.38
464.755	98.38
464.975	108.38
465.195	121.38
465.414	138.38
465.634	87.38
465.854	93.38
466.073	88.38
466.293	86.38
466.512	73.38
466.732	81.38
466.951	95.38
467.171	90.38
467.391	94.38
467.61	97.38
467.829	85.38
468.049	95.38
468.268	87.38
468.488	99.38
468.707	80.38
468.927	93.38
469.146	81.38
469.365	93.38
469.585	93.38
469.804	98.38
470.023	87.38
470.243	99.38
470.462	105.38
470.681	104.38
470.901	74.38
471.12	68.38
471.339	77.38
471.558	84.38
471.777	95.38
471.997	96.38
472.216	95.38
472.435	121.38
472.654	84.38
472.873	93.38
473.092	88.38
473.311	93.38
473.53	91.38
473.749	93.38
473.968	76.38
474.187	89.38
474.406	96.38
474.625	87.38
474.844	96.38
475.063	83.38
475.282	87.38
475.501	89.38
475.72	101.38
475.939	80.38
476.158	93.38
476.377	102.38
476.596	96.38
476.814	84.38
477.033	91.38
477.252	81.38
477.471	85.38
477.69	78.38
477.908	91.38
478.127	87.38
478.346	92.38
478.564	93.38
478.783	96.38
479.002	93.38
479.22	83.38
479.439	105.38
479.658	78.38
479.876	91.38
480.095	92.38
480.313	93.38
480.532	79.38
480.751	88.38
480.969	116.38
481.188	179.38
481.406	126.38
481.624	84.38
481.843	95.38
482.061	93.38
482.28	91.38
482.498	90.38
482.717	67.38
482.935	87.38
483.153	85.38
483.372	85.38
483.59	88.38
483.808	101.38
484.027	88.38
484.245	89.38
484.463	97.38
484.681	88.38
484.9	96.38
485.118	88.38
485.336	99.38
485.554	107.38
485.772	88.38
485.99	101.38
486.209	101.38
486.427	105.38
486.645	94.38
486.863	108.38
487.081	92.38
487.299	81.38
487.517	89.38
487.735	96.38
487.953	95.38
488.171	85.38
488.389	99.38
488.607	93.38
488.825	93.38
489.043	91.38
489.261	78.38
489.479	97.38
489.696	100.38
489.914	81.38
490.132	95.38
490.35	91.38
490.568	92.38
490.786	92.38
491.003	93.38
491.221	83.38
491.439	80.38
491.657	95.38
491.874	81.38
492.092	90.38
492.31	91.38
492.527	91.38
492.745	80.38
492.963	87.38
493.18	88.38
493.398	97.38
493.615	105.38
493.833	83.38
494.05	81.38
494.268	88.38
494.485	86.38
494.703	105.38
494.92	87.38
495.138	85.38
495.355	92.38
495.573	90.38
495.79	80.38
496.008	82.38
496.225	77.38
496.442	84.38
496.66	89.38
496.877	93.38
497.094	84.38
497.312	87.38
497.529	84.38
497.746	87.38
497.963	88.38
498.181	111.38
498.398	84.38
498.615	98.38
498.832	103.38
499.049	95.38
499.267	96.38
499.484	97.38
499.701	100.38
499.918	90.38
500.135	87.38
500.352	81.38
500.569	76.38
500.786	100.38
501.003	88.38
501.22	87.38
501.437	95.38
501.654	99.38
501.871	101.38
502.088	76.38
502.305	94.38
502.522	87.38
502.739	90.38
502.956	99.38
503.172	102.38
503.389	93.38
503.606	108.38
503.823	96.38
504.04	87.38
504.256	87.38
504.473	92.38
504.69	93.38
504.907	89.38
505.123	83.38
505.34	79.38
505.557	95.38
505.773	85.38
505.99	78.38
506.207	90.38
506.423	87.38
506.64	92.38
506.856	91.38
507.073	88.38
507.289	96.38
507.506	101.38
507.722	105.38
507.939	95.38
508.155	80.38
508.372	83.38
508.588	90.38
508.805	92.38
509.021	85.38
509.238	88.38
509.454	99.38
509.67	88.38
509.887	99.38
510.103	120.38
510.319	197.38
510.536	656.38
510.752	2003.38
510.968	555.38
511.184	131.38
511.401	93.38
511.617	93.38
511.833	92.38
512.049	93.38
512.265	100.38
512.481	82.38
512.698	99.38
512.914	76.38
513.13	91.38
513.346	85.38
513.562	83.38
513.778	92.38
513.994	75.38
514.21	108.38
514.426	114.38
514.642	126.38
514.858	111.38
515.074	131.38
515.29	369.38
515.506	1127.38
515.721	428.38
515.937	121.38
516.153	95.38
516.369	88.38
516.585	88.38
516.801	70.38
