Data from Circ_1994_H10_HRD10591_00029.txt Node
Date: Wed Jan 03 11:40:36 EST 2024
User: Yrep
Spectrometer: HR+D1059
Trigger mode: 1
Integration Time (sec): 1.000000E-1
Scans to average: 1
Electric dark correction enabled: true
Nonlinearity correction enabled: false
Boxcar width: 0
XAxis mode: Wavelengths
Number of Pixels in Spectrum: 2048
>>>>>Begin Spectral Data<<<<<
223.165	-23.75
223.4	-23.75
223.635	-23.75
223.869	-17.75
224.104	-22.75
224.338	-9.75
224.573	-23.75
224.808	-22.75
225.042	-12.75
225.277	-1.75
225.511	7.25
225.746	7.25
225.98	11.25
226.215	13.25
226.449	17.25
226.683	31.25
226.918	16.25
227.152	31.25
227.387	43.25
227.621	37.25
227.856	50.25
228.09	53.25
228.324	33.25
228.559	44.25
228.793	47.25
229.027	68.25
229.262	68.25
229.496	68.25
229.73	78.25
229.964	95.25
230.199	60.25
230.433	69.25
230.667	81.25
230.901	85.25
231.136	93.25
231.37	75.25
231.604	81.25
231.838	93.25
232.072	86.25
232.306	85.25
232.541	71.25
232.775	94.25
233.009	90.25
233.243	90.25
233.477	80.25
233.711	71.25
233.945	82.25
234.179	79.25
234.413	92.25
234.647	75.25
234.881	64.25
235.115	86.25
235.349	81.25
235.583	83.25
235.817	83.25
236.051	88.25
236.285	64.25
236.519	73.25
236.753	81.25
236.987	85.25
237.221	87.25
237.455	85.25
237.689	79.25
237.922	89.25
238.156	68.25
238.39	79.25
238.624	66.25
238.858	77.25
239.091	87.25
239.325	78.25
239.559	72.25
239.793	93.25
240.027	75.25
240.26	81.25
240.494	83.25
240.728	81.25
240.961	89.25
241.195	84.25
241.429	80.25
241.662	82.25
241.896	70.25
242.13	77.25
242.363	75.25
242.597	90.25
242.83	76.25
243.064	80.25
243.298	77.25
243.531	73.25
243.765	79.25
243.998	75.25
244.232	67.25
244.465	75.25
244.699	85.25
244.932	82.25
245.166	88.25
245.399	95.25
245.633	79.25
245.866	83.25
246.099	77.25
246.333	82.25
246.566	94.25
246.8	67.25
247.033	81.25
247.266	92.25
247.5	84.25
247.733	73.25
247.966	79.25
248.2	81.25
248.433	68.25
248.666	83.25
248.899	89.25
249.133	87.25
249.366	111.25
249.599	111.25
249.832	87.25
250.066	71.25
250.299	80.25
250.532	88.25
250.765	84.25
250.998	83.25
251.231	82.25
251.465	86.25
251.698	68.25
251.931	95.25
252.164	91.25
252.397	72.25
252.63	81.25
252.863	83.25
253.096	81.25
253.329	79.25
253.562	82.25
253.795	90.25
254.028	100.25
254.261	85.25
254.494	81.25
254.727	86.25
254.96	84.25
255.193	85.25
255.426	73.25
255.659	82.25
255.892	83.25
256.124	70.25
256.357	80.25
256.59	77.25
256.823	82.25
257.056	68.25
257.289	75.25
257.521	83.25
257.754	83.25
257.987	83.25
258.22	79.25
258.452	91.25
258.685	81.25
258.918	81.25
259.151	70.25
259.383	77.25
259.616	88.25
259.849	89.25
260.081	79.25
260.314	76.25
260.547	79.25
260.779	94.25
261.012	85.25
261.244	88.25
261.477	102.25
261.71	89.25
261.942	99.25
262.175	99.25
262.407	80.25
262.64	87.25
262.872	92.25
263.105	82.25
263.337	90.25
263.57	90.25
263.802	87.25
264.035	95.25
264.267	94.25
264.499	88.25
264.732	85.25
264.964	85.25
265.197	83.25
265.429	79.25
265.661	81.25
265.894	80.25
266.126	93.25
266.358	93.25
266.591	85.25
266.823	82.25
267.055	72.25
267.287	81.25
267.52	83.25
267.752	87.25
267.984	89.25
268.216	92.25
268.448	91.25
268.681	87.25
268.913	85.25
269.145	97.25
269.377	87.25
269.609	88.25
269.841	87.25
270.073	94.25
270.306	75.25
270.538	75.25
270.77	85.25
271.002	85.25
271.234	88.25
271.466	97.25
271.698	75.25
271.93	96.25
272.162	83.25
272.394	92.25
272.626	83.25
272.858	95.25
273.09	85.25
273.322	76.25
273.553	104.25
273.785	89.25
274.017	73.25
274.249	88.25
274.481	83.25
274.713	88.25
274.945	109.25
275.176	95.25
275.408	86.25
275.64	94.25
275.872	93.25
276.104	94.25
276.335	103.25
276.567	105.25
276.799	86.25
277.031	104.25
277.262	75.25
277.494	94.25
277.726	99.25
277.957	90.25
278.189	99.25
278.421	95.25
278.652	80.25
278.884	75.25
279.115	85.25
279.347	85.25
279.579	87.25
279.81	95.25
280.042	89.25
280.273	84.25
280.505	92.25
280.736	95.25
280.968	80.25
281.199	87.25
281.431	95.25
281.662	87.25
281.894	102.25
282.125	107.25
282.356	103.25
282.588	135.25
282.819	117.25
283.051	92.25
283.282	103.25
283.513	85.25
283.745	92.25
283.976	97.25
284.207	97.25
284.439	79.25
284.67	79.25
284.901	86.25
285.132	79.25
285.364	91.25
285.595	89.25
285.826	87.25
286.057	96.25
286.288	87.25
286.52	88.25
286.751	101.25
286.982	88.25
287.213	90.25
287.444	91.25
287.675	97.25
287.906	88.25
288.138	89.25
288.369	86.25
288.6	88.25
288.831	79.25
289.062	87.25
289.293	92.25
289.524	95.25
289.755	93.25
289.986	86.25
290.217	76.25
290.448	95.25
290.679	86.25
290.91	92.25
291.141	88.25
291.371	98.25
291.602	95.25
291.833	94.25
292.064	96.25
292.295	94.25
292.526	110.25
292.757	97.25
292.987	95.25
293.218	81.25
293.449	86.25
293.68	96.25
293.91	79.25
294.141	92.25
294.372	103.25
294.603	94.25
294.833	83.25
295.064	87.25
295.295	97.25
295.525	95.25
295.756	105.25
295.987	111.25
296.217	115.25
296.448	113.25
296.679	103.25
296.909	101.25
297.14	94.25
297.37	98.25
297.601	99.25
297.831	91.25
298.062	98.25
298.292	92.25
298.523	92.25
298.753	94.25
298.984	88.25
299.214	97.25
299.445	78.25
299.675	86.25
299.905	85.25
300.136	100.25
300.366	85.25
300.597	84.25
300.827	112.25
301.057	102.25
301.288	89.25
301.518	92.25
301.748	103.25
301.979	99.25
302.209	95.25
302.439	94.25
302.669	87.25
302.9	97.25
303.13	82.25
303.36	92.25
303.59	87.25
303.82	96.25
304.051	90.25
304.281	101.25
304.511	86.25
304.741	89.25
304.971	84.25
305.201	82.25
305.431	91.25
305.661	99.25
305.891	84.25
306.121	104.25
306.352	100.25
306.582	94.25
306.812	91.25
307.042	95.25
307.272	88.25
307.502	105.25
307.731	93.25
307.961	84.25
308.191	89.25
308.421	101.25
308.651	83.25
308.881	92.25
309.111	82.25
309.341	101.25
309.571	100.25
309.8	88.25
310.03	101.25
310.26	99.25
310.49	94.25
310.72	95.25
310.949	78.25
311.179	82.25
311.409	88.25
311.639	108.25
311.868	103.25
312.098	91.25
312.328	101.25
312.557	100.25
312.787	99.25
313.017	100.25
313.246	100.25
313.476	95.25
313.706	97.25
313.935	81.25
314.165	87.25
314.394	92.25
314.624	90.25
314.853	91.25
315.083	94.25
315.312	95.25
315.542	89.25
315.771	76.25
316.001	99.25
316.23	93.25
316.46	97.25
316.689	102.25
316.919	97.25
317.148	89.25
317.377	89.25
317.607	92.25
317.836	94.25
318.065	83.25
318.295	86.25
318.524	84.25
318.753	99.25
318.983	92.25
319.212	95.25
319.441	107.25
319.67	117.25
319.9	114.25
320.129	103.25
320.358	101.25
320.587	100.25
320.816	99.25
321.046	95.25
321.275	89.25
321.504	103.25
321.733	108.25
321.962	105.25
322.191	104.25
322.42	99.25
322.649	124.25
322.878	100.25
323.108	106.25
323.337	122.25
323.566	111.25
323.795	145.25
324.024	201.25
324.253	345.25
324.482	688.25
324.71	1400.25
324.939	1843.25
325.168	683.25
325.397	209.25
325.626	142.25
325.855	123.25
326.084	128.25
326.313	130.25
326.542	145.25
326.77	209.25
326.999	398.25
327.228	809.25
327.457	1383.25
327.686	1127.25
327.914	310.25
328.143	177.25
328.372	139.25
328.6	118.25
328.829	112.25
329.058	135.25
329.287	123.25
329.515	114.25
329.744	103.25
329.972	115.25
330.201	116.25
330.43	128.25
330.658	126.25
330.887	130.25
331.115	120.25
331.344	101.25
331.572	116.25
331.801	106.25
332.03	110.25
332.258	104.25
332.486	107.25
332.715	94.25
332.943	98.25
333.172	92.25
333.4	103.25
333.629	104.25
333.857	103.25
334.085	111.25
334.314	130.25
334.542	142.25
334.771	131.25
334.999	94.25
335.227	105.25
335.455	91.25
335.684	97.25
335.912	104.25
336.14	94.25
336.369	105.25
336.597	109.25
336.825	108.25
337.053	99.25
337.281	92.25
337.51	95.25
337.738	112.25
337.966	99.25
338.194	99.25
338.422	95.25
338.65	103.25
338.878	90.25
339.106	81.25
339.334	95.25
339.562	89.25
339.79	89.25
340.018	101.25
340.246	99.25
340.474	102.25
340.702	99.25
340.93	94.25
341.158	95.25
341.386	98.25
341.614	95.25
341.842	102.25
342.07	98.25
342.298	86.25
342.526	100.25
342.754	106.25
342.981	91.25
343.209	86.25
343.437	104.25
343.665	103.25
343.893	83.25
344.12	87.25
344.348	105.25
344.576	97.25
344.804	92.25
345.031	100.25
345.259	89.25
345.487	93.25
345.714	96.25
345.942	99.25
346.17	96.25
346.397	94.25
346.625	83.25
346.853	97.25
347.08	95.25
347.308	95.25
347.535	112.25
347.763	112.25
347.99	124.25
348.218	115.25
348.445	91.25
348.673	96.25
348.9	102.25
349.128	93.25
349.355	97.25
349.583	97.25
349.81	87.25
350.037	91.25
350.265	95.25
350.492	102.25
350.72	93.25
350.947	101.25
351.174	112.25
351.402	110.25
351.629	105.25
351.856	117.25
352.083	102.25
352.311	115.25
352.538	109.25
352.765	111.25
352.992	109.25
353.22	106.25
353.447	104.25
353.674	95.25
353.901	105.25
354.128	87.25
354.355	104.25
354.583	109.25
354.81	98.25
355.037	88.25
355.264	114.25
355.491	97.25
355.718	99.25
355.945	100.25
356.172	93.25
356.399	99.25
356.626	118.25
356.853	85.25
357.08	90.25
357.307	95.25
357.534	99.25
357.761	102.25
357.988	100.25
358.215	97.25
358.441	89.25
358.668	104.25
358.895	88.25
359.122	88.25
359.349	96.25
359.576	88.25
359.802	108.25
360.029	97.25
360.256	125.25
360.483	86.25
360.709	92.25
360.936	86.25
361.163	105.25
361.39	109.25
361.616	111.25
361.843	89.25
362.07	105.25
362.296	107.25
362.523	98.25
362.749	99.25
362.976	88.25
363.203	98.25
363.429	102.25
363.656	91.25
363.882	99.25
364.109	91.25
364.335	94.25
364.562	93.25
364.788	88.25
365.015	98.25
365.241	101.25
365.468	103.25
365.694	105.25
365.92	100.25
366.147	87.25
366.373	87.25
366.599	101.25
366.826	95.25
367.052	87.25
367.278	93.25
367.505	97.25
367.731	90.25
367.957	95.25
368.184	106.25
368.41	99.25
368.636	104.25
368.862	112.25
369.089	97.25
369.315	102.25
369.541	104.25
369.767	91.25
369.993	97.25
370.219	99.25
370.445	101.25
370.672	79.25
370.898	95.25
371.124	86.25
371.35	90.25
371.576	94.25
371.802	88.25
372.028	93.25
372.254	95.25
372.48	85.25
372.706	75.25
372.932	101.25
373.158	93.25
373.384	107.25
373.61	87.25
373.835	98.25
374.061	91.25
374.287	94.25
374.513	91.25
374.739	93.25
374.965	98.25
375.191	99.25
375.416	103.25
375.642	88.25
375.868	92.25
376.094	91.25
376.319	87.25
376.545	95.25
376.771	89.25
376.997	97.25
377.222	96.25
377.448	105.25
377.674	94.25
377.899	93.25
378.125	99.25
378.35	101.25
378.576	94.25
378.802	96.25
379.027	91.25
379.253	102.25
379.478	96.25
379.704	96.25
379.929	69.25
380.155	89.25
380.38	87.25
380.606	83.25
380.831	107.25
381.057	92.25
381.282	91.25
381.507	98.25
381.733	112.25
381.958	112.25
382.184	98.25
382.409	109.25
382.634	110.25
382.86	108.25
383.085	111.25
383.31	105.25
383.535	111.25
383.761	95.25
383.986	104.25
384.211	93.25
384.436	104.25
384.662	108.25
384.887	100.25
385.112	105.25
385.337	122.25
385.562	105.25
385.787	103.25
386.013	116.25
386.238	118.25
386.463	103.25
386.688	112.25
386.913	105.25
387.138	105.25
387.363	97.25
387.588	106.25
387.813	110.25
388.038	100.25
388.263	106.25
388.488	103.25
388.713	112.25
388.938	104.25
389.163	111.25
389.387	103.25
389.612	100.25
389.837	100.25
390.062	110.25
390.287	94.25
390.512	94.25
390.736	103.25
390.961	98.25
391.186	95.25
391.411	107.25
391.636	101.25
391.86	87.25
392.085	101.25
392.31	90.25
392.534	97.25
392.759	95.25
392.984	90.25
393.208	86.25
393.433	89.25
393.658	87.25
393.882	93.25
394.107	87.25
394.331	89.25
394.556	93.25
394.78	101.25
395.005	97.25
395.229	102.25
395.454	102.25
395.678	93.25
395.903	91.25
396.127	98.25
396.352	99.25
396.576	100.25
396.801	88.25
397.025	97.25
397.249	99.25
397.474	96.25
397.698	92.25
397.922	104.25
398.147	98.25
398.371	82.25
398.595	93.25
398.82	95.25
399.044	94.25
399.268	84.25
399.492	84.25
399.717	95.25
399.941	93.25
400.165	89.25
400.389	94.25
400.613	94.25
400.837	85.25
401.062	91.25
401.286	84.25
401.51	92.25
401.734	100.25
401.958	89.25
402.182	101.25
402.406	136.25
402.63	116.25
402.854	100.25
403.078	99.25
403.302	96.25
403.526	102.25
403.75	102.25
403.974	93.25
404.198	96.25
404.422	101.25
404.645	83.25
404.869	92.25
405.093	106.25
405.317	113.25
405.541	95.25
405.765	93.25
405.988	112.25
406.212	139.25
406.436	202.25
406.66	141.25
406.883	96.25
407.107	102.25
407.331	108.25
407.555	100.25
407.778	91.25
408.002	98.25
408.226	98.25
408.449	88.25
408.673	101.25
408.896	100.25
409.12	95.25
409.344	91.25
409.567	97.25
409.791	94.25
410.014	96.25
410.238	92.25
410.461	86.25
410.685	89.25
410.908	96.25
411.132	104.25
411.355	103.25
411.578	99.25
411.802	102.25
412.025	88.25
412.249	92.25
412.472	99.25
412.695	93.25
412.919	86.25
413.142	103.25
413.365	78.25
413.589	86.25
413.812	97.25
414.035	102.25
414.258	91.25
414.482	86.25
414.705	96.25
414.928	97.25
415.151	97.25
415.374	110.25
415.597	91.25
415.821	93.25
416.044	98.25
416.267	92.25
416.49	87.25
416.713	99.25
416.936	99.25
417.159	89.25
417.382	87.25
417.605	93.25
417.828	84.25
418.051	85.25
418.274	79.25
418.497	78.25
418.72	84.25
418.943	88.25
419.166	88.25
419.389	93.25
419.611	91.25
419.834	88.25
420.057	72.25
420.28	78.25
420.503	80.25
420.726	94.25
420.948	101.25
421.171	101.25
421.394	96.25
421.617	95.25
421.839	106.25
422.062	97.25
422.285	92.25
422.507	92.25
422.73	101.25
422.953	106.25
423.175	88.25
423.398	95.25
423.621	95.25
423.843	83.25
424.066	73.25
424.288	83.25
424.511	95.25
424.733	93.25
424.956	114.25
425.178	91.25
425.401	95.25
425.623	110.25
425.846	96.25
426.068	95.25
426.291	83.25
426.513	93.25
426.735	91.25
426.958	103.25
427.18	102.25
427.402	107.25
427.625	140.25
427.847	107.25
428.069	102.25
428.292	93.25
428.514	80.25
428.736	86.25
428.958	107.25
429.181	84.25
429.403	81.25
429.625	89.25
429.847	97.25
430.069	107.25
430.292	80.25
430.514	81.25
430.736	87.25
430.958	89.25
431.18	92.25
431.402	82.25
431.624	81.25
431.846	88.25
432.068	86.25
432.29	94.25
432.512	87.25
432.734	79.25
432.956	98.25
433.178	94.25
433.4	102.25
433.622	91.25
433.844	85.25
434.066	85.25
434.287	88.25
434.509	86.25
434.731	91.25
434.953	84.25
435.175	104.25
435.397	101.25
435.618	88.25
435.84	104.25
436.062	110.25
436.284	101.25
436.505	99.25
436.727	106.25
436.949	98.25
437.17	92.25
437.392	92.25
437.614	89.25
437.835	104.25
438.057	123.25
438.278	109.25
438.5	117.25
438.721	120.25
438.943	102.25
439.165	91.25
439.386	79.25
439.608	97.25
439.829	107.25
440.05	103.25
440.272	132.25
440.493	79.25
440.715	94.25
440.936	87.25
441.158	95.25
441.379	89.25
441.6	102.25
441.822	99.25
442.043	103.25
442.264	123.25
442.486	103.25
442.707	85.25
442.928	93.25
443.149	122.25
443.371	134.25
443.592	98.25
443.813	112.25
444.034	101.25
444.255	88.25
444.476	87.25
444.698	95.25
444.919	77.25
445.14	119.25
445.361	109.25
445.582	111.25
445.803	127.25
446.024	114.25
446.245	128.25
446.466	108.25
446.687	101.25
446.908	84.25
447.129	89.25
447.35	95.25
447.571	93.25
447.792	86.25
448.013	112.25
448.234	95.25
448.455	101.25
448.675	105.25
448.896	91.25
449.117	95.25
449.338	86.25
449.559	117.25
449.779	135.25
450	91.25
450.221	80.25
450.442	91.25
450.662	91.25
450.883	87.25
451.104	105.25
451.324	92.25
451.545	80.25
451.766	103.25
451.986	84.25
452.207	73.25
452.428	92.25
452.648	95.25
452.869	111.25
453.089	91.25
453.31	113.25
453.53	111.25
453.751	101.25
453.971	100.25
454.192	96.25
454.412	84.25
454.633	78.25
454.853	87.25
455.073	94.25
455.294	90.25
455.514	89.25
455.734	91.25
455.955	83.25
456.175	84.25
456.395	89.25
456.616	99.25
456.836	101.25
457.056	85.25
457.276	99.25
457.497	84.25
457.717	83.25
457.937	88.25
458.157	79.25
458.377	90.25
458.598	103.25
458.818	143.25
459.038	143.25
459.258	114.25
459.478	97.25
459.698	73.25
459.918	84.25
460.138	84.25
460.358	88.25
460.578	78.25
460.798	86.25
461.018	81.25
461.238	99.25
461.458	81.25
461.678	82.25
461.898	96.25
462.118	88.25
462.338	89.25
462.558	90.25
462.777	93.25
462.997	95.25
463.217	93.25
463.437	89.25
463.657	85.25
463.876	81.25
464.096	101.25
464.316	87.25
464.536	86.25
464.755	99.25
464.975	109.25
465.195	155.25
465.414	121.25
465.634	78.25
465.854	85.25
466.073	90.25
466.293	73.25
466.512	85.25
466.732	85.25
466.951	86.25
467.171	97.25
467.391	89.25
467.61	98.25
467.829	100.25
468.049	104.25
468.268	93.25
468.488	84.25
468.707	94.25
468.927	97.25
469.146	93.25
469.365	97.25
469.585	91.25
469.804	91.25
470.023	92.25
470.243	84.25
470.462	100.25
470.681	115.25
470.901	79.25
471.12	91.25
471.339	89.25
471.558	81.25
471.777	88.25
471.997	95.25
472.216	103.25
472.435	147.25
472.654	97.25
472.873	83.25
473.092	93.25
473.311	86.25
473.53	88.25
473.749	95.25
473.968	103.25
474.187	100.25
474.406	85.25
474.625	95.25
474.844	86.25
475.063	79.25
475.282	107.25
475.501	94.25
475.72	99.25
475.939	97.25
476.158	92.25
476.377	88.25
476.596	86.25
476.814	89.25
477.033	90.25
477.252	89.25
477.471	89.25
477.69	78.25
477.908	89.25
478.127	94.25
478.346	92.25
478.564	98.25
478.783	101.25
479.002	91.25
479.22	97.25
479.439	99.25
479.658	100.25
479.876	85.25
480.095	86.25
480.313	94.25
480.532	103.25
480.751	99.25
480.969	120.25
481.188	211.25
481.406	159.25
481.624	85.25
481.843	92.25
482.061	78.25
482.28	97.25
482.498	89.25
482.717	94.25
482.935	84.25
483.153	95.25
483.372	105.25
483.59	85.25
483.808	95.25
484.027	78.25
484.245	96.25
484.463	88.25
484.681	95.25
484.9	107.25
485.118	101.25
485.336	104.25
485.554	88.25
485.772	100.25
485.99	110.25
486.209	112.25
486.427	114.25
486.645	104.25
486.863	123.25
487.081	107.25
487.299	110.25
487.517	103.25
487.735	105.25
487.953	87.25
488.171	89.25
488.389	95.25
488.607	92.25
488.825	84.25
489.043	81.25
489.261	93.25
489.479	79.25
489.696	111.25
489.914	96.25
490.132	86.25
490.35	99.25
490.568	90.25
490.786	87.25
491.003	81.25
491.221	67.25
491.439	93.25
491.657	82.25
491.874	99.25
492.092	92.25
492.31	88.25
492.527	83.25
492.745	98.25
492.963	92.25
493.18	85.25
493.398	91.25
493.615	113.25
493.833	107.25
494.05	94.25
494.268	98.25
494.485	97.25
494.703	95.25
494.92	92.25
495.138	86.25
495.355	81.25
495.573	83.25
495.79	95.25
496.008	103.25
496.225	77.25
496.442	89.25
496.66	93.25
496.877	84.25
497.094	109.25
497.312	78.25
497.529	89.25
497.746	94.25
497.963	87.25
498.181	108.25
498.398	108.25
498.615	113.25
498.832	99.25
499.049	93.25
499.267	92.25
499.484	108.25
499.701	103.25
499.918	93.25
500.135	81.25
500.352	95.25
500.569	93.25
500.786	98.25
501.003	96.25
501.22	95.25
501.437	107.25
501.654	104.25
501.871	104.25
502.088	82.25
502.305	103.25
502.522	99.25
502.739	85.25
502.956	87.25
503.172	92.25
503.389	92.25
503.606	103.25
503.823	108.25
504.04	84.25
504.256	109.25
504.473	93.25
504.69	78.25
504.907	91.25
505.123	94.25
505.34	101.25
505.557	86.25
505.773	83.25
505.99	88.25
506.207	82.25
506.423	100.25
506.64	107.25
506.856	99.25
507.073	99.25
507.289	88.25
507.506	105.25
507.722	105.25
507.939	107.25
508.155	101.25
508.372	84.25
508.588	104.25
508.805	101.25
509.021	101.25
509.238	102.25
509.454	99.25
509.67	101.25
509.887	113.25
510.103	130.25
510.319	209.25
510.536	653.25
510.752	2061.25
510.968	584.25
511.184	155.25
511.401	109.25
511.617	99.25
511.833	101.25
512.049	81.25
512.265	99.25
512.481	92.25
512.698	85.25
512.914	88.25
513.13	98.25
513.346	94.25
513.562	99.25
513.778	102.25
513.994	108.25
514.21	103.25
514.426	112.25
514.642	109.25
