Data from Circ_1994_H10_HRD10591_00054.txt Node
Date: Wed Jan 03 11:40:41 EST 2024
User: Yrep
Spectrometer: HR+D1059
Trigger mode: 1
Integration Time (sec): 1.000000E-1
Scans to average: 1
Electric dark correction enabled: true
Nonlinearity correction enabled: false
Boxcar width: 0
XAxis mode: Wavelengths
Number of Pixels in Spectrum: 2048
>>>>>Begin Spectral Data<<<<<
223.165	-15.25
223.4	-15.25
223.635	-15.25
223.869	-15.25
224.104	-19.25
224.338	-18.25
224.573	-12.25
224.808	-13.25
225.042	-15.25
225.277	-5.25
225.511	9.75
225.746	-2.25
225.98	9.75
226.215	3.75
226.449	8.75
226.683	29.75
226.918	26.75
227.152	27.75
227.387	36.75
227.621	31.75
227.856	59.75
228.09	37.75
228.324	54.75
228.559	55.75
228.793	70.75
229.027	65.75
229.262	67.75
229.496	75.75
229.73	81.75
229.964	77.75
230.199	73.75
230.433	67.75
230.667	68.75
230.901	73.75
231.136	81.75
231.37	82.75
231.604	79.75
231.838	77.75
232.072	86.75
232.306	78.75
232.541	83.75
232.775	75.75
233.009	88.75
233.243	79.75
233.477	71.75
233.711	97.75
233.945	76.75
234.179	81.75
234.413	89.75
234.647	82.75
234.881	78.75
235.115	91.75
235.349	73.75
235.583	85.75
235.817	76.75
236.051	90.75
236.285	82.75
236.519	69.75
236.753	89.75
236.987	69.75
237.221	84.75
237.455	101.75
237.689	90.75
237.922	78.75
238.156	84.75
238.39	77.75
238.624	79.75
238.858	79.75
239.091	74.75
239.325	81.75
239.559	78.75
239.793	79.75
240.027	73.75
240.26	68.75
240.494	77.75
240.728	75.75
240.961	68.75
241.195	87.75
241.429	75.75
241.662	78.75
241.896	87.75
242.13	85.75
242.363	80.75
242.597	75.75
242.83	84.75
243.064	67.75
243.298	76.75
243.531	62.75
243.765	78.75
243.998	77.75
244.232	59.75
244.465	85.75
244.699	88.75
244.932	74.75
245.166	74.75
245.399	82.75
245.633	76.75
245.866	86.75
246.099	76.75
246.333	88.75
246.566	77.75
246.8	77.75
247.033	95.75
247.266	59.75
247.5	79.75
247.733	85.75
247.966	77.75
248.2	70.75
248.433	75.75
248.666	73.75
248.899	77.75
249.133	98.75
249.366	97.75
249.599	107.75
249.832	95.75
250.066	85.75
250.299	78.75
250.532	86.75
250.765	85.75
250.998	74.75
251.231	82.75
251.465	78.75
251.698	88.75
251.931	77.75
252.164	95.75
252.397	84.75
252.63	79.75
252.863	77.75
253.096	74.75
253.329	84.75
253.562	81.75
253.795	91.75
254.028	83.75
254.261	84.75
254.494	72.75
254.727	83.75
254.96	82.75
255.193	79.75
255.426	85.75
255.659	85.75
255.892	82.75
256.124	84.75
256.357	77.75
256.59	93.75
256.823	85.75
257.056	77.75
257.289	83.75
257.521	88.75
257.754	79.75
257.987	74.75
258.22	96.75
258.452	79.75
258.685	79.75
258.918	77.75
259.151	97.75
259.383	85.75
259.616	75.75
259.849	75.75
260.081	85.75
260.314	79.75
260.547	75.75
260.779	95.75
261.012	67.75
261.244	69.75
261.477	86.75
261.71	85.75
261.942	98.75
262.175	115.75
262.407	88.75
262.64	77.75
262.872	82.75
263.105	92.75
263.337	91.75
263.57	70.75
263.802	82.75
264.035	79.75
264.267	86.75
264.499	88.75
264.732	81.75
264.964	79.75
265.197	79.75
265.429	79.75
265.661	77.75
265.894	73.75
266.126	88.75
266.358	102.75
266.591	83.75
266.823	87.75
267.055	77.75
267.287	96.75
267.52	89.75
267.752	90.75
267.984	90.75
268.216	94.75
268.448	100.75
268.681	94.75
268.913	83.75
269.145	92.75
269.377	83.75
269.609	71.75
269.841	90.75
270.073	91.75
270.306	71.75
270.538	78.75
270.77	87.75
271.002	87.75
271.234	96.75
271.466	89.75
271.698	93.75
271.93	92.75
272.162	91.75
272.394	85.75
272.626	99.75
272.858	94.75
273.09	85.75
273.322	88.75
273.553	89.75
273.785	82.75
274.017	89.75
274.249	87.75
274.481	71.75
274.713	79.75
274.945	80.75
275.176	88.75
275.408	89.75
275.64	79.75
275.872	91.75
276.104	74.75
276.335	95.75
276.567	90.75
276.799	124.75
277.031	107.75
277.262	92.75
277.494	93.75
277.726	76.75
277.957	87.75
278.189	86.75
278.421	80.75
278.652	73.75
278.884	79.75
279.115	82.75
279.347	98.75
279.579	92.75
279.81	90.75
280.042	85.75
280.273	97.75
280.505	99.75
280.736	76.75
280.968	96.75
281.199	93.75
281.431	87.75
281.662	78.75
281.894	98.75
282.125	108.75
282.356	109.75
282.588	159.75
282.819	100.75
283.051	83.75
283.282	91.75
283.513	78.75
283.745	81.75
283.976	101.75
284.207	82.75
284.439	92.75
284.67	93.75
284.901	93.75
285.132	88.75
285.364	81.75
285.595	83.75
285.826	94.75
286.057	96.75
286.288	85.75
286.52	87.75
286.751	82.75
286.982	98.75
287.213	81.75
287.444	92.75
287.675	80.75
287.906	86.75
288.138	90.75
288.369	79.75
288.6	80.75
288.831	87.75
289.062	92.75
289.293	82.75
289.524	91.75
289.755	91.75
289.986	92.75
290.217	87.75
290.448	90.75
290.679	82.75
290.91	90.75
291.141	88.75
291.371	94.75
291.602	92.75
291.833	107.75
292.064	91.75
292.295	83.75
292.526	78.75
292.757	85.75
292.987	98.75
293.218	86.75
293.449	85.75
293.68	108.75
293.91	89.75
294.141	94.75
294.372	99.75
294.603	99.75
294.833	71.75
295.064	83.75
295.295	79.75
295.525	96.75
295.756	92.75
295.987	118.75
296.217	130.75
296.448	113.75
296.679	108.75
296.909	92.75
297.14	83.75
297.37	77.75
297.601	83.75
297.831	79.75
298.062	95.75
298.292	99.75
298.523	89.75
298.753	92.75
298.984	84.75
299.214	95.75
299.445	95.75
299.675	93.75
299.905	92.75
300.136	98.75
300.366	94.75
300.597	100.75
300.827	83.75
301.057	85.75
301.288	98.75
301.518	104.75
301.748	96.75
301.979	108.75
302.209	90.75
302.439	79.75
302.669	91.75
302.9	84.75
303.13	103.75
303.36	98.75
303.59	114.75
303.82	107.75
304.051	93.75
304.281	106.75
304.511	99.75
304.741	85.75
304.971	93.75
305.201	93.75
305.431	102.75
305.661	79.75
305.891	95.75
306.121	94.75
306.352	97.75
306.582	103.75
306.812	95.75
307.042	94.75
307.272	101.75
307.502	87.75
307.731	106.75
307.961	91.75
308.191	68.75
308.421	90.75
308.651	90.75
308.881	82.75
309.111	92.75
309.341	96.75
309.571	97.75
309.8	114.75
310.03	97.75
310.26	83.75
310.49	103.75
310.72	92.75
310.949	95.75
311.179	98.75
311.409	85.75
311.639	99.75
311.868	113.75
312.098	96.75
312.328	86.75
312.557	100.75
312.787	108.75
313.017	101.75
313.246	101.75
313.476	97.75
313.706	91.75
313.935	89.75
314.165	104.75
314.394	95.75
314.624	105.75
314.853	76.75
315.083	90.75
315.312	91.75
315.542	94.75
315.771	94.75
316.001	99.75
316.23	92.75
316.46	83.75
316.689	87.75
316.919	94.75
317.148	98.75
317.377	85.75
317.607	95.75
317.836	91.75
318.065	80.75
318.295	88.75
318.524	87.75
318.753	85.75
318.983	103.75
319.212	96.75
319.441	112.75
319.67	111.75
319.9	89.75
320.129	91.75
320.358	95.75
320.587	82.75
320.816	110.75
321.046	95.75
321.275	98.75
321.504	100.75
321.733	98.75
321.962	110.75
322.191	105.75
322.42	101.75
322.649	111.75
322.878	95.75
323.108	119.75
323.337	117.75
323.566	111.75
323.795	153.75
324.024	204.75
324.253	377.75
324.482	766.75
324.71	1593.75
324.939	2057.75
325.168	737.75
325.397	225.75
325.626	146.75
325.855	124.75
326.084	128.75
326.313	128.75
326.542	138.75
326.77	227.75
326.999	411.75
327.228	901.75
327.457	1581.75
327.686	1217.75
327.914	355.75
328.143	193.75
328.372	161.75
328.6	142.75
328.829	108.75
329.058	124.75
329.287	129.75
329.515	102.75
329.744	128.75
329.972	135.75
330.201	153.75
330.43	173.75
330.658	124.75
330.887	136.75
331.115	103.75
331.344	101.75
331.572	89.75
331.801	95.75
332.03	108.75
332.258	93.75
332.486	84.75
332.715	104.75
332.943	91.75
333.172	103.75
333.4	89.75
333.629	104.75
333.857	122.75
334.085	123.75
334.314	137.75
334.542	169.75
334.771	174.75
334.999	116.75
335.227	100.75
335.455	91.75
335.684	102.75
335.912	99.75
336.14	97.75
336.369	99.75
336.597	99.75
336.825	102.75
337.053	95.75
337.281	79.75
337.51	94.75
337.738	99.75
337.966	95.75
338.194	97.75
338.422	82.75
338.65	103.75
338.878	75.75
339.106	100.75
339.334	86.75
339.562	88.75
339.79	101.75
340.018	104.75
340.246	89.75
340.474	78.75
340.702	101.75
340.93	88.75
341.158	100.75
341.386	104.75
341.614	69.75
341.842	89.75
342.07	93.75
342.298	98.75
342.526	91.75
342.754	91.75
342.981	90.75
343.209	91.75
343.437	94.75
343.665	84.75
343.893	89.75
344.12	98.75
344.348	84.75
344.576	82.75
344.804	92.75
345.031	99.75
345.259	101.75
345.487	95.75
345.714	84.75
345.942	79.75
346.17	99.75
346.397	101.75
346.625	106.75
346.853	102.75
347.08	102.75
347.308	106.75
347.535	111.75
347.763	91.75
347.99	96.75
348.218	82.75
348.445	97.75
348.673	91.75
348.9	90.75
349.128	98.75
349.355	82.75
349.583	93.75
349.81	89.75
350.037	100.75
350.265	87.75
350.492	79.75
350.72	97.75
350.947	105.75
351.174	106.75
351.402	106.75
351.629	109.75
351.856	102.75
352.083	107.75
352.311	106.75
352.538	117.75
352.765	106.75
352.992	100.75
353.22	111.75
353.447	100.75
353.674	110.75
353.901	98.75
354.128	97.75
354.355	96.75
354.583	98.75
354.81	101.75
355.037	107.75
355.264	96.75
355.491	81.75
355.718	101.75
355.945	85.75
356.172	101.75
356.399	97.75
356.626	105.75
356.853	86.75
357.08	85.75
357.307	87.75
357.534	77.75
357.761	96.75
357.988	99.75
358.215	97.75
358.441	107.75
358.668	92.75
358.895	85.75
359.122	76.75
359.349	100.75
359.576	70.75
359.802	114.75
360.029	111.75
360.256	112.75
360.483	97.75
360.709	101.75
360.936	98.75
361.163	100.75
361.39	106.75
361.616	99.75
361.843	102.75
362.07	89.75
362.296	89.75
362.523	88.75
362.749	97.75
362.976	89.75
363.203	107.75
363.429	97.75
363.656	85.75
363.882	94.75
364.109	107.75
364.335	99.75
364.562	89.75
364.788	92.75
365.015	84.75
365.241	101.75
365.468	94.75
365.694	112.75
365.92	99.75
366.147	83.75
366.373	95.75
366.599	84.75
366.826	94.75
367.052	101.75
367.278	91.75
367.505	96.75
367.731	83.75
367.957	84.75
368.184	107.75
368.41	103.75
368.636	115.75
368.862	128.75
369.089	104.75
369.315	96.75
369.541	105.75
369.767	90.75
369.993	94.75
370.219	110.75
370.445	89.75
370.672	77.75
370.898	89.75
371.124	90.75
371.35	84.75
371.576	80.75
371.802	78.75
372.028	87.75
372.254	95.75
372.48	90.75
372.706	71.75
372.932	75.75
373.158	85.75
373.384	94.75
373.61	82.75
373.835	92.75
374.061	95.75
374.287	84.75
374.513	94.75
374.739	91.75
374.965	94.75
375.191	82.75
375.416	84.75
375.642	93.75
375.868	97.75
376.094	87.75
376.319	97.75
376.545	98.75
376.771	82.75
376.997	90.75
377.222	84.75
377.448	113.75
377.674	86.75
377.899	98.75
378.125	95.75
378.35	81.75
378.576	91.75
378.802	80.75
379.027	89.75
379.253	89.75
379.478	90.75
379.704	104.75
379.929	94.75
380.155	93.75
380.38	87.75
380.606	83.75
380.831	92.75
381.057	109.75
381.282	82.75
381.507	98.75
381.733	94.75
381.958	93.75
382.184	89.75
382.409	101.75
382.634	90.75
382.86	90.75
383.085	100.75
383.31	117.75
383.535	103.75
383.761	110.75
383.986	109.75
384.211	92.75
384.436	102.75
384.662	92.75
384.887	90.75
385.112	111.75
385.337	85.75
385.562	104.75
385.787	105.75
386.013	103.75
386.238	117.75
386.463	100.75
386.688	98.75
386.913	93.75
387.138	97.75
387.363	114.75
387.588	92.75
387.813	112.75
388.038	107.75
388.263	104.75
388.488	100.75
388.713	102.75
388.938	100.75
389.163	99.75
389.387	108.75
389.612	103.75
389.837	86.75
390.062	100.75
390.287	107.75
390.512	91.75
390.736	90.75
390.961	95.75
391.186	95.75
391.411	103.75
391.636	106.75
391.86	85.75
392.085	90.75
392.31	85.75
392.534	96.75
392.759	92.75
392.984	93.75
393.208	80.75
393.433	84.75
393.658	103.75
393.882	69.75
394.107	79.75
394.331	76.75
394.556	84.75
394.78	89.75
395.005	84.75
395.229	84.75
395.454	86.75
395.678	80.75
395.903	85.75
396.127	86.75
396.352	100.75
396.576	88.75
396.801	83.75
397.025	95.75
397.249	103.75
397.474	99.75
397.698	78.75
397.922	83.75
398.147	90.75
398.371	86.75
398.595	88.75
398.82	73.75
399.044	91.75
399.268	76.75
399.492	77.75
399.717	107.75
399.941	91.75
400.165	78.75
400.389	81.75
400.613	94.75
400.837	96.75
401.062	110.75
401.286	93.75
401.51	92.75
401.734	93.75
401.958	100.75
402.182	130.75
402.406	166.75
402.63	115.75
402.854	101.75
403.078	91.75
403.302	77.75
403.526	78.75
403.75	100.75
403.974	102.75
404.198	86.75
404.422	85.75
404.645	82.75
404.869	77.75
405.093	91.75
405.317	108.75
405.541	103.75
405.765	99.75
405.988	109.75
406.212	160.75
406.436	225.75
406.66	135.75
406.883	92.75
407.107	96.75
407.331	95.75
407.555	100.75
407.778	112.75
408.002	89.75
408.226	94.75
408.449	74.75
408.673	89.75
408.896	89.75
409.12	77.75
409.344	87.75
409.567	94.75
409.791	94.75
410.014	86.75
410.238	96.75
410.461	79.75
410.685	97.75
410.908	105.75
411.132	109.75
411.355	97.75
411.578	81.75
411.802	90.75
412.025	96.75
412.249	78.75
412.472	98.75
412.695	112.75
412.919	91.75
413.142	88.75
413.365	86.75
413.589	93.75
413.812	80.75
414.035	73.75
414.258	96.75
414.482	95.75
414.705	85.75
414.928	96.75
415.151	89.75
415.374	96.75
415.597	97.75
415.821	105.75
416.044	87.75
416.267	78.75
416.49	77.75
416.713	90.75
416.936	94.75
417.159	81.75
417.382	103.75
417.605	82.75
417.828	73.75
418.051	87.75
418.274	84.75
418.497	90.75
418.72	105.75
418.943	96.75
419.166	90.75
419.389	63.75
419.611	87.75
419.834	74.75
420.057	95.75
420.28	87.75
420.503	83.75
420.726	85.75
420.948	91.75
421.171	88.75
421.394	83.75
421.617	96.75
421.839	87.75
422.062	88.75
422.285	92.75
422.507	99.75
422.73	90.75
422.953	108.75
423.175	84.75
423.398	91.75
423.621	88.75
423.843	70.75
424.066	86.75
424.288	89.75
424.511	84.75
424.733	105.75
424.956	92.75
425.178	82.75
425.401	95.75
425.623	106.75
425.846	88.75
426.068	86.75
426.291	103.75
426.513	91.75
426.735	100.75
426.958	84.75
427.18	102.75
427.402	119.75
427.625	155.75
427.847	118.75
428.069	105.75
428.292	93.75
428.514	81.75
428.736	102.75
428.958	84.75
429.181	101.75
429.403	82.75
429.625	85.75
429.847	92.75
430.069	101.75
430.292	84.75
430.514	91.75
430.736	87.75
430.958	92.75
431.18	93.75
431.402	87.75
431.624	77.75
431.846	89.75
432.068	81.75
432.29	104.75
432.512	101.75
432.734	97.75
432.956	87.75
433.178	102.75
433.4	92.75
433.622	95.75
433.844	91.75
434.066	93.75
434.287	93.75
434.509	88.75
434.731	95.75
434.953	99.75
435.175	88.75
435.397	103.75
435.618	98.75
435.84	92.75
436.062	124.75
436.284	105.75
436.505	108.75
436.727	89.75
436.949	91.75
437.17	90.75
437.392	80.75
437.614	87.75
437.835	126.75
438.057	131.75
438.278	122.75
438.5	116.75
438.721	113.75
438.943	94.75
439.165	75.75
439.386	97.75
439.608	108.75
439.829	105.75
440.05	98.75
440.272	126.75
440.493	110.75
440.715	92.75
440.936	87.75
441.158	70.75
441.379	85.75
441.6	100.75
441.822	93.75
442.043	99.75
442.264	98.75
442.486	106.75
442.707	94.75
442.928	107.75
443.149	139.75
443.371	121.75
443.592	103.75
443.813	109.75
444.034	105.75
444.255	95.75
444.476	73.75
444.698	83.75
444.919	99.75
445.14	134.75
445.361	112.75
445.582	106.75
445.803	122.75
446.024	123.75
446.245	127.75
446.466	105.75
446.687	95.75
446.908	91.75
447.129	79.75
447.35	92.75
447.571	80.75
447.792	102.75
448.013	105.75
448.234	107.75
448.455	104.75
448.675	118.75
448.896	123.75
449.117	99.75
449.338	101.75
449.559	123.75
449.779	131.75
450	94.75
450.221	98.75
450.442	107.75
450.662	83.75
450.883	114.75
451.104	118.75
451.324	101.75
451.545	94.75
451.766	86.75
451.986	88.75
452.207	78.75
452.428	99.75
452.648	107.75
452.869	96.75
453.089	100.75
453.31	120.75
453.53	92.75
453.751	87.75
453.971	114.75
454.192	104.75
454.412	89.75
454.633	89.75
454.853	63.75
455.073	82.75
455.294	80.75
455.514	105.75
455.734	101.75
455.955	98.75
456.175	84.75
456.395	79.75
456.616	93.75
456.836	85.75
457.056	89.75
457.276	98.75
457.497	69.75
457.717	73.75
457.937	101.75
458.157	89.75
458.377	102.75
458.598	100.75
458.818	132.75
459.038	162.75
459.258	125.75
459.478	109.75
459.698	92.75
459.918	77.75
460.138	98.75
460.358	84.75
460.578	90.75
460.798	100.75
461.018	80.75
461.238	99.75
461.458	93.75
461.678	78.75
461.898	99.75
462.118	87.75
462.338	87.75
462.558	71.75
462.777	93.75
462.997	81.75
463.217	76.75
463.437	83.75
463.657	99.75
463.876	80.75
464.096	74.75
464.316	108.75
464.536	99.75
464.755	93.75
464.975	108.75
465.195	165.75
465.414	148.75
465.634	100.75
465.854	95.75
466.073	93.75
466.293	90.75
466.512	92.75
466.732	92.75
466.951	88.75
467.171	96.75
467.391	101.75
467.61	112.75
467.829	103.75
468.049	113.75
468.268	127.75
468.488	93.75
468.707	88.75
468.927	95.75
469.146	75.75
469.365	93.75
469.585	99.75
469.804	101.75
470.023	102.75
470.243	86.75
470.462	116.75
470.681	110.75
470.901	84.75
471.12	77.75
471.339	80.75
471.558	77.75
471.777	90.75
471.997	93.75
472.216	141.75
472.435	215.75
472.654	89.75
472.873	102.75
473.092	99.75
473.311	88.75
473.53	94.75
473.749	96.75
473.968	101.75
474.187	99.75
474.406	85.75
474.625	90.75
474.844	103.75
475.063	92.75
475.282	81.75
475.501	95.75
475.72	91.75
475.939	92.75
476.158	93.75
476.377	91.75
476.596	103.75
476.814	108.75
477.033	103.75
477.252	87.75
477.471	89.75
477.69	70.75
477.908	73.75
478.127	82.75
478.346	96.75
478.564	90.75
478.783	106.75
479.002	97.75
479.22	94.75
479.439	107.75
479.658	99.75
479.876	93.75
480.095	89.75
480.313	81.75
480.532	97.75
480.751	91.75
480.969	149.75
481.188	319.75
481.406	240.75
481.624	99.75
481.843	98.75
482.061	76.75
482.28	82.75
482.498	81.75
482.717	83.75
482.935	81.75
483.153	89.75
483.372	95.75
483.59	102.75
483.808	104.75
484.027	97.75
484.245	82.75
484.463	102.75
484.681	105.75
484.9	93.75
485.118	101.75
485.336	100.75
485.554	78.75
485.772	98.75
485.99	95.75
486.209	106.75
486.427	110.75
486.645	110.75
486.863	116.75
487.081	119.75
487.299	94.75
487.517	85.75
487.735	103.75
487.953	90.75
488.171	92.75
488.389	107.75
488.607	111.75
488.825	93.75
489.043	89.75
489.261	96.75
489.479	85.75
489.696	86.75
489.914	89.75
490.132	88.75
490.35	91.75
490.568	97.75
490.786	95.75
491.003	97.75
491.221	97.75
491.439	85.75
491.657	94.75
491.874	90.75
492.092	77.75
492.31	81.75
492.527	122.75
492.745	81.75
492.963	92.75
493.18	82.75
493.398	102.75
493.615	104.75
493.833	97.75
494.05	90.75
494.268	89.75
494.485	91.75
494.703	93.75
494.92	93.75
495.138	92.75
495.355	88.75
495.573	86.75
495.79	90.75
496.008	101.75
496.225	89.75
496.442	85.75
496.66	93.75
496.877	85.75
497.094	85.75
497.312	90.75
497.529	85.75
497.746	99.75
497.963	96.75
498.181	86.75
498.398	93.75
498.615	119.75
498.832	104.75
499.049	83.75
499.267	83.75
499.484	71.75
499.701	97.75
499.918	99.75
500.135	93.75
500.352	86.75
500.569	99.75
500.786	89.75
501.003	86.75
501.22	82.75
501.437	89.75
501.654	91.75
501.871	111.75
502.088	88.75
502.305	91.75
502.522	76.75
502.739	89.75
502.956	100.75
503.172	75.75
503.389	89.75
503.606	102.75
503.823	99.75
504.04	95.75
504.256	95.75
504.473	96.75
504.69	83.75
504.907	91.75
505.123	82.75
505.34	85.75
505.557	92.75
505.773	105.75
505.99	85.75
506.207	95.75
506.423	88.75
506.64	92.75
506.856	95.75
507.073	100.75
507.289	83.75
507.506	105.75
507.722	113.75
507.939	106.75
508.155	96.75
508.372	88.75
508.588	103.75
508.805	86.75
509.021	93.75
509.238	99.75
509.454	106.75
509.67	93.75
509.887	117.75
510.103	128.75
510.319	233.75
510.536	763.75
510.752	2467.75
510.968	665.75
511.184	143.75
511.401	109.75
511.617	111.75
511.833	99.75
512.049	85.75
512.265	86.75
512.481	87.75
512.698	114.75
512.914	89.75
513.13	89.75
513.346	95.75
513.562	97.75
513.778	89.75
513.994	94.75
514.21	85.75
514.426	120.75
514.642	130.75
514.858	139.75
515.074	171.75
