Data from Circ_1994_H10_HRD10591_00070.txt Node
Date: Wed Jan 03 11:40:44 EST 2024
User: Yrep
Spectrometer: HR+D1059
Trigger mode: 1
Integration Time (sec): 1.000000E-1
Scans to average: 1
Electric dark correction enabled: true
Nonlinearity correction enabled: false
Boxcar width: 0
XAxis mode: Wavelengths
Number of Pixels in Spectrum: 2048
>>>>>Begin Spectral Data<<<<<
223.165	-18.81
223.4	-18.81
223.635	-18.81
223.869	-31.81
224.104	-23.81
224.338	-17.81
224.573	-13.81
224.808	-4.81
225.042	-1.81
225.277	-11.81
225.511	8.19
225.746	3.19
225.98	9.19
226.215	13.19
226.449	8.19
226.683	27.19
226.918	28.19
227.152	27.19
227.387	19.19
227.621	38.19
227.856	22.19
228.09	36.19
228.324	47.19
228.559	56.19
228.793	56.19
229.027	64.19
229.262	62.19
229.496	56.19
229.73	66.19
229.964	75.19
230.199	77.19
230.433	82.19
230.667	82.19
230.901	82.19
231.136	66.19
231.37	80.19
231.604	66.19
231.838	80.19
232.072	76.19
232.306	81.19
232.541	80.19
232.775	80.19
233.009	80.19
233.243	94.19
233.477	75.19
233.711	74.19
233.945	83.19
234.179	79.19
234.413	82.19
234.647	74.19
234.881	76.19
235.115	83.19
235.349	77.19
235.583	82.19
235.817	70.19
236.051	65.19
236.285	72.19
236.519	85.19
236.753	77.19
236.987	79.19
237.221	81.19
237.455	80.19
237.689	64.19
237.922	73.19
238.156	73.19
238.39	63.19
238.624	73.19
238.858	81.19
239.091	81.19
239.325	75.19
239.559	77.19
239.793	83.19
240.027	73.19
240.26	80.19
240.494	78.19
240.728	75.19
240.961	63.19
241.195	73.19
241.429	74.19
241.662	70.19
241.896	72.19
242.13	78.19
242.363	76.19
242.597	71.19
242.83	69.19
243.064	80.19
243.298	81.19
243.531	75.19
243.765	85.19
243.998	85.19
244.232	64.19
244.465	74.19
244.699	73.19
244.932	75.19
245.166	78.19
245.399	63.19
245.633	85.19
245.866	94.19
246.099	86.19
246.333	73.19
246.566	74.19
246.8	86.19
247.033	73.19
247.266	86.19
247.5	91.19
247.733	85.19
247.966	74.19
248.2	84.19
248.433	69.19
248.666	67.19
248.899	85.19
249.133	74.19
249.366	80.19
249.599	86.19
249.832	80.19
250.066	57.19
250.299	67.19
250.532	79.19
250.765	75.19
250.998	87.19
251.231	72.19
251.465	77.19
251.698	74.19
251.931	79.19
252.164	83.19
252.397	70.19
252.63	88.19
252.863	77.19
253.096	76.19
253.329	85.19
253.562	81.19
253.795	76.19
254.028	71.19
254.261	82.19
254.494	75.19
254.727	79.19
254.96	78.19
255.193	82.19
255.426	86.19
255.659	56.19
255.892	80.19
256.124	61.19
256.357	76.19
256.59	74.19
256.823	89.19
257.056	93.19
257.289	76.19
257.521	74.19
257.754	72.19
257.987	92.19
258.22	89.19
258.452	85.19
258.685	86.19
258.918	74.19
259.151	76.19
259.383	82.19
259.616	85.19
259.849	74.19
260.081	65.19
260.314	73.19
260.547	85.19
260.779	83.19
261.012	81.19
261.244	87.19
261.477	89.19
261.71	101.19
261.942	107.19
262.175	119.19
262.407	85.19
262.64	79.19
262.872	66.19
263.105	76.19
263.337	83.19
263.57	90.19
263.802	87.19
264.035	79.19
264.267	92.19
264.499	83.19
264.732	71.19
264.964	86.19
265.197	80.19
265.429	79.19
265.661	73.19
265.894	78.19
266.126	89.19
266.358	91.19
266.591	88.19
266.823	74.19
267.055	82.19
267.287	83.19
267.52	84.19
267.752	77.19
267.984	86.19
268.216	84.19
268.448	66.19
268.681	77.19
268.913	71.19
269.145	77.19
269.377	88.19
269.609	79.19
269.841	91.19
270.073	87.19
270.306	80.19
270.538	67.19
270.77	81.19
271.002	93.19
271.234	88.19
271.466	78.19
271.698	79.19
271.93	77.19
272.162	81.19
272.394	91.19
272.626	91.19
272.858	71.19
273.09	65.19
273.322	79.19
273.553	85.19
273.785	85.19
274.017	74.19
274.249	81.19
274.481	86.19
274.713	77.19
274.945	98.19
275.176	71.19
275.408	88.19
275.64	85.19
275.872	82.19
276.104	78.19
276.335	87.19
276.567	90.19
276.799	93.19
277.031	91.19
277.262	89.19
277.494	79.19
277.726	83.19
277.957	89.19
278.189	80.19
278.421	93.19
278.652	94.19
278.884	79.19
279.115	86.19
279.347	98.19
279.579	90.19
279.81	75.19
280.042	102.19
280.273	86.19
280.505	86.19
280.736	85.19
280.968	69.19
281.199	93.19
281.431	85.19
281.662	107.19
281.894	94.19
282.125	99.19
282.356	114.19
282.588	130.19
282.819	109.19
283.051	89.19
283.282	91.19
283.513	91.19
283.745	90.19
283.976	92.19
284.207	75.19
284.439	75.19
284.67	87.19
284.901	83.19
285.132	78.19
285.364	77.19
285.595	77.19
285.826	79.19
286.057	79.19
286.288	90.19
286.52	81.19
286.751	69.19
286.982	89.19
287.213	80.19
287.444	74.19
287.675	94.19
287.906	95.19
288.138	91.19
288.369	91.19
288.6	86.19
288.831	93.19
289.062	84.19
289.293	92.19
289.524	84.19
289.755	88.19
289.986	80.19
290.217	79.19
290.448	76.19
290.679	94.19
290.91	88.19
291.141	82.19
291.371	78.19
291.602	75.19
291.833	99.19
292.064	85.19
292.295	74.19
292.526	90.19
292.757	81.19
292.987	82.19
293.218	85.19
293.449	100.19
293.68	91.19
293.91	71.19
294.141	87.19
294.372	88.19
294.603	81.19
294.833	82.19
295.064	86.19
295.295	93.19
295.525	80.19
295.756	91.19
295.987	118.19
296.217	148.19
296.448	120.19
296.679	95.19
296.909	96.19
297.14	77.19
297.37	74.19
297.601	85.19
297.831	94.19
298.062	96.19
298.292	97.19
298.523	80.19
298.753	85.19
298.984	96.19
299.214	91.19
299.445	88.19
299.675	105.19
299.905	88.19
300.136	86.19
300.366	95.19
300.597	96.19
300.827	94.19
301.057	94.19
301.288	93.19
301.518	86.19
301.748	88.19
301.979	99.19
302.209	88.19
302.439	94.19
302.669	81.19
302.9	81.19
303.13	85.19
303.36	94.19
303.59	85.19
303.82	104.19
304.051	94.19
304.281	96.19
304.511	92.19
304.741	89.19
304.971	88.19
305.201	86.19
305.431	81.19
305.661	86.19
305.891	93.19
306.121	97.19
306.352	89.19
306.582	107.19
306.812	82.19
307.042	83.19
307.272	87.19
307.502	101.19
307.731	104.19
307.961	89.19
308.191	85.19
308.421	88.19
308.651	81.19
308.881	97.19
309.111	81.19
309.341	90.19
309.571	105.19
309.8	91.19
310.03	100.19
310.26	99.19
310.49	86.19
310.72	90.19
310.949	93.19
311.179	92.19
311.409	97.19
311.639	83.19
311.868	84.19
312.098	91.19
312.328	105.19
312.557	96.19
312.787	94.19
313.017	92.19
313.246	101.19
313.476	91.19
313.706	85.19
313.935	87.19
314.165	93.19
314.394	85.19
314.624	90.19
314.853	87.19
315.083	107.19
315.312	79.19
315.542	69.19
315.771	99.19
316.001	77.19
316.23	75.19
316.46	87.19
316.689	84.19
316.919	78.19
317.148	96.19
317.377	94.19
317.607	90.19
317.836	105.19
318.065	106.19
318.295	86.19
318.524	88.19
318.753	84.19
318.983	89.19
319.212	97.19
319.441	96.19
319.67	102.19
319.9	92.19
320.129	98.19
320.358	98.19
320.587	89.19
320.816	93.19
321.046	99.19
321.275	92.19
321.504	81.19
321.733	89.19
321.962	98.19
322.191	89.19
322.42	96.19
322.649	114.19
322.878	94.19
323.108	96.19
323.337	112.19
323.566	118.19
323.795	141.19
324.024	187.19
324.253	357.19
324.482	753.19
324.71	1542.19
324.939	1945.19
325.168	704.19
325.397	228.19
325.626	158.19
325.855	116.19
326.084	118.19
326.313	125.19
326.542	142.19
326.77	207.19
326.999	405.19
327.228	801.19
327.457	1499.19
327.686	1143.19
327.914	369.19
328.143	202.19
328.372	151.19
328.6	122.19
328.829	128.19
329.058	120.19
329.287	120.19
329.515	90.19
329.744	105.19
329.972	130.19
330.201	157.19
330.43	197.19
330.658	161.19
330.887	123.19
331.115	119.19
331.344	89.19
331.572	86.19
331.801	100.19
332.03	112.19
332.258	104.19
332.486	93.19
332.715	94.19
332.943	79.19
333.172	81.19
333.4	91.19
333.629	114.19
333.857	123.19
334.085	117.19
334.314	148.19
334.542	205.19
334.771	208.19
334.999	119.19
335.227	109.19
335.455	97.19
335.684	81.19
335.912	86.19
336.14	97.19
336.369	78.19
336.597	92.19
336.825	102.19
337.053	78.19
337.281	90.19
337.51	82.19
337.738	85.19
337.966	92.19
338.194	83.19
338.422	98.19
338.65	94.19
338.878	91.19
339.106	82.19
339.334	93.19
339.562	81.19
339.79	95.19
340.018	88.19
340.246	88.19
340.474	91.19
340.702	88.19
340.93	97.19
341.158	82.19
341.386	106.19
341.614	89.19
341.842	96.19
342.07	85.19
342.298	89.19
342.526	73.19
342.754	73.19
342.981	94.19
343.209	77.19
343.437	103.19
343.665	97.19
343.893	98.19
344.12	82.19
344.348	93.19
344.576	94.19
344.804	91.19
345.031	88.19
345.259	94.19
345.487	96.19
345.714	84.19
345.942	98.19
346.17	97.19
346.397	95.19
346.625	98.19
346.853	93.19
347.08	92.19
347.308	107.19
347.535	97.19
347.763	95.19
347.99	103.19
348.218	105.19
348.445	99.19
348.673	91.19
348.9	103.19
349.128	87.19
349.355	92.19
349.583	82.19
349.81	98.19
350.037	107.19
350.265	92.19
350.492	94.19
350.72	79.19
350.947	95.19
351.174	87.19
351.402	98.19
351.629	100.19
351.856	103.19
352.083	111.19
352.311	105.19
352.538	96.19
352.765	106.19
352.992	115.19
353.22	126.19
353.447	121.19
353.674	98.19
353.901	102.19
354.128	90.19
354.355	101.19
354.583	84.19
354.81	96.19
355.037	92.19
355.264	91.19
355.491	93.19
355.718	89.19
355.945	100.19
356.172	105.19
356.399	80.19
356.626	73.19
356.853	86.19
357.08	87.19
357.307	97.19
357.534	90.19
357.761	78.19
357.988	75.19
358.215	107.19
358.441	92.19
358.668	93.19
358.895	93.19
359.122	86.19
359.349	85.19
359.576	82.19
359.802	99.19
360.029	105.19
360.256	113.19
360.483	93.19
360.709	87.19
360.936	88.19
361.163	85.19
361.39	87.19
361.616	93.19
361.843	97.19
362.07	94.19
362.296	103.19
362.523	90.19
362.749	79.19
362.976	84.19
363.203	84.19
363.429	93.19
363.656	89.19
363.882	95.19
364.109	79.19
364.335	77.19
364.562	77.19
364.788	79.19
365.015	81.19
365.241	98.19
365.468	95.19
365.694	106.19
365.92	90.19
366.147	88.19
366.373	89.19
366.599	77.19
366.826	80.19
367.052	104.19
367.278	85.19
367.505	89.19
367.731	100.19
367.957	85.19
368.184	84.19
368.41	102.19
368.636	107.19
368.862	110.19
369.089	105.19
369.315	76.19
369.541	74.19
369.767	71.19
369.993	85.19
370.219	73.19
370.445	71.19
370.672	86.19
370.898	103.19
371.124	82.19
371.35	85.19
371.576	87.19
371.802	94.19
372.028	95.19
372.254	83.19
372.48	99.19
372.706	79.19
372.932	73.19
373.158	81.19
373.384	85.19
373.61	82.19
373.835	96.19
374.061	85.19
374.287	98.19
374.513	78.19
374.739	94.19
374.965	84.19
375.191	88.19
375.416	91.19
375.642	83.19
375.868	74.19
376.094	99.19
376.319	84.19
376.545	76.19
376.771	78.19
376.997	80.19
377.222	98.19
377.448	88.19
377.674	85.19
377.899	92.19
378.125	83.19
378.35	83.19
378.576	72.19
378.802	86.19
379.027	96.19
379.253	90.19
379.478	88.19
379.704	94.19
379.929	85.19
380.155	81.19
380.38	71.19
380.606	86.19
380.831	85.19
381.057	79.19
381.282	85.19
381.507	90.19
381.733	90.19
381.958	86.19
382.184	99.19
382.409	90.19
382.634	91.19
382.86	78.19
383.085	94.19
383.31	105.19
383.535	91.19
383.761	96.19
383.986	101.19
384.211	96.19
384.436	86.19
384.662	73.19
384.887	98.19
385.112	93.19
385.337	99.19
385.562	99.19
385.787	93.19
386.013	101.19
386.238	98.19
386.463	111.19
386.688	99.19
386.913	84.19
387.138	88.19
387.363	86.19
387.588	78.19
387.813	104.19
388.038	90.19
388.263	98.19
388.488	97.19
388.713	80.19
388.938	90.19
389.163	88.19
389.387	105.19
389.612	75.19
389.837	81.19
390.062	99.19
390.287	86.19
390.512	83.19
390.736	81.19
390.961	89.19
391.186	99.19
391.411	90.19
391.636	87.19
391.86	81.19
392.085	73.19
392.31	82.19
392.534	78.19
392.759	91.19
392.984	78.19
393.208	97.19
393.433	88.19
393.658	86.19
393.882	97.19
394.107	86.19
394.331	76.19
394.556	85.19
394.78	94.19
395.005	85.19
395.229	74.19
395.454	90.19
395.678	89.19
395.903	96.19
396.127	91.19
396.352	87.19
396.576	89.19
396.801	79.19
397.025	65.19
397.249	93.19
397.474	85.19
397.698	85.19
397.922	91.19
398.147	89.19
398.371	88.19
398.595	83.19
398.82	74.19
399.044	91.19
399.268	77.19
399.492	91.19
399.717	89.19
399.941	87.19
400.165	90.19
400.389	73.19
400.613	80.19
400.837	95.19
401.062	82.19
401.286	91.19
401.51	82.19
401.734	72.19
401.958	102.19
402.182	124.19
402.406	141.19
402.63	102.19
402.854	95.19
403.078	88.19
403.302	87.19
403.526	77.19
403.75	95.19
403.974	91.19
404.198	95.19
404.422	66.19
404.645	87.19
404.869	77.19
405.093	82.19
405.317	94.19
405.541	99.19
405.765	99.19
405.988	110.19
406.212	150.19
406.436	214.19
406.66	129.19
406.883	88.19
407.107	79.19
407.331	110.19
407.555	97.19
407.778	90.19
408.002	88.19
408.226	94.19
408.449	78.19
408.673	89.19
408.896	94.19
409.12	90.19
409.344	74.19
409.567	86.19
409.791	82.19
410.014	92.19
410.238	87.19
410.461	66.19
410.685	85.19
410.908	94.19
411.132	101.19
411.355	98.19
411.578	103.19
411.802	77.19
412.025	89.19
412.249	95.19
412.472	85.19
412.695	98.19
412.919	94.19
413.142	83.19
413.365	80.19
413.589	91.19
413.812	84.19
414.035	94.19
414.258	85.19
414.482	86.19
414.705	92.19
414.928	89.19
415.151	91.19
415.374	85.19
415.597	87.19
415.821	75.19
416.044	94.19
416.267	87.19
416.49	78.19
416.713	87.19
416.936	85.19
417.159	86.19
417.382	87.19
417.605	87.19
417.828	80.19
418.051	87.19
418.274	82.19
418.497	85.19
418.72	98.19
418.943	84.19
419.166	74.19
419.389	81.19
419.611	82.19
419.834	77.19
420.057	80.19
420.28	88.19
420.503	80.19
420.726	88.19
420.948	79.19
421.171	87.19
421.394	92.19
421.617	92.19
421.839	74.19
422.062	74.19
422.285	90.19
422.507	93.19
422.73	85.19
422.953	87.19
423.175	87.19
423.398	87.19
423.621	95.19
423.843	82.19
424.066	71.19
424.288	98.19
424.511	83.19
424.733	97.19
424.956	93.19
425.178	97.19
425.401	89.19
425.623	95.19
425.846	99.19
426.068	92.19
426.291	90.19
426.513	94.19
426.735	87.19
426.958	92.19
427.18	98.19
427.402	133.19
427.625	177.19
427.847	146.19
428.069	111.19
428.292	69.19
428.514	86.19
428.736	87.19
428.958	94.19
429.181	90.19
429.403	63.19
429.625	103.19
429.847	101.19
430.069	85.19
430.292	80.19
430.514	81.19
430.736	94.19
430.958	89.19
431.18	75.19
431.402	85.19
431.624	74.19
431.846	87.19
432.068	87.19
432.29	94.19
432.512	73.19
432.734	83.19
432.956	89.19
433.178	106.19
433.4	94.19
433.622	85.19
433.844	90.19
434.066	96.19
434.287	86.19
434.509	97.19
434.731	90.19
434.953	91.19
435.175	95.19
435.397	94.19
435.618	74.19
435.84	85.19
436.062	100.19
436.284	99.19
436.505	82.19
436.727	94.19
436.949	79.19
437.17	90.19
437.392	81.19
437.614	88.19
437.835	99.19
438.057	138.19
438.278	106.19
438.5	99.19
438.721	114.19
438.943	93.19
439.165	81.19
439.386	69.19
439.608	86.19
439.829	96.19
440.05	106.19
440.272	128.19
440.493	94.19
440.715	75.19
440.936	75.19
441.158	79.19
441.379	86.19
441.6	79.19
441.822	84.19
442.043	101.19
442.264	104.19
442.486	87.19
442.707	89.19
442.928	91.19
443.149	119.19
443.371	118.19
443.592	107.19
443.813	96.19
444.034	105.19
444.255	76.19
444.476	80.19
444.698	89.19
444.919	84.19
445.14	114.19
445.361	107.19
445.582	99.19
445.803	128.19
446.024	124.19
446.245	124.19
446.466	94.19
446.687	84.19
446.908	90.19
447.129	85.19
447.35	72.19
447.571	88.19
447.792	82.19
448.013	93.19
448.234	101.19
448.455	107.19
448.675	107.19
448.896	102.19
449.117	99.19
449.338	88.19
449.559	120.19
449.779	112.19
450	83.19
450.221	88.19
450.442	79.19
450.662	91.19
450.883	97.19
451.104	95.19
451.324	98.19
451.545	89.19
451.766	88.19
451.986	77.19
452.207	86.19
452.428	95.19
452.648	93.19
452.869	106.19
453.089	101.19
453.31	106.19
453.53	97.19
453.751	93.19
453.971	87.19
454.192	104.19
454.412	94.19
454.633	89.19
454.853	93.19
455.073	87.19
455.294	76.19
455.514	87.19
455.734	78.19
455.955	69.19
456.175	103.19
456.395	96.19
456.616	77.19
456.836	83.19
457.056	78.19
457.276	74.19
457.497	88.19
457.717	74.19
457.937	86.19
458.157	72.19
458.377	84.19
458.598	99.19
458.818	135.19
459.038	155.19
459.258	115.19
459.478	87.19
459.698	71.19
459.918	81.19
460.138	85.19
460.358	81.19
460.578	83.19
460.798	86.19
461.018	83.19
461.238	77.19
461.458	85.19
461.678	83.19
461.898	80.19
462.118	87.19
462.338	80.19
462.558	71.19
462.777	81.19
462.997	77.19
463.217	86.19
463.437	81.19
463.657	85.19
463.876	86.19
464.096	99.19
464.316	88.19
464.536	95.19
464.755	70.19
464.975	99.19
465.195	147.19
465.414	152.19
465.634	99.19
465.854	83.19
466.073	97.19
466.293	84.19
466.512	84.19
466.732	90.19
466.951	85.19
467.171	92.19
467.391	97.19
467.61	106.19
467.829	95.19
468.049	108.19
468.268	133.19
468.488	97.19
468.707	93.19
468.927	93.19
469.146	82.19
469.365	82.19
469.585	88.19
469.804	87.19
470.023	103.19
470.243	89.19
470.462	80.19
470.681	95.19
470.901	83.19
471.12	85.19
471.339	85.19
471.558	97.19
471.777	84.19
471.997	97.19
472.216	162.19
472.435	238.19
472.654	120.19
472.873	91.19
473.092	80.19
473.311	64.19
473.53	78.19
473.749	86.19
473.968	92.19
474.187	98.19
474.406	86.19
474.625	84.19
474.844	93.19
475.063	92.19
475.282	97.19
475.501	86.19
475.72	94.19
475.939	89.19
476.158	85.19
476.377	85.19
476.596	78.19
476.814	89.19
477.033	98.19
477.252	82.19
477.471	75.19
477.69	81.19
477.908	84.19
478.127	83.19
478.346	78.19
478.564	91.19
478.783	74.19
479.002	88.19
479.22	99.19
479.439	97.19
479.658	97.19
479.876	78.19
480.095	90.19
480.313	104.19
480.532	90.19
480.751	110.19
480.969	169.19
481.188	404.19
481.406	267.19
481.624	114.19
481.843	93.19
482.061	83.19
482.28	77.19
482.498	81.19
482.717	101.19
482.935	89.19
483.153	81.19
483.372	90.19
483.59	93.19
483.808	72.19
484.027	85.19
484.245	78.19
484.463	75.19
484.681	89.19
484.9	72.19
485.118	95.19
485.336	76.19
485.554	98.19
485.772	96.19
485.99	91.19
486.209	104.19
486.427	94.19
486.645	117.19
486.863	95.19
487.081	93.19
487.299	83.19
487.517	93.19
487.735	78.19
487.953	95.19
488.171	94.19
488.389	105.19
488.607	98.19
488.825	90.19
489.043	79.19
489.261	93.19
489.479	90.19
489.696	81.19
489.914	84.19
490.132	93.19
490.35	89.19
490.568	77.19
490.786	91.19
491.003	88.19
491.221	94.19
491.439	107.19
491.657	96.19
491.874	85.19
492.092	90.19
492.31	98.19
492.527	93.19
492.745	87.19
492.963	82.19
493.18	88.19
493.398	90.19
493.615	93.19
493.833	87.19
494.05	93.19
494.268	96.19
494.485	84.19
494.703	93.19
494.92	89.19
495.138	85.19
495.355	94.19
495.573	90.19
495.79	78.19
496.008	92.19
496.225	102.19
496.442	80.19
496.66	85.19
496.877	89.19
497.094	81.19
497.312	90.19
497.529	93.19
497.746	95.19
497.963	87.19
498.181	93.19
498.398	91.19
498.615	98.19
498.832	95.19
499.049	83.19
499.267	88.19
499.484	78.19
499.701	87.19
499.918	96.19
500.135	92.19
500.352	102.19
500.569	94.19
500.786	87.19
501.003	85.19
501.22	83.19
501.437	87.19
501.654	64.19
501.871	98.19
502.088	97.19
502.305	86.19
502.522	91.19
502.739	90.19
502.956	95.19
503.172	85.19
503.389	95.19
503.606	109.19
503.823	95.19
504.04	92.19
504.256	94.19
504.473	93.19
504.69	90.19
504.907	73.19
505.123	94.19
505.34	95.19
505.557	90.19
505.773	89.19
505.99	98.19
506.207	77.19
506.423	93.19
506.64	87.19
506.856	85.19
507.073	87.19
507.289	89.19
507.506	99.19
507.722	107.19
507.939	115.19
508.155	102.19
508.372	91.19
508.588	94.19
508.805	94.19
509.021	95.19
509.238	100.19
509.454	94.19
509.67	102.19
509.887	104.19
510.103	122.19
510.319	215.19
510.536	749.19
510.752	2482.19
510.968	702.19
511.184	163.19
511.401	117.19
511.617	102.19
511.833	90.19
512.049	81.19
512.265	85.19
512.481	87.19
512.698	87.19
512.914	82.19
513.13	98.19
513.346	80.19
513.562	81.19
513.778	100.19
513.994	76.19
514.21	99.19
514.426	114.19
514.642	127.19
514.858	114.19
515.074	147.19
515.29	449.19
515.506	1434.19
515.721	510.19
515.937	143.19
516.153	109.19
516.369	86.19
516.585	96.19
516.801	90.19
517.016	98.19
517.232	98.19
