Data from Circ_1994_H10_HRD10591_00073.txt Node
Date: Wed Jan 03 11:40:45 EST 2024
User: Yrep
Spectrometer: HR+D1059
Trigger mode: 1
Integration Time (sec): 1.000000E-1
Scans to average: 1
Electric dark correction enabled: true
Nonlinearity correction enabled: false
Boxcar width: 0
XAxis mode: Wavelengths
Number of Pixels in Spectrum: 2048
>>>>>Begin Spectral Data<<<<<
223.165	-10.19
223.4	-10.19
223.635	-10.19
223.869	-3.19
224.104	-27.19
224.338	-21.19
224.573	-13.19
224.808	-21.19
225.042	-12.19
225.277	-5.19
225.511	2.81
225.746	3.81
225.98	2.81
226.215	11.81
226.449	19.81
226.683	28.81
226.918	17.81
227.152	25.81
227.387	24.81
227.621	42.81
227.856	55.81
228.09	62.81
228.324	46.81
228.559	63.81
228.793	50.81
229.027	74.81
229.262	66.81
229.496	83.81
229.73	91.81
229.964	89.81
230.199	73.81
230.433	75.81
230.667	78.81
230.901	80.81
231.136	73.81
231.37	83.81
231.604	92.81
231.838	92.81
232.072	76.81
232.306	74.81
232.541	85.81
232.775	65.81
233.009	83.81
233.243	76.81
233.477	82.81
233.711	75.81
233.945	77.81
234.179	83.81
234.413	95.81
234.647	93.81
234.881	79.81
235.115	79.81
235.349	77.81
235.583	75.81
235.817	64.81
236.051	73.81
236.285	87.81
236.519	78.81
236.753	64.81
236.987	81.81
237.221	79.81
237.455	71.81
237.689	86.81
237.922	80.81
238.156	75.81
238.39	90.81
238.624	79.81
238.858	75.81
239.091	75.81
239.325	81.81
239.559	79.81
239.793	68.81
240.027	63.81
240.26	75.81
240.494	76.81
240.728	86.81
240.961	76.81
241.195	73.81
241.429	59.81
241.662	67.81
241.896	80.81
242.13	80.81
242.363	85.81
242.597	69.81
242.83	73.81
243.064	83.81
243.298	82.81
243.531	74.81
243.765	79.81
243.998	75.81
244.232	75.81
244.465	80.81
244.699	68.81
244.932	85.81
245.166	74.81
245.399	62.81
245.633	79.81
245.866	84.81
246.099	64.81
246.333	84.81
246.566	79.81
246.8	84.81
247.033	59.81
247.266	79.81
247.5	73.81
247.733	80.81
247.966	77.81
248.2	79.81
248.433	79.81
248.666	76.81
248.899	73.81
249.133	76.81
249.366	89.81
249.599	104.81
249.832	76.81
250.066	81.81
250.299	82.81
250.532	76.81
250.765	72.81
250.998	71.81
251.231	71.81
251.465	82.81
251.698	79.81
251.931	62.81
252.164	85.81
252.397	87.81
252.63	73.81
252.863	80.81
253.096	68.81
253.329	77.81
253.562	85.81
253.795	87.81
254.028	76.81
254.261	68.81
254.494	76.81
254.727	99.81
254.96	84.81
255.193	80.81
255.426	83.81
255.659	79.81
255.892	59.81
256.124	87.81
256.357	89.81
256.59	84.81
256.823	75.81
257.056	89.81
257.289	67.81
257.521	71.81
257.754	90.81
257.987	93.81
258.22	73.81
258.452	69.81
258.685	84.81
258.918	86.81
259.151	84.81
259.383	83.81
259.616	82.81
259.849	70.81
260.081	71.81
260.314	76.81
260.547	73.81
260.779	84.81
261.012	83.81
261.244	80.81
261.477	83.81
261.71	96.81
261.942	111.81
262.175	124.81
262.407	104.81
262.64	80.81
262.872	86.81
263.105	95.81
263.337	79.81
263.57	62.81
263.802	87.81
264.035	83.81
264.267	84.81
264.499	74.81
264.732	90.81
264.964	86.81
265.197	82.81
265.429	74.81
265.661	84.81
265.894	82.81
266.126	79.81
266.358	76.81
266.591	81.81
266.823	79.81
267.055	89.81
267.287	86.81
267.52	96.81
267.752	80.81
267.984	79.81
268.216	81.81
268.448	84.81
268.681	79.81
268.913	83.81
269.145	89.81
269.377	57.81
269.609	79.81
269.841	90.81
270.073	86.81
270.306	86.81
270.538	97.81
270.77	95.81
271.002	83.81
271.234	84.81
271.466	91.81
271.698	89.81
271.93	89.81
272.162	87.81
272.394	95.81
272.626	87.81
272.858	88.81
273.09	82.81
273.322	89.81
273.553	83.81
273.785	79.81
274.017	85.81
274.249	77.81
274.481	73.81
274.713	89.81
274.945	81.81
275.176	72.81
275.408	67.81
275.64	71.81
275.872	89.81
276.104	80.81
276.335	83.81
276.567	84.81
276.799	106.81
277.031	116.81
277.262	90.81
277.494	91.81
277.726	81.81
277.957	78.81
278.189	88.81
278.421	75.81
278.652	74.81
278.884	77.81
279.115	90.81
279.347	83.81
279.579	89.81
279.81	67.81
280.042	79.81
280.273	87.81
280.505	86.81
280.736	77.81
280.968	88.81
281.199	89.81
281.431	90.81
281.662	73.81
281.894	96.81
282.125	97.81
282.356	112.81
282.588	130.81
282.819	125.81
283.051	92.81
283.282	71.81
283.513	93.81
283.745	96.81
283.976	95.81
284.207	73.81
284.439	88.81
284.67	88.81
284.901	87.81
285.132	94.81
285.364	99.81
285.595	71.81
285.826	70.81
286.057	77.81
286.288	93.81
286.52	81.81
286.751	83.81
286.982	80.81
287.213	90.81
287.444	83.81
287.675	88.81
287.906	72.81
288.138	72.81
288.369	67.81
288.6	83.81
288.831	90.81
289.062	85.81
289.293	89.81
289.524	82.81
289.755	85.81
289.986	75.81
290.217	85.81
290.448	90.81
290.679	84.81
290.91	83.81
291.141	97.81
291.371	84.81
291.602	90.81
291.833	91.81
292.064	93.81
292.295	68.81
292.526	100.81
292.757	79.81
292.987	91.81
293.218	83.81
293.449	79.81
293.68	77.81
293.91	80.81
294.141	89.81
294.372	100.81
294.603	89.81
294.833	78.81
295.064	69.81
295.295	83.81
295.525	85.81
295.756	109.81
295.987	110.81
296.217	140.81
296.448	122.81
296.679	90.81
296.909	74.81
297.14	82.81
297.37	101.81
297.601	85.81
297.831	75.81
298.062	86.81
298.292	65.81
298.523	89.81
298.753	103.81
298.984	88.81
299.214	86.81
299.445	85.81
299.675	101.81
299.905	91.81
300.136	89.81
300.366	91.81
300.597	85.81
300.827	91.81
301.057	105.81
301.288	117.81
301.518	86.81
301.748	107.81
301.979	90.81
302.209	92.81
302.439	82.81
302.669	81.81
302.9	84.81
303.13	99.81
303.36	90.81
303.59	115.81
303.82	104.81
304.051	83.81
304.281	73.81
304.511	68.81
304.741	91.81
304.971	80.81
305.201	85.81
305.431	80.81
305.661	86.81
305.891	92.81
306.121	88.81
306.352	106.81
306.582	94.81
306.812	86.81
307.042	90.81
307.272	104.81
307.502	80.81
307.731	89.81
307.961	95.81
308.191	88.81
308.421	81.81
308.651	97.81
308.881	95.81
309.111	85.81
309.341	91.81
309.571	92.81
309.8	92.81
310.03	111.81
310.26	98.81
310.49	94.81
310.72	89.81
310.949	94.81
311.179	98.81
311.409	103.81
311.639	92.81
311.868	90.81
312.098	104.81
312.328	93.81
312.557	88.81
312.787	99.81
313.017	107.81
313.246	95.81
313.476	88.81
313.706	84.81
313.935	92.81
314.165	106.81
314.394	93.81
314.624	108.81
314.853	105.81
315.083	103.81
315.312	99.81
315.542	87.81
315.771	90.81
316.001	80.81
316.23	93.81
316.46	91.81
316.689	72.81
316.919	93.81
317.148	104.81
317.377	94.81
317.607	82.81
317.836	93.81
318.065	90.81
318.295	92.81
318.524	83.81
318.753	87.81
318.983	88.81
319.212	109.81
319.441	104.81
319.67	101.81
319.9	92.81
320.129	83.81
320.358	94.81
320.587	104.81
320.816	107.81
321.046	109.81
321.275	100.81
321.504	103.81
321.733	96.81
321.962	96.81
322.191	96.81
322.42	105.81
322.649	119.81
322.878	116.81
323.108	104.81
323.337	115.81
323.566	125.81
323.795	148.81
324.024	194.81
324.253	363.81
324.482	785.81
324.71	1578.81
324.939	2144.81
325.168	805.81
325.397	225.81
325.626	139.81
325.855	130.81
326.084	132.81
326.313	115.81
326.542	151.81
326.77	227.81
326.999	414.81
327.228	919.81
327.457	1637.81
327.686	1294.81
327.914	375.81
328.143	201.81
328.372	168.81
328.6	129.81
328.829	119.81
329.058	114.81
329.287	125.81
329.515	111.81
329.744	104.81
329.972	119.81
330.201	171.81
330.43	203.81
330.658	149.81
330.887	138.81
331.115	130.81
331.344	108.81
331.572	99.81
331.801	101.81
332.03	107.81
332.258	107.81
332.486	102.81
332.715	91.81
332.943	99.81
333.172	97.81
333.4	100.81
333.629	115.81
333.857	116.81
334.085	143.81
334.314	164.81
334.542	213.81
334.771	200.81
334.999	116.81
335.227	108.81
335.455	97.81
335.684	107.81
335.912	98.81
336.14	91.81
336.369	88.81
336.597	101.81
336.825	97.81
337.053	71.81
337.281	95.81
337.51	86.81
337.738	104.81
337.966	97.81
338.194	93.81
338.422	91.81
338.65	98.81
338.878	101.81
339.106	101.81
339.334	100.81
339.562	91.81
339.79	93.81
340.018	88.81
340.246	88.81
340.474	104.81
340.702	101.81
340.93	83.81
341.158	98.81
341.386	99.81
341.614	96.81
341.842	93.81
342.07	79.81
342.298	99.81
342.526	81.81
342.754	87.81
342.981	91.81
343.209	87.81
343.437	90.81
343.665	89.81
343.893	103.81
344.12	93.81
344.348	95.81
344.576	84.81
344.804	91.81
345.031	91.81
345.259	99.81
345.487	101.81
345.714	100.81
345.942	74.81
346.17	93.81
346.397	77.81
346.625	81.81
346.853	93.81
347.08	84.81
347.308	88.81
347.535	88.81
347.763	106.81
347.99	105.81
348.218	92.81
348.445	99.81
348.673	96.81
348.9	101.81
349.128	114.81
349.355	92.81
349.583	97.81
349.81	84.81
350.037	109.81
350.265	99.81
350.492	82.81
350.72	91.81
350.947	96.81
351.174	98.81
351.402	95.81
351.629	103.81
351.856	115.81
352.083	90.81
352.311	107.81
352.538	105.81
352.765	107.81
352.992	119.81
353.22	115.81
353.447	82.81
353.674	109.81
353.901	99.81
354.128	92.81
354.355	87.81
354.583	92.81
354.81	92.81
355.037	97.81
355.264	97.81
355.491	92.81
355.718	96.81
355.945	107.81
356.172	88.81
356.399	92.81
356.626	110.81
356.853	92.81
357.08	92.81
357.307	79.81
357.534	89.81
357.761	75.81
357.988	107.81
358.215	80.81
358.441	95.81
358.668	96.81
358.895	76.81
359.122	89.81
359.349	79.81
359.576	86.81
359.802	116.81
360.029	114.81
360.256	99.81
360.483	93.81
360.709	89.81
360.936	117.81
361.163	109.81
361.39	90.81
361.616	93.81
361.843	90.81
362.07	104.81
362.296	95.81
362.523	93.81
362.749	89.81
362.976	97.81
363.203	104.81
363.429	75.81
363.656	80.81
363.882	75.81
364.109	84.81
364.335	80.81
364.562	87.81
364.788	93.81
365.015	83.81
365.241	82.81
365.468	107.81
365.694	96.81
365.92	89.81
366.147	88.81
366.373	85.81
366.599	77.81
366.826	83.81
367.052	88.81
367.278	95.81
367.505	100.81
367.731	84.81
367.957	101.81
368.184	85.81
368.41	94.81
368.636	112.81
368.862	107.81
369.089	109.81
369.315	108.81
369.541	105.81
369.767	94.81
369.993	81.81
370.219	80.81
370.445	84.81
370.672	92.81
370.898	81.81
371.124	91.81
371.35	91.81
371.576	91.81
371.802	93.81
372.028	89.81
372.254	82.81
372.48	87.81
372.706	89.81
372.932	87.81
373.158	84.81
373.384	86.81
373.61	98.81
373.835	92.81
374.061	89.81
374.287	98.81
374.513	95.81
374.739	87.81
374.965	81.81
375.191	93.81
375.416	79.81
375.642	82.81
375.868	80.81
376.094	74.81
376.319	79.81
376.545	82.81
376.771	86.81
376.997	94.81
377.222	102.81
377.448	101.81
377.674	88.81
377.899	89.81
378.125	95.81
378.35	93.81
378.576	87.81
378.802	85.81
379.027	97.81
379.253	88.81
379.478	88.81
379.704	88.81
379.929	83.81
380.155	81.81
380.38	83.81
380.606	94.81
380.831	101.81
381.057	99.81
381.282	103.81
381.507	104.81
381.733	93.81
381.958	101.81
382.184	102.81
382.409	86.81
382.634	107.81
382.86	91.81
383.085	101.81
383.31	99.81
383.535	97.81
383.761	89.81
383.986	80.81
384.211	82.81
384.436	86.81
384.662	76.81
384.887	86.81
385.112	96.81
385.337	96.81
385.562	107.81
385.787	97.81
386.013	114.81
386.238	103.81
386.463	100.81
386.688	98.81
386.913	99.81
387.138	103.81
387.363	100.81
387.588	103.81
387.813	77.81
388.038	111.81
388.263	105.81
388.488	91.81
388.713	82.81
388.938	101.81
389.163	96.81
389.387	94.81
389.612	90.81
389.837	95.81
390.062	67.81
390.287	94.81
390.512	89.81
390.736	99.81
390.961	93.81
391.186	85.81
391.411	101.81
391.636	107.81
391.86	94.81
392.085	90.81
392.31	85.81
392.534	87.81
392.759	103.81
392.984	91.81
393.208	80.81
393.433	81.81
393.658	98.81
393.882	95.81
394.107	86.81
394.331	92.81
394.556	87.81
394.78	95.81
395.005	95.81
395.229	85.81
395.454	82.81
395.678	80.81
395.903	96.81
396.127	108.81
396.352	111.81
396.576	83.81
396.801	79.81
397.025	84.81
397.249	81.81
397.474	87.81
397.698	91.81
397.922	77.81
398.147	84.81
398.371	91.81
398.595	81.81
398.82	88.81
399.044	96.81
399.268	82.81
399.492	78.81
399.717	83.81
399.941	81.81
400.165	86.81
400.389	78.81
400.613	105.81
400.837	87.81
401.062	83.81
401.286	102.81
401.51	93.81
401.734	98.81
401.958	101.81
402.182	119.81
402.406	146.81
402.63	128.81
402.854	98.81
403.078	91.81
403.302	90.81
403.526	83.81
403.75	77.81
403.974	83.81
404.198	89.81
404.422	83.81
404.645	87.81
404.869	78.81
405.093	96.81
405.317	87.81
405.541	83.81
405.765	90.81
405.988	132.81
406.212	165.81
406.436	221.81
406.66	142.81
406.883	100.81
407.107	82.81
407.331	87.81
407.555	104.81
407.778	89.81
408.002	92.81
408.226	89.81
408.449	95.81
408.673	98.81
408.896	98.81
409.12	92.81
409.344	93.81
409.567	94.81
409.791	85.81
410.014	81.81
410.238	85.81
410.461	86.81
410.685	103.81
410.908	88.81
411.132	95.81
411.355	91.81
411.578	97.81
411.802	77.81
412.025	84.81
412.249	93.81
412.472	80.81
412.695	99.81
412.919	101.81
413.142	82.81
413.365	101.81
413.589	94.81
413.812	93.81
414.035	85.81
414.258	87.81
414.482	93.81
414.705	93.81
414.928	76.81
415.151	81.81
415.374	89.81
415.597	88.81
415.821	91.81
416.044	105.81
416.267	91.81
416.49	74.81
416.713	75.81
416.936	93.81
417.159	90.81
417.382	88.81
417.605	89.81
417.828	81.81
418.051	91.81
418.274	92.81
418.497	87.81
418.72	87.81
418.943	88.81
419.166	71.81
419.389	92.81
419.611	82.81
419.834	95.81
420.057	93.81
420.28	89.81
420.503	88.81
420.726	86.81
420.948	104.81
421.171	87.81
421.394	72.81
421.617	76.81
421.839	99.81
422.062	77.81
422.285	77.81
422.507	87.81
422.73	93.81
422.953	93.81
423.175	73.81
423.398	82.81
423.621	84.81
423.843	98.81
424.066	87.81
424.288	80.81
424.511	96.81
424.733	81.81
424.956	98.81
425.178	86.81
425.401	101.81
425.623	99.81
425.846	99.81
426.068	86.81
426.291	93.81
426.513	93.81
426.735	93.81
426.958	90.81
427.18	88.81
427.402	108.81
427.625	166.81
427.847	123.81
428.069	123.81
428.292	97.81
428.514	87.81
428.736	83.81
428.958	90.81
429.181	83.81
429.403	84.81
429.625	89.81
429.847	95.81
430.069	90.81
430.292	86.81
430.514	102.81
430.736	85.81
430.958	77.81
431.18	87.81
431.402	79.81
431.624	76.81
431.846	73.81
432.068	82.81
432.29	81.81
432.512	81.81
432.734	61.81
432.956	103.81
433.178	98.81
433.4	115.81
433.622	92.81
433.844	93.81
434.066	84.81
434.287	97.81
434.509	98.81
434.731	78.81
434.953	92.81
435.175	89.81
435.397	82.81
435.618	87.81
435.84	93.81
436.062	123.81
436.284	121.81
436.505	100.81
436.727	105.81
436.949	92.81
437.17	99.81
437.392	98.81
437.614	96.81
437.835	104.81
438.057	89.81
438.278	111.81
438.5	93.81
438.721	120.81
438.943	108.81
439.165	78.81
439.386	100.81
439.608	89.81
439.829	91.81
440.05	119.81
440.272	145.81
440.493	108.81
440.715	86.81
440.936	86.81
441.158	86.81
441.379	90.81
441.6	86.81
441.822	86.81
442.043	87.81
442.264	99.81
442.486	111.81
442.707	94.81
442.928	96.81
443.149	132.81
443.371	132.81
443.592	100.81
443.813	106.81
444.034	100.81
444.255	88.81
444.476	83.81
444.698	85.81
444.919	86.81
445.14	146.81
445.361	110.81
445.582	113.81
445.803	129.81
446.024	144.81
446.245	113.81
446.466	87.81
446.687	100.81
446.908	97.81
447.129	85.81
447.35	98.81
447.571	87.81
447.792	81.81
448.013	91.81
448.234	104.81
448.455	87.81
448.675	85.81
448.896	120.81
449.117	102.81
449.338	103.81
449.559	123.81
449.779	116.81
450	85.81
450.221	75.81
450.442	87.81
450.662	92.81
450.883	109.81
451.104	99.81
451.324	91.81
451.545	84.81
451.766	100.81
451.986	85.81
452.207	82.81
452.428	91.81
452.648	91.81
452.869	103.81
453.089	107.81
453.31	120.81
453.53	88.81
453.751	93.81
453.971	94.81
454.192	100.81
454.412	80.81
454.633	83.81
454.853	72.81
455.073	72.81
455.294	99.81
455.514	98.81
455.734	97.81
455.955	80.81
456.175	86.81
456.395	77.81
456.616	73.81
456.836	78.81
457.056	95.81
457.276	87.81
457.497	82.81
457.717	79.81
457.937	100.81
458.157	86.81
458.377	65.81
458.598	108.81
458.818	141.81
459.038	135.81
459.258	111.81
459.478	96.81
459.698	94.81
459.918	74.81
460.138	75.81
460.358	85.81
460.578	80.81
460.798	99.81
461.018	87.81
461.238	98.81
461.458	89.81
461.678	92.81
461.898	76.81
462.118	84.81
462.338	83.81
462.558	78.81
462.777	96.81
462.997	76.81
463.217	62.81
463.437	77.81
463.657	79.81
463.876	96.81
464.096	101.81
464.316	92.81
464.536	95.81
464.755	91.81
464.975	95.81
465.195	154.81
465.414	167.81
465.634	102.81
465.854	100.81
466.073	94.81
466.293	83.81
466.512	84.81
466.732	89.81
466.951	79.81
467.171	89.81
467.391	81.81
467.61	97.81
467.829	94.81
468.049	111.81
468.268	124.81
468.488	97.81
468.707	98.81
468.927	80.81
469.146	80.81
469.365	91.81
469.585	88.81
469.804	78.81
470.023	104.81
470.243	93.81
470.462	102.81
470.681	112.81
470.901	95.81
471.12	81.81
471.339	88.81
471.558	75.81
471.777	90.81
471.997	99.81
472.216	178.81
472.435	267.81
472.654	121.81
472.873	87.81
473.092	99.81
473.311	93.81
473.53	88.81
473.749	97.81
473.968	86.81
474.187	101.81
474.406	73.81
474.625	73.81
474.844	88.81
475.063	73.81
475.282	96.81
475.501	76.81
475.72	94.81
475.939	87.81
476.158	85.81
476.377	84.81
476.596	84.81
476.814	82.81
477.033	85.81
477.252	96.81
477.471	63.81
477.69	84.81
477.908	87.81
478.127	95.81
478.346	81.81
478.564	86.81
478.783	83.81
479.002	91.81
479.22	77.81
479.439	92.81
479.658	96.81
479.876	88.81
480.095	85.81
480.313	94.81
480.532	109.81
480.751	107.81
480.969	180.81
481.188	459.81
481.406	293.81
481.624	101.81
481.843	65.81
482.061	87.81
482.28	91.81
482.498	89.81
482.717	87.81
482.935	90.81
483.153	87.81
483.372	86.81
483.59	84.81
483.808	100.81
484.027	104.81
484.245	87.81
484.463	91.81
484.681	88.81
484.9	83.81
485.118	94.81
485.336	88.81
485.554	96.81
485.772	90.81
485.99	104.81
486.209	95.81
486.427	95.81
486.645	104.81
486.863	110.81
487.081	94.81
487.299	85.81
487.517	87.81
487.735	98.81
487.953	88.81
488.171	94.81
488.389	96.81
488.607	101.81
488.825	93.81
489.043	95.81
489.261	91.81
489.479	89.81
489.696	82.81
489.914	91.81
490.132	73.81
490.35	77.81
490.568	89.81
490.786	84.81
491.003	78.81
491.221	87.81
491.439	91.81
491.657	67.81
491.874	122.81
492.092	89.81
492.31	81.81
492.527	98.81
492.745	87.81
492.963	97.81
493.18	95.81
493.398	87.81
493.615	95.81
493.833	90.81
494.05	88.81
494.268	78.81
494.485	80.81
494.703	80.81
494.92	89.81
495.138	92.81
495.355	74.81
495.573	82.81
495.79	85.81
496.008	80.81
496.225	93.81
496.442	81.81
496.66	89.81
496.877	96.81
497.094	79.81
497.312	89.81
497.529	87.81
497.746	85.81
497.963	83.81
498.181	100.81
498.398	84.81
498.615	99.81
498.832	102.81
499.049	98.81
499.267	91.81
499.484	77.81
499.701	77.81
499.918	88.81
500.135	81.81
500.352	97.81
500.569	96.81
500.786	91.81
501.003	84.81
501.22	86.81
501.437	79.81
501.654	93.81
501.871	123.81
502.088	92.81
502.305	90.81
502.522	76.81
502.739	90.81
502.956	88.81
503.172	86.81
503.389	73.81
503.606	88.81
503.823	82.81
504.04	91.81
504.256	94.81
504.473	88.81
504.69	97.81
504.907	93.81
505.123	81.81
505.34	98.81
505.557	84.81
505.773	88.81
505.99	95.81
506.207	80.81
506.423	84.81
506.64	75.81
506.856	98.81
507.073	95.81
507.289	95.81
507.506	98.81
507.722	109.81
507.939	107.81
508.155	93.81
508.372	91.81
508.588	100.81
508.805	82.81
509.021	89.81
509.238	100.81
509.454	99.81
509.67	100.81
509.887	109.81
510.103	136.81
510.319	210.81
510.536	760.81
510.752	2545.81
510.968	661.81
511.184	160.81
511.401	121.81
511.617	98.81
511.833	96.81
512.049	99.81
512.265	92.81
512.481	106.81
512.698	91.81
512.914	91.81
513.13	81.81
513.346	98.81
513.562	96.81
513.778	91.81
513.994	95.81
514.21	99.81
514.426	122.81
514.642	116.81
514.858	125.81
515.074	174.81
515.29	435.81
515.506	1503.81
515.721	548.81
515.937	157.81
516.153	121.81
