Data from Circ_1994_H10_HRD10591_00008.txt Node
Date: Wed Jan 03 11:40:32 EST 2024
User: Yrep
Spectrometer: HR+D1059
Trigger mode: 1
Integration Time (sec): 1.000000E-1
Scans to average: 1
Electric dark correction enabled: true
Nonlinearity correction enabled: false
Boxcar width: 0
XAxis mode: Wavelengths
Number of Pixels in Spectrum: 2048
>>>>>Begin Spectral Data<<<<<
223.165	-5.62
223.4	-5.62
223.635	-5.62
223.869	-20.62
224.104	-14.62
224.338	-15.62
224.573	-17.62
224.808	-18.62
225.042	-15.62
225.277	-13.62
225.511	-3.62
225.746	9.38
225.98	2.38
226.215	17.38
226.449	23.38
226.683	30.38
226.918	19.38
227.152	23.38
227.387	30.38
227.621	28.38
227.856	35.38
228.09	40.38
228.324	51.38
228.559	65.38
228.793	45.38
229.027	71.38
229.262	62.38
229.496	68.38
229.73	71.38
229.964	72.38
230.199	67.38
230.433	81.38
230.667	65.38
230.901	77.38
231.136	64.38
231.37	87.38
231.604	91.38
231.838	82.38
232.072	78.38
232.306	83.38
232.541	79.38
232.775	74.38
233.009	65.38
233.243	81.38
233.477	80.38
233.711	83.38
233.945	75.38
234.179	84.38
234.413	88.38
234.647	91.38
234.881	77.38
235.115	69.38
235.349	88.38
235.583	74.38
235.817	75.38
236.051	71.38
236.285	93.38
236.519	93.38
236.753	94.38
236.987	80.38
237.221	77.38
237.455	88.38
237.689	91.38
237.922	75.38
238.156	79.38
238.39	74.38
238.624	65.38
238.858	65.38
239.091	68.38
239.325	71.38
239.559	83.38
239.793	79.38
240.027	85.38
240.26	73.38
240.494	75.38
240.728	86.38
240.961	76.38
241.195	77.38
241.429	71.38
241.662	82.38
241.896	71.38
242.13	72.38
242.363	83.38
242.597	78.38
242.83	74.38
243.064	81.38
243.298	97.38
243.531	68.38
243.765	76.38
243.998	77.38
244.232	86.38
244.465	82.38
244.699	74.38
244.932	83.38
245.166	82.38
245.399	78.38
245.633	85.38
245.866	89.38
246.099	85.38
246.333	82.38
246.566	85.38
246.8	89.38
247.033	85.38
247.266	78.38
247.5	84.38
247.733	69.38
247.966	84.38
248.2	89.38
248.433	88.38
248.666	89.38
248.899	87.38
249.133	78.38
249.366	86.38
249.599	96.38
249.832	84.38
250.066	73.38
250.299	77.38
250.532	73.38
250.765	75.38
250.998	97.38
251.231	69.38
251.465	84.38
251.698	81.38
251.931	94.38
252.164	65.38
252.397	71.38
252.63	80.38
252.863	81.38
253.096	87.38
253.329	79.38
253.562	67.38
253.795	74.38
254.028	75.38
254.261	74.38
254.494	90.38
254.727	82.38
254.96	81.38
255.193	85.38
255.426	72.38
255.659	71.38
255.892	73.38
256.124	77.38
256.357	80.38
256.59	85.38
256.823	77.38
257.056	66.38
257.289	89.38
257.521	68.38
257.754	89.38
257.987	71.38
258.22	83.38
258.452	83.38
258.685	68.38
258.918	93.38
259.151	89.38
259.383	92.38
259.616	78.38
259.849	85.38
260.081	67.38
260.314	71.38
260.547	83.38
260.779	99.38
261.012	88.38
261.244	80.38
261.477	105.38
261.71	87.38
261.942	95.38
262.175	117.38
262.407	93.38
262.64	76.38
262.872	84.38
263.105	84.38
263.337	77.38
263.57	75.38
263.802	72.38
264.035	83.38
264.267	75.38
264.499	85.38
264.732	90.38
264.964	74.38
265.197	77.38
265.429	68.38
265.661	80.38
265.894	94.38
266.126	84.38
266.358	77.38
266.591	84.38
266.823	78.38
267.055	81.38
267.287	89.38
267.52	85.38
267.752	85.38
267.984	67.38
268.216	68.38
268.448	78.38
268.681	79.38
268.913	81.38
269.145	89.38
269.377	98.38
269.609	62.38
269.841	75.38
270.073	98.38
270.306	78.38
270.538	89.38
270.77	75.38
271.002	93.38
271.234	92.38
271.466	85.38
271.698	87.38
271.93	77.38
272.162	81.38
272.394	75.38
272.626	86.38
272.858	81.38
273.09	75.38
273.322	86.38
273.553	87.38
273.785	88.38
274.017	76.38
274.249	93.38
274.481	90.38
274.713	76.38
274.945	85.38
275.176	90.38
275.408	91.38
275.64	78.38
275.872	89.38
276.104	94.38
276.335	99.38
276.567	86.38
276.799	101.38
277.031	99.38
277.262	83.38
277.494	89.38
277.726	98.38
277.957	86.38
278.189	86.38
278.421	87.38
278.652	88.38
278.884	78.38
279.115	69.38
279.347	79.38
279.579	77.38
279.81	93.38
280.042	76.38
280.273	82.38
280.505	88.38
280.736	91.38
280.968	85.38
281.199	89.38
281.431	80.38
281.662	74.38
281.894	80.38
282.125	89.38
282.356	113.38
282.588	135.38
282.819	116.38
283.051	92.38
283.282	89.38
283.513	92.38
283.745	94.38
283.976	73.38
284.207	95.38
284.439	79.38
284.67	74.38
284.901	85.38
285.132	90.38
285.364	90.38
285.595	88.38
285.826	79.38
286.057	90.38
286.288	86.38
286.52	66.38
286.751	73.38
286.982	91.38
287.213	96.38
287.444	86.38
287.675	95.38
287.906	92.38
288.138	91.38
288.369	96.38
288.6	83.38
288.831	89.38
289.062	80.38
289.293	95.38
289.524	90.38
289.755	93.38
289.986	97.38
290.217	95.38
290.448	77.38
290.679	79.38
290.91	91.38
291.141	97.38
291.371	94.38
291.602	87.38
291.833	84.38
292.064	87.38
292.295	97.38
292.526	84.38
292.757	76.38
292.987	89.38
293.218	90.38
293.449	81.38
293.68	81.38
293.91	88.38
294.141	88.38
294.372	92.38
294.603	76.38
294.833	79.38
295.064	99.38
295.295	101.38
295.525	79.38
295.756	92.38
295.987	106.38
296.217	121.38
296.448	114.38
296.679	107.38
296.909	91.38
297.14	91.38
297.37	84.38
297.601	88.38
297.831	93.38
298.062	85.38
298.292	82.38
298.523	78.38
298.753	91.38
298.984	84.38
299.214	85.38
299.445	82.38
299.675	97.38
299.905	99.38
300.136	84.38
300.366	89.38
300.597	92.38
300.827	92.38
301.057	85.38
301.288	107.38
301.518	89.38
301.748	96.38
301.979	96.38
302.209	100.38
302.439	96.38
302.669	84.38
302.9	97.38
303.13	90.38
303.36	111.38
303.59	97.38
303.82	88.38
304.051	91.38
304.281	78.38
304.511	100.38
304.741	103.38
304.971	79.38
305.201	97.38
305.431	92.38
305.661	75.38
305.891	91.38
306.121	89.38
306.352	96.38
306.582	105.38
306.812	96.38
307.042	79.38
307.272	98.38
307.502	84.38
307.731	95.38
307.961	105.38
308.191	73.38
308.421	82.38
308.651	87.38
308.881	95.38
309.111	81.38
309.341	87.38
309.571	107.38
309.8	92.38
310.03	106.38
310.26	103.38
310.49	87.38
310.72	101.38
310.949	88.38
311.179	106.38
311.409	83.38
311.639	96.38
311.868	80.38
312.098	76.38
312.328	85.38
312.557	84.38
312.787	98.38
313.017	105.38
313.246	87.38
313.476	96.38
313.706	107.38
313.935	98.38
314.165	100.38
314.394	97.38
314.624	105.38
314.853	91.38
315.083	91.38
315.312	95.38
315.542	84.38
315.771	113.38
316.001	93.38
316.23	93.38
316.46	89.38
316.689	79.38
316.919	90.38
317.148	103.38
317.377	110.38
317.607	98.38
317.836	94.38
318.065	83.38
318.295	91.38
318.524	99.38
318.753	101.38
318.983	99.38
319.212	109.38
319.441	106.38
319.67	123.38
319.9	97.38
320.129	104.38
320.358	90.38
320.587	98.38
320.816	100.38
321.046	104.38
321.275	104.38
321.504	98.38
321.733	91.38
321.962	99.38
322.191	99.38
322.42	95.38
322.649	93.38
322.878	113.38
323.108	111.38
323.337	127.38
323.566	116.38
323.795	139.38
324.024	175.38
324.253	334.38
324.482	677.38
324.71	1337.38
324.939	1777.38
325.168	665.38
325.397	203.38
325.626	131.38
325.855	106.38
326.084	106.38
326.313	114.38
326.542	122.38
326.77	206.38
326.999	383.38
327.228	763.38
327.457	1366.38
327.686	1076.38
327.914	311.38
328.143	192.38
328.372	141.38
328.6	111.38
328.829	101.38
329.058	112.38
329.287	111.38
329.515	99.38
329.744	108.38
329.972	115.38
330.201	108.38
330.43	108.38
330.658	112.38
330.887	110.38
331.115	106.38
331.344	92.38
331.572	93.38
331.801	103.38
332.03	86.38
332.258	82.38
332.486	91.38
332.715	90.38
332.943	87.38
333.172	93.38
333.4	87.38
333.629	96.38
333.857	106.38
334.085	107.38
334.314	95.38
334.542	105.38
334.771	102.38
334.999	92.38
335.227	94.38
335.455	89.38
335.684	87.38
335.912	92.38
336.14	98.38
336.369	88.38
336.597	92.38
336.825	104.38
337.053	76.38
337.281	86.38
337.51	99.38
337.738	83.38
337.966	88.38
338.194	106.38
338.422	93.38
338.65	88.38
338.878	97.38
339.106	88.38
339.334	105.38
339.562	101.38
339.79	89.38
340.018	101.38
340.246	93.38
340.474	76.38
340.702	88.38
340.93	90.38
341.158	88.38
341.386	93.38
341.614	98.38
341.842	97.38
342.07	105.38
342.298	97.38
342.526	79.38
342.754	75.38
342.981	95.38
343.209	115.38
343.437	87.38
343.665	97.38
343.893	78.38
344.12	103.38
344.348	97.38
344.576	85.38
344.804	90.38
345.031	105.38
345.259	83.38
345.487	78.38
345.714	96.38
345.942	90.38
346.17	95.38
346.397	93.38
346.625	82.38
346.853	99.38
347.08	101.38
347.308	86.38
347.535	76.38
347.763	95.38
347.99	87.38
348.218	93.38
348.445	103.38
348.673	87.38
348.9	94.38
349.128	83.38
349.355	105.38
349.583	92.38
349.81	112.38
350.037	90.38
350.265	80.38
350.492	90.38
350.72	101.38
350.947	96.38
351.174	104.38
351.402	96.38
351.629	96.38
351.856	113.38
352.083	114.38
352.311	89.38
352.538	108.38
352.765	102.38
352.992	123.38
353.22	108.38
353.447	106.38
353.674	95.38
353.901	95.38
354.128	94.38
354.355	92.38
354.583	90.38
354.81	89.38
355.037	80.38
355.264	88.38
355.491	82.38
355.718	94.38
355.945	94.38
356.172	90.38
356.399	105.38
356.626	88.38
356.853	94.38
357.08	86.38
357.307	79.38
357.534	87.38
357.761	89.38
357.988	86.38
358.215	80.38
358.441	65.38
358.668	85.38
358.895	84.38
359.122	92.38
359.349	106.38
359.576	83.38
359.802	93.38
360.029	97.38
360.256	90.38
360.483	90.38
360.709	77.38
360.936	89.38
361.163	79.38
361.39	82.38
361.616	101.38
361.843	99.38
362.07	94.38
362.296	90.38
362.523	87.38
362.749	76.38
362.976	89.38
363.203	95.38
363.429	81.38
363.656	95.38
363.882	81.38
364.109	92.38
364.335	95.38
364.562	99.38
364.788	93.38
365.015	95.38
365.241	93.38
365.468	91.38
365.694	100.38
365.92	77.38
366.147	101.38
366.373	79.38
366.599	73.38
366.826	100.38
367.052	87.38
367.278	83.38
367.505	75.38
367.731	89.38
367.957	95.38
368.184	77.38
368.41	97.38
368.636	95.38
368.862	104.38
369.089	103.38
369.315	92.38
369.541	101.38
369.767	87.38
369.993	78.38
370.219	91.38
370.445	97.38
370.672	90.38
370.898	76.38
371.124	88.38
371.35	76.38
371.576	90.38
371.802	89.38
372.028	96.38
372.254	85.38
372.48	85.38
372.706	89.38
372.932	89.38
373.158	78.38
373.384	100.38
373.61	77.38
373.835	80.38
374.061	107.38
374.287	94.38
374.513	94.38
374.739	78.38
374.965	89.38
375.191	89.38
375.416	78.38
375.642	84.38
375.868	82.38
376.094	87.38
376.319	96.38
376.545	77.38
376.771	83.38
376.997	78.38
377.222	103.38
377.448	88.38
377.674	75.38
377.899	88.38
378.125	74.38
378.35	89.38
378.576	95.38
378.802	93.38
379.027	94.38
379.253	92.38
379.478	101.38
379.704	95.38
379.929	82.38
380.155	89.38
380.38	90.38
380.606	88.38
380.831	89.38
381.057	105.38
381.282	91.38
381.507	95.38
381.733	84.38
381.958	80.38
382.184	84.38
382.409	92.38
382.634	92.38
382.86	90.38
383.085	98.38
383.31	97.38
383.535	95.38
383.761	106.38
383.986	90.38
384.211	102.38
384.436	94.38
384.662	95.38
384.887	102.38
385.112	110.38
385.337	103.38
385.562	113.38
385.787	105.38
386.013	105.38
386.238	101.38
386.463	100.38
386.688	103.38
386.913	95.38
387.138	106.38
387.363	108.38
387.588	97.38
387.813	81.38
388.038	107.38
388.263	113.38
388.488	122.38
388.713	108.38
388.938	99.38
389.163	102.38
389.387	103.38
389.612	99.38
389.837	94.38
390.062	86.38
390.287	86.38
390.512	87.38
390.736	87.38
390.961	100.38
391.186	96.38
391.411	98.38
391.636	82.38
391.86	91.38
392.085	86.38
392.31	79.38
392.534	79.38
392.759	87.38
392.984	82.38
393.208	83.38
393.433	101.38
393.658	99.38
393.882	70.38
394.107	88.38
394.331	75.38
394.556	88.38
394.78	89.38
395.005	87.38
395.229	87.38
395.454	91.38
395.678	87.38
395.903	89.38
396.127	84.38
396.352	95.38
396.576	83.38
396.801	76.38
397.025	77.38
397.249	89.38
397.474	92.38
397.698	90.38
397.922	95.38
398.147	77.38
398.371	89.38
398.595	88.38
398.82	80.38
399.044	79.38
399.268	90.38
399.492	91.38
399.717	89.38
399.941	101.38
400.165	98.38
400.389	71.38
400.613	87.38
400.837	78.38
401.062	85.38
401.286	94.38
401.51	92.38
401.734	95.38
401.958	95.38
402.182	125.38
402.406	122.38
402.63	113.38
402.854	88.38
403.078	98.38
403.302	88.38
403.526	68.38
403.75	86.38
403.974	84.38
404.198	89.38
404.422	77.38
404.645	83.38
404.869	93.38
405.093	95.38
405.317	92.38
405.541	90.38
405.765	98.38
405.988	96.38
406.212	144.38
406.436	192.38
406.66	136.38
406.883	94.38
407.107	92.38
407.331	86.38
407.555	97.38
407.778	83.38
408.002	92.38
408.226	77.38
408.449	86.38
408.673	93.38
408.896	96.38
409.12	73.38
409.344	86.38
409.567	84.38
409.791	91.38
410.014	97.38
410.238	110.38
410.461	84.38
410.685	88.38
410.908	99.38
411.132	96.38
411.355	102.38
411.578	83.38
411.802	78.38
412.025	89.38
412.249	94.38
412.472	77.38
412.695	90.38
412.919	91.38
413.142	94.38
413.365	95.38
413.589	75.38
413.812	91.38
414.035	80.38
414.258	89.38
414.482	91.38
414.705	79.38
414.928	76.38
415.151	86.38
415.374	92.38
415.597	90.38
415.821	83.38
416.044	71.38
416.267	90.38
416.49	89.38
416.713	91.38
416.936	92.38
417.159	82.38
417.382	75.38
417.605	88.38
417.828	95.38
418.051	85.38
418.274	90.38
418.497	82.38
418.72	97.38
418.943	91.38
419.166	91.38
419.389	85.38
419.611	99.38
419.834	75.38
420.057	95.38
420.28	92.38
420.503	90.38
420.726	88.38
420.948	96.38
421.171	95.38
421.394	75.38
421.617	81.38
421.839	97.38
422.062	79.38
422.285	80.38
422.507	95.38
422.73	103.38
422.953	104.38
423.175	81.38
423.398	83.38
423.621	86.38
423.843	92.38
424.066	86.38
424.288	91.38
424.511	77.38
424.733	88.38
424.956	90.38
425.178	88.38
425.401	93.38
425.623	95.38
425.846	91.38
426.068	83.38
426.291	73.38
426.513	78.38
426.735	79.38
426.958	96.38
427.18	95.38
427.402	115.38
427.625	146.38
427.847	112.38
428.069	109.38
428.292	88.38
428.514	87.38
428.736	81.38
428.958	90.38
429.181	85.38
429.403	89.38
429.625	82.38
429.847	92.38
430.069	84.38
430.292	84.38
430.514	95.38
430.736	84.38
430.958	83.38
431.18	87.38
431.402	72.38
431.624	64.38
431.846	89.38
432.068	92.38
432.29	87.38
432.512	92.38
432.734	81.38
432.956	88.38
433.178	94.38
433.4	100.38
433.622	104.38
433.844	88.38
434.066	91.38
434.287	90.38
434.509	93.38
434.731	81.38
434.953	83.38
435.175	92.38
435.397	85.38
435.618	88.38
435.84	110.38
436.062	110.38
436.284	111.38
436.505	89.38
436.727	96.38
436.949	97.38
437.17	90.38
437.392	96.38
437.614	91.38
437.835	96.38
438.057	92.38
438.278	100.38
438.5	75.38
438.721	111.38
438.943	93.38
439.165	87.38
439.386	79.38
439.608	75.38
439.829	80.38
440.05	120.38
440.272	108.38
440.493	88.38
440.715	86.38
440.936	95.38
441.158	84.38
441.379	78.38
441.6	82.38
441.822	95.38
442.043	103.38
442.264	105.38
442.486	101.38
442.707	87.38
442.928	99.38
443.149	109.38
443.371	119.38
443.592	97.38
443.813	105.38
444.034	102.38
444.255	82.38
444.476	77.38
444.698	98.38
444.919	91.38
445.14	103.38
445.361	111.38
445.582	101.38
445.803	106.38
446.024	124.38
446.245	128.38
446.466	111.38
446.687	73.38
446.908	87.38
447.129	69.38
447.35	97.38
447.571	87.38
447.792	93.38
448.013	96.38
448.234	83.38
448.455	73.38
448.675	107.38
448.896	97.38
449.117	75.38
449.338	89.38
449.559	107.38
449.779	128.38
450	93.38
450.221	96.38
450.442	86.38
450.662	68.38
450.883	86.38
451.104	91.38
451.324	79.38
451.545	82.38
451.766	85.38
451.986	111.38
452.207	105.38
452.428	77.38
452.648	93.38
452.869	106.38
453.089	107.38
453.31	108.38
453.53	88.38
453.751	94.38
453.971	93.38
454.192	94.38
454.412	89.38
454.633	87.38
454.853	84.38
455.073	84.38
455.294	92.38
455.514	92.38
455.734	72.38
455.955	76.38
456.175	91.38
456.395	82.38
456.616	78.38
456.836	91.38
457.056	85.38
457.276	86.38
457.497	81.38
457.717	67.38
457.937	85.38
458.157	88.38
458.377	80.38
458.598	103.38
458.818	127.38
459.038	124.38
459.258	108.38
459.478	98.38
459.698	74.38
459.918	80.38
460.138	82.38
460.358	67.38
460.578	85.38
460.798	87.38
461.018	94.38
461.238	93.38
461.458	90.38
461.678	85.38
461.898	91.38
462.118	92.38
462.338	82.38
462.558	87.38
462.777	73.38
462.997	74.38
463.217	87.38
463.437	99.38
463.657	83.38
463.876	90.38
464.096	107.38
464.316	98.38
464.536	101.38
464.755	101.38
464.975	102.38
465.195	133.38
465.414	139.38
465.634	84.38
465.854	87.38
466.073	95.38
466.293	95.38
466.512	98.38
466.732	68.38
466.951	79.38
467.171	84.38
467.391	102.38
467.61	103.38
467.829	91.38
468.049	89.38
468.268	91.38
468.488	78.38
468.707	79.38
468.927	80.38
469.146	76.38
469.365	85.38
469.585	91.38
469.804	78.38
470.023	82.38
470.243	83.38
470.462	92.38
470.681	100.38
470.901	91.38
471.12	100.38
471.339	87.38
471.558	85.38
471.777	79.38
471.997	97.38
472.216	106.38
472.435	99.38
472.654	80.38
472.873	90.38
473.092	80.38
473.311	85.38
473.53	86.38
473.749	81.38
473.968	94.38
474.187	90.38
474.406	80.38
474.625	83.38
474.844	92.38
475.063	96.38
475.282	77.38
475.501	75.38
475.72	71.38
475.939	93.38
476.158	82.38
476.377	80.38
476.596	75.38
476.814	77.38
477.033	90.38
477.252	87.38
477.471	91.38
477.69	81.38
477.908	87.38
478.127	90.38
478.346	80.38
478.564	97.38
478.783	116.38
479.002	81.38
479.22	92.38
479.439	90.38
479.658	100.38
479.876	99.38
480.095	81.38
480.313	89.38
480.532	90.38
480.751	102.38
480.969	87.38
481.188	127.38
481.406	125.38
481.624	100.38
481.843	79.38
482.061	86.38
482.28	105.38
482.498	79.38
482.717	95.38
482.935	80.38
483.153	93.38
483.372	80.38
483.59	87.38
483.808	106.38
484.027	85.38
484.245	74.38
484.463	96.38
484.681	81.38
484.9	96.38
485.118	100.38
485.336	80.38
485.554	86.38
485.772	89.38
485.99	91.38
486.209	107.38
486.427	90.38
486.645	98.38
486.863	124.38
487.081	87.38
487.299	106.38
487.517	98.38
487.735	98.38
487.953	100.38
488.171	96.38
488.389	90.38
488.607	90.38
488.825	93.38
489.043	91.38
489.261	100.38
489.479	97.38
489.696	90.38
489.914	92.38
490.132	83.38
490.35	89.38
490.568	88.38
490.786	91.38
491.003	99.38
491.221	90.38
491.439	91.38
491.657	97.38
491.874	111.38
492.092	97.38
492.31	73.38
492.527	86.38
492.745	87.38
492.963	93.38
493.18	92.38
493.398	92.38
493.615	93.38
493.833	89.38
494.05	92.38
494.268	91.38
494.485	89.38
494.703	98.38
494.92	79.38
495.138	94.38
495.355	82.38
495.573	110.38
495.79	85.38
496.008	99.38
496.225	92.38
496.442	81.38
496.66	77.38
496.877	91.38
497.094	94.38
497.312	91.38
497.529	91.38
497.746	84.38
497.963	84.38
498.181	98.38
498.398	91.38
498.615	100.38
498.832	95.38
499.049	74.38
499.267	91.38
499.484	91.38
499.701	105.38
499.918	101.38
500.135	85.38
500.352	65.38
500.569	88.38
500.786	92.38
501.003	102.38
501.22	84.38
501.437	100.38
501.654	96.38
501.871	107.38
502.088	99.38
502.305	90.38
502.522	92.38
502.739	89.38
502.956	97.38
503.172	95.38
503.389	92.38
503.606	108.38
503.823	89.38
504.04	84.38
504.256	87.38
504.473	88.38
504.69	73.38
504.907	82.38
505.123	79.38
505.34	88.38
505.557	86.38
505.773	98.38
505.99	97.38
506.207	74.38
506.423	94.38
506.64	96.38
506.856	84.38
507.073	69.38
507.289	84.38
507.506	67.38
507.722	105.38
507.939	103.38
508.155	100.38
508.372	73.38
508.588	82.38
508.805	89.38
509.021	101.38
509.238	106.38
509.454	97.38
509.67	85.38
509.887	107.38
510.103	120.38
510.319	175.38
510.536	629.38
510.752	2013.38
510.968	550.38
511.184	137.38
511.401	108.38
511.617	92.38
511.833	91.38
512.049	97.38
512.265	84.38
512.481	100.38
512.698	95.38
512.914	88.38
513.13	96.38
513.346	89.38
513.562	91.38
513.778	95.38
513.994	91.38
514.21	95.38
514.426	101.38
514.642	125.38
514.858	110.38
515.074	149.38
515.29	365.38
515.506	1149.38
515.721	428.38
515.937	135.38
516.153	101.38
516.369	88.38
516.585	91.38
