Data from Circ_1994_H10_HRD10591_00039.txt Node
Date: Wed Jan 03 11:40:38 EST 2024
User: Yrep
Spectrometer: HR+D1059
Trigger mode: 1
Integration Time (sec): 1.000000E-1
Scans to average: 1
Electric dark correction enabled: true
Nonlinearity correction enabled: false
Boxcar width: 0
XAxis mode: Wavelengths
Number of Pixels in Spectrum: 2048
>>>>>Begin Spectral Data<<<<<
223.165	-31.06
223.4	-31.06
223.635	-31.06
223.869	-20.06
224.104	-25.06
224.338	-12.06
224.573	-9.06
224.808	-5.06
225.042	-19.06
225.277	-2.06
225.511	2.94
225.746	-0.06
225.98	0.94
226.215	16.94
226.449	11.94
226.683	28.94
226.918	33.94
227.152	27.94
227.387	33.94
227.621	38.94
227.856	30.94
228.09	46.94
228.324	39.94
228.559	57.94
228.793	57.94
229.027	63.94
229.262	51.94
229.496	55.94
229.73	85.94
229.964	69.94
230.199	67.94
230.433	85.94
230.667	81.94
230.901	81.94
231.136	75.94
231.37	83.94
231.604	77.94
231.838	80.94
232.072	73.94
232.306	83.94
232.541	76.94
232.775	83.94
233.009	76.94
233.243	75.94
233.477	93.94
233.711	87.94
233.945	101.94
234.179	79.94
234.413	91.94
234.647	80.94
234.881	71.94
235.115	78.94
235.349	66.94
235.583	76.94
235.817	77.94
236.051	66.94
236.285	75.94
236.519	70.94
236.753	79.94
236.987	76.94
237.221	93.94
237.455	77.94
237.689	85.94
237.922	75.94
238.156	85.94
238.39	77.94
238.624	71.94
238.858	68.94
239.091	89.94
239.325	75.94
239.559	82.94
239.793	82.94
240.027	92.94
240.26	74.94
240.494	68.94
240.728	75.94
240.961	78.94
241.195	65.94
241.429	76.94
241.662	77.94
241.896	77.94
242.13	71.94
242.363	83.94
242.597	89.94
242.83	81.94
243.064	77.94
243.298	82.94
243.531	68.94
243.765	83.94
243.998	73.94
244.232	75.94
244.465	75.94
244.699	89.94
244.932	80.94
245.166	83.94
245.399	84.94
245.633	80.94
245.866	77.94
246.099	87.94
246.333	78.94
246.566	65.94
246.8	89.94
247.033	78.94
247.266	85.94
247.5	85.94
247.733	68.94
247.966	78.94
248.2	90.94
248.433	94.94
248.666	69.94
248.899	83.94
249.133	71.94
249.366	95.94
249.599	97.94
249.832	82.94
250.066	82.94
250.299	76.94
250.532	78.94
250.765	67.94
250.998	81.94
251.231	73.94
251.465	74.94
251.698	95.94
251.931	78.94
252.164	79.94
252.397	86.94
252.63	82.94
252.863	90.94
253.096	78.94
253.329	82.94
253.562	89.94
253.795	86.94
254.028	95.94
254.261	78.94
254.494	77.94
254.727	93.94
254.96	83.94
255.193	83.94
255.426	77.94
255.659	86.94
255.892	84.94
256.124	85.94
256.357	79.94
256.59	94.94
256.823	80.94
257.056	82.94
257.289	93.94
257.521	82.94
257.754	79.94
257.987	83.94
258.22	88.94
258.452	76.94
258.685	100.94
258.918	79.94
259.151	82.94
259.383	91.94
259.616	92.94
259.849	77.94
260.081	79.94
260.314	75.94
260.547	98.94
260.779	73.94
261.012	87.94
261.244	80.94
261.477	90.94
261.71	85.94
261.942	107.94
262.175	105.94
262.407	91.94
262.64	92.94
262.872	92.94
263.105	97.94
263.337	80.94
263.57	76.94
263.802	91.94
264.035	84.94
264.267	79.94
264.499	82.94
264.732	90.94
264.964	98.94
265.197	96.94
265.429	88.94
265.661	84.94
265.894	100.94
266.126	81.94
266.358	87.94
266.591	77.94
266.823	91.94
267.055	84.94
267.287	80.94
267.52	65.94
267.752	83.94
267.984	85.94
268.216	75.94
268.448	73.94
268.681	82.94
268.913	94.94
269.145	97.94
269.377	82.94
269.609	88.94
269.841	68.94
270.073	84.94
270.306	73.94
270.538	78.94
270.77	91.94
271.002	84.94
271.234	76.94
271.466	83.94
271.698	91.94
271.93	81.94
272.162	89.94
272.394	89.94
272.626	64.94
272.858	82.94
273.09	90.94
273.322	98.94
273.553	87.94
273.785	107.94
274.017	87.94
274.249	82.94
274.481	88.94
274.713	98.94
274.945	89.94
275.176	95.94
275.408	91.94
275.64	69.94
275.872	81.94
276.104	81.94
276.335	91.94
276.567	114.94
276.799	97.94
277.031	98.94
277.262	92.94
277.494	101.94
277.726	89.94
277.957	83.94
278.189	83.94
278.421	77.94
278.652	86.94
278.884	90.94
279.115	96.94
279.347	90.94
279.579	84.94
279.81	94.94
280.042	91.94
280.273	94.94
280.505	95.94
280.736	89.94
280.968	90.94
281.199	88.94
281.431	87.94
281.662	79.94
281.894	93.94
282.125	101.94
282.356	118.94
282.588	121.94
282.819	102.94
283.051	89.94
283.282	92.94
283.513	91.94
283.745	85.94
283.976	84.94
284.207	107.94
284.439	102.94
284.67	88.94
284.901	84.94
285.132	96.94
285.364	81.94
285.595	86.94
285.826	93.94
286.057	86.94
286.288	88.94
286.52	91.94
286.751	79.94
286.982	86.94
287.213	84.94
287.444	94.94
287.675	98.94
287.906	89.94
288.138	95.94
288.369	95.94
288.6	88.94
288.831	69.94
289.062	95.94
289.293	107.94
289.524	89.94
289.755	89.94
289.986	103.94
290.217	91.94
290.448	83.94
290.679	93.94
290.91	97.94
291.141	95.94
291.371	88.94
291.602	77.94
291.833	85.94
292.064	100.94
292.295	92.94
292.526	97.94
292.757	82.94
292.987	88.94
293.218	84.94
293.449	97.94
293.68	92.94
293.91	73.94
294.141	97.94
294.372	103.94
294.603	96.94
294.833	87.94
295.064	89.94
295.295	91.94
295.525	111.94
295.756	107.94
295.987	114.94
296.217	133.94
296.448	129.94
296.679	86.94
296.909	83.94
297.14	99.94
297.37	93.94
297.601	89.94
297.831	100.94
298.062	106.94
298.292	92.94
298.523	88.94
298.753	101.94
298.984	100.94
299.214	85.94
299.445	94.94
299.675	95.94
299.905	98.94
300.136	84.94
300.366	92.94
300.597	68.94
300.827	87.94
301.057	101.94
301.288	101.94
301.518	114.94
301.748	89.94
301.979	94.94
302.209	96.94
302.439	78.94
302.669	99.94
302.9	106.94
303.13	107.94
303.36	90.94
303.59	89.94
303.82	96.94
304.051	107.94
304.281	97.94
304.511	89.94
304.741	81.94
304.971	82.94
305.201	94.94
305.431	73.94
305.661	97.94
305.891	99.94
306.121	101.94
306.352	106.94
306.582	99.94
306.812	82.94
307.042	89.94
307.272	94.94
307.502	86.94
307.731	104.94
307.961	83.94
308.191	81.94
308.421	98.94
308.651	88.94
308.881	89.94
309.111	91.94
309.341	97.94
309.571	95.94
309.8	101.94
310.03	85.94
310.26	98.94
310.49	89.94
310.72	100.94
310.949	91.94
311.179	93.94
311.409	83.94
311.639	85.94
311.868	84.94
312.098	87.94
312.328	84.94
312.557	99.94
312.787	92.94
313.017	92.94
313.246	101.94
313.476	78.94
313.706	98.94
313.935	96.94
314.165	100.94
314.394	92.94
314.624	101.94
314.853	100.94
315.083	81.94
315.312	102.94
315.542	107.94
315.771	112.94
316.001	99.94
316.23	93.94
316.46	94.94
316.689	98.94
316.919	100.94
317.148	98.94
317.377	97.94
317.607	101.94
317.836	88.94
318.065	97.94
318.295	93.94
318.524	90.94
318.753	86.94
318.983	80.94
319.212	112.94
319.441	115.94
319.67	102.94
319.9	90.94
320.129	86.94
320.358	83.94
320.587	107.94
320.816	105.94
321.046	96.94
321.275	91.94
321.504	106.94
321.733	94.94
321.962	92.94
322.191	104.94
322.42	110.94
322.649	108.94
322.878	102.94
323.108	110.94
323.337	109.94
323.566	138.94
323.795	131.94
324.024	181.94
324.253	320.94
324.482	688.94
324.71	1390.94
324.939	1822.94
325.168	683.94
325.397	211.94
325.626	158.94
325.855	125.94
326.084	114.94
326.313	132.94
326.542	145.94
326.77	212.94
326.999	367.94
327.228	795.94
327.457	1407.94
327.686	1084.94
327.914	317.94
328.143	174.94
328.372	149.94
328.6	119.94
328.829	101.94
329.058	122.94
329.287	115.94
329.515	107.94
329.744	115.94
329.972	108.94
330.201	134.94
330.43	147.94
330.658	119.94
330.887	122.94
331.115	111.94
331.344	98.94
331.572	104.94
331.801	119.94
332.03	105.94
332.258	102.94
332.486	102.94
332.715	86.94
332.943	75.94
333.172	104.94
333.4	82.94
333.629	112.94
333.857	111.94
334.085	112.94
334.314	126.94
334.542	153.94
334.771	157.94
334.999	106.94
335.227	99.94
335.455	88.94
335.684	94.94
335.912	106.94
336.14	88.94
336.369	97.94
336.597	105.94
336.825	85.94
337.053	93.94
337.281	95.94
337.51	89.94
337.738	97.94
337.966	106.94
338.194	103.94
338.422	86.94
338.65	109.94
338.878	111.94
339.106	73.94
339.334	86.94
339.562	97.94
339.79	88.94
340.018	97.94
340.246	85.94
340.474	89.94
340.702	92.94
340.93	98.94
341.158	99.94
341.386	86.94
341.614	89.94
341.842	89.94
342.07	111.94
342.298	102.94
342.526	79.94
342.754	81.94
342.981	96.94
343.209	92.94
343.437	101.94
343.665	106.94
343.893	87.94
344.12	102.94
344.348	99.94
344.576	97.94
344.804	78.94
345.031	95.94
345.259	83.94
345.487	99.94
345.714	96.94
345.942	104.94
346.17	107.94
346.397	99.94
346.625	100.94
346.853	100.94
347.08	103.94
347.308	89.94
347.535	100.94
347.763	93.94
347.99	92.94
348.218	93.94
348.445	100.94
348.673	93.94
348.9	94.94
349.128	93.94
349.355	96.94
349.583	86.94
349.81	91.94
350.037	113.94
350.265	98.94
350.492	98.94
350.72	110.94
350.947	99.94
351.174	112.94
351.402	112.94
351.629	106.94
351.856	101.94
352.083	103.94
352.311	95.94
352.538	102.94
352.765	113.94
352.992	101.94
353.22	107.94
353.447	100.94
353.674	91.94
353.901	94.94
354.128	98.94
354.355	94.94
354.583	110.94
354.81	85.94
355.037	108.94
355.264	89.94
355.491	93.94
355.718	90.94
355.945	98.94
356.172	100.94
356.399	97.94
356.626	87.94
356.853	89.94
357.08	96.94
357.307	91.94
357.534	92.94
357.761	107.94
357.988	75.94
358.215	92.94
358.441	84.94
358.668	90.94
358.895	77.94
359.122	83.94
359.349	87.94
359.576	94.94
359.802	103.94
360.029	113.94
360.256	97.94
360.483	98.94
360.709	84.94
360.936	89.94
361.163	87.94
361.39	101.94
361.616	94.94
361.843	79.94
362.07	81.94
362.296	95.94
362.523	75.94
362.749	94.94
362.976	96.94
363.203	102.94
363.429	94.94
363.656	97.94
363.882	92.94
364.109	92.94
364.335	106.94
364.562	94.94
364.788	109.94
365.015	102.94
365.241	94.94
365.468	111.94
365.694	98.94
365.92	89.94
366.147	94.94
366.373	83.94
366.599	103.94
366.826	97.94
367.052	88.94
367.278	107.94
367.505	89.94
367.731	89.94
367.957	98.94
368.184	114.94
368.41	108.94
368.636	121.94
368.862	115.94
369.089	104.94
369.315	92.94
369.541	88.94
369.767	109.94
369.993	87.94
370.219	81.94
370.445	85.94
370.672	77.94
370.898	93.94
371.124	91.94
371.35	88.94
371.576	96.94
371.802	97.94
372.028	84.94
372.254	85.94
372.48	79.94
372.706	93.94
372.932	84.94
373.158	77.94
373.384	100.94
373.61	81.94
373.835	94.94
374.061	86.94
374.287	88.94
374.513	85.94
374.739	76.94
374.965	98.94
375.191	89.94
375.416	83.94
375.642	83.94
375.868	90.94
376.094	76.94
376.319	85.94
376.545	82.94
376.771	95.94
376.997	97.94
377.222	78.94
377.448	78.94
377.674	94.94
377.899	95.94
378.125	85.94
378.35	108.94
378.576	94.94
378.802	100.94
379.027	85.94
379.253	105.94
379.478	84.94
379.704	93.94
379.929	89.94
380.155	92.94
380.38	103.94
380.606	91.94
380.831	97.94
381.057	98.94
381.282	84.94
381.507	106.94
381.733	85.94
381.958	97.94
382.184	102.94
382.409	93.94
382.634	106.94
382.86	105.94
383.085	107.94
383.31	100.94
383.535	106.94
383.761	102.94
383.986	105.94
384.211	99.94
384.436	88.94
384.662	103.94
384.887	104.94
385.112	107.94
385.337	110.94
385.562	100.94
385.787	105.94
386.013	120.94
386.238	113.94
386.463	112.94
386.688	102.94
386.913	107.94
387.138	88.94
387.363	95.94
387.588	98.94
387.813	103.94
388.038	92.94
388.263	121.94
388.488	106.94
388.713	85.94
388.938	87.94
389.163	83.94
389.387	85.94
389.612	90.94
389.837	95.94
390.062	83.94
390.287	90.94
390.512	85.94
390.736	96.94
390.961	78.94
391.186	91.94
391.411	90.94
391.636	91.94
391.86	100.94
392.085	84.94
392.31	89.94
392.534	85.94
392.759	87.94
392.984	88.94
393.208	96.94
393.433	86.94
393.658	93.94
393.882	87.94
394.107	90.94
394.331	85.94
394.556	99.94
394.78	85.94
395.005	89.94
395.229	85.94
395.454	92.94
395.678	88.94
395.903	102.94
396.127	92.94
396.352	79.94
396.576	90.94
396.801	86.94
397.025	91.94
397.249	96.94
397.474	95.94
397.698	83.94
397.922	84.94
398.147	83.94
398.371	93.94
398.595	96.94
398.82	92.94
399.044	85.94
399.268	91.94
399.492	91.94
399.717	91.94
399.941	92.94
400.165	92.94
400.389	85.94
400.613	89.94
400.837	92.94
401.062	98.94
401.286	94.94
401.51	82.94
401.734	81.94
401.958	105.94
402.182	117.94
402.406	137.94
402.63	112.94
402.854	95.94
403.078	82.94
403.302	74.94
403.526	95.94
403.75	100.94
403.974	101.94
404.198	86.94
404.422	94.94
404.645	85.94
404.869	78.94
405.093	94.94
405.317	105.94
405.541	93.94
405.765	106.94
405.988	120.94
406.212	124.94
406.436	187.94
406.66	130.94
406.883	97.94
407.107	85.94
407.331	100.94
407.555	88.94
407.778	105.94
408.002	101.94
408.226	98.94
408.449	87.94
408.673	94.94
408.896	97.94
409.12	98.94
409.344	82.94
409.567	94.94
409.791	93.94
410.014	97.94
410.238	88.94
410.461	85.94
410.685	99.94
410.908	103.94
411.132	95.94
411.355	103.94
411.578	101.94
411.802	81.94
412.025	86.94
412.249	89.94
412.472	84.94
412.695	90.94
412.919	85.94
413.142	77.94
413.365	95.94
413.589	84.94
413.812	95.94
414.035	93.94
414.258	96.94
414.482	79.94
414.705	93.94
414.928	88.94
415.151	85.94
415.374	88.94
415.597	89.94
415.821	95.94
416.044	87.94
416.267	90.94
416.49	99.94
416.713	79.94
416.936	99.94
417.159	93.94
417.382	80.94
417.605	93.94
417.828	86.94
418.051	82.94
418.274	82.94
418.497	84.94
418.72	85.94
418.943	78.94
419.166	91.94
419.389	75.94
419.611	88.94
419.834	85.94
420.057	85.94
420.28	94.94
420.503	86.94
420.726	101.94
420.948	88.94
421.171	85.94
421.394	106.94
421.617	83.94
421.839	75.94
422.062	97.94
422.285	93.94
422.507	102.94
422.73	82.94
422.953	97.94
423.175	90.94
423.398	92.94
423.621	84.94
423.843	92.94
424.066	79.94
424.288	77.94
424.511	96.94
424.733	97.94
424.956	103.94
425.178	102.94
425.401	95.94
425.623	84.94
425.846	81.94
426.068	84.94
426.291	79.94
426.513	88.94
426.735	92.94
426.958	101.94
427.18	106.94
427.402	114.94
427.625	140.94
427.847	118.94
428.069	97.94
428.292	105.94
428.514	93.94
428.736	90.94
428.958	77.94
429.181	92.94
429.403	91.94
429.625	82.94
429.847	89.94
430.069	95.94
430.292	114.94
430.514	97.94
430.736	93.94
430.958	86.94
431.18	84.94
431.402	83.94
431.624	91.94
431.846	91.94
432.068	89.94
432.29	74.94
432.512	94.94
432.734	92.94
432.956	98.94
433.178	103.94
433.4	94.94
433.622	89.94
433.844	105.94
434.066	80.94
434.287	98.94
434.509	82.94
434.731	94.94
434.953	81.94
435.175	99.94
435.397	91.94
435.618	77.94
435.84	93.94
436.062	101.94
436.284	123.94
436.505	99.94
436.727	99.94
436.949	77.94
437.17	81.94
437.392	65.94
437.614	84.94
437.835	107.94
438.057	119.94
438.278	113.94
438.5	96.94
438.721	110.94
438.943	101.94
439.165	88.94
439.386	83.94
439.608	90.94
439.829	93.94
440.05	95.94
440.272	138.94
440.493	90.94
440.715	77.94
440.936	81.94
441.158	78.94
441.379	91.94
441.6	90.94
441.822	84.94
442.043	102.94
442.264	90.94
442.486	102.94
442.707	101.94
442.928	101.94
443.149	109.94
443.371	121.94
443.592	107.94
443.813	109.94
444.034	101.94
444.255	98.94
444.476	86.94
444.698	89.94
444.919	77.94
445.14	127.94
445.361	104.94
445.582	97.94
445.803	118.94
446.024	122.94
446.245	126.94
446.466	114.94
446.687	91.94
446.908	80.94
447.129	87.94
447.35	93.94
447.571	86.94
447.792	95.94
448.013	96.94
448.234	105.94
448.455	93.94
448.675	88.94
448.896	105.94
449.117	71.94
449.338	97.94
449.559	99.94
449.779	121.94
450	97.94
450.221	90.94
450.442	78.94
450.662	85.94
450.883	98.94
451.104	103.94
451.324	83.94
451.545	94.94
451.766	91.94
451.986	83.94
452.207	98.94
452.428	89.94
452.648	102.94
452.869	110.94
453.089	99.94
453.31	108.94
453.53	88.94
453.751	91.94
453.971	91.94
454.192	103.94
454.412	94.94
454.633	90.94
454.853	88.94
455.073	91.94
455.294	86.94
455.514	107.94
455.734	79.94
455.955	90.94
456.175	82.94
456.395	95.94
456.616	71.94
456.836	78.94
457.056	96.94
457.276	83.94
457.497	96.94
457.717	91.94
457.937	84.94
458.157	91.94
458.377	74.94
458.598	94.94
458.818	134.94
459.038	134.94
459.258	101.94
459.478	99.94
459.698	90.94
459.918	92.94
460.138	84.94
460.358	85.94
460.578	98.94
460.798	97.94
461.018	90.94
461.238	82.94
461.458	94.94
461.678	97.94
461.898	83.94
462.118	80.94
462.338	83.94
462.558	74.94
462.777	80.94
462.997	85.94
463.217	81.94
463.437	80.94
463.657	96.94
463.876	95.94
464.096	92.94
464.316	87.94
464.536	100.94
464.755	115.94
464.975	103.94
465.195	160.94
465.414	134.94
465.634	95.94
465.854	93.94
466.073	82.94
466.293	102.94
466.512	74.94
466.732	91.94
466.951	100.94
467.171	106.94
467.391	91.94
467.61	89.94
467.829	98.94
468.049	89.94
468.268	117.94
468.488	100.94
468.707	80.94
468.927	91.94
469.146	87.94
469.365	95.94
469.585	92.94
469.804	91.94
470.023	87.94
470.243	104.94
470.462	79.94
470.681	109.94
470.901	75.94
471.12	90.94
471.339	102.94
471.558	80.94
471.777	86.94
471.997	95.94
472.216	129.94
472.435	164.94
472.654	95.94
472.873	93.94
473.092	68.94
473.311	83.94
473.53	85.94
473.749	95.94
473.968	97.94
474.187	107.94
474.406	94.94
474.625	90.94
474.844	103.94
475.063	84.94
475.282	82.94
475.501	90.94
475.72	100.94
475.939	92.94
476.158	75.94
476.377	99.94
476.596	84.94
476.814	82.94
477.033	87.94
477.252	99.94
477.471	81.94
477.69	81.94
477.908	86.94
478.127	88.94
478.346	95.94
478.564	82.94
478.783	103.94
479.002	94.94
479.22	98.94
479.439	88.94
479.658	103.94
479.876	79.94
480.095	108.94
480.313	95.94
480.532	91.94
480.751	98.94
480.969	126.94
481.188	241.94
481.406	192.94
481.624	101.94
481.843	92.94
482.061	100.94
482.28	102.94
482.498	90.94
482.717	85.94
482.935	96.94
483.153	94.94
483.372	86.94
483.59	98.94
483.808	96.94
484.027	90.94
484.245	93.94
484.463	97.94
484.681	91.94
484.9	101.94
485.118	102.94
485.336	102.94
485.554	93.94
485.772	98.94
485.99	101.94
486.209	104.94
486.427	96.94
486.645	99.94
486.863	109.94
487.081	102.94
487.299	107.94
487.517	99.94
487.735	87.94
487.953	99.94
488.171	88.94
488.389	83.94
488.607	105.94
488.825	81.94
489.043	93.94
489.261	94.94
489.479	87.94
489.696	87.94
489.914	80.94
490.132	97.94
490.35	90.94
490.568	98.94
490.786	93.94
491.003	94.94
491.221	109.94
491.439	81.94
491.657	87.94
491.874	108.94
492.092	113.94
492.31	102.94
492.527	84.94
492.745	92.94
492.963	77.94
493.18	78.94
493.398	91.94
493.615	98.94
493.833	85.94
494.05	92.94
494.268	110.94
494.485	89.94
494.703	77.94
494.92	90.94
495.138	79.94
495.355	87.94
495.573	85.94
495.79	90.94
496.008	94.94
496.225	95.94
496.442	102.94
496.66	84.94
496.877	87.94
497.094	87.94
497.312	107.94
497.529	89.94
497.746	100.94
497.963	97.94
498.181	100.94
498.398	92.94
498.615	106.94
498.832	107.94
499.049	101.94
499.267	100.94
499.484	94.94
499.701	89.94
499.918	89.94
500.135	91.94
500.352	85.94
500.569	90.94
500.786	93.94
501.003	77.94
501.22	75.94
501.437	77.94
501.654	94.94
501.871	105.94
502.088	102.94
502.305	85.94
502.522	73.94
502.739	93.94
502.956	92.94
503.172	92.94
503.389	113.94
503.606	98.94
503.823	96.94
504.04	91.94
504.256	97.94
504.473	93.94
504.69	94.94
504.907	98.94
505.123	100.94
505.34	79.94
505.557	97.94
505.773	89.94
505.99	100.94
506.207	91.94
506.423	88.94
506.64	93.94
506.856	79.94
507.073	85.94
507.289	86.94
507.506	98.94
507.722	115.94
507.939	107.94
508.155	91.94
508.372	90.94
508.588	104.94
508.805	85.94
509.021	90.94
509.238	102.94
509.454	107.94
509.67	90.94
509.887	95.94
510.103	133.94
510.319	192.94
510.536	678.94
510.752	2138.94
510.968	598.94
511.184	154.94
511.401	104.94
511.617	98.94
511.833	91.94
512.049	90.94
512.265	92.94
512.481	95.94
512.698	94.94
512.914	102.94
513.13	92.94
513.346	92.94
513.562	103.94
513.778	91.94
513.994	93.94
514.21	99.94
514.426	110.94
514.642	109.94
514.858	130.94
515.074	154.94
515.29	384.94
515.506	1209.94
