Data from Circ_1994_H10_HRD10591_00055.txt Node
Date: Wed Jan 03 11:40:41 EST 2024
User: Yrep
Spectrometer: HR+D1059
Trigger mode: 1
Integration Time (sec): 1.000000E-1
Scans to average: 1
Electric dark correction enabled: true
Nonlinearity correction enabled: false
Boxcar width: 0
XAxis mode: Wavelengths
Number of Pixels in Spectrum: 2048
>>>>>Begin Spectral Data<<<<<
223.165	-25
223.4	-25
223.635	-25
223.869	-20
224.104	-36
224.338	-7
224.573	-15
224.808	-14
225.042	-27
225.277	-10
225.511	0
225.746	4
225.98	4
226.215	13
226.449	27
226.683	19
226.918	44
227.152	43
227.387	33
227.621	41
227.856	44
228.09	55
228.324	47
228.559	55
228.793	63
229.027	82
229.262	67
229.496	82
229.73	85
229.964	93
230.199	85
230.433	89
230.667	88
230.901	78
231.136	88
231.37	86
231.604	78
231.838	86
232.072	82
232.306	80
232.541	98
232.775	83
233.009	91
233.243	92
233.477	101
233.711	82
233.945	65
234.179	96
234.413	79
234.647	62
234.881	85
235.115	89
235.349	77
235.583	75
235.817	93
236.051	75
236.285	73
236.519	75
236.753	83
236.987	79
237.221	80
237.455	99
237.689	80
237.922	83
238.156	82
238.39	88
238.624	84
238.858	69
239.091	85
239.325	88
239.559	81
239.793	87
240.027	85
240.26	89
240.494	73
240.728	77
240.961	77
241.195	84
241.429	83
241.662	66
241.896	72
242.13	83
242.363	61
242.597	87
242.83	85
243.064	79
243.298	85
243.531	85
243.765	82
243.998	72
244.232	77
244.465	79
244.699	83
244.932	81
245.166	94
245.399	84
245.633	82
245.866	77
246.099	81
246.333	88
246.566	96
246.8	77
247.033	81
247.266	94
247.5	83
247.733	82
247.966	83
248.2	75
248.433	92
248.666	81
248.899	85
249.133	83
249.366	83
249.599	99
249.832	78
250.066	80
250.299	82
250.532	88
250.765	74
250.998	72
251.231	90
251.465	84
251.698	72
251.931	75
252.164	87
252.397	80
252.63	83
252.863	80
253.096	67
253.329	81
253.562	92
253.795	83
254.028	79
254.261	64
254.494	83
254.727	83
254.96	88
255.193	79
255.426	77
255.659	87
255.892	89
256.124	88
256.357	84
256.59	95
256.823	96
257.056	93
257.289	86
257.521	86
257.754	83
257.987	95
258.22	81
258.452	70
258.685	93
258.918	92
259.151	72
259.383	73
259.616	66
259.849	77
260.081	86
260.314	80
260.547	73
260.779	77
261.012	79
261.244	91
261.477	93
261.71	88
261.942	107
262.175	98
262.407	80
262.64	87
262.872	87
263.105	84
263.337	82
263.57	78
263.802	89
264.035	77
264.267	72
264.499	79
264.732	98
264.964	105
265.197	105
265.429	94
265.661	81
265.894	98
266.126	91
266.358	94
266.591	76
266.823	68
267.055	86
267.287	99
267.52	82
267.752	75
267.984	75
268.216	86
268.448	88
268.681	91
268.913	103
269.145	106
269.377	95
269.609	88
269.841	82
270.073	88
270.306	87
270.538	82
270.77	92
271.002	83
271.234	91
271.466	88
271.698	83
271.93	99
272.162	71
272.394	79
272.626	89
272.858	87
273.09	91
273.322	83
273.553	78
273.785	92
274.017	112
274.249	89
274.481	91
274.713	83
274.945	94
275.176	88
275.408	108
275.64	85
275.872	85
276.104	79
276.335	110
276.567	99
276.799	105
277.031	98
277.262	96
277.494	95
277.726	70
277.957	70
278.189	90
278.421	93
278.652	83
278.884	83
279.115	83
279.347	80
279.579	83
279.81	70
280.042	87
280.273	93
280.505	99
280.736	94
280.968	85
281.199	94
281.431	81
281.662	94
281.894	93
282.125	97
282.356	114
282.588	119
282.819	123
283.051	91
283.282	102
283.513	96
283.745	84
283.976	93
284.207	91
284.439	88
284.67	103
284.901	96
285.132	77
285.364	99
285.595	85
285.826	78
286.057	89
286.288	87
286.52	73
286.751	78
286.982	93
287.213	99
287.444	101
287.675	104
287.906	81
288.138	95
288.369	100
288.6	93
288.831	87
289.062	80
289.293	94
289.524	85
289.755	89
289.986	86
290.217	104
290.448	98
290.679	81
290.91	95
291.141	86
291.371	82
291.602	87
291.833	78
292.064	82
292.295	91
292.526	91
292.757	91
292.987	92
293.218	96
293.449	99
293.68	81
293.91	82
294.141	95
294.372	95
294.603	103
294.833	99
295.064	108
295.295	93
295.525	90
295.756	95
295.987	112
296.217	128
296.448	110
296.679	99
296.909	101
297.14	87
297.37	81
297.601	86
297.831	93
298.062	93
298.292	96
298.523	77
298.753	99
298.984	86
299.214	99
299.445	105
299.675	108
299.905	87
300.136	111
300.366	90
300.597	90
300.827	97
301.057	96
301.288	110
301.518	98
301.748	88
301.979	83
302.209	94
302.439	86
302.669	92
302.9	89
303.13	100
303.36	101
303.59	113
303.82	100
304.051	95
304.281	81
304.511	81
304.741	105
304.971	94
305.201	87
305.431	89
305.661	102
305.891	89
306.121	104
306.352	107
306.582	96
306.812	94
307.042	96
307.272	94
307.502	95
307.731	87
307.961	94
308.191	93
308.421	107
308.651	97
308.881	87
309.111	82
309.341	97
309.571	98
309.8	93
310.03	95
310.26	100
310.49	95
310.72	110
310.949	94
311.179	103
311.409	93
311.639	87
311.868	82
312.098	85
312.328	97
312.557	105
312.787	116
313.017	94
313.246	110
313.476	98
313.706	89
313.935	87
314.165	93
314.394	99
314.624	84
314.853	112
315.083	91
315.312	95
315.542	87
315.771	81
316.001	85
316.23	100
316.46	97
316.689	89
316.919	97
317.148	102
317.377	108
317.607	107
317.836	92
318.065	91
318.295	88
318.524	102
318.753	85
318.983	95
319.212	94
319.441	116
319.67	103
319.9	95
320.129	87
320.358	95
320.587	101
320.816	93
321.046	85
321.275	104
321.504	83
321.733	91
321.962	107
322.191	104
322.42	118
322.649	97
322.878	111
323.108	116
323.337	106
323.566	121
323.795	143
324.024	182
324.253	315
324.482	669
324.71	1332
324.939	1721
325.168	659
325.397	222
325.626	147
325.855	129
326.084	117
326.313	127
326.542	135
326.77	207
326.999	384
327.228	757
327.457	1344
327.686	1055
327.914	317
328.143	177
328.372	147
328.6	129
328.829	116
329.058	120
329.287	105
329.515	114
329.744	115
329.972	111
330.201	129
330.43	167
330.658	124
330.887	128
331.115	122
331.344	107
331.572	86
331.801	99
332.03	116
332.258	94
332.486	93
332.715	97
332.943	104
333.172	103
333.4	91
333.629	98
333.857	118
334.085	105
334.314	153
334.542	171
334.771	156
334.999	112
335.227	103
335.455	102
335.684	96
335.912	97
336.14	82
336.369	82
336.597	92
336.825	97
337.053	104
337.281	103
337.51	87
337.738	101
337.966	94
338.194	85
338.422	91
338.65	85
338.878	80
339.106	85
339.334	99
339.562	87
339.79	85
340.018	96
340.246	83
340.474	96
340.702	110
340.93	97
341.158	100
341.386	100
341.614	79
341.842	112
342.07	84
342.298	87
342.526	89
342.754	87
342.981	91
343.209	95
343.437	113
343.665	91
343.893	98
344.12	103
344.348	103
344.576	88
344.804	89
345.031	95
345.259	96
345.487	94
345.714	95
345.942	98
346.17	89
346.397	89
346.625	87
346.853	86
347.08	84
347.308	106
347.535	108
347.763	97
347.99	96
348.218	100
348.445	123
348.673	96
348.9	107
349.128	109
349.355	104
349.583	117
349.81	107
350.037	96
350.265	103
350.492	102
350.72	85
350.947	98
351.174	97
351.402	127
351.629	100
351.856	95
352.083	97
352.311	98
352.538	116
352.765	112
352.992	105
353.22	101
353.447	105
353.674	110
353.901	99
354.128	102
354.355	112
354.583	105
354.81	86
355.037	88
355.264	92
355.491	87
355.718	97
355.945	105
356.172	85
356.399	97
356.626	93
356.853	97
357.08	94
357.307	96
357.534	90
357.761	91
357.988	98
358.215	106
358.441	80
358.668	81
358.895	102
359.122	89
359.349	91
359.576	96
359.802	86
360.029	105
360.256	99
360.483	82
360.709	108
360.936	85
361.163	102
361.39	88
361.616	102
361.843	92
362.07	95
362.296	95
362.523	100
362.749	97
362.976	85
363.203	89
363.429	94
363.656	103
363.882	82
364.109	89
364.335	100
364.562	97
364.788	96
365.015	96
365.241	100
365.468	107
365.694	105
365.92	91
366.147	91
366.373	91
366.599	93
366.826	87
367.052	94
367.278	80
367.505	93
367.731	104
367.957	79
368.184	91
368.41	93
368.636	103
368.862	115
369.089	104
369.315	96
369.541	94
369.767	97
369.993	94
370.219	83
370.445	100
370.672	100
370.898	93
371.124	96
371.35	102
371.576	85
371.802	91
372.028	97
372.254	94
372.48	96
372.706	91
372.932	77
373.158	72
373.384	93
373.61	98
373.835	109
374.061	85
374.287	86
374.513	91
374.739	91
374.965	95
375.191	89
375.416	79
375.642	80
375.868	79
376.094	84
376.319	89
376.545	99
376.771	94
376.997	92
377.222	85
377.448	84
377.674	89
377.899	93
378.125	95
378.35	103
378.576	84
378.802	99
379.027	100
379.253	98
379.478	104
379.704	91
379.929	104
380.155	97
380.38	101
380.606	103
380.831	100
381.057	115
381.282	111
381.507	93
381.733	91
381.958	97
382.184	94
382.409	105
382.634	88
382.86	95
383.085	99
383.31	97
383.535	92
383.761	105
383.986	102
384.211	100
384.436	93
384.662	95
384.887	97
385.112	99
385.337	105
385.562	104
385.787	110
386.013	115
386.238	100
386.463	99
386.688	101
386.913	89
387.138	100
387.363	108
387.588	102
387.813	100
388.038	100
388.263	101
388.488	105
388.713	97
388.938	102
389.163	103
389.387	92
389.612	107
389.837	93
390.062	99
390.287	104
390.512	84
390.736	103
390.961	107
391.186	103
391.411	93
391.636	114
391.86	86
392.085	105
392.31	94
392.534	82
392.759	75
392.984	83
393.208	89
393.433	96
393.658	86
393.882	91
394.107	73
394.331	85
394.556	78
394.78	95
395.005	86
395.229	94
395.454	79
395.678	94
395.903	93
396.127	87
396.352	94
396.576	89
396.801	93
397.025	99
397.249	103
397.474	79
397.698	85
397.922	93
398.147	76
398.371	99
398.595	83
398.82	79
399.044	94
399.268	91
399.492	101
399.717	97
399.941	89
400.165	99
400.389	85
400.613	101
400.837	80
401.062	85
401.286	101
401.51	80
401.734	95
401.958	104
402.182	113
402.406	135
402.63	109
402.854	100
403.078	84
403.302	94
403.526	104
403.75	78
403.974	94
404.198	87
404.422	81
404.645	92
404.869	96
405.093	93
405.317	106
405.541	110
405.765	92
405.988	109
406.212	143
406.436	191
406.66	118
406.883	101
407.107	93
407.331	84
407.555	97
407.778	104
408.002	99
408.226	88
408.449	86
408.673	81
408.896	102
409.12	110
409.344	100
409.567	100
409.791	109
410.014	100
410.238	99
410.461	85
410.685	86
410.908	107
411.132	88
411.355	91
411.578	97
411.802	86
412.025	86
412.249	92
412.472	88
412.695	92
412.919	96
413.142	91
413.365	94
413.589	79
413.812	84
414.035	91
414.258	89
414.482	96
414.705	92
414.928	87
415.151	90
415.374	102
415.597	85
415.821	82
416.044	95
416.267	87
416.49	100
416.713	107
416.936	84
417.159	87
417.382	93
417.605	105
417.828	89
418.051	98
418.274	87
418.497	64
418.72	87
418.943	79
419.166	89
419.389	99
419.611	111
419.834	87
420.057	96
420.28	96
420.503	92
420.726	85
420.948	99
421.171	84
421.394	88
421.617	98
421.839	105
422.062	85
422.285	89
422.507	93
422.73	93
422.953	77
423.175	99
423.398	97
423.621	84
423.843	86
424.066	99
424.288	86
424.511	89
424.733	105
424.956	104
425.178	92
425.401	88
425.623	95
425.846	88
426.068	69
426.291	79
426.513	95
426.735	90
426.958	88
427.18	100
427.402	114
427.625	136
427.847	111
428.069	109
428.292	111
428.514	97
428.736	88
428.958	97
429.181	94
429.403	93
429.625	82
429.847	91
430.069	107
430.292	85
430.514	88
430.736	92
430.958	90
431.18	80
431.402	83
431.624	91
431.846	86
432.068	91
432.29	96
432.512	92
432.734	84
432.956	105
433.178	108
433.4	113
433.622	96
433.844	105
434.066	79
434.287	89
434.509	92
434.731	97
434.953	85
435.175	102
435.397	93
435.618	112
435.84	95
436.062	114
436.284	123
436.505	95
436.727	91
436.949	103
437.17	95
437.392	91
437.614	104
437.835	105
438.057	114
438.278	104
438.5	109
438.721	123
438.943	92
439.165	107
439.386	98
439.608	97
439.829	85
440.05	117
440.272	137
440.493	105
440.715	101
440.936	93
441.158	104
441.379	91
441.6	98
441.822	99
442.043	91
442.264	93
442.486	102
442.707	109
442.928	104
443.149	123
443.371	112
443.592	104
443.813	107
444.034	103
444.255	98
444.476	97
444.698	85
444.919	100
445.14	134
445.361	120
445.582	125
445.803	123
446.024	119
446.245	115
446.466	104
446.687	85
446.908	91
447.129	105
447.35	93
447.571	103
447.792	113
448.013	110
448.234	101
448.455	94
448.675	103
448.896	106
449.117	101
449.338	100
449.559	123
449.779	125
450	100
450.221	113
450.442	101
450.662	91
450.883	104
451.104	103
451.324	91
451.545	88
451.766	86
451.986	86
452.207	88
452.428	89
452.648	100
452.869	100
453.089	115
453.31	114
453.53	97
453.751	79
453.971	90
454.192	99
454.412	86
454.633	97
454.853	95
455.073	85
455.294	77
455.514	91
455.734	91
455.955	87
456.175	91
456.395	90
456.616	88
456.836	71
457.056	93
457.276	85
457.497	97
457.717	86
457.937	93
458.157	87
458.377	80
458.598	101
458.818	118
459.038	137
459.258	103
459.478	79
459.698	75
459.918	92
460.138	72
460.358	83
460.578	99
460.798	95
461.018	89
461.238	91
461.458	95
461.678	65
461.898	97
462.118	92
462.338	87
462.558	87
462.777	75
462.997	82
463.217	89
463.437	84
463.657	89
463.876	88
464.096	92
464.316	98
464.536	99
464.755	109
464.975	101
465.195	143
465.414	137
465.634	99
465.854	84
466.073	109
466.293	81
466.512	85
466.732	98
466.951	111
467.171	100
467.391	85
467.61	103
467.829	109
468.049	109
468.268	116
468.488	90
468.707	92
468.927	91
469.146	89
469.365	87
469.585	85
469.804	110
470.023	105
470.243	97
470.462	97
470.681	93
470.901	103
471.12	97
471.339	97
471.558	77
471.777	92
471.997	108
472.216	132
472.435	198
472.654	106
472.873	85
473.092	101
473.311	94
473.53	95
473.749	83
473.968	92
474.187	97
474.406	98
474.625	83
474.844	84
475.063	100
475.282	94
475.501	83
475.72	93
475.939	95
476.158	100
476.377	73
476.596	72
476.814	87
477.033	97
477.252	85
477.471	72
477.69	72
477.908	92
478.127	104
478.346	97
478.564	90
478.783	105
479.002	95
479.22	101
479.439	91
479.658	89
479.876	96
480.095	82
480.313	107
480.532	101
480.751	103
480.969	112
481.188	279
481.406	209
481.624	102
481.843	93
482.061	93
482.28	94
482.498	81
482.717	89
482.935	95
483.153	87
483.372	92
483.59	90
483.808	97
484.027	90
484.245	96
484.463	103
484.681	95
484.9	94
485.118	95
485.336	92
485.554	104
485.772	104
485.99	110
486.209	83
486.427	97
486.645	103
486.863	104
487.081	105
487.299	105
487.517	91
487.735	99
487.953	87
488.171	81
488.389	106
488.607	101
488.825	103
489.043	76
489.261	95
489.479	88
489.696	86
489.914	88
490.132	86
490.35	80
490.568	97
490.786	101
491.003	83
491.221	100
491.439	93
491.657	100
491.874	93
492.092	86
492.31	96
492.527	115
492.745	100
492.963	92
493.18	92
493.398	102
493.615	93
493.833	110
494.05	83
494.268	88
494.485	96
494.703	88
494.92	86
495.138	88
495.355	93
495.573	90
495.79	102
496.008	102
496.225	99
496.442	97
496.66	82
496.877	77
497.094	93
497.312	85
497.529	106
497.746	92
497.963	100
498.181	94
498.398	89
498.615	106
498.832	93
499.049	93
499.267	80
499.484	91
499.701	97
499.918	98
500.135	101
500.352	91
500.569	93
500.786	96
501.003	86
501.22	108
501.437	101
501.654	93
501.871	112
502.088	99
502.305	85
502.522	88
502.739	103
502.956	96
503.172	88
503.389	103
503.606	106
503.823	92
504.04	105
504.256	83
504.473	96
504.69	88
504.907	83
505.123	91
505.34	95
505.557	88
505.773	87
505.99	114
506.207	82
506.423	85
506.64	79
506.856	88
507.073	94
507.289	91
507.506	95
507.722	104
507.939	100
508.155	83
508.372	91
508.588	81
508.805	93
509.021	111
509.238	91
509.454	95
509.67	96
509.887	111
510.103	119
510.319	202
510.536	617
510.752	1953
510.968	557
511.184	147
511.401	99
511.617	104
511.833	88
512.049	92
512.265	88
512.481	95
512.698	95
512.914	89
513.13	89
513.346	93
513.562	102
513.778	97
513.994	86
514.21	92
514.426	87
514.642	126
514.858	109
515.074	130
515.29	376
515.506	1131
515.721	411
515.937	135
516.153	108
516.369	84
516.585	92
516.801	84
517.016	93
517.232	89
517.448	89
517.664	91
517.879	100
518.095	88
518.311	95
518.527	98
518.742	83
518.958	99
519.173	112
519.389	96
519.605	108
519.82	87
520.036	97
520.251	112
520.467	103
520.682	103
520.898	97
521.113	111
521.329	127
521.544	182
521.76	475
521.975	1847
522.19	1137
522.406	257
522.621	105
522.836	109
523.052	91
523.267	82
523.482	91
523.698	112
523.913	117
524.128	103
524.343	87
524.559	93
524.774	92
524.989	89
525.204	97
525.419	100
525.634	89
525.849	89
526.064	106
526.28	91
526.495	95
526.71	97
526.925	106
527.14	91
527.355	95
527.57	78
527.785	83
527.999	97
528.214	104
528.429	98
528.644	91
528.859	99
529.074	89
529.289	129
529.503	160
529.718	86
529.933	96
530.148	94
530.363	101
530.577	89
530.792	79
531.007	88
531.221	98
531.436	97
531.651	91
531.865	101
532.08	96
532.295	95
532.509	101
532.724	101
532.938	85
533.153	94
533.367	89
533.582	77
533.796	81
534.011	99
534.225	100
534.44	92
534.654	102
534.868	81
535.083	93
535.297	98
535.511	107
535.726	111
535.94	99
536.154	91
536.369	84
536.583	85
536.797	106
537.011	99
537.225	88
537.44	91
537.654	88
537.868	87
538.082	102
538.296	79
538.51	88
538.724	87
538.938	89
539.153	101
539.367	104
539.581	100
539.795	102
540.009	89
540.222	87
540.436	101
540.65	94
540.864	86
541.078	96
541.292	97
541.506	84
541.72	97
541.934	103
542.147	85
542.361	106
542.575	86
542.789	97
543.002	89
543.216	105
543.43	109
543.644	96
543.857	85
544.071	76
544.285	84
544.498	95
544.712	93
544.925	81
545.139	101
545.352	89
545.566	90
545.779	84
545.993	88
546.206	83
546.42	98
546.633	96
546.847	98
547.06	104
547.274	87
547.487	82
547.7	83
547.914	101
548.127	102
548.34	92
548.554	96
548.767	96
548.98	88
549.193	85
549.407	79
549.62	88
549.833	83
550.046	85
550.259	89
550.473	94
550.686	89
550.899	95
551.112	95
551.325	85
551.538	98
551.751	95
551.964	86
552.177	95
552.39	95
552.603	79
552.816	86
553.029	80
553.242	97
553.455	100
553.667	90
553.88	93
554.093	95
554.306	93
554.519	86
554.732	85
554.944	85
555.157	87
555.37	101
555.583	85
555.795	88
556.008	95
556.221	103
556.433	111
556.646	103
556.859	100
557.071	83
557.284	107
557.496	105
557.709	108
557.921	91
558.134	100
558.346	107
558.559	92
558.771	92
558.984	72
559.196	96
559.409	93
559.621	96
559.833	92
560.046	104
560.258	92
560.47	100
560.683	93
560.895	86
561.107	101
561.32	84
561.532	99
561.744	85
561.956	91
562.168	87
562.381	103
562.593	105
562.805	98
563.017	91
563.229	95
563.441	81
563.653	92
563.865	93
564.077	90
564.289	95
564.501	88
564.713	89
564.925	86
565.137	109
565.349	95
565.561	97
565.773	101
565.985	100
566.197	98
566.408	92
566.62	89
566.832	93
567.044	97
567.255	88
567.467	96
567.679	87
567.891	91
568.102	96
568.314	102
568.526	98
568.737	84
568.949	97
569.161	89
569.372	95
569.584	89
569.795	97
570.007	105
570.218	211
570.43	130
570.641	80
570.853	89
571.064	84
571.276	77
571.487	101
571.698	91
571.91	94
572.121	98
572.333	79
572.544	69
572.755	89
572.966	104
573.178	93
573.389	101
573.6	82
573.811	90
574.023	86
574.234	88
574.445	78
574.656	79
574.867	81
575.078	65
575.289	87
575.501	100
575.712	90
575.923	82
576.134	93
576.345	91
576.556	80
576.767	85
576.978	95
577.188	93
577.399	97
577.61	86
577.821	84
578.032	105
578.243	233
578.454	594
578.665	181
578.875	98
579.086	97
579.297	87
579.508	93
579.718	91
579.929	95
580.14	80
580.35	89
580.561	93
580.772	100
580.982	79
581.193	93
581.403	88
581.614	85
581.825	82
582.035	83
582.246	103
582.456	94
582.667	99
