Data from Circ_1994_H10_HRD10591_00038.txt Node
Date: Wed Jan 03 11:40:38 EST 2024
User: Yrep
Spectrometer: HR+D1059
Trigger mode: 1
Integration Time (sec): 1.000000E-1
Scans to average: 1
Electric dark correction enabled: true
Nonlinearity correction enabled: false
Boxcar width: 0
XAxis mode: Wavelengths
Number of Pixels in Spectrum: 2048
>>>>>Begin Spectral Data<<<<<
223.165	-4.62
223.4	-4.62
223.635	-4.62
223.869	-20.62
224.104	-19.62
224.338	-16.62
224.573	-1.62
224.808	-26.62
225.042	-7.62
225.277	-11.62
225.511	-0.62
225.746	8.38
225.98	9.38
226.215	9.38
226.449	12.38
226.683	13.38
226.918	21.38
227.152	35.38
227.387	48.38
227.621	41.38
227.856	45.38
228.09	48.38
228.324	38.38
228.559	56.38
228.793	59.38
229.027	59.38
229.262	73.38
229.496	88.38
229.73	75.38
229.964	95.38
230.199	71.38
230.433	68.38
230.667	91.38
230.901	78.38
231.136	77.38
231.37	95.38
231.604	80.38
231.838	73.38
232.072	89.38
232.306	89.38
232.541	79.38
232.775	75.38
233.009	85.38
233.243	84.38
233.477	88.38
233.711	89.38
233.945	79.38
234.179	87.38
234.413	75.38
234.647	85.38
234.881	86.38
235.115	75.38
235.349	93.38
235.583	91.38
235.817	88.38
236.051	87.38
236.285	79.38
236.519	91.38
236.753	91.38
236.987	91.38
237.221	85.38
237.455	84.38
237.689	84.38
237.922	79.38
238.156	73.38
238.39	72.38
238.624	76.38
238.858	69.38
239.091	65.38
239.325	83.38
239.559	77.38
239.793	71.38
240.027	99.38
240.26	75.38
240.494	72.38
240.728	87.38
240.961	77.38
241.195	79.38
241.429	76.38
241.662	83.38
241.896	87.38
242.13	90.38
242.363	90.38
242.597	76.38
242.83	80.38
243.064	94.38
243.298	70.38
243.531	75.38
243.765	64.38
243.998	87.38
244.232	87.38
244.465	84.38
244.699	79.38
244.932	75.38
245.166	82.38
245.399	90.38
245.633	70.38
245.866	80.38
246.099	71.38
246.333	75.38
246.566	86.38
246.8	90.38
247.033	73.38
247.266	83.38
247.5	81.38
247.733	85.38
247.966	68.38
248.2	69.38
248.433	86.38
248.666	91.38
248.899	73.38
249.133	78.38
249.366	87.38
249.599	100.38
249.832	85.38
250.066	87.38
250.299	85.38
250.532	88.38
250.765	78.38
250.998	67.38
251.231	93.38
251.465	95.38
251.698	100.38
251.931	79.38
252.164	75.38
252.397	96.38
252.63	77.38
252.863	78.38
253.096	80.38
253.329	89.38
253.562	99.38
253.795	92.38
254.028	83.38
254.261	81.38
254.494	72.38
254.727	77.38
254.96	80.38
255.193	95.38
255.426	92.38
255.659	83.38
255.892	92.38
256.124	70.38
256.357	89.38
256.59	91.38
256.823	71.38
257.056	84.38
257.289	79.38
257.521	89.38
257.754	68.38
257.987	70.38
258.22	78.38
258.452	99.38
258.685	94.38
258.918	77.38
259.151	79.38
259.383	84.38
259.616	85.38
259.849	96.38
260.081	89.38
260.314	94.38
260.547	80.38
260.779	89.38
261.012	88.38
261.244	99.38
261.477	93.38
261.71	96.38
261.942	126.38
262.175	107.38
262.407	83.38
262.64	86.38
262.872	94.38
263.105	85.38
263.337	86.38
263.57	85.38
263.802	83.38
264.035	96.38
264.267	77.38
264.499	99.38
264.732	86.38
264.964	89.38
265.197	74.38
265.429	81.38
265.661	91.38
265.894	87.38
266.126	67.38
266.358	85.38
266.591	83.38
266.823	76.38
267.055	88.38
267.287	84.38
267.52	96.38
267.752	83.38
267.984	87.38
268.216	72.38
268.448	86.38
268.681	88.38
268.913	89.38
269.145	91.38
269.377	87.38
269.609	78.38
269.841	94.38
270.073	80.38
270.306	86.38
270.538	89.38
270.77	78.38
271.002	96.38
271.234	91.38
271.466	78.38
271.698	87.38
271.93	84.38
272.162	83.38
272.394	80.38
272.626	99.38
272.858	81.38
273.09	81.38
273.322	72.38
273.553	80.38
273.785	81.38
274.017	90.38
274.249	95.38
274.481	110.38
274.713	92.38
274.945	90.38
275.176	79.38
275.408	87.38
275.64	81.38
275.872	86.38
276.104	97.38
276.335	89.38
276.567	108.38
276.799	101.38
277.031	97.38
277.262	83.38
277.494	86.38
277.726	93.38
277.957	97.38
278.189	104.38
278.421	96.38
278.652	93.38
278.884	73.38
279.115	93.38
279.347	79.38
279.579	94.38
279.81	90.38
280.042	101.38
280.273	72.38
280.505	95.38
280.736	101.38
280.968	94.38
281.199	92.38
281.431	77.38
281.662	87.38
281.894	85.38
282.125	102.38
282.356	108.38
282.588	130.38
282.819	107.38
283.051	92.38
283.282	106.38
283.513	98.38
283.745	93.38
283.976	80.38
284.207	86.38
284.439	93.38
284.67	83.38
284.901	92.38
285.132	72.38
285.364	85.38
285.595	87.38
285.826	84.38
286.057	94.38
286.288	87.38
286.52	96.38
286.751	83.38
286.982	91.38
287.213	84.38
287.444	104.38
287.675	84.38
287.906	105.38
288.138	97.38
288.369	84.38
288.6	99.38
288.831	89.38
289.062	98.38
289.293	77.38
289.524	85.38
289.755	96.38
289.986	82.38
290.217	84.38
290.448	89.38
290.679	89.38
290.91	90.38
291.141	93.38
291.371	91.38
291.602	91.38
291.833	98.38
292.064	99.38
292.295	89.38
292.526	86.38
292.757	80.38
292.987	97.38
293.218	83.38
293.449	91.38
293.68	89.38
293.91	105.38
294.141	81.38
294.372	83.38
294.603	101.38
294.833	101.38
295.064	72.38
295.295	93.38
295.525	101.38
295.756	89.38
295.987	112.38
296.217	145.38
296.448	124.38
296.679	87.38
296.909	97.38
297.14	84.38
297.37	75.38
297.601	91.38
297.831	93.38
298.062	93.38
298.292	92.38
298.523	93.38
298.753	91.38
298.984	87.38
299.214	100.38
299.445	100.38
299.675	87.38
299.905	113.38
300.136	95.38
300.366	97.38
300.597	101.38
300.827	92.38
301.057	95.38
301.288	83.38
301.518	98.38
301.748	96.38
301.979	109.38
302.209	84.38
302.439	71.38
302.669	91.38
302.9	87.38
303.13	85.38
303.36	93.38
303.59	100.38
303.82	111.38
304.051	100.38
304.281	107.38
304.511	100.38
304.741	106.38
304.971	91.38
305.201	93.38
305.431	87.38
305.661	97.38
305.891	99.38
306.121	94.38
306.352	102.38
306.582	106.38
306.812	96.38
307.042	94.38
307.272	102.38
307.502	107.38
307.731	100.38
307.961	92.38
308.191	94.38
308.421	93.38
308.651	83.38
308.881	95.38
309.111	92.38
309.341	85.38
309.571	100.38
309.8	118.38
310.03	93.38
310.26	94.38
310.49	100.38
310.72	93.38
310.949	104.38
311.179	120.38
311.409	100.38
311.639	103.38
311.868	102.38
312.098	89.38
312.328	95.38
312.557	101.38
312.787	95.38
313.017	103.38
313.246	95.38
313.476	98.38
313.706	91.38
313.935	98.38
314.165	97.38
314.394	106.38
314.624	96.38
314.853	96.38
315.083	99.38
315.312	96.38
315.542	101.38
315.771	88.38
316.001	94.38
316.23	94.38
316.46	90.38
316.689	93.38
316.919	89.38
317.148	104.38
317.377	94.38
317.607	91.38
317.836	94.38
318.065	84.38
318.295	116.38
318.524	96.38
318.753	101.38
318.983	83.38
319.212	110.38
319.441	103.38
319.67	107.38
319.9	91.38
320.129	87.38
320.358	96.38
320.587	96.38
320.816	96.38
321.046	107.38
321.275	101.38
321.504	106.38
321.733	105.38
321.962	111.38
322.191	105.38
322.42	97.38
322.649	117.38
322.878	104.38
323.108	117.38
323.337	112.38
323.566	109.38
323.795	139.38
324.024	190.38
324.253	359.38
324.482	685.38
324.71	1391.38
324.939	1815.38
325.168	691.38
325.397	213.38
325.626	134.38
325.855	120.38
326.084	125.38
326.313	120.38
326.542	148.38
326.77	215.38
326.999	382.38
327.228	782.38
327.457	1374.38
327.686	1097.38
327.914	329.38
328.143	172.38
328.372	149.38
328.6	130.38
328.829	129.38
329.058	123.38
329.287	121.38
329.515	112.38
329.744	104.38
329.972	104.38
330.201	136.38
330.43	148.38
330.658	129.38
330.887	136.38
331.115	113.38
331.344	108.38
331.572	99.38
331.801	101.38
332.03	110.38
332.258	106.38
332.486	93.38
332.715	97.38
332.943	112.38
333.172	96.38
333.4	88.38
333.629	102.38
333.857	115.38
334.085	135.38
334.314	124.38
334.542	173.38
334.771	147.38
334.999	107.38
335.227	104.38
335.455	106.38
335.684	82.38
335.912	94.38
336.14	104.38
336.369	115.38
336.597	93.38
336.825	101.38
337.053	91.38
337.281	96.38
337.51	78.38
337.738	82.38
337.966	97.38
338.194	97.38
338.422	102.38
338.65	101.38
338.878	92.38
339.106	105.38
339.334	93.38
339.562	87.38
339.79	99.38
340.018	100.38
340.246	90.38
340.474	83.38
340.702	98.38
340.93	98.38
341.158	96.38
341.386	105.38
341.614	88.38
341.842	99.38
342.07	94.38
342.298	100.38
342.526	88.38
342.754	97.38
342.981	89.38
343.209	105.38
343.437	109.38
343.665	98.38
343.893	95.38
344.12	105.38
344.348	71.38
344.576	104.38
344.804	101.38
345.031	91.38
345.259	94.38
345.487	103.38
345.714	102.38
345.942	100.38
346.17	82.38
346.397	89.38
346.625	97.38
346.853	98.38
347.08	83.38
347.308	94.38
347.535	103.38
347.763	92.38
347.99	107.38
348.218	111.38
348.445	122.38
348.673	90.38
348.9	116.38
349.128	99.38
349.355	98.38
349.583	103.38
349.81	96.38
350.037	95.38
350.265	103.38
350.492	102.38
350.72	93.38
350.947	118.38
351.174	115.38
351.402	112.38
351.629	105.38
351.856	110.38
352.083	101.38
352.311	113.38
352.538	102.38
352.765	113.38
352.992	133.38
353.22	106.38
353.447	105.38
353.674	91.38
353.901	107.38
354.128	105.38
354.355	113.38
354.583	107.38
354.81	99.38
355.037	101.38
355.264	103.38
355.491	83.38
355.718	102.38
355.945	95.38
356.172	117.38
356.399	90.38
356.626	96.38
356.853	92.38
357.08	106.38
357.307	97.38
357.534	94.38
357.761	105.38
357.988	105.38
358.215	101.38
358.441	101.38
358.668	89.38
358.895	96.38
359.122	85.38
359.349	101.38
359.576	87.38
359.802	106.38
360.029	108.38
360.256	110.38
360.483	98.38
360.709	95.38
360.936	93.38
361.163	93.38
361.39	104.38
361.616	102.38
361.843	89.38
362.07	109.38
362.296	103.38
362.523	92.38
362.749	101.38
362.976	88.38
363.203	97.38
363.429	110.38
363.656	88.38
363.882	104.38
364.109	108.38
364.335	93.38
364.562	90.38
364.788	93.38
365.015	98.38
365.241	100.38
365.468	107.38
365.694	99.38
365.92	95.38
366.147	95.38
366.373	93.38
366.599	82.38
366.826	102.38
367.052	79.38
367.278	91.38
367.505	96.38
367.731	85.38
367.957	102.38
368.184	95.38
368.41	108.38
368.636	111.38
368.862	115.38
369.089	119.38
369.315	98.38
369.541	98.38
369.767	97.38
369.993	95.38
370.219	81.38
370.445	89.38
370.672	86.38
370.898	77.38
371.124	91.38
371.35	86.38
371.576	101.38
371.802	83.38
372.028	87.38
372.254	98.38
372.48	112.38
372.706	97.38
372.932	91.38
373.158	86.38
373.384	88.38
373.61	98.38
373.835	94.38
374.061	94.38
374.287	100.38
374.513	91.38
374.739	93.38
374.965	92.38
375.191	103.38
375.416	95.38
375.642	92.38
375.868	89.38
376.094	88.38
376.319	96.38
376.545	93.38
376.771	96.38
376.997	97.38
377.222	94.38
377.448	104.38
377.674	92.38
377.899	96.38
378.125	94.38
378.35	97.38
378.576	105.38
378.802	90.38
379.027	90.38
379.253	92.38
379.478	113.38
379.704	89.38
379.929	95.38
380.155	104.38
380.38	97.38
380.606	93.38
380.831	113.38
381.057	89.38
381.282	103.38
381.507	101.38
381.733	110.38
381.958	87.38
382.184	100.38
382.409	98.38
382.634	110.38
382.86	102.38
383.085	101.38
383.31	95.38
383.535	104.38
383.761	108.38
383.986	90.38
384.211	109.38
384.436	107.38
384.662	102.38
384.887	99.38
385.112	113.38
385.337	97.38
385.562	110.38
385.787	108.38
386.013	110.38
386.238	104.38
386.463	109.38
386.688	115.38
386.913	99.38
387.138	103.38
387.363	104.38
387.588	114.38
387.813	108.38
388.038	104.38
388.263	113.38
388.488	100.38
388.713	99.38
388.938	95.38
389.163	104.38
389.387	105.38
389.612	93.38
389.837	93.38
390.062	95.38
390.287	102.38
390.512	93.38
390.736	102.38
390.961	90.38
391.186	87.38
391.411	96.38
391.636	94.38
391.86	96.38
392.085	82.38
392.31	95.38
392.534	88.38
392.759	89.38
392.984	84.38
393.208	93.38
393.433	90.38
393.658	93.38
393.882	85.38
394.107	81.38
394.331	94.38
394.556	92.38
394.78	99.38
395.005	97.38
395.229	97.38
395.454	74.38
395.678	86.38
395.903	103.38
396.127	97.38
396.352	93.38
396.576	93.38
396.801	90.38
397.025	82.38
397.249	89.38
397.474	102.38
397.698	78.38
397.922	92.38
398.147	72.38
398.371	90.38
398.595	91.38
398.82	81.38
399.044	87.38
399.268	98.38
399.492	87.38
399.717	88.38
399.941	98.38
400.165	97.38
400.389	97.38
400.613	99.38
400.837	81.38
401.062	88.38
401.286	89.38
401.51	104.38
401.734	103.38
401.958	101.38
402.182	133.38
402.406	160.38
402.63	127.38
402.854	107.38
403.078	93.38
403.302	93.38
403.526	87.38
403.75	90.38
403.974	90.38
404.198	84.38
404.422	77.38
404.645	89.38
404.869	79.38
405.093	95.38
405.317	104.38
405.541	96.38
405.765	103.38
405.988	118.38
406.212	161.38
406.436	229.38
406.66	134.38
406.883	100.38
407.107	106.38
407.331	104.38
407.555	87.38
407.778	87.38
408.002	91.38
408.226	87.38
408.449	95.38
408.673	79.38
408.896	90.38
409.12	100.38
409.344	96.38
409.567	102.38
409.791	95.38
410.014	103.38
410.238	101.38
410.461	83.38
410.685	102.38
410.908	101.38
411.132	104.38
411.355	101.38
411.578	102.38
411.802	115.38
412.025	104.38
412.249	100.38
412.472	98.38
412.695	111.38
412.919	86.38
413.142	71.38
413.365	87.38
413.589	96.38
413.812	93.38
414.035	101.38
414.258	78.38
414.482	91.38
414.705	84.38
414.928	95.38
415.151	92.38
415.374	88.38
415.597	111.38
415.821	94.38
416.044	96.38
416.267	103.38
416.49	93.38
416.713	76.38
416.936	88.38
417.159	87.38
417.382	93.38
417.605	88.38
417.828	97.38
418.051	100.38
418.274	94.38
418.497	85.38
418.72	96.38
418.943	89.38
419.166	85.38
419.389	96.38
419.611	102.38
419.834	83.38
420.057	103.38
420.28	93.38
420.503	91.38
420.726	91.38
420.948	83.38
421.171	101.38
421.394	98.38
421.617	99.38
421.839	91.38
422.062	85.38
422.285	92.38
422.507	91.38
422.73	93.38
422.953	94.38
423.175	94.38
423.398	85.38
423.621	82.38
423.843	70.38
424.066	85.38
424.288	83.38
424.511	93.38
424.733	95.38
424.956	96.38
425.178	103.38
425.401	89.38
425.623	109.38
425.846	93.38
426.068	86.38
426.291	81.38
426.513	91.38
426.735	96.38
426.958	93.38
427.18	96.38
427.402	145.38
427.625	165.38
427.847	126.38
428.069	120.38
428.292	100.38
428.514	83.38
428.736	94.38
428.958	82.38
429.181	87.38
429.403	94.38
429.625	83.38
429.847	105.38
430.069	93.38
430.292	96.38
430.514	96.38
430.736	92.38
430.958	87.38
431.18	99.38
431.402	92.38
431.624	87.38
431.846	88.38
432.068	106.38
432.29	91.38
432.512	105.38
432.734	92.38
432.956	97.38
433.178	97.38
433.4	87.38
433.622	90.38
433.844	77.38
434.066	88.38
434.287	91.38
434.509	85.38
434.731	92.38
434.953	95.38
435.175	102.38
435.397	82.38
435.618	96.38
435.84	99.38
436.062	109.38
436.284	107.38
436.505	97.38
436.727	108.38
436.949	83.38
437.17	87.38
437.392	83.38
437.614	80.38
437.835	116.38
438.057	115.38
438.278	114.38
438.5	95.38
438.721	111.38
438.943	105.38
439.165	97.38
439.386	86.38
439.608	90.38
439.829	97.38
440.05	129.38
440.272	138.38
440.493	85.38
440.715	93.38
440.936	112.38
441.158	96.38
441.379	100.38
441.6	94.38
441.822	98.38
442.043	91.38
442.264	113.38
442.486	102.38
442.707	77.38
442.928	104.38
443.149	121.38
443.371	109.38
443.592	110.38
443.813	91.38
444.034	100.38
444.255	91.38
444.476	72.38
444.698	95.38
444.919	107.38
445.14	143.38
445.361	117.38
445.582	106.38
445.803	129.38
446.024	124.38
446.245	109.38
446.466	116.38
446.687	70.38
446.908	97.38
447.129	97.38
447.35	97.38
447.571	96.38
447.792	95.38
448.013	93.38
448.234	101.38
448.455	99.38
448.675	119.38
448.896	127.38
449.117	106.38
449.338	99.38
449.559	132.38
449.779	131.38
450	105.38
450.221	93.38
450.442	86.38
450.662	87.38
450.883	100.38
451.104	126.38
451.324	107.38
451.545	81.38
451.766	66.38
451.986	84.38
452.207	103.38
452.428	77.38
452.648	103.38
452.869	112.38
453.089	116.38
453.31	102.38
453.53	85.38
453.751	93.38
453.971	101.38
454.192	109.38
454.412	103.38
454.633	97.38
454.853	94.38
455.073	93.38
455.294	89.38
455.514	98.38
455.734	91.38
455.955	79.38
456.175	70.38
456.395	91.38
456.616	80.38
456.836	80.38
457.056	84.38
457.276	97.38
457.497	91.38
457.717	100.38
457.937	100.38
458.157	91.38
458.377	84.38
458.598	109.38
458.818	129.38
459.038	141.38
459.258	121.38
459.478	94.38
459.698	100.38
459.918	92.38
460.138	91.38
460.358	96.38
460.578	90.38
460.798	94.38
461.018	93.38
461.238	84.38
461.458	85.38
461.678	76.38
461.898	92.38
462.118	85.38
462.338	108.38
462.558	94.38
462.777	81.38
462.997	97.38
463.217	90.38
463.437	93.38
463.657	88.38
463.876	83.38
464.096	90.38
464.316	94.38
464.536	96.38
464.755	99.38
464.975	95.38
465.195	144.38
465.414	146.38
465.634	86.38
465.854	83.38
466.073	79.38
466.293	95.38
466.512	88.38
466.732	95.38
466.951	77.38
467.171	99.38
467.391	91.38
467.61	116.38
467.829	101.38
468.049	91.38
468.268	113.38
468.488	86.38
468.707	79.38
468.927	93.38
469.146	95.38
469.365	92.38
469.585	99.38
469.804	89.38
470.023	95.38
470.243	94.38
470.462	103.38
470.681	111.38
470.901	77.38
471.12	96.38
471.339	95.38
471.558	90.38
471.777	91.38
471.997	111.38
472.216	127.38
472.435	171.38
472.654	99.38
472.873	96.38
473.092	88.38
473.311	95.38
473.53	76.38
473.749	82.38
473.968	79.38
474.187	87.38
474.406	110.38
474.625	86.38
474.844	70.38
475.063	83.38
475.282	98.38
475.501	77.38
475.72	82.38
475.939	96.38
476.158	90.38
476.377	89.38
476.596	95.38
476.814	86.38
477.033	86.38
477.252	86.38
477.471	89.38
477.69	85.38
477.908	81.38
478.127	98.38
478.346	98.38
478.564	102.38
478.783	89.38
479.002	97.38
479.22	102.38
479.439	103.38
479.658	97.38
479.876	102.38
480.095	96.38
480.313	88.38
480.532	97.38
480.751	104.38
480.969	130.38
481.188	245.38
481.406	179.38
481.624	102.38
481.843	93.38
482.061	89.38
482.28	112.38
482.498	85.38
482.717	94.38
482.935	95.38
483.153	86.38
483.372	93.38
483.59	88.38
483.808	99.38
484.027	83.38
484.245	75.38
484.463	103.38
484.681	95.38
484.9	88.38
485.118	94.38
485.336	83.38
485.554	102.38
485.772	99.38
485.99	108.38
486.209	95.38
486.427	105.38
486.645	112.38
486.863	104.38
487.081	92.38
487.299	105.38
487.517	88.38
487.735	75.38
487.953	98.38
488.171	95.38
488.389	96.38
488.607	101.38
488.825	101.38
489.043	98.38
489.261	86.38
489.479	106.38
489.696	88.38
489.914	92.38
490.132	96.38
490.35	88.38
490.568	94.38
490.786	95.38
491.003	89.38
491.221	93.38
491.439	102.38
491.657	94.38
491.874	81.38
492.092	92.38
492.31	85.38
492.527	99.38
492.745	98.38
492.963	94.38
493.18	85.38
493.398	89.38
493.615	102.38
493.833	100.38
494.05	87.38
494.268	94.38
494.485	90.38
494.703	87.38
494.92	87.38
495.138	101.38
495.355	103.38
495.573	93.38
495.79	92.38
496.008	99.38
496.225	89.38
496.442	112.38
496.66	91.38
496.877	103.38
497.094	87.38
497.312	96.38
497.529	102.38
497.746	105.38
497.963	92.38
498.181	103.38
498.398	100.38
498.615	111.38
498.832	99.38
499.049	84.38
499.267	92.38
499.484	85.38
499.701	107.38
499.918	103.38
500.135	87.38
500.352	98.38
500.569	102.38
500.786	102.38
501.003	97.38
501.22	83.38
501.437	80.38
501.654	91.38
501.871	99.38
502.088	104.38
502.305	91.38
502.522	101.38
502.739	87.38
502.956	105.38
503.172	97.38
503.389	95.38
503.606	96.38
503.823	92.38
504.04	89.38
504.256	98.38
504.473	99.38
504.69	97.38
504.907	100.38
505.123	91.38
505.34	82.38
505.557	92.38
505.773	85.38
505.99	91.38
506.207	107.38
506.423	100.38
506.64	89.38
506.856	83.38
507.073	90.38
507.289	86.38
507.506	93.38
507.722	110.38
507.939	112.38
508.155	83.38
508.372	102.38
508.588	88.38
508.805	100.38
509.021	99.38
509.238	95.38
509.454	107.38
509.67	101.38
509.887	120.38
510.103	124.38
510.319	231.38
510.536	740.38
510.752	2296.38
510.968	637.38
511.184	164.38
511.401	112.38
511.617	103.38
511.833	99.38
512.049	85.38
512.265	83.38
512.481	94.38
512.698	88.38
512.914	83.38
513.13	85.38
513.346	92.38
513.562	89.38
513.778	99.38
513.994	95.38
514.21	92.38
514.426	104.38
