Data from Circ_1994_H10_HRD10591_00088.txt Node
Date: Wed Jan 03 11:40:48 EST 2024
User: Yrep
Spectrometer: HR+D1059
Trigger mode: 1
Integration Time (sec): 1.000000E-1
Scans to average: 1
Electric dark correction enabled: true
Nonlinearity correction enabled: false
Boxcar width: 0
XAxis mode: Wavelengths
Number of Pixels in Spectrum: 2048
>>>>>Begin Spectral Data<<<<<
223.165	-14.44
223.4	-14.44
223.635	-14.44
223.869	-14.44
224.104	-26.44
224.338	-8.44
224.573	-17.44
224.808	-15.44
225.042	-13.44
225.277	-11.44
225.511	-8.44
225.746	-1.44
225.98	7.56
226.215	21.56
226.449	22.56
226.683	21.56
226.918	25.56
227.152	32.56
227.387	22.56
227.621	45.56
227.856	44.56
228.09	48.56
228.324	52.56
228.559	58.56
228.793	59.56
229.027	57.56
229.262	66.56
229.496	84.56
229.73	78.56
229.964	96.56
230.199	80.56
230.433	62.56
230.667	66.56
230.901	78.56
231.136	86.56
231.37	89.56
231.604	81.56
231.838	83.56
232.072	74.56
232.306	90.56
232.541	84.56
232.775	82.56
233.009	80.56
233.243	84.56
233.477	102.56
233.711	76.56
233.945	84.56
234.179	80.56
234.413	76.56
234.647	82.56
234.881	83.56
235.115	84.56
235.349	90.56
235.583	88.56
235.817	73.56
236.051	88.56
236.285	76.56
236.519	69.56
236.753	80.56
236.987	77.56
237.221	85.56
237.455	81.56
237.689	95.56
237.922	77.56
238.156	81.56
238.39	79.56
238.624	84.56
238.858	75.56
239.091	84.56
239.325	84.56
239.559	95.56
239.793	76.56
240.027	79.56
240.26	77.56
240.494	81.56
240.728	79.56
240.961	66.56
241.195	75.56
241.429	81.56
241.662	74.56
241.896	78.56
242.13	87.56
242.363	84.56
242.597	65.56
242.83	85.56
243.064	76.56
243.298	67.56
243.531	79.56
243.765	78.56
243.998	87.56
244.232	86.56
244.465	85.56
244.699	85.56
244.932	61.56
245.166	72.56
245.399	80.56
245.633	78.56
245.866	70.56
246.099	66.56
246.333	72.56
246.566	70.56
246.8	85.56
247.033	80.56
247.266	92.56
247.5	77.56
247.733	68.56
247.966	69.56
248.2	83.56
248.433	85.56
248.666	86.56
248.899	77.56
249.133	93.56
249.366	95.56
249.599	93.56
249.832	81.56
250.066	94.56
250.299	90.56
250.532	87.56
250.765	101.56
250.998	84.56
251.231	99.56
251.465	81.56
251.698	84.56
251.931	81.56
252.164	86.56
252.397	91.56
252.63	73.56
252.863	73.56
253.096	79.56
253.329	95.56
253.562	78.56
253.795	71.56
254.028	82.56
254.261	78.56
254.494	70.56
254.727	93.56
254.96	96.56
255.193	89.56
255.426	84.56
255.659	93.56
255.892	65.56
256.124	76.56
256.357	81.56
256.59	91.56
256.823	84.56
257.056	77.56
257.289	85.56
257.521	91.56
257.754	68.56
257.987	75.56
258.22	88.56
258.452	82.56
258.685	89.56
258.918	98.56
259.151	93.56
259.383	81.56
259.616	70.56
259.849	79.56
260.081	80.56
260.314	83.56
260.547	81.56
260.779	97.56
261.012	100.56
261.244	101.56
261.477	98.56
261.71	98.56
261.942	109.56
262.175	112.56
262.407	78.56
262.64	96.56
262.872	91.56
263.105	90.56
263.337	92.56
263.57	91.56
263.802	81.56
264.035	91.56
264.267	68.56
264.499	81.56
264.732	82.56
264.964	82.56
265.197	82.56
265.429	102.56
265.661	84.56
265.894	79.56
266.126	83.56
266.358	84.56
266.591	93.56
266.823	97.56
267.055	84.56
267.287	90.56
267.52	95.56
267.752	89.56
267.984	89.56
268.216	67.56
268.448	76.56
268.681	87.56
268.913	89.56
269.145	85.56
269.377	87.56
269.609	82.56
269.841	95.56
270.073	75.56
270.306	94.56
270.538	91.56
270.77	86.56
271.002	88.56
271.234	93.56
271.466	101.56
271.698	98.56
271.93	86.56
272.162	83.56
272.394	88.56
272.626	76.56
272.858	77.56
273.09	82.56
273.322	91.56
273.553	90.56
273.785	82.56
274.017	83.56
274.249	97.56
274.481	75.56
274.713	74.56
274.945	99.56
275.176	101.56
275.408	98.56
275.64	82.56
275.872	87.56
276.104	87.56
276.335	96.56
276.567	110.56
276.799	105.56
277.031	112.56
277.262	98.56
277.494	89.56
277.726	96.56
277.957	93.56
278.189	81.56
278.421	69.56
278.652	93.56
278.884	88.56
279.115	91.56
279.347	96.56
279.579	86.56
279.81	90.56
280.042	85.56
280.273	102.56
280.505	88.56
280.736	98.56
280.968	71.56
281.199	93.56
281.431	94.56
281.662	95.56
281.894	90.56
282.125	84.56
282.356	110.56
282.588	127.56
282.819	110.56
283.051	77.56
283.282	95.56
283.513	97.56
283.745	95.56
283.976	70.56
284.207	81.56
284.439	82.56
284.67	91.56
284.901	92.56
285.132	86.56
285.364	92.56
285.595	81.56
285.826	89.56
286.057	87.56
286.288	93.56
286.52	101.56
286.751	92.56
286.982	83.56
287.213	94.56
287.444	94.56
287.675	90.56
287.906	100.56
288.138	100.56
288.369	89.56
288.6	91.56
288.831	83.56
289.062	99.56
289.293	97.56
289.524	95.56
289.755	102.56
289.986	91.56
290.217	89.56
290.448	82.56
290.679	106.56
290.91	94.56
291.141	76.56
291.371	90.56
291.602	90.56
291.833	89.56
292.064	74.56
292.295	84.56
292.526	86.56
292.757	66.56
292.987	78.56
293.218	90.56
293.449	95.56
293.68	87.56
293.91	87.56
294.141	94.56
294.372	89.56
294.603	92.56
294.833	85.56
295.064	87.56
295.295	89.56
295.525	90.56
295.756	101.56
295.987	111.56
296.217	141.56
296.448	122.56
296.679	100.56
296.909	105.56
297.14	101.56
297.37	91.56
297.601	95.56
297.831	97.56
298.062	79.56
298.292	96.56
298.523	86.56
298.753	102.56
298.984	84.56
299.214	90.56
299.445	97.56
299.675	75.56
299.905	112.56
300.136	101.56
300.366	92.56
300.597	102.56
300.827	94.56
301.057	92.56
301.288	102.56
301.518	82.56
301.748	90.56
301.979	102.56
302.209	89.56
302.439	98.56
302.669	96.56
302.9	82.56
303.13	87.56
303.36	89.56
303.59	90.56
303.82	104.56
304.051	100.56
304.281	102.56
304.511	99.56
304.741	85.56
304.971	71.56
305.201	86.56
305.431	111.56
305.661	91.56
305.891	78.56
306.121	91.56
306.352	101.56
306.582	108.56
306.812	90.56
307.042	93.56
307.272	95.56
307.502	101.56
307.731	99.56
307.961	94.56
308.191	89.56
308.421	93.56
308.651	101.56
308.881	101.56
309.111	89.56
309.341	92.56
309.571	83.56
309.8	96.56
310.03	94.56
310.26	91.56
310.49	90.56
310.72	95.56
310.949	108.56
311.179	103.56
311.409	99.56
311.639	97.56
311.868	100.56
312.098	93.56
312.328	100.56
312.557	99.56
312.787	101.56
313.017	94.56
313.246	92.56
313.476	87.56
313.706	96.56
313.935	90.56
314.165	101.56
314.394	84.56
314.624	110.56
314.853	93.56
315.083	111.56
315.312	94.56
315.542	84.56
315.771	86.56
316.001	94.56
316.23	102.56
316.46	95.56
316.689	86.56
316.919	89.56
317.148	93.56
317.377	84.56
317.607	95.56
317.836	95.56
318.065	98.56
318.295	86.56
318.524	81.56
318.753	94.56
318.983	91.56
319.212	98.56
319.441	94.56
319.67	110.56
319.9	88.56
320.129	97.56
320.358	83.56
320.587	106.56
320.816	101.56
321.046	97.56
321.275	106.56
321.504	97.56
321.733	99.56
321.962	99.56
322.191	93.56
322.42	91.56
322.649	123.56
322.878	120.56
323.108	113.56
323.337	116.56
323.566	134.56
323.795	141.56
324.024	209.56
324.253	368.56
324.482	756.56
324.71	1539.56
324.939	1997.56
325.168	739.56
325.397	230.56
325.626	137.56
325.855	119.56
326.084	132.56
326.313	138.56
326.542	153.56
326.77	218.56
326.999	417.56
327.228	873.56
327.457	1552.56
327.686	1231.56
327.914	361.56
328.143	209.56
328.372	171.56
328.6	134.56
328.829	115.56
329.058	137.56
329.287	136.56
329.515	123.56
329.744	110.56
329.972	140.56
330.201	164.56
330.43	218.56
330.658	154.56
330.887	137.56
331.115	132.56
331.344	116.56
331.572	100.56
331.801	92.56
332.03	101.56
332.258	94.56
332.486	96.56
332.715	98.56
332.943	104.56
333.172	95.56
333.4	98.56
333.629	106.56
333.857	129.56
334.085	138.56
334.314	168.56
334.542	260.56
334.771	251.56
334.999	116.56
335.227	103.56
335.455	95.56
335.684	110.56
335.912	89.56
336.14	102.56
336.369	96.56
336.597	100.56
336.825	100.56
337.053	91.56
337.281	98.56
337.51	106.56
337.738	107.56
337.966	91.56
338.194	111.56
338.422	93.56
338.65	81.56
338.878	90.56
339.106	93.56
339.334	96.56
339.562	110.56
339.79	101.56
340.018	87.56
340.246	91.56
340.474	93.56
340.702	97.56
340.93	97.56
341.158	91.56
341.386	96.56
341.614	101.56
341.842	85.56
342.07	105.56
342.298	95.56
342.526	103.56
342.754	108.56
342.981	91.56
343.209	80.56
343.437	95.56
343.665	94.56
343.893	94.56
344.12	92.56
344.348	97.56
344.576	100.56
344.804	98.56
345.031	104.56
345.259	108.56
345.487	102.56
345.714	97.56
345.942	109.56
346.17	101.56
346.397	89.56
346.625	86.56
346.853	107.56
347.08	93.56
347.308	92.56
347.535	81.56
347.763	92.56
347.99	110.56
348.218	99.56
348.445	104.56
348.673	106.56
348.9	87.56
349.128	95.56
349.355	89.56
349.583	93.56
349.81	101.56
350.037	84.56
350.265	98.56
350.492	89.56
350.72	102.56
350.947	96.56
351.174	111.56
351.402	112.56
351.629	102.56
351.856	118.56
352.083	100.56
352.311	101.56
352.538	102.56
352.765	102.56
352.992	113.56
353.22	112.56
353.447	106.56
353.674	107.56
353.901	109.56
354.128	107.56
354.355	94.56
354.583	105.56
354.81	79.56
355.037	94.56
355.264	86.56
355.491	96.56
355.718	109.56
355.945	89.56
356.172	81.56
356.399	92.56
356.626	91.56
356.853	114.56
357.08	103.56
357.307	100.56
357.534	99.56
357.761	101.56
357.988	91.56
358.215	100.56
358.441	97.56
358.668	88.56
358.895	99.56
359.122	101.56
359.349	96.56
359.576	98.56
359.802	101.56
360.029	97.56
360.256	112.56
360.483	100.56
360.709	92.56
360.936	107.56
361.163	95.56
361.39	101.56
361.616	99.56
361.843	106.56
362.07	103.56
362.296	101.56
362.523	100.56
362.749	77.56
362.976	89.56
363.203	92.56
363.429	105.56
363.656	105.56
363.882	106.56
364.109	89.56
364.335	99.56
364.562	82.56
364.788	86.56
365.015	92.56
365.241	96.56
365.468	123.56
365.694	107.56
365.92	93.56
366.147	80.56
366.373	75.56
366.599	80.56
366.826	84.56
367.052	87.56
367.278	86.56
367.505	99.56
367.731	92.56
367.957	79.56
368.184	96.56
368.41	89.56
368.636	118.56
368.862	118.56
369.089	102.56
369.315	107.56
369.541	103.56
369.767	95.56
369.993	92.56
370.219	90.56
370.445	85.56
370.672	85.56
370.898	98.56
371.124	102.56
371.35	85.56
371.576	78.56
371.802	93.56
372.028	89.56
372.254	80.56
372.48	82.56
372.706	81.56
372.932	94.56
373.158	97.56
373.384	85.56
373.61	111.56
373.835	91.56
374.061	92.56
374.287	105.56
374.513	79.56
374.739	74.56
374.965	93.56
375.191	93.56
375.416	95.56
375.642	84.56
375.868	91.56
376.094	89.56
376.319	81.56
376.545	89.56
376.771	85.56
376.997	93.56
377.222	102.56
377.448	83.56
377.674	94.56
377.899	87.56
378.125	91.56
378.35	93.56
378.576	99.56
378.802	81.56
379.027	84.56
379.253	99.56
379.478	106.56
379.704	97.56
379.929	89.56
380.155	82.56
380.38	98.56
380.606	93.56
380.831	78.56
381.057	89.56
381.282	100.56
381.507	91.56
381.733	72.56
381.958	81.56
382.184	94.56
382.409	94.56
382.634	102.56
382.86	94.56
383.085	103.56
383.31	99.56
383.535	89.56
383.761	102.56
383.986	90.56
384.211	85.56
384.436	84.56
384.662	106.56
384.887	99.56
385.112	101.56
385.337	96.56
385.562	90.56
385.787	112.56
386.013	106.56
386.238	93.56
386.463	92.56
386.688	118.56
386.913	113.56
387.138	93.56
387.363	107.56
387.588	105.56
387.813	96.56
388.038	103.56
388.263	103.56
388.488	107.56
388.713	85.56
388.938	103.56
389.163	81.56
389.387	90.56
389.612	87.56
389.837	89.56
390.062	85.56
390.287	89.56
390.512	88.56
390.736	94.56
390.961	86.56
391.186	90.56
391.411	90.56
391.636	98.56
391.86	82.56
392.085	89.56
392.31	84.56
392.534	83.56
392.759	91.56
392.984	88.56
393.208	84.56
393.433	93.56
393.658	87.56
393.882	82.56
394.107	77.56
394.331	85.56
394.556	101.56
394.78	90.56
395.005	87.56
395.229	81.56
395.454	99.56
395.678	87.56
395.903	99.56
396.127	93.56
396.352	88.56
396.576	79.56
396.801	87.56
397.025	95.56
397.249	89.56
397.474	87.56
397.698	77.56
397.922	87.56
398.147	93.56
398.371	82.56
398.595	85.56
398.82	79.56
399.044	87.56
399.268	92.56
399.492	88.56
399.717	90.56
399.941	74.56
400.165	93.56
400.389	93.56
400.613	95.56
400.837	76.56
401.062	71.56
401.286	91.56
401.51	73.56
401.734	92.56
401.958	99.56
402.182	116.56
402.406	159.56
402.63	115.56
402.854	87.56
403.078	78.56
403.302	83.56
403.526	74.56
403.75	86.56
403.974	83.56
404.198	97.56
404.422	94.56
404.645	110.56
404.869	77.56
405.093	108.56
405.317	97.56
405.541	95.56
405.765	101.56
405.988	118.56
406.212	162.56
406.436	214.56
406.66	136.56
406.883	103.56
407.107	85.56
407.331	93.56
407.555	96.56
407.778	99.56
408.002	97.56
408.226	94.56
408.449	103.56
408.673	90.56
408.896	95.56
409.12	103.56
409.344	95.56
409.567	94.56
409.791	97.56
410.014	86.56
410.238	93.56
410.461	92.56
410.685	101.56
410.908	109.56
411.132	104.56
411.355	107.56
411.578	89.56
411.802	91.56
412.025	85.56
412.249	93.56
412.472	88.56
412.695	97.56
412.919	100.56
413.142	94.56
413.365	99.56
413.589	101.56
413.812	81.56
414.035	84.56
414.258	94.56
414.482	100.56
414.705	100.56
414.928	87.56
415.151	85.56
415.374	87.56
415.597	68.56
415.821	94.56
416.044	93.56
416.267	92.56
416.49	90.56
416.713	90.56
416.936	81.56
417.159	78.56
417.382	89.56
417.605	95.56
417.828	94.56
418.051	95.56
418.274	84.56
418.497	89.56
418.72	77.56
418.943	85.56
419.166	97.56
419.389	88.56
419.611	82.56
419.834	96.56
420.057	83.56
420.28	73.56
420.503	83.56
420.726	93.56
420.948	73.56
421.171	108.56
421.394	82.56
421.617	88.56
421.839	85.56
422.062	89.56
422.285	98.56
422.507	98.56
422.73	91.56
422.953	85.56
423.175	83.56
423.398	79.56
423.621	80.56
423.843	85.56
424.066	88.56
424.288	91.56
424.511	77.56
424.733	96.56
424.956	89.56
425.178	100.56
425.401	107.56
425.623	90.56
425.846	94.56
426.068	92.56
426.291	81.56
426.513	85.56
426.735	96.56
426.958	95.56
427.18	98.56
427.402	128.56
427.625	154.56
427.847	135.56
428.069	116.56
428.292	102.56
428.514	85.56
428.736	100.56
428.958	84.56
429.181	89.56
429.403	83.56
429.625	79.56
429.847	101.56
430.069	105.56
430.292	94.56
430.514	93.56
430.736	73.56
430.958	85.56
431.18	81.56
431.402	83.56
431.624	97.56
431.846	86.56
432.068	105.56
432.29	89.56
432.512	76.56
432.734	71.56
432.956	85.56
433.178	104.56
433.4	94.56
433.622	75.56
433.844	86.56
434.066	86.56
434.287	99.56
434.509	93.56
434.731	77.56
434.953	84.56
435.175	98.56
435.397	94.56
435.618	102.56
435.84	108.56
436.062	117.56
436.284	102.56
436.505	100.56
436.727	104.56
436.949	95.56
437.17	94.56
437.392	87.56
437.614	93.56
437.835	104.56
438.057	111.56
438.278	122.56
438.5	108.56
438.721	120.56
438.943	95.56
439.165	94.56
439.386	97.56
439.608	81.56
439.829	96.56
440.05	117.56
440.272	137.56
440.493	89.56
440.715	88.56
440.936	87.56
441.158	92.56
441.379	97.56
441.6	101.56
441.822	83.56
442.043	98.56
442.264	98.56
442.486	89.56
442.707	100.56
442.928	102.56
443.149	122.56
443.371	148.56
443.592	116.56
443.813	116.56
444.034	106.56
444.255	95.56
444.476	81.56
444.698	91.56
444.919	104.56
445.14	125.56
445.361	130.56
445.582	129.56
445.803	130.56
446.024	145.56
446.245	128.56
446.466	101.56
446.687	98.56
446.908	107.56
447.129	79.56
447.35	85.56
447.571	92.56
447.792	77.56
448.013	91.56
448.234	124.56
448.455	103.56
448.675	117.56
448.896	107.56
449.117	100.56
449.338	97.56
449.559	110.56
449.779	108.56
450	97.56
450.221	93.56
450.442	98.56
450.662	84.56
450.883	99.56
451.104	111.56
451.324	103.56
451.545	94.56
451.766	70.56
451.986	87.56
452.207	91.56
452.428	90.56
452.648	104.56
452.869	100.56
453.089	102.56
453.31	116.56
453.53	93.56
453.751	86.56
453.971	108.56
454.192	111.56
454.412	100.56
454.633	90.56
454.853	84.56
455.073	86.56
455.294	103.56
455.514	97.56
455.734	93.56
455.955	92.56
456.175	87.56
456.395	80.56
456.616	81.56
456.836	94.56
457.056	81.56
457.276	101.56
457.497	94.56
457.717	80.56
457.937	70.56
458.157	85.56
458.377	88.56
458.598	102.56
458.818	140.56
459.038	147.56
459.258	107.56
459.478	82.56
459.698	84.56
459.918	89.56
460.138	75.56
460.358	70.56
460.578	81.56
460.798	88.56
461.018	89.56
461.238	85.56
461.458	92.56
461.678	84.56
461.898	88.56
462.118	71.56
462.338	88.56
462.558	86.56
462.777	84.56
462.997	92.56
463.217	85.56
463.437	87.56
463.657	91.56
463.876	98.56
464.096	92.56
464.316	99.56
464.536	83.56
464.755	104.56
464.975	103.56
465.195	170.56
465.414	150.56
465.634	103.56
465.854	96.56
466.073	85.56
466.293	80.56
466.512	81.56
466.732	83.56
466.951	89.56
467.171	104.56
467.391	84.56
467.61	96.56
467.829	88.56
468.049	130.56
468.268	165.56
468.488	96.56
468.707	87.56
468.927	86.56
469.146	86.56
469.365	95.56
469.585	83.56
469.804	100.56
470.023	87.56
470.243	100.56
470.462	98.56
470.681	111.56
470.901	92.56
471.12	92.56
471.339	93.56
471.558	96.56
471.777	92.56
471.997	97.56
472.216	190.56
472.435	303.56
472.654	122.56
472.873	101.56
473.092	86.56
473.311	102.56
473.53	94.56
473.749	89.56
473.968	94.56
474.187	97.56
474.406	101.56
474.625	90.56
474.844	90.56
475.063	85.56
475.282	96.56
475.501	98.56
475.72	81.56
475.939	90.56
476.158	85.56
476.377	91.56
476.596	89.56
476.814	102.56
477.033	93.56
477.252	103.56
477.471	81.56
477.69	73.56
477.908	76.56
478.127	82.56
478.346	91.56
478.564	86.56
478.783	99.56
479.002	89.56
479.22	93.56
479.439	91.56
479.658	111.56
479.876	95.56
480.095	103.56
480.313	89.56
480.532	112.56
480.751	107.56
480.969	194.56
481.188	515.56
481.406	319.56
481.624	123.56
481.843	94.56
482.061	87.56
482.28	93.56
482.498	80.56
482.717	85.56
482.935	86.56
483.153	92.56
483.372	89.56
483.59	94.56
483.808	96.56
484.027	94.56
484.245	108.56
484.463	94.56
484.681	104.56
484.9	99.56
485.118	103.56
485.336	107.56
485.554	97.56
485.772	90.56
485.99	89.56
486.209	109.56
486.427	95.56
486.645	112.56
486.863	103.56
487.081	99.56
487.299	96.56
487.517	102.56
487.735	95.56
487.953	102.56
488.171	90.56
488.389	95.56
488.607	95.56
488.825	101.56
489.043	85.56
489.261	90.56
489.479	76.56
489.696	97.56
489.914	86.56
490.132	87.56
490.35	90.56
490.568	103.56
490.786	86.56
491.003	98.56
491.221	85.56
491.439	89.56
491.657	84.56
491.874	89.56
492.092	98.56
492.31	96.56
492.527	76.56
492.745	86.56
492.963	99.56
493.18	102.56
493.398	89.56
493.615	105.56
493.833	97.56
494.05	94.56
494.268	94.56
494.485	87.56
494.703	103.56
494.92	83.56
495.138	96.56
495.355	108.56
495.573	100.56
495.79	99.56
496.008	100.56
496.225	81.56
496.442	94.56
496.66	90.56
496.877	85.56
497.094	90.56
497.312	81.56
497.529	94.56
497.746	101.56
497.963	83.56
498.181	92.56
498.398	85.56
498.615	99.56
498.832	108.56
499.049	95.56
499.267	91.56
499.484	99.56
499.701	106.56
499.918	100.56
500.135	90.56
500.352	93.56
500.569	92.56
500.786	74.56
501.003	93.56
501.22	104.56
501.437	86.56
501.654	99.56
501.871	100.56
502.088	69.56
502.305	95.56
502.522	82.56
502.739	95.56
502.956	79.56
503.172	89.56
503.389	99.56
503.606	105.56
503.823	91.56
504.04	92.56
504.256	91.56
504.473	82.56
504.69	81.56
504.907	98.56
505.123	93.56
505.34	87.56
505.557	94.56
505.773	79.56
505.99	91.56
506.207	95.56
506.423	82.56
506.64	89.56
506.856	91.56
507.073	91.56
507.289	94.56
507.506	99.56
507.722	119.56
507.939	92.56
508.155	99.56
508.372	83.56
508.588	97.56
508.805	101.56
509.021	103.56
509.238	107.56
509.454	99.56
509.67	115.56
509.887	113.56
510.103	134.56
510.319	212.56
510.536	759.56
510.752	2426.56
510.968	655.56
511.184	165.56
511.401	114.56
511.617	114.56
511.833	69.56
512.049	85.56
512.265	90.56
512.481	85.56
512.698	109.56
512.914	89.56
513.13	94.56
513.346	109.56
513.562	100.56
513.778	92.56
513.994	95.56
514.21	108.56
514.426	109.56
514.642	126.56
514.858	133.56
515.074	170.56
