Data from Circ_1994_H10_HRD10591_00026.txt Node
Date: Wed Jan 03 11:40:35 EST 2024
User: Yrep
Spectrometer: HR+D1059
Trigger mode: 1
Integration Time (sec): 1.000000E-1
Scans to average: 1
Electric dark correction enabled: true
Nonlinearity correction enabled: false
Boxcar width: 0
XAxis mode: Wavelengths
Number of Pixels in Spectrum: 2048
>>>>>Begin Spectral Data<<<<<
223.165	-19.75
223.4	-19.75
223.635	-19.75
223.869	-28.75
224.104	-23.75
224.338	-9.75
224.573	-13.75
224.808	-6.75
225.042	-11.75
225.277	-1.75
225.511	-1.75
225.746	0.25
225.98	5.25
226.215	2.25
226.449	26.25
226.683	23.25
226.918	31.25
227.152	29.25
227.387	39.25
227.621	39.25
227.856	34.25
228.09	52.25
228.324	57.25
228.559	62.25
228.793	72.25
229.027	60.25
229.262	68.25
229.496	79.25
229.73	69.25
229.964	72.25
230.199	74.25
230.433	75.25
230.667	85.25
230.901	92.25
231.136	81.25
231.37	85.25
231.604	80.25
231.838	76.25
232.072	78.25
232.306	73.25
232.541	72.25
232.775	80.25
233.009	80.25
233.243	82.25
233.477	62.25
233.711	70.25
233.945	59.25
234.179	80.25
234.413	83.25
234.647	83.25
234.881	79.25
235.115	79.25
235.349	89.25
235.583	67.25
235.817	65.25
236.051	79.25
236.285	64.25
236.519	74.25
236.753	82.25
236.987	89.25
237.221	84.25
237.455	94.25
237.689	63.25
237.922	80.25
238.156	78.25
238.39	80.25
238.624	78.25
238.858	79.25
239.091	65.25
239.325	82.25
239.559	72.25
239.793	78.25
240.027	91.25
240.26	93.25
240.494	71.25
240.728	74.25
240.961	79.25
241.195	85.25
241.429	77.25
241.662	83.25
241.896	78.25
242.13	64.25
242.363	75.25
242.597	66.25
242.83	76.25
243.064	77.25
243.298	82.25
243.531	69.25
243.765	78.25
243.998	81.25
244.232	96.25
244.465	89.25
244.699	75.25
244.932	84.25
245.166	85.25
245.399	85.25
245.633	82.25
245.866	76.25
246.099	81.25
246.333	86.25
246.566	88.25
246.8	69.25
247.033	92.25
247.266	70.25
247.5	87.25
247.733	82.25
247.966	66.25
248.2	70.25
248.433	80.25
248.666	82.25
248.899	84.25
249.133	84.25
249.366	96.25
249.599	106.25
249.832	69.25
250.066	80.25
250.299	80.25
250.532	69.25
250.765	82.25
250.998	80.25
251.231	81.25
251.465	82.25
251.698	86.25
251.931	78.25
252.164	80.25
252.397	79.25
252.63	67.25
252.863	79.25
253.096	78.25
253.329	83.25
253.562	72.25
253.795	77.25
254.028	85.25
254.261	88.25
254.494	94.25
254.727	89.25
254.96	81.25
255.193	84.25
255.426	70.25
255.659	86.25
255.892	79.25
256.124	74.25
256.357	90.25
256.59	82.25
256.823	86.25
257.056	82.25
257.289	83.25
257.521	81.25
257.754	67.25
257.987	82.25
258.22	90.25
258.452	84.25
258.685	84.25
258.918	81.25
259.151	86.25
259.383	92.25
259.616	82.25
259.849	92.25
260.081	80.25
260.314	82.25
260.547	86.25
260.779	81.25
261.012	66.25
261.244	90.25
261.477	101.25
261.71	94.25
261.942	107.25
262.175	110.25
262.407	81.25
262.64	81.25
262.872	87.25
263.105	69.25
263.337	82.25
263.57	85.25
263.802	77.25
264.035	85.25
264.267	74.25
264.499	87.25
264.732	77.25
264.964	86.25
265.197	81.25
265.429	86.25
265.661	78.25
265.894	88.25
266.126	94.25
266.358	91.25
266.591	80.25
266.823	93.25
267.055	84.25
267.287	74.25
267.52	75.25
267.752	89.25
267.984	81.25
268.216	85.25
268.448	75.25
268.681	87.25
268.913	67.25
269.145	70.25
269.377	91.25
269.609	76.25
269.841	67.25
270.073	87.25
270.306	86.25
270.538	90.25
270.77	74.25
271.002	68.25
271.234	72.25
271.466	93.25
271.698	92.25
271.93	90.25
272.162	71.25
272.394	82.25
272.626	84.25
272.858	74.25
273.09	97.25
273.322	85.25
273.553	81.25
273.785	76.25
274.017	100.25
274.249	90.25
274.481	77.25
274.713	88.25
274.945	83.25
275.176	80.25
275.408	84.25
275.64	82.25
275.872	76.25
276.104	72.25
276.335	82.25
276.567	97.25
276.799	108.25
277.031	106.25
277.262	75.25
277.494	92.25
277.726	89.25
277.957	78.25
278.189	82.25
278.421	81.25
278.652	92.25
278.884	86.25
279.115	75.25
279.347	71.25
279.579	104.25
279.81	82.25
280.042	97.25
280.273	100.25
280.505	86.25
280.736	73.25
280.968	92.25
281.199	78.25
281.431	79.25
281.662	80.25
281.894	92.25
282.125	93.25
282.356	107.25
282.588	129.25
282.819	116.25
283.051	90.25
283.282	76.25
283.513	80.25
283.745	83.25
283.976	87.25
284.207	66.25
284.439	99.25
284.67	100.25
284.901	80.25
285.132	76.25
285.364	74.25
285.595	88.25
285.826	87.25
286.057	92.25
286.288	99.25
286.52	81.25
286.751	92.25
286.982	93.25
287.213	77.25
287.444	89.25
287.675	78.25
287.906	93.25
288.138	96.25
288.369	88.25
288.6	90.25
288.831	93.25
289.062	81.25
289.293	87.25
289.524	78.25
289.755	94.25
289.986	84.25
290.217	89.25
290.448	95.25
290.679	89.25
290.91	95.25
291.141	86.25
291.371	88.25
291.602	88.25
291.833	85.25
292.064	96.25
292.295	80.25
292.526	84.25
292.757	91.25
292.987	90.25
293.218	85.25
293.449	85.25
293.68	76.25
293.91	81.25
294.141	84.25
294.372	82.25
294.603	85.25
294.833	79.25
295.064	77.25
295.295	79.25
295.525	100.25
295.756	102.25
295.987	96.25
296.217	120.25
296.448	114.25
296.679	84.25
296.909	90.25
297.14	89.25
297.37	76.25
297.601	75.25
297.831	82.25
298.062	90.25
298.292	83.25
298.523	101.25
298.753	79.25
298.984	82.25
299.214	92.25
299.445	87.25
299.675	88.25
299.905	78.25
300.136	102.25
300.366	92.25
300.597	94.25
300.827	111.25
301.057	88.25
301.288	96.25
301.518	83.25
301.748	85.25
301.979	98.25
302.209	68.25
302.439	74.25
302.669	92.25
302.9	96.25
303.13	102.25
303.36	89.25
303.59	104.25
303.82	99.25
304.051	93.25
304.281	106.25
304.511	89.25
304.741	84.25
304.971	92.25
305.201	91.25
305.431	99.25
305.661	98.25
305.891	77.25
306.121	99.25
306.352	101.25
306.582	95.25
306.812	94.25
307.042	94.25
307.272	94.25
307.502	92.25
307.731	97.25
307.961	92.25
308.191	89.25
308.421	103.25
308.651	91.25
308.881	76.25
309.111	96.25
309.341	94.25
309.571	102.25
309.8	102.25
310.03	84.25
310.26	103.25
310.49	104.25
310.72	102.25
310.949	95.25
311.179	113.25
311.409	87.25
311.639	89.25
311.868	100.25
312.098	99.25
312.328	78.25
312.557	97.25
312.787	101.25
313.017	96.25
313.246	100.25
313.476	80.25
313.706	90.25
313.935	95.25
314.165	99.25
314.394	98.25
314.624	90.25
314.853	111.25
315.083	106.25
315.312	80.25
315.542	91.25
315.771	90.25
316.001	93.25
316.23	80.25
316.46	96.25
316.689	71.25
316.919	87.25
317.148	85.25
317.377	81.25
317.607	89.25
317.836	91.25
318.065	85.25
318.295	84.25
318.524	93.25
318.753	99.25
318.983	86.25
319.212	90.25
319.441	92.25
319.67	84.25
319.9	100.25
320.129	86.25
320.358	85.25
320.587	92.25
320.816	109.25
321.046	96.25
321.275	84.25
321.504	80.25
321.733	89.25
321.962	91.25
322.191	106.25
322.42	94.25
322.649	106.25
322.878	108.25
323.108	116.25
323.337	98.25
323.566	118.25
323.795	138.25
324.024	186.25
324.253	311.25
324.482	652.25
324.71	1311.25
324.939	1711.25
325.168	636.25
325.397	215.25
325.626	142.25
325.855	114.25
326.084	120.25
326.313	125.25
326.542	144.25
326.77	193.25
326.999	378.25
327.228	740.25
327.457	1308.25
327.686	1034.25
327.914	314.25
328.143	172.25
328.372	164.25
328.6	116.25
328.829	112.25
329.058	105.25
329.287	133.25
329.515	104.25
329.744	107.25
329.972	118.25
330.201	116.25
330.43	123.25
330.658	136.25
330.887	142.25
331.115	108.25
331.344	102.25
331.572	95.25
331.801	101.25
332.03	92.25
332.258	101.25
332.486	82.25
332.715	98.25
332.943	86.25
333.172	87.25
333.4	82.25
333.629	89.25
333.857	120.25
334.085	113.25
334.314	122.25
334.542	126.25
334.771	123.25
334.999	114.25
335.227	95.25
335.455	88.25
335.684	89.25
335.912	88.25
336.14	107.25
336.369	104.25
336.597	83.25
336.825	91.25
337.053	97.25
337.281	89.25
337.51	78.25
337.738	113.25
337.966	95.25
338.194	96.25
338.422	86.25
338.65	91.25
338.878	106.25
339.106	94.25
339.334	103.25
339.562	76.25
339.79	89.25
340.018	79.25
340.246	86.25
340.474	89.25
340.702	94.25
340.93	100.25
341.158	88.25
341.386	83.25
341.614	102.25
341.842	86.25
342.07	89.25
342.298	86.25
342.526	80.25
342.754	83.25
342.981	88.25
343.209	102.25
343.437	100.25
343.665	81.25
343.893	78.25
344.12	97.25
344.348	84.25
344.576	89.25
344.804	106.25
345.031	96.25
345.259	91.25
345.487	93.25
345.714	88.25
345.942	89.25
346.17	97.25
346.397	98.25
346.625	93.25
346.853	83.25
347.08	88.25
347.308	99.25
347.535	90.25
347.763	95.25
347.99	107.25
348.218	101.25
348.445	94.25
348.673	100.25
348.9	104.25
349.128	94.25
349.355	89.25
349.583	91.25
349.81	89.25
350.037	83.25
350.265	99.25
350.492	96.25
350.72	86.25
350.947	117.25
351.174	110.25
351.402	101.25
351.629	109.25
351.856	105.25
352.083	100.25
352.311	92.25
352.538	113.25
352.765	114.25
352.992	106.25
353.22	99.25
353.447	102.25
353.674	99.25
353.901	104.25
354.128	100.25
354.355	104.25
354.583	90.25
354.81	101.25
355.037	104.25
355.264	104.25
355.491	92.25
355.718	76.25
355.945	92.25
356.172	96.25
356.399	98.25
356.626	98.25
356.853	83.25
357.08	93.25
357.307	93.25
357.534	80.25
357.761	96.25
357.988	93.25
358.215	102.25
358.441	94.25
358.668	82.25
358.895	97.25
359.122	80.25
359.349	88.25
359.576	89.25
359.802	97.25
360.029	100.25
360.256	109.25
360.483	89.25
360.709	92.25
360.936	81.25
361.163	98.25
361.39	100.25
361.616	90.25
361.843	90.25
362.07	95.25
362.296	99.25
362.523	101.25
362.749	95.25
362.976	90.25
363.203	91.25
363.429	89.25
363.656	82.25
363.882	109.25
364.109	83.25
364.335	94.25
364.562	107.25
364.788	95.25
365.015	68.25
365.241	89.25
365.468	104.25
365.694	77.25
365.92	88.25
366.147	96.25
366.373	80.25
366.599	93.25
366.826	103.25
367.052	76.25
367.278	107.25
367.505	98.25
367.731	90.25
367.957	88.25
368.184	85.25
368.41	91.25
368.636	97.25
368.862	105.25
369.089	94.25
369.315	94.25
369.541	83.25
369.767	87.25
369.993	88.25
370.219	101.25
370.445	93.25
370.672	85.25
370.898	86.25
371.124	88.25
371.35	94.25
371.576	85.25
371.802	92.25
372.028	86.25
372.254	99.25
372.48	97.25
372.706	76.25
372.932	86.25
373.158	89.25
373.384	110.25
373.61	101.25
373.835	85.25
374.061	99.25
374.287	81.25
374.513	92.25
374.739	78.25
374.965	96.25
375.191	91.25
375.416	72.25
375.642	80.25
375.868	88.25
376.094	83.25
376.319	86.25
376.545	89.25
376.771	95.25
376.997	84.25
377.222	81.25
377.448	89.25
377.674	99.25
377.899	91.25
378.125	80.25
378.35	85.25
378.576	96.25
378.802	101.25
379.027	89.25
379.253	98.25
379.478	85.25
379.704	79.25
379.929	92.25
380.155	87.25
380.38	93.25
380.606	107.25
380.831	102.25
381.057	88.25
381.282	91.25
381.507	85.25
381.733	114.25
381.958	99.25
382.184	96.25
382.409	92.25
382.634	114.25
382.86	100.25
383.085	105.25
383.31	90.25
383.535	91.25
383.761	105.25
383.986	83.25
384.211	104.25
384.436	100.25
384.662	109.25
384.887	109.25
385.112	111.25
385.337	117.25
385.562	104.25
385.787	106.25
386.013	106.25
386.238	107.25
386.463	105.25
386.688	94.25
386.913	112.25
387.138	86.25
387.363	108.25
387.588	103.25
387.813	108.25
388.038	112.25
388.263	105.25
388.488	124.25
388.713	97.25
388.938	106.25
389.163	96.25
389.387	96.25
389.612	92.25
389.837	91.25
390.062	83.25
390.287	106.25
390.512	94.25
390.736	89.25
390.961	92.25
391.186	88.25
391.411	90.25
391.636	99.25
391.86	82.25
392.085	83.25
392.31	85.25
392.534	89.25
392.759	80.25
392.984	85.25
393.208	80.25
393.433	88.25
393.658	101.25
393.882	80.25
394.107	85.25
394.331	96.25
394.556	94.25
394.78	95.25
395.005	89.25
395.229	87.25
395.454	98.25
395.678	83.25
395.903	86.25
396.127	93.25
396.352	86.25
396.576	94.25
396.801	96.25
397.025	99.25
397.249	83.25
397.474	83.25
397.698	92.25
397.922	85.25
398.147	80.25
398.371	100.25
398.595	92.25
398.82	94.25
399.044	90.25
399.268	97.25
399.492	89.25
399.717	84.25
399.941	88.25
400.165	92.25
400.389	95.25
400.613	84.25
400.837	96.25
401.062	89.25
401.286	75.25
401.51	105.25
401.734	79.25
401.958	110.25
402.182	109.25
402.406	142.25
402.63	109.25
402.854	97.25
403.078	95.25
403.302	87.25
403.526	87.25
403.75	79.25
403.974	94.25
404.198	75.25
404.422	94.25
404.645	69.25
404.869	97.25
405.093	76.25
405.317	104.25
405.541	92.25
405.765	94.25
405.988	102.25
406.212	158.25
406.436	183.25
406.66	125.25
406.883	96.25
407.107	99.25
407.331	87.25
407.555	110.25
407.778	79.25
408.002	91.25
408.226	93.25
408.449	100.25
408.673	92.25
408.896	86.25
409.12	89.25
409.344	90.25
409.567	94.25
409.791	93.25
410.014	104.25
410.238	97.25
410.461	82.25
410.685	90.25
410.908	87.25
411.132	97.25
411.355	93.25
411.578	92.25
411.802	92.25
412.025	78.25
412.249	82.25
412.472	87.25
412.695	97.25
412.919	91.25
413.142	82.25
413.365	79.25
413.589	88.25
413.812	80.25
414.035	87.25
414.258	88.25
414.482	89.25
414.705	83.25
414.928	95.25
415.151	96.25
415.374	106.25
415.597	87.25
415.821	86.25
416.044	97.25
416.267	87.25
416.49	94.25
416.713	93.25
416.936	86.25
417.159	92.25
417.382	97.25
417.605	88.25
417.828	102.25
418.051	80.25
418.274	91.25
418.497	99.25
418.72	92.25
418.943	89.25
419.166	82.25
419.389	105.25
419.611	97.25
419.834	88.25
420.057	85.25
420.28	90.25
420.503	77.25
420.726	94.25
420.948	97.25
421.171	108.25
421.394	108.25
421.617	89.25
421.839	91.25
422.062	89.25
422.285	96.25
422.507	87.25
422.73	107.25
422.953	98.25
423.175	84.25
423.398	79.25
423.621	97.25
423.843	85.25
424.066	75.25
424.288	91.25
424.511	86.25
424.733	100.25
424.956	90.25
425.178	92.25
425.401	95.25
425.623	93.25
425.846	83.25
426.068	104.25
426.291	94.25
426.513	96.25
426.735	76.25
426.958	84.25
427.18	96.25
427.402	121.25
427.625	146.25
427.847	117.25
428.069	93.25
428.292	86.25
428.514	85.25
428.736	87.25
428.958	84.25
429.181	86.25
429.403	90.25
429.625	85.25
429.847	91.25
430.069	98.25
430.292	95.25
430.514	81.25
430.736	98.25
430.958	88.25
431.18	73.25
431.402	80.25
431.624	89.25
431.846	78.25
432.068	80.25
432.29	95.25
432.512	96.25
432.734	107.25
432.956	91.25
433.178	89.25
433.4	91.25
433.622	110.25
433.844	97.25
434.066	91.25
434.287	103.25
434.509	95.25
434.731	91.25
434.953	88.25
435.175	97.25
435.397	66.25
435.618	99.25
435.84	108.25
436.062	114.25
436.284	106.25
436.505	92.25
436.727	80.25
436.949	99.25
437.17	95.25
437.392	76.25
437.614	94.25
437.835	103.25
438.057	100.25
438.278	96.25
438.5	89.25
438.721	117.25
438.943	98.25
439.165	87.25
439.386	91.25
439.608	89.25
439.829	102.25
440.05	115.25
440.272	109.25
440.493	92.25
440.715	81.25
440.936	84.25
441.158	84.25
441.379	88.25
441.6	96.25
441.822	94.25
442.043	81.25
442.264	111.25
442.486	93.25
442.707	96.25
442.928	97.25
443.149	120.25
443.371	125.25
443.592	104.25
443.813	95.25
444.034	106.25
444.255	97.25
444.476	92.25
444.698	99.25
444.919	84.25
445.14	118.25
445.361	107.25
445.582	98.25
445.803	110.25
446.024	108.25
446.245	109.25
446.466	106.25
446.687	92.25
446.908	88.25
447.129	77.25
447.35	85.25
447.571	109.25
447.792	90.25
448.013	89.25
448.234	108.25
448.455	97.25
448.675	116.25
448.896	98.25
449.117	113.25
449.338	104.25
449.559	101.25
449.779	125.25
450	90.25
450.221	79.25
450.442	66.25
450.662	90.25
450.883	105.25
451.104	103.25
451.324	92.25
451.545	101.25
451.766	85.25
451.986	83.25
452.207	81.25
452.428	84.25
452.648	98.25
452.869	105.25
453.089	106.25
453.31	89.25
453.53	86.25
453.751	92.25
453.971	106.25
454.192	100.25
454.412	92.25
454.633	83.25
454.853	76.25
455.073	98.25
455.294	85.25
455.514	82.25
455.734	84.25
455.955	75.25
456.175	74.25
456.395	90.25
456.616	92.25
456.836	71.25
457.056	81.25
457.276	81.25
457.497	91.25
457.717	89.25
457.937	100.25
458.157	81.25
458.377	99.25
458.598	106.25
458.818	134.25
459.038	127.25
459.258	98.25
459.478	102.25
459.698	84.25
459.918	69.25
460.138	83.25
460.358	83.25
460.578	95.25
460.798	93.25
461.018	94.25
461.238	88.25
461.458	82.25
461.678	77.25
461.898	84.25
462.118	90.25
462.338	88.25
462.558	88.25
462.777	97.25
462.997	106.25
463.217	93.25
463.437	72.25
463.657	84.25
463.876	77.25
464.096	86.25
464.316	82.25
464.536	93.25
464.755	93.25
464.975	89.25
465.195	151.25
465.414	134.25
465.634	97.25
465.854	80.25
466.073	85.25
466.293	84.25
466.512	89.25
466.732	88.25
466.951	90.25
467.171	106.25
467.391	93.25
467.61	100.25
467.829	96.25
468.049	105.25
468.268	104.25
468.488	94.25
468.707	102.25
468.927	93.25
469.146	83.25
469.365	99.25
469.585	82.25
469.804	75.25
470.023	94.25
470.243	82.25
470.462	99.25
470.681	88.25
470.901	91.25
471.12	107.25
471.339	94.25
471.558	97.25
471.777	82.25
471.997	85.25
472.216	114.25
472.435	147.25
472.654	99.25
472.873	90.25
473.092	82.25
473.311	87.25
473.53	97.25
473.749	91.25
473.968	98.25
474.187	100.25
474.406	80.25
474.625	88.25
474.844	96.25
475.063	90.25
475.282	90.25
475.501	88.25
475.72	93.25
475.939	81.25
476.158	80.25
476.377	92.25
476.596	81.25
476.814	77.25
477.033	80.25
477.252	83.25
477.471	81.25
477.69	98.25
477.908	86.25
478.127	89.25
478.346	85.25
478.564	84.25
478.783	81.25
479.002	95.25
479.22	82.25
479.439	97.25
479.658	91.25
479.876	84.25
480.095	101.25
480.313	97.25
480.532	86.25
480.751	93.25
480.969	113.25
481.188	206.25
481.406	135.25
481.624	92.25
481.843	81.25
482.061	89.25
482.28	79.25
482.498	96.25
482.717	91.25
482.935	81.25
483.153	84.25
483.372	93.25
483.59	68.25
483.808	89.25
484.027	101.25
484.245	92.25
484.463	88.25
484.681	89.25
484.9	96.25
485.118	92.25
485.336	94.25
485.554	109.25
485.772	98.25
485.99	89.25
486.209	99.25
486.427	107.25
486.645	109.25
486.863	116.25
487.081	104.25
487.299	96.25
487.517	99.25
487.735	98.25
487.953	98.25
488.171	100.25
488.389	99.25
488.607	91.25
488.825	87.25
489.043	84.25
489.261	94.25
489.479	81.25
489.696	89.25
489.914	82.25
490.132	82.25
490.35	86.25
490.568	81.25
490.786	93.25
491.003	78.25
491.221	100.25
491.439	93.25
491.657	88.25
491.874	94.25
492.092	96.25
492.31	74.25
492.527	88.25
492.745	89.25
492.963	99.25
493.18	71.25
493.398	103.25
493.615	103.25
493.833	97.25
494.05	83.25
494.268	94.25
494.485	82.25
494.703	85.25
494.92	78.25
495.138	82.25
495.355	76.25
495.573	81.25
495.79	86.25
496.008	97.25
496.225	88.25
496.442	91.25
496.66	89.25
496.877	97.25
497.094	92.25
497.312	78.25
497.529	89.25
497.746	82.25
497.963	92.25
498.181	100.25
498.398	100.25
498.615	91.25
498.832	104.25
499.049	93.25
499.267	93.25
499.484	88.25
499.701	90.25
499.918	85.25
500.135	88.25
500.352	93.25
500.569	98.25
500.786	109.25
501.003	96.25
501.22	96.25
501.437	93.25
501.654	111.25
501.871	97.25
502.088	89.25
502.305	94.25
502.522	86.25
502.739	102.25
502.956	85.25
503.172	97.25
503.389	86.25
503.606	92.25
503.823	85.25
504.04	82.25
504.256	83.25
504.473	72.25
504.69	80.25
504.907	86.25
505.123	84.25
505.34	81.25
505.557	92.25
505.773	89.25
505.99	91.25
506.207	100.25
506.423	89.25
506.64	96.25
506.856	97.25
507.073	92.25
507.289	96.25
507.506	97.25
507.722	102.25
507.939	114.25
508.155	100.25
508.372	92.25
508.588	94.25
508.805	103.25
509.021	84.25
509.238	97.25
509.454	104.25
509.67	101.25
509.887	101.25
510.103	120.25
510.319	206.25
510.536	664.25
510.752	2017.25
510.968	576.25
511.184	129.25
511.401	112.25
511.617	98.25
511.833	97.25
512.049	83.25
512.265	106.25
512.481	100.25
512.698	84.25
512.914	108.25
513.13	95.25
513.346	92.25
513.562	103.25
513.778	82.25
513.994	101.25
514.21	102.25
514.426	101.25
514.642	129.25
514.858	124.25
515.074	145.25
515.29	378.25
515.506	1170.25
515.721	444.25
515.937	148.25
