Data from Circ_1994_H10_HRD10591_00034.txt Node
Date: Wed Jan 03 11:40:37 EST 2024
User: Yrep
Spectrometer: HR+D1059
Trigger mode: 1
Integration Time (sec): 1.000000E-1
Scans to average: 1
Electric dark correction enabled: true
Nonlinearity correction enabled: false
Boxcar width: 0
XAxis mode: Wavelengths
Number of Pixels in Spectrum: 2048
>>>>>Begin Spectral Data<<<<<
223.165	-13.81
223.4	-13.81
223.635	-13.81
223.869	-28.81
224.104	-18.81
224.338	-11.81
224.573	-21.81
224.808	-6.81
225.042	-3.81
225.277	4.19
225.511	-0.81
225.746	-1.81
225.98	-0.81
226.215	21.19
226.449	22.19
226.683	4.19
226.918	30.19
227.152	27.19
227.387	39.19
227.621	51.19
227.856	39.19
228.09	55.19
228.324	59.19
228.559	48.19
228.793	52.19
229.027	59.19
229.262	70.19
229.496	63.19
229.73	85.19
229.964	78.19
230.199	80.19
230.433	96.19
230.667	80.19
230.901	84.19
231.136	76.19
231.37	79.19
231.604	88.19
231.838	84.19
232.072	83.19
232.306	80.19
232.541	81.19
232.775	82.19
233.009	85.19
233.243	97.19
233.477	60.19
233.711	74.19
233.945	67.19
234.179	84.19
234.413	66.19
234.647	80.19
234.881	79.19
235.115	82.19
235.349	78.19
235.583	61.19
235.817	81.19
236.051	82.19
236.285	74.19
236.519	91.19
236.753	81.19
236.987	93.19
237.221	82.19
237.455	93.19
237.689	69.19
237.922	73.19
238.156	80.19
238.39	77.19
238.624	75.19
238.858	68.19
239.091	70.19
239.325	86.19
239.559	82.19
239.793	67.19
240.027	82.19
240.26	90.19
240.494	77.19
240.728	82.19
240.961	85.19
241.195	85.19
241.429	64.19
241.662	71.19
241.896	68.19
242.13	77.19
242.363	69.19
242.597	76.19
242.83	71.19
243.064	76.19
243.298	78.19
243.531	57.19
243.765	72.19
243.998	75.19
244.232	84.19
244.465	89.19
244.699	84.19
244.932	85.19
245.166	72.19
245.399	66.19
245.633	76.19
245.866	81.19
246.099	70.19
246.333	76.19
246.566	69.19
246.8	69.19
247.033	81.19
247.266	65.19
247.5	91.19
247.733	77.19
247.966	74.19
248.2	76.19
248.433	72.19
248.666	85.19
248.899	75.19
249.133	81.19
249.366	85.19
249.599	93.19
249.832	77.19
250.066	71.19
250.299	86.19
250.532	88.19
250.765	84.19
250.998	86.19
251.231	74.19
251.465	88.19
251.698	80.19
251.931	72.19
252.164	90.19
252.397	78.19
252.63	76.19
252.863	79.19
253.096	68.19
253.329	76.19
253.562	83.19
253.795	87.19
254.028	83.19
254.261	66.19
254.494	76.19
254.727	80.19
254.96	89.19
255.193	75.19
255.426	81.19
255.659	91.19
255.892	70.19
256.124	65.19
256.357	86.19
256.59	81.19
256.823	74.19
257.056	73.19
257.289	75.19
257.521	86.19
257.754	74.19
257.987	82.19
258.22	84.19
258.452	71.19
258.685	73.19
258.918	85.19
259.151	67.19
259.383	75.19
259.616	85.19
259.849	80.19
260.081	80.19
260.314	80.19
260.547	85.19
260.779	79.19
261.012	81.19
261.244	81.19
261.477	89.19
261.71	85.19
261.942	88.19
262.175	101.19
262.407	72.19
262.64	76.19
262.872	78.19
263.105	97.19
263.337	85.19
263.57	88.19
263.802	83.19
264.035	74.19
264.267	76.19
264.499	88.19
264.732	86.19
264.964	93.19
265.197	81.19
265.429	78.19
265.661	79.19
265.894	82.19
266.126	74.19
266.358	85.19
266.591	81.19
266.823	84.19
267.055	70.19
267.287	88.19
267.52	77.19
267.752	78.19
267.984	79.19
268.216	72.19
268.448	96.19
268.681	93.19
268.913	90.19
269.145	85.19
269.377	74.19
269.609	82.19
269.841	91.19
270.073	75.19
270.306	74.19
270.538	85.19
270.77	77.19
271.002	79.19
271.234	87.19
271.466	81.19
271.698	89.19
271.93	92.19
272.162	96.19
272.394	83.19
272.626	80.19
272.858	99.19
273.09	78.19
273.322	78.19
273.553	80.19
273.785	90.19
274.017	73.19
274.249	85.19
274.481	89.19
274.713	76.19
274.945	75.19
275.176	102.19
275.408	89.19
275.64	88.19
275.872	78.19
276.104	97.19
276.335	99.19
276.567	92.19
276.799	92.19
277.031	99.19
277.262	93.19
277.494	86.19
277.726	85.19
277.957	90.19
278.189	79.19
278.421	84.19
278.652	89.19
278.884	101.19
279.115	87.19
279.347	76.19
279.579	81.19
279.81	84.19
280.042	88.19
280.273	88.19
280.505	89.19
280.736	83.19
280.968	80.19
281.199	87.19
281.431	95.19
281.662	78.19
281.894	83.19
282.125	88.19
282.356	108.19
282.588	146.19
282.819	108.19
283.051	100.19
283.282	81.19
283.513	82.19
283.745	90.19
283.976	95.19
284.207	85.19
284.439	85.19
284.67	99.19
284.901	85.19
285.132	97.19
285.364	89.19
285.595	86.19
285.826	82.19
286.057	90.19
286.288	80.19
286.52	91.19
286.751	105.19
286.982	87.19
287.213	75.19
287.444	76.19
287.675	81.19
287.906	88.19
288.138	82.19
288.369	89.19
288.6	80.19
288.831	87.19
289.062	102.19
289.293	90.19
289.524	86.19
289.755	98.19
289.986	84.19
290.217	82.19
290.448	96.19
290.679	79.19
290.91	88.19
291.141	85.19
291.371	85.19
291.602	81.19
291.833	89.19
292.064	80.19
292.295	96.19
292.526	94.19
292.757	92.19
292.987	90.19
293.218	85.19
293.449	91.19
293.68	91.19
293.91	84.19
294.141	104.19
294.372	98.19
294.603	86.19
294.833	74.19
295.064	85.19
295.295	91.19
295.525	93.19
295.756	92.19
295.987	101.19
296.217	142.19
296.448	117.19
296.679	101.19
296.909	85.19
297.14	88.19
297.37	84.19
297.601	84.19
297.831	88.19
298.062	105.19
298.292	80.19
298.523	97.19
298.753	89.19
298.984	72.19
299.214	82.19
299.445	92.19
299.675	82.19
299.905	75.19
300.136	74.19
300.366	91.19
300.597	77.19
300.827	99.19
301.057	92.19
301.288	109.19
301.518	90.19
301.748	98.19
301.979	89.19
302.209	83.19
302.439	87.19
302.669	82.19
302.9	80.19
303.13	78.19
303.36	90.19
303.59	101.19
303.82	118.19
304.051	105.19
304.281	93.19
304.511	98.19
304.741	72.19
304.971	87.19
305.201	73.19
305.431	93.19
305.661	85.19
305.891	82.19
306.121	90.19
306.352	89.19
306.582	92.19
306.812	90.19
307.042	113.19
307.272	94.19
307.502	90.19
307.731	85.19
307.961	96.19
308.191	97.19
308.421	83.19
308.651	94.19
308.881	101.19
309.111	97.19
309.341	94.19
309.571	103.19
309.8	108.19
310.03	100.19
310.26	96.19
310.49	85.19
310.72	90.19
310.949	95.19
311.179	86.19
311.409	82.19
311.639	93.19
311.868	85.19
312.098	80.19
312.328	96.19
312.557	95.19
312.787	100.19
313.017	87.19
313.246	84.19
313.476	92.19
313.706	93.19
313.935	101.19
314.165	93.19
314.394	89.19
314.624	107.19
314.853	93.19
315.083	78.19
315.312	91.19
315.542	103.19
315.771	86.19
316.001	101.19
316.23	101.19
316.46	92.19
316.689	100.19
316.919	102.19
317.148	96.19
317.377	86.19
317.607	99.19
317.836	98.19
318.065	97.19
318.295	91.19
318.524	88.19
318.753	93.19
318.983	88.19
319.212	93.19
319.441	110.19
319.67	90.19
319.9	81.19
320.129	90.19
320.358	89.19
320.587	94.19
320.816	89.19
321.046	96.19
321.275	106.19
321.504	79.19
321.733	89.19
321.962	87.19
322.191	97.19
322.42	101.19
322.649	105.19
322.878	106.19
323.108	97.19
323.337	131.19
323.566	122.19
323.795	132.19
324.024	173.19
324.253	333.19
324.482	714.19
324.71	1411.19
324.939	1826.19
325.168	679.19
325.397	217.19
325.626	146.19
325.855	130.19
326.084	112.19
326.313	125.19
326.542	129.19
326.77	204.19
326.999	377.19
327.228	769.19
327.457	1369.19
327.686	1106.19
327.914	328.19
328.143	196.19
328.372	144.19
328.6	125.19
328.829	99.19
329.058	131.19
329.287	109.19
329.515	104.19
329.744	108.19
329.972	90.19
330.201	129.19
330.43	142.19
330.658	118.19
330.887	127.19
331.115	114.19
331.344	102.19
331.572	102.19
331.801	109.19
332.03	90.19
332.258	91.19
332.486	92.19
332.715	82.19
332.943	104.19
333.172	89.19
333.4	102.19
333.629	111.19
333.857	104.19
334.085	117.19
334.314	122.19
334.542	133.19
334.771	124.19
334.999	101.19
335.227	100.19
335.455	93.19
335.684	108.19
335.912	101.19
336.14	95.19
336.369	107.19
336.597	99.19
336.825	94.19
337.053	98.19
337.281	104.19
337.51	90.19
337.738	102.19
337.966	108.19
338.194	93.19
338.422	92.19
338.65	102.19
338.878	98.19
339.106	96.19
339.334	92.19
339.562	88.19
339.79	88.19
340.018	100.19
340.246	87.19
340.474	92.19
340.702	100.19
340.93	92.19
341.158	98.19
341.386	77.19
341.614	89.19
341.842	93.19
342.07	91.19
342.298	92.19
342.526	91.19
342.754	87.19
342.981	86.19
343.209	83.19
343.437	100.19
343.665	102.19
343.893	94.19
344.12	84.19
344.348	94.19
344.576	81.19
344.804	98.19
345.031	86.19
345.259	97.19
345.487	107.19
345.714	90.19
345.942	103.19
346.17	92.19
346.397	91.19
346.625	98.19
346.853	91.19
347.08	93.19
347.308	90.19
347.535	100.19
347.763	100.19
347.99	106.19
348.218	100.19
348.445	98.19
348.673	92.19
348.9	94.19
349.128	90.19
349.355	94.19
349.583	94.19
349.81	104.19
350.037	109.19
350.265	98.19
350.492	97.19
350.72	96.19
350.947	96.19
351.174	100.19
351.402	118.19
351.629	94.19
351.856	110.19
352.083	101.19
352.311	108.19
352.538	108.19
352.765	109.19
352.992	100.19
353.22	112.19
353.447	93.19
353.674	111.19
353.901	107.19
354.128	92.19
354.355	84.19
354.583	100.19
354.81	101.19
355.037	84.19
355.264	111.19
355.491	92.19
355.718	93.19
355.945	83.19
356.172	82.19
356.399	103.19
356.626	101.19
356.853	99.19
357.08	80.19
357.307	85.19
357.534	97.19
357.761	89.19
357.988	98.19
358.215	95.19
358.441	101.19
358.668	86.19
358.895	90.19
359.122	77.19
359.349	108.19
359.576	103.19
359.802	102.19
360.029	106.19
360.256	111.19
360.483	85.19
360.709	97.19
360.936	100.19
361.163	96.19
361.39	100.19
361.616	101.19
361.843	105.19
362.07	104.19
362.296	99.19
362.523	97.19
362.749	91.19
362.976	102.19
363.203	90.19
363.429	104.19
363.656	83.19
363.882	87.19
364.109	87.19
364.335	96.19
364.562	81.19
364.788	82.19
365.015	85.19
365.241	97.19
365.468	99.19
365.694	101.19
365.92	91.19
366.147	84.19
366.373	78.19
366.599	82.19
366.826	86.19
367.052	78.19
367.278	90.19
367.505	100.19
367.731	93.19
367.957	82.19
368.184	101.19
368.41	81.19
368.636	116.19
368.862	116.19
369.089	105.19
369.315	97.19
369.541	93.19
369.767	91.19
369.993	93.19
370.219	86.19
370.445	98.19
370.672	86.19
370.898	98.19
371.124	82.19
371.35	83.19
371.576	91.19
371.802	86.19
372.028	95.19
372.254	96.19
372.48	94.19
372.706	79.19
372.932	85.19
373.158	82.19
373.384	88.19
373.61	92.19
373.835	91.19
374.061	89.19
374.287	79.19
374.513	89.19
374.739	95.19
374.965	92.19
375.191	96.19
375.416	79.19
375.642	91.19
375.868	91.19
376.094	100.19
376.319	90.19
376.545	91.19
376.771	88.19
376.997	90.19
377.222	94.19
377.448	85.19
377.674	91.19
377.899	77.19
378.125	95.19
378.35	79.19
378.576	87.19
378.802	69.19
379.027	91.19
379.253	91.19
379.478	108.19
379.704	91.19
379.929	88.19
380.155	86.19
380.38	95.19
380.606	81.19
380.831	89.19
381.057	96.19
381.282	97.19
381.507	94.19
381.733	93.19
381.958	91.19
382.184	106.19
382.409	93.19
382.634	90.19
382.86	102.19
383.085	110.19
383.31	104.19
383.535	96.19
383.761	91.19
383.986	88.19
384.211	92.19
384.436	105.19
384.662	94.19
384.887	99.19
385.112	101.19
385.337	89.19
385.562	94.19
385.787	96.19
386.013	105.19
386.238	117.19
386.463	108.19
386.688	113.19
386.913	100.19
387.138	103.19
387.363	93.19
387.588	86.19
387.813	81.19
388.038	94.19
388.263	101.19
388.488	104.19
388.713	102.19
388.938	100.19
389.163	93.19
389.387	104.19
389.612	90.19
389.837	85.19
390.062	86.19
390.287	88.19
390.512	86.19
390.736	90.19
390.961	88.19
391.186	98.19
391.411	94.19
391.636	82.19
391.86	84.19
392.085	85.19
392.31	87.19
392.534	84.19
392.759	109.19
392.984	96.19
393.208	92.19
393.433	100.19
393.658	100.19
393.882	83.19
394.107	96.19
394.331	79.19
394.556	83.19
394.78	84.19
395.005	79.19
395.229	82.19
395.454	88.19
395.678	103.19
395.903	94.19
396.127	72.19
396.352	93.19
396.576	81.19
396.801	98.19
397.025	99.19
397.249	83.19
397.474	85.19
397.698	87.19
397.922	92.19
398.147	77.19
398.371	83.19
398.595	96.19
398.82	83.19
399.044	92.19
399.268	89.19
399.492	98.19
399.717	73.19
399.941	94.19
400.165	92.19
400.389	88.19
400.613	94.19
400.837	96.19
401.062	92.19
401.286	96.19
401.51	93.19
401.734	99.19
401.958	96.19
402.182	112.19
402.406	165.19
402.63	113.19
402.854	89.19
403.078	96.19
403.302	85.19
403.526	92.19
403.75	90.19
403.974	97.19
404.198	95.19
404.422	84.19
404.645	88.19
404.869	85.19
405.093	95.19
405.317	97.19
405.541	90.19
405.765	96.19
405.988	112.19
406.212	184.19
406.436	222.19
406.66	131.19
406.883	107.19
407.107	84.19
407.331	100.19
407.555	94.19
407.778	102.19
408.002	96.19
408.226	84.19
408.449	85.19
408.673	84.19
408.896	76.19
409.12	94.19
409.344	87.19
409.567	91.19
409.791	79.19
410.014	86.19
410.238	72.19
410.461	93.19
410.685	102.19
410.908	105.19
411.132	103.19
411.355	100.19
411.578	105.19
411.802	77.19
412.025	82.19
412.249	84.19
412.472	96.19
412.695	81.19
412.919	100.19
413.142	93.19
413.365	90.19
413.589	93.19
413.812	76.19
414.035	98.19
414.258	89.19
414.482	80.19
414.705	84.19
414.928	98.19
415.151	90.19
415.374	89.19
415.597	87.19
415.821	77.19
416.044	80.19
416.267	81.19
416.49	101.19
416.713	78.19
416.936	93.19
417.159	76.19
417.382	96.19
417.605	84.19
417.828	101.19
418.051	91.19
418.274	81.19
418.497	93.19
418.72	94.19
418.943	85.19
419.166	101.19
419.389	93.19
419.611	100.19
419.834	89.19
420.057	67.19
420.28	102.19
420.503	91.19
420.726	81.19
420.948	86.19
421.171	102.19
421.394	88.19
421.617	85.19
421.839	89.19
422.062	85.19
422.285	101.19
422.507	108.19
422.73	95.19
422.953	86.19
423.175	89.19
423.398	92.19
423.621	81.19
423.843	86.19
424.066	92.19
424.288	119.19
424.511	85.19
424.733	106.19
424.956	103.19
425.178	118.19
425.401	110.19
425.623	87.19
425.846	99.19
426.068	91.19
426.291	86.19
426.513	84.19
426.735	81.19
426.958	86.19
427.18	113.19
427.402	116.19
427.625	133.19
427.847	129.19
428.069	105.19
428.292	93.19
428.514	90.19
428.736	89.19
428.958	80.19
429.181	99.19
429.403	91.19
429.625	82.19
429.847	93.19
430.069	98.19
430.292	82.19
430.514	92.19
430.736	82.19
430.958	82.19
431.18	82.19
431.402	94.19
431.624	89.19
431.846	96.19
432.068	93.19
432.29	101.19
432.512	85.19
432.734	79.19
432.956	89.19
433.178	106.19
433.4	89.19
433.622	82.19
433.844	82.19
434.066	83.19
434.287	98.19
434.509	93.19
434.731	83.19
434.953	78.19
435.175	75.19
435.397	83.19
435.618	91.19
435.84	98.19
436.062	112.19
436.284	117.19
436.505	94.19
436.727	100.19
436.949	94.19
437.17	87.19
437.392	78.19
437.614	99.19
437.835	101.19
438.057	116.19
438.278	103.19
438.5	102.19
438.721	107.19
438.943	104.19
439.165	96.19
439.386	101.19
439.608	98.19
439.829	90.19
440.05	109.19
440.272	122.19
440.493	94.19
440.715	85.19
440.936	82.19
441.158	104.19
441.379	95.19
441.6	97.19
441.822	103.19
442.043	98.19
442.264	96.19
442.486	96.19
442.707	96.19
442.928	98.19
443.149	137.19
443.371	116.19
443.592	104.19
443.813	103.19
444.034	93.19
444.255	81.19
444.476	88.19
444.698	88.19
444.919	95.19
445.14	116.19
445.361	125.19
445.582	95.19
445.803	123.19
446.024	119.19
446.245	121.19
446.466	107.19
446.687	97.19
446.908	96.19
447.129	85.19
447.35	91.19
447.571	98.19
447.792	82.19
448.013	103.19
448.234	120.19
448.455	98.19
448.675	91.19
448.896	100.19
449.117	89.19
449.338	103.19
449.559	120.19
449.779	118.19
450	77.19
450.221	87.19
450.442	96.19
450.662	95.19
450.883	112.19
451.104	108.19
451.324	79.19
451.545	90.19
451.766	105.19
451.986	106.19
452.207	90.19
452.428	98.19
452.648	109.19
452.869	105.19
453.089	115.19
453.31	112.19
453.53	98.19
453.751	108.19
453.971	109.19
454.192	116.19
454.412	101.19
454.633	84.19
454.853	84.19
455.073	88.19
455.294	104.19
455.514	109.19
455.734	89.19
455.955	106.19
456.175	101.19
456.395	91.19
456.616	75.19
456.836	93.19
457.056	97.19
457.276	92.19
457.497	79.19
457.717	80.19
457.937	82.19
458.157	82.19
458.377	81.19
458.598	110.19
458.818	138.19
459.038	161.19
459.258	123.19
459.478	77.19
459.698	81.19
459.918	91.19
460.138	78.19
460.358	72.19
460.578	90.19
460.798	86.19
461.018	96.19
461.238	90.19
461.458	87.19
461.678	87.19
461.898	102.19
462.118	98.19
462.338	90.19
462.558	86.19
462.777	93.19
462.997	89.19
463.217	78.19
463.437	94.19
463.657	92.19
463.876	87.19
464.096	89.19
464.316	98.19
464.536	85.19
464.755	84.19
464.975	82.19
465.195	143.19
465.414	139.19
465.634	82.19
465.854	88.19
466.073	88.19
466.293	82.19
466.512	83.19
466.732	85.19
466.951	85.19
467.171	96.19
467.391	98.19
467.61	106.19
467.829	105.19
468.049	97.19
468.268	117.19
468.488	107.19
468.707	91.19
468.927	101.19
469.146	89.19
469.365	90.19
469.585	90.19
469.804	99.19
470.023	92.19
470.243	88.19
470.462	95.19
470.681	109.19
470.901	94.19
471.12	82.19
471.339	82.19
471.558	99.19
471.777	76.19
471.997	108.19
472.216	115.19
472.435	160.19
472.654	93.19
472.873	93.19
473.092	105.19
473.311	80.19
473.53	85.19
473.749	100.19
473.968	97.19
474.187	113.19
474.406	88.19
474.625	94.19
474.844	97.19
475.063	91.19
475.282	92.19
475.501	87.19
475.72	80.19
475.939	97.19
476.158	86.19
476.377	93.19
476.596	92.19
476.814	98.19
477.033	87.19
477.252	88.19
477.471	88.19
477.69	89.19
477.908	94.19
478.127	85.19
478.346	98.19
478.564	92.19
478.783	106.19
479.002	89.19
479.22	89.19
479.439	84.19
479.658	86.19
479.876	95.19
480.095	94.19
480.313	84.19
480.532	82.19
480.751	102.19
480.969	125.19
481.188	241.19
481.406	166.19
481.624	101.19
481.843	100.19
482.061	88.19
482.28	100.19
482.498	76.19
482.717	85.19
482.935	86.19
483.153	95.19
483.372	98.19
483.59	90.19
483.808	93.19
484.027	86.19
484.245	83.19
484.463	78.19
484.681	81.19
484.9	94.19
485.118	96.19
485.336	96.19
485.554	97.19
485.772	103.19
485.99	120.19
486.209	114.19
486.427	98.19
486.645	113.19
486.863	109.19
487.081	100.19
487.299	97.19
487.517	92.19
487.735	86.19
487.953	87.19
488.171	96.19
488.389	98.19
488.607	85.19
488.825	84.19
489.043	90.19
489.261	100.19
489.479	85.19
489.696	82.19
489.914	81.19
490.132	87.19
490.35	99.19
490.568	102.19
490.786	84.19
491.003	96.19
491.221	84.19
491.439	90.19
491.657	89.19
491.874	78.19
492.092	83.19
492.31	81.19
492.527	69.19
492.745	87.19
492.963	82.19
493.18	90.19
493.398	86.19
493.615	101.19
493.833	105.19
494.05	96.19
494.268	79.19
494.485	81.19
494.703	86.19
494.92	82.19
495.138	65.19
495.355	98.19
495.573	109.19
495.79	82.19
496.008	98.19
496.225	83.19
496.442	88.19
496.66	104.19
496.877	91.19
497.094	92.19
497.312	85.19
497.529	82.19
497.746	72.19
497.963	101.19
498.181	100.19
498.398	90.19
498.615	106.19
498.832	98.19
499.049	91.19
499.267	86.19
499.484	80.19
499.701	95.19
499.918	95.19
500.135	92.19
500.352	92.19
500.569	98.19
500.786	100.19
501.003	93.19
501.22	101.19
501.437	102.19
501.654	89.19
501.871	113.19
502.088	88.19
502.305	98.19
502.522	95.19
502.739	108.19
502.956	92.19
503.172	83.19
503.389	95.19
503.606	97.19
503.823	86.19
504.04	97.19
504.256	80.19
504.473	93.19
504.69	91.19
504.907	93.19
505.123	97.19
505.34	105.19
505.557	88.19
505.773	97.19
505.99	83.19
506.207	80.19
506.423	95.19
506.64	88.19
506.856	75.19
507.073	88.19
507.289	103.19
507.506	106.19
507.722	102.19
507.939	104.19
508.155	93.19
508.372	101.19
508.588	93.19
508.805	107.19
509.021	95.19
509.238	94.19
509.454	109.19
509.67	99.19
509.887	115.19
510.103	137.19
510.319	221.19
510.536	780.19
510.752	2365.19
510.968	620.19
511.184	152.19
511.401	115.19
511.617	102.19
511.833	103.19
512.049	88.19
512.265	96.19
512.481	98.19
512.698	98.19
512.914	86.19
513.13	90.19
513.346	87.19
513.562	83.19
513.778	98.19
513.994	102.19
514.21	87.19
514.426	122.19
514.642	124.19
514.858	139.19
515.074	165.19
515.29	437.19
515.506	1338.19
