Data from Circ_1994_H10_HRD10591_00021.txt Node
Date: Wed Jan 03 11:40:34 EST 2024
User: Yrep
Spectrometer: HR+D1059
Trigger mode: 1
Integration Time (sec): 1.000000E-1
Scans to average: 1
Electric dark correction enabled: true
Nonlinearity correction enabled: false
Boxcar width: 0
XAxis mode: Wavelengths
Number of Pixels in Spectrum: 2048
>>>>>Begin Spectral Data<<<<<
223.165	-18.88
223.4	-18.88
223.635	-18.88
223.869	-21.88
224.104	-22.88
224.338	-21.88
224.573	-12.88
224.808	-12.88
225.042	-10.88
225.277	-2.88
225.511	-4.88
225.746	0.12
225.98	13.12
226.215	12.12
226.449	28.12
226.683	26.12
226.918	22.12
227.152	28.12
227.387	33.12
227.621	42.12
227.856	42.12
228.09	44.12
228.324	47.12
228.559	49.12
228.793	56.12
229.027	66.12
229.262	72.12
229.496	68.12
229.73	72.12
229.964	76.12
230.199	82.12
230.433	69.12
230.667	72.12
230.901	58.12
231.136	80.12
231.37	80.12
231.604	78.12
231.838	72.12
232.072	84.12
232.306	81.12
232.541	76.12
232.775	89.12
233.009	77.12
233.243	80.12
233.477	80.12
233.711	87.12
233.945	78.12
234.179	72.12
234.413	90.12
234.647	79.12
234.881	79.12
235.115	76.12
235.349	93.12
235.583	83.12
235.817	81.12
236.051	79.12
236.285	76.12
236.519	73.12
236.753	78.12
236.987	69.12
237.221	73.12
237.455	88.12
237.689	80.12
237.922	72.12
238.156	52.12
238.39	67.12
238.624	67.12
238.858	81.12
239.091	60.12
239.325	80.12
239.559	75.12
239.793	91.12
240.027	74.12
240.26	77.12
240.494	84.12
240.728	73.12
240.961	80.12
241.195	89.12
241.429	81.12
241.662	77.12
241.896	74.12
242.13	86.12
242.363	70.12
242.597	67.12
242.83	76.12
243.064	78.12
243.298	81.12
243.531	67.12
243.765	83.12
243.998	83.12
244.232	90.12
244.465	85.12
244.699	76.12
244.932	80.12
245.166	83.12
245.399	89.12
245.633	93.12
245.866	72.12
246.099	82.12
246.333	76.12
246.566	78.12
246.8	91.12
247.033	81.12
247.266	86.12
247.5	96.12
247.733	75.12
247.966	78.12
248.2	82.12
248.433	86.12
248.666	77.12
248.899	80.12
249.133	66.12
249.366	89.12
249.599	84.12
249.832	80.12
250.066	74.12
250.299	78.12
250.532	68.12
250.765	91.12
250.998	73.12
251.231	72.12
251.465	81.12
251.698	66.12
251.931	76.12
252.164	70.12
252.397	75.12
252.63	78.12
252.863	93.12
253.096	75.12
253.329	90.12
253.562	92.12
253.795	81.12
254.028	80.12
254.261	77.12
254.494	86.12
254.727	81.12
254.96	78.12
255.193	83.12
255.426	72.12
255.659	78.12
255.892	79.12
256.124	68.12
256.357	64.12
256.59	78.12
256.823	83.12
257.056	80.12
257.289	76.12
257.521	85.12
257.754	81.12
257.987	83.12
258.22	88.12
258.452	84.12
258.685	86.12
258.918	83.12
259.151	74.12
259.383	88.12
259.616	81.12
259.849	74.12
260.081	77.12
260.314	78.12
260.547	97.12
260.779	73.12
261.012	77.12
261.244	81.12
261.477	82.12
261.71	93.12
261.942	106.12
262.175	99.12
262.407	102.12
262.64	87.12
262.872	78.12
263.105	93.12
263.337	77.12
263.57	90.12
263.802	79.12
264.035	85.12
264.267	83.12
264.499	73.12
264.732	69.12
264.964	85.12
265.197	96.12
265.429	72.12
265.661	79.12
265.894	86.12
266.126	88.12
266.358	80.12
266.591	78.12
266.823	88.12
267.055	85.12
267.287	93.12
267.52	81.12
267.752	81.12
267.984	74.12
268.216	85.12
268.448	92.12
268.681	88.12
268.913	82.12
269.145	84.12
269.377	82.12
269.609	82.12
269.841	96.12
270.073	79.12
270.306	75.12
270.538	74.12
270.77	83.12
271.002	78.12
271.234	93.12
271.466	83.12
271.698	61.12
271.93	78.12
272.162	98.12
272.394	87.12
272.626	84.12
272.858	89.12
273.09	82.12
273.322	80.12
273.553	86.12
273.785	88.12
274.017	77.12
274.249	84.12
274.481	80.12
274.713	80.12
274.945	100.12
275.176	84.12
275.408	85.12
275.64	95.12
275.872	80.12
276.104	79.12
276.335	85.12
276.567	83.12
276.799	109.12
277.031	96.12
277.262	97.12
277.494	93.12
277.726	82.12
277.957	81.12
278.189	100.12
278.421	82.12
278.652	90.12
278.884	72.12
279.115	81.12
279.347	88.12
279.579	94.12
279.81	90.12
280.042	93.12
280.273	90.12
280.505	81.12
280.736	90.12
280.968	86.12
281.199	77.12
281.431	75.12
281.662	94.12
281.894	86.12
282.125	92.12
282.356	96.12
282.588	121.12
282.819	110.12
283.051	81.12
283.282	105.12
283.513	94.12
283.745	82.12
283.976	80.12
284.207	91.12
284.439	86.12
284.67	80.12
284.901	90.12
285.132	83.12
285.364	96.12
285.595	92.12
285.826	68.12
286.057	86.12
286.288	81.12
286.52	104.12
286.751	90.12
286.982	100.12
287.213	78.12
287.444	84.12
287.675	80.12
287.906	88.12
288.138	79.12
288.369	94.12
288.6	103.12
288.831	80.12
289.062	97.12
289.293	93.12
289.524	94.12
289.755	82.12
289.986	91.12
290.217	67.12
290.448	97.12
290.679	89.12
290.91	95.12
291.141	87.12
291.371	87.12
291.602	98.12
291.833	93.12
292.064	97.12
292.295	78.12
292.526	91.12
292.757	87.12
292.987	88.12
293.218	94.12
293.449	81.12
293.68	87.12
293.91	91.12
294.141	97.12
294.372	84.12
294.603	80.12
294.833	90.12
295.064	91.12
295.295	72.12
295.525	89.12
295.756	101.12
295.987	101.12
296.217	137.12
296.448	105.12
296.679	96.12
296.909	86.12
297.14	80.12
297.37	85.12
297.601	83.12
297.831	84.12
298.062	101.12
298.292	76.12
298.523	87.12
298.753	82.12
298.984	93.12
299.214	89.12
299.445	92.12
299.675	88.12
299.905	93.12
300.136	82.12
300.366	100.12
300.597	89.12
300.827	97.12
301.057	93.12
301.288	94.12
301.518	91.12
301.748	96.12
301.979	90.12
302.209	95.12
302.439	76.12
302.669	96.12
302.9	86.12
303.13	87.12
303.36	103.12
303.59	100.12
303.82	100.12
304.051	79.12
304.281	89.12
304.511	91.12
304.741	84.12
304.971	83.12
305.201	102.12
305.431	92.12
305.661	85.12
305.891	98.12
306.121	95.12
306.352	99.12
306.582	97.12
306.812	77.12
307.042	82.12
307.272	97.12
307.502	107.12
307.731	78.12
307.961	90.12
308.191	84.12
308.421	98.12
308.651	92.12
308.881	94.12
309.111	95.12
309.341	94.12
309.571	96.12
309.8	90.12
310.03	97.12
310.26	98.12
310.49	88.12
310.72	101.12
310.949	104.12
311.179	82.12
311.409	93.12
311.639	92.12
311.868	93.12
312.098	84.12
312.328	78.12
312.557	84.12
312.787	97.12
313.017	96.12
313.246	90.12
313.476	100.12
313.706	92.12
313.935	84.12
314.165	98.12
314.394	105.12
314.624	88.12
314.853	95.12
315.083	104.12
315.312	78.12
315.542	105.12
315.771	97.12
316.001	82.12
316.23	87.12
316.46	92.12
316.689	93.12
316.919	101.12
317.148	97.12
317.377	86.12
317.607	92.12
317.836	83.12
318.065	94.12
318.295	83.12
318.524	97.12
318.753	90.12
318.983	95.12
319.212	100.12
319.441	105.12
319.67	101.12
319.9	85.12
320.129	92.12
320.358	90.12
320.587	97.12
320.816	99.12
321.046	105.12
321.275	93.12
321.504	99.12
321.733	93.12
321.962	89.12
322.191	92.12
322.42	86.12
322.649	92.12
322.878	104.12
323.108	98.12
323.337	114.12
323.566	124.12
323.795	149.12
324.024	162.12
324.253	318.12
324.482	620.12
324.71	1235.12
324.939	1573.12
325.168	619.12
325.397	194.12
325.626	129.12
325.855	115.12
326.084	101.12
326.313	115.12
326.542	121.12
326.77	189.12
326.999	354.12
327.228	690.12
327.457	1237.12
327.686	995.12
327.914	284.12
328.143	166.12
328.372	144.12
328.6	124.12
328.829	113.12
329.058	113.12
329.287	116.12
329.515	99.12
329.744	93.12
329.972	104.12
330.201	113.12
330.43	130.12
330.658	114.12
330.887	135.12
331.115	110.12
331.344	92.12
331.572	102.12
331.801	114.12
332.03	93.12
332.258	95.12
332.486	99.12
332.715	80.12
332.943	110.12
333.172	79.12
333.4	88.12
333.629	102.12
333.857	116.12
334.085	109.12
334.314	119.12
334.542	137.12
334.771	130.12
334.999	110.12
335.227	98.12
335.455	89.12
335.684	97.12
335.912	113.12
336.14	105.12
336.369	81.12
336.597	114.12
336.825	106.12
337.053	114.12
337.281	92.12
337.51	94.12
337.738	87.12
337.966	93.12
338.194	89.12
338.422	101.12
338.65	90.12
338.878	111.12
339.106	96.12
339.334	90.12
339.562	88.12
339.79	100.12
340.018	86.12
340.246	94.12
340.474	96.12
340.702	89.12
340.93	90.12
341.158	85.12
341.386	94.12
341.614	92.12
341.842	96.12
342.07	88.12
342.298	86.12
342.526	94.12
342.754	85.12
342.981	84.12
343.209	86.12
343.437	94.12
343.665	85.12
343.893	88.12
344.12	86.12
344.348	86.12
344.576	90.12
344.804	90.12
345.031	95.12
345.259	96.12
345.487	86.12
345.714	100.12
345.942	96.12
346.17	93.12
346.397	99.12
346.625	88.12
346.853	102.12
347.08	91.12
347.308	101.12
347.535	91.12
347.763	88.12
347.99	98.12
348.218	89.12
348.445	108.12
348.673	94.12
348.9	90.12
349.128	87.12
349.355	83.12
349.583	78.12
349.81	96.12
350.037	80.12
350.265	93.12
350.492	89.12
350.72	86.12
350.947	102.12
351.174	102.12
351.402	93.12
351.629	116.12
351.856	99.12
352.083	101.12
352.311	82.12
352.538	110.12
352.765	121.12
352.992	114.12
353.22	105.12
353.447	109.12
353.674	106.12
353.901	108.12
354.128	101.12
354.355	101.12
354.583	96.12
354.81	102.12
355.037	93.12
355.264	94.12
355.491	97.12
355.718	83.12
355.945	96.12
356.172	94.12
356.399	104.12
356.626	85.12
356.853	89.12
357.08	87.12
357.307	97.12
357.534	88.12
357.761	104.12
357.988	98.12
358.215	104.12
358.441	92.12
358.668	92.12
358.895	85.12
359.122	82.12
359.349	91.12
359.576	92.12
359.802	102.12
360.029	110.12
360.256	103.12
360.483	90.12
360.709	98.12
360.936	90.12
361.163	101.12
361.39	87.12
361.616	95.12
361.843	91.12
362.07	98.12
362.296	103.12
362.523	95.12
362.749	99.12
362.976	89.12
363.203	108.12
363.429	96.12
363.656	91.12
363.882	93.12
364.109	89.12
364.335	89.12
364.562	99.12
364.788	87.12
365.015	94.12
365.241	91.12
365.468	110.12
365.694	100.12
365.92	81.12
366.147	90.12
366.373	81.12
366.599	85.12
366.826	93.12
367.052	102.12
367.278	84.12
367.505	89.12
367.731	92.12
367.957	77.12
368.184	102.12
368.41	93.12
368.636	96.12
368.862	116.12
369.089	108.12
369.315	97.12
369.541	91.12
369.767	93.12
369.993	90.12
370.219	94.12
370.445	83.12
370.672	83.12
370.898	97.12
371.124	84.12
371.35	80.12
371.576	87.12
371.802	82.12
372.028	87.12
372.254	101.12
372.48	80.12
372.706	96.12
372.932	91.12
373.158	93.12
373.384	84.12
373.61	80.12
373.835	91.12
374.061	95.12
374.287	96.12
374.513	75.12
374.739	84.12
374.965	85.12
375.191	80.12
375.416	93.12
375.642	94.12
375.868	98.12
376.094	88.12
376.319	89.12
376.545	85.12
376.771	99.12
376.997	99.12
377.222	93.12
377.448	92.12
377.674	89.12
377.899	85.12
378.125	93.12
378.35	92.12
378.576	94.12
378.802	112.12
379.027	88.12
379.253	90.12
379.478	107.12
379.704	88.12
379.929	87.12
380.155	98.12
380.38	86.12
380.606	97.12
380.831	96.12
381.057	99.12
381.282	101.12
381.507	84.12
381.733	74.12
381.958	85.12
382.184	105.12
382.409	108.12
382.634	89.12
382.86	105.12
383.085	105.12
383.31	105.12
383.535	91.12
383.761	91.12
383.986	100.12
384.211	101.12
384.436	97.12
384.662	88.12
384.887	107.12
385.112	98.12
385.337	94.12
385.562	103.12
385.787	102.12
386.013	110.12
386.238	101.12
386.463	110.12
386.688	104.12
386.913	107.12
387.138	95.12
387.363	94.12
387.588	100.12
387.813	107.12
388.038	103.12
388.263	120.12
388.488	101.12
388.713	105.12
388.938	86.12
389.163	103.12
389.387	97.12
389.612	91.12
389.837	89.12
390.062	97.12
390.287	84.12
390.512	89.12
390.736	78.12
390.961	93.12
391.186	89.12
391.411	78.12
391.636	100.12
391.86	101.12
392.085	85.12
392.31	89.12
392.534	82.12
392.759	66.12
392.984	76.12
393.208	92.12
393.433	95.12
393.658	94.12
393.882	93.12
394.107	100.12
394.331	94.12
394.556	87.12
394.78	85.12
395.005	89.12
395.229	88.12
395.454	89.12
395.678	91.12
395.903	90.12
396.127	83.12
396.352	84.12
396.576	100.12
396.801	89.12
397.025	99.12
397.249	69.12
397.474	96.12
397.698	91.12
397.922	98.12
398.147	82.12
398.371	85.12
398.595	94.12
398.82	99.12
399.044	76.12
399.268	80.12
399.492	78.12
399.717	91.12
399.941	95.12
400.165	94.12
400.389	99.12
400.613	95.12
400.837	84.12
401.062	90.12
401.286	82.12
401.51	74.12
401.734	95.12
401.958	85.12
402.182	118.12
402.406	137.12
402.63	121.12
402.854	109.12
403.078	84.12
403.302	89.12
403.526	88.12
403.75	86.12
403.974	102.12
404.198	97.12
404.422	84.12
404.645	93.12
404.869	99.12
405.093	94.12
405.317	116.12
405.541	85.12
405.765	100.12
405.988	113.12
406.212	133.12
406.436	176.12
406.66	133.12
406.883	102.12
407.107	93.12
407.331	96.12
407.555	103.12
407.778	98.12
408.002	104.12
408.226	82.12
408.449	99.12
408.673	97.12
408.896	98.12
409.12	94.12
409.344	95.12
409.567	89.12
409.791	96.12
410.014	103.12
410.238	108.12
410.461	101.12
410.685	102.12
410.908	109.12
411.132	112.12
411.355	93.12
411.578	91.12
411.802	96.12
412.025	83.12
412.249	93.12
412.472	90.12
412.695	94.12
412.919	92.12
413.142	77.12
413.365	89.12
413.589	83.12
413.812	82.12
414.035	97.12
414.258	99.12
414.482	101.12
414.705	90.12
414.928	84.12
415.151	89.12
415.374	78.12
415.597	79.12
415.821	104.12
416.044	88.12
416.267	72.12
416.49	77.12
416.713	95.12
416.936	84.12
417.159	89.12
417.382	90.12
417.605	77.12
417.828	86.12
418.051	88.12
418.274	88.12
418.497	84.12
418.72	93.12
418.943	83.12
419.166	79.12
419.389	88.12
419.611	98.12
419.834	76.12
420.057	93.12
420.28	109.12
420.503	85.12
420.726	77.12
420.948	93.12
421.171	85.12
421.394	95.12
421.617	91.12
421.839	77.12
422.062	92.12
422.285	104.12
422.507	89.12
422.73	85.12
422.953	98.12
423.175	97.12
423.398	98.12
423.621	92.12
423.843	78.12
424.066	91.12
424.288	95.12
424.511	87.12
424.733	86.12
424.956	104.12
425.178	106.12
425.401	90.12
425.623	104.12
425.846	95.12
426.068	86.12
426.291	93.12
426.513	97.12
426.735	79.12
426.958	82.12
427.18	99.12
427.402	122.12
427.625	127.12
427.847	121.12
428.069	100.12
428.292	103.12
428.514	97.12
428.736	90.12
428.958	100.12
429.181	86.12
429.403	90.12
429.625	85.12
429.847	99.12
430.069	74.12
430.292	94.12
430.514	78.12
430.736	75.12
430.958	75.12
431.18	94.12
431.402	75.12
431.624	95.12
431.846	86.12
432.068	93.12
432.29	97.12
432.512	105.12
432.734	85.12
432.956	84.12
433.178	92.12
433.4	97.12
433.622	89.12
433.844	88.12
434.066	86.12
434.287	83.12
434.509	87.12
434.731	86.12
434.953	86.12
435.175	79.12
435.397	93.12
435.618	97.12
435.84	101.12
436.062	109.12
436.284	94.12
436.505	85.12
436.727	102.12
436.949	91.12
437.17	82.12
437.392	85.12
437.614	88.12
437.835	92.12
438.057	111.12
438.278	95.12
438.5	102.12
438.721	107.12
438.943	85.12
439.165	95.12
439.386	78.12
439.608	90.12
439.829	106.12
440.05	96.12
440.272	114.12
440.493	94.12
440.715	98.12
440.936	83.12
441.158	88.12
441.379	89.12
441.6	84.12
441.822	89.12
442.043	93.12
442.264	100.12
442.486	88.12
442.707	82.12
442.928	87.12
443.149	113.12
443.371	112.12
443.592	99.12
443.813	102.12
444.034	115.12
444.255	93.12
444.476	94.12
444.698	83.12
444.919	76.12
445.14	125.12
445.361	115.12
445.582	94.12
445.803	123.12
446.024	120.12
446.245	123.12
446.466	102.12
446.687	93.12
446.908	102.12
447.129	80.12
447.35	93.12
447.571	91.12
447.792	102.12
448.013	88.12
448.234	100.12
448.455	109.12
448.675	100.12
448.896	106.12
449.117	104.12
449.338	105.12
449.559	105.12
449.779	114.12
450	98.12
450.221	79.12
450.442	78.12
450.662	98.12
450.883	102.12
451.104	109.12
451.324	104.12
451.545	82.12
451.766	77.12
451.986	80.12
452.207	83.12
452.428	88.12
452.648	110.12
452.869	93.12
453.089	109.12
453.31	104.12
453.53	88.12
453.751	92.12
453.971	104.12
454.192	109.12
454.412	94.12
454.633	85.12
454.853	90.12
455.073	84.12
455.294	84.12
455.514	93.12
455.734	84.12
455.955	76.12
456.175	90.12
456.395	78.12
456.616	92.12
456.836	88.12
457.056	84.12
457.276	86.12
457.497	79.12
457.717	66.12
457.937	88.12
458.157	82.12
458.377	85.12
458.598	92.12
458.818	138.12
459.038	123.12
459.258	116.12
459.478	95.12
459.698	83.12
459.918	76.12
460.138	92.12
460.358	87.12
460.578	82.12
460.798	102.12
461.018	79.12
461.238	78.12
461.458	88.12
461.678	75.12
461.898	102.12
462.118	82.12
462.338	84.12
462.558	93.12
462.777	82.12
462.997	93.12
463.217	78.12
463.437	93.12
463.657	81.12
463.876	93.12
464.096	85.12
464.316	82.12
464.536	90.12
464.755	95.12
464.975	106.12
465.195	143.12
465.414	137.12
465.634	83.12
465.854	91.12
466.073	97.12
466.293	76.12
466.512	76.12
466.732	86.12
466.951	90.12
467.171	90.12
467.391	92.12
467.61	96.12
467.829	105.12
468.049	93.12
468.268	98.12
468.488	65.12
468.707	102.12
468.927	85.12
469.146	81.12
469.365	87.12
469.585	79.12
469.804	87.12
470.023	100.12
470.243	69.12
470.462	88.12
470.681	100.12
470.901	96.12
471.12	77.12
471.339	94.12
471.558	94.12
471.777	99.12
471.997	84.12
472.216	112.12
472.435	129.12
472.654	97.12
472.873	102.12
473.092	78.12
473.311	83.12
473.53	79.12
473.749	86.12
473.968	92.12
474.187	100.12
474.406	97.12
474.625	100.12
474.844	89.12
475.063	75.12
475.282	95.12
475.501	78.12
475.72	84.12
475.939	80.12
476.158	87.12
476.377	93.12
476.596	88.12
476.814	107.12
477.033	88.12
477.252	85.12
477.471	80.12
477.69	97.12
477.908	92.12
478.127	96.12
478.346	83.12
478.564	91.12
478.783	82.12
479.002	78.12
479.22	93.12
479.439	83.12
479.658	91.12
479.876	103.12
480.095	88.12
480.313	99.12
480.532	95.12
480.751	83.12
480.969	90.12
481.188	185.12
481.406	134.12
481.624	93.12
481.843	89.12
482.061	75.12
482.28	84.12
482.498	80.12
482.717	81.12
482.935	97.12
483.153	81.12
483.372	84.12
483.59	94.12
483.808	82.12
484.027	100.12
484.245	87.12
484.463	96.12
484.681	89.12
484.9	77.12
485.118	100.12
485.336	97.12
485.554	103.12
485.772	91.12
485.99	98.12
486.209	100.12
486.427	121.12
486.645	120.12
486.863	106.12
487.081	91.12
487.299	98.12
487.517	92.12
487.735	106.12
487.953	100.12
488.171	98.12
488.389	89.12
488.607	90.12
488.825	97.12
489.043	82.12
489.261	80.12
489.479	104.12
489.696	104.12
489.914	96.12
490.132	76.12
490.35	104.12
490.568	87.12
490.786	92.12
491.003	73.12
491.221	97.12
491.439	92.12
491.657	94.12
491.874	98.12
492.092	86.12
492.31	92.12
492.527	81.12
492.745	76.12
492.963	93.12
493.18	87.12
493.398	93.12
493.615	91.12
493.833	97.12
494.05	83.12
494.268	86.12
494.485	90.12
494.703	72.12
494.92	97.12
495.138	89.12
495.355	98.12
495.573	89.12
495.79	81.12
496.008	89.12
496.225	96.12
496.442	89.12
496.66	102.12
496.877	103.12
497.094	102.12
497.312	89.12
497.529	93.12
497.746	74.12
497.963	89.12
498.181	92.12
498.398	89.12
498.615	113.12
498.832	100.12
499.049	95.12
499.267	108.12
499.484	88.12
499.701	95.12
499.918	91.12
500.135	78.12
500.352	81.12
500.569	92.12
500.786	90.12
501.003	104.12
501.22	92.12
501.437	84.12
501.654	89.12
501.871	94.12
502.088	96.12
502.305	88.12
502.522	98.12
502.739	89.12
502.956	91.12
503.172	92.12
503.389	97.12
503.606	99.12
503.823	87.12
504.04	92.12
504.256	82.12
504.473	94.12
504.69	94.12
504.907	89.12
505.123	80.12
505.34	81.12
505.557	80.12
505.773	100.12
505.99	72.12
506.207	88.12
506.423	96.12
506.64	101.12
506.856	83.12
507.073	90.12
507.289	90.12
507.506	91.12
507.722	80.12
507.939	101.12
508.155	91.12
508.372	81.12
508.588	98.12
508.805	98.12
509.021	87.12
509.238	94.12
509.454	92.12
509.67	98.12
509.887	95.12
510.103	103.12
510.319	199.12
510.536	644.12
510.752	1957.12
510.968	557.12
511.184	143.12
511.401	107.12
511.617	99.12
511.833	82.12
512.049	95.12
512.265	93.12
512.481	92.12
512.698	82.12
512.914	76.12
513.13	94.12
513.346	87.12
513.562	81.12
513.778	95.12
513.994	101.12
514.21	105.12
514.426	106.12
514.642	109.12
514.858	120.12
515.074	138.12
515.29	350.12
515.506	1084.12
515.721	413.12
515.937	128.12
516.153	108.12
