Data from Circ_1994_H10_HRD10591_00014.txt Node
Date: Wed Jan 03 11:40:33 EST 2024
User: Yrep
Spectrometer: HR+D1059
Trigger mode: 1
Integration Time (sec): 1.000000E-1
Scans to average: 1
Electric dark correction enabled: true
Nonlinearity correction enabled: false
Boxcar width: 0
XAxis mode: Wavelengths
Number of Pixels in Spectrum: 2048
>>>>>Begin Spectral Data<<<<<
223.165	-7.19
223.4	-7.19
223.635	-7.19
223.869	-17.19
224.104	-19.19
224.338	-22.19
224.573	-15.19
224.808	-15.19
225.042	-8.19
225.277	-2.19
225.511	5.81
225.746	0.81
225.98	1.81
226.215	4.81
226.449	14.81
226.683	22.81
226.918	24.81
227.152	30.81
227.387	42.81
227.621	28.81
227.856	41.81
228.09	37.81
228.324	53.81
228.559	60.81
228.793	63.81
229.027	60.81
229.262	65.81
229.496	75.81
229.73	87.81
229.964	62.81
230.199	66.81
230.433	84.81
230.667	82.81
230.901	90.81
231.136	84.81
231.37	85.81
231.604	75.81
231.838	77.81
232.072	76.81
232.306	85.81
232.541	68.81
232.775	77.81
233.009	86.81
233.243	83.81
233.477	76.81
233.711	64.81
233.945	88.81
234.179	83.81
234.413	84.81
234.647	85.81
234.881	58.81
235.115	85.81
235.349	93.81
235.583	74.81
235.817	82.81
236.051	77.81
236.285	65.81
236.519	84.81
236.753	78.81
236.987	81.81
237.221	80.81
237.455	96.81
237.689	75.81
237.922	72.81
238.156	82.81
238.39	71.81
238.624	80.81
238.858	75.81
239.091	78.81
239.325	83.81
239.559	82.81
239.793	76.81
240.027	80.81
240.26	72.81
240.494	68.81
240.728	72.81
240.961	86.81
241.195	78.81
241.429	68.81
241.662	78.81
241.896	74.81
242.13	70.81
242.363	79.81
242.597	65.81
242.83	82.81
243.064	82.81
243.298	69.81
243.531	76.81
243.765	74.81
243.998	77.81
244.232	68.81
244.465	98.81
244.699	81.81
244.932	79.81
245.166	73.81
245.399	75.81
245.633	75.81
245.866	82.81
246.099	70.81
246.333	80.81
246.566	92.81
246.8	92.81
247.033	77.81
247.266	75.81
247.5	68.81
247.733	82.81
247.966	93.81
248.2	91.81
248.433	94.81
248.666	97.81
248.899	87.81
249.133	78.81
249.366	87.81
249.599	84.81
249.832	76.81
250.066	79.81
250.299	80.81
250.532	79.81
250.765	79.81
250.998	87.81
251.231	89.81
251.465	82.81
251.698	92.81
251.931	54.81
252.164	82.81
252.397	82.81
252.63	82.81
252.863	69.81
253.096	81.81
253.329	86.81
253.562	84.81
253.795	99.81
254.028	92.81
254.261	94.81
254.494	86.81
254.727	82.81
254.96	84.81
255.193	80.81
255.426	77.81
255.659	85.81
255.892	89.81
256.124	80.81
256.357	75.81
256.59	78.81
256.823	59.81
257.056	81.81
257.289	84.81
257.521	75.81
257.754	75.81
257.987	88.81
258.22	74.81
258.452	84.81
258.685	92.81
258.918	86.81
259.151	67.81
259.383	82.81
259.616	93.81
259.849	87.81
260.081	81.81
260.314	84.81
260.547	86.81
260.779	96.81
261.012	69.81
261.244	87.81
261.477	71.81
261.71	83.81
261.942	104.81
262.175	90.81
262.407	84.81
262.64	94.81
262.872	75.81
263.105	91.81
263.337	69.81
263.57	82.81
263.802	74.81
264.035	85.81
264.267	94.81
264.499	93.81
264.732	86.81
264.964	99.81
265.197	86.81
265.429	88.81
265.661	89.81
265.894	78.81
266.126	86.81
266.358	90.81
266.591	92.81
266.823	95.81
267.055	83.81
267.287	82.81
267.52	69.81
267.752	74.81
267.984	88.81
268.216	86.81
268.448	88.81
268.681	92.81
268.913	89.81
269.145	105.81
269.377	75.81
269.609	77.81
269.841	83.81
270.073	86.81
270.306	77.81
270.538	81.81
270.77	77.81
271.002	68.81
271.234	86.81
271.466	77.81
271.698	80.81
271.93	92.81
272.162	85.81
272.394	84.81
272.626	89.81
272.858	93.81
273.09	79.81
273.322	82.81
273.553	77.81
273.785	85.81
274.017	80.81
274.249	82.81
274.481	85.81
274.713	82.81
274.945	99.81
275.176	106.81
275.408	101.81
275.64	73.81
275.872	68.81
276.104	82.81
276.335	80.81
276.567	89.81
276.799	118.81
277.031	100.81
277.262	93.81
277.494	92.81
277.726	84.81
277.957	77.81
278.189	76.81
278.421	77.81
278.652	98.81
278.884	83.81
279.115	90.81
279.347	76.81
279.579	75.81
279.81	90.81
280.042	74.81
280.273	79.81
280.505	92.81
280.736	98.81
280.968	97.81
281.199	99.81
281.431	98.81
281.662	88.81
281.894	97.81
282.125	83.81
282.356	123.81
282.588	139.81
282.819	122.81
283.051	88.81
283.282	80.81
283.513	93.81
283.745	89.81
283.976	101.81
284.207	98.81
284.439	83.81
284.67	85.81
284.901	90.81
285.132	91.81
285.364	94.81
285.595	88.81
285.826	63.81
286.057	94.81
286.288	81.81
286.52	89.81
286.751	88.81
286.982	82.81
287.213	82.81
287.444	96.81
287.675	79.81
287.906	84.81
288.138	86.81
288.369	97.81
288.6	84.81
288.831	75.81
289.062	84.81
289.293	77.81
289.524	88.81
289.755	82.81
289.986	79.81
290.217	74.81
290.448	87.81
290.679	80.81
290.91	99.81
291.141	95.81
291.371	96.81
291.602	95.81
291.833	83.81
292.064	91.81
292.295	91.81
292.526	78.81
292.757	81.81
292.987	89.81
293.218	107.81
293.449	82.81
293.68	86.81
293.91	76.81
294.141	90.81
294.372	78.81
294.603	79.81
294.833	84.81
295.064	92.81
295.295	70.81
295.525	104.81
295.756	90.81
295.987	114.81
296.217	117.81
296.448	113.81
296.679	84.81
296.909	97.81
297.14	68.81
297.37	96.81
297.601	105.81
297.831	90.81
298.062	88.81
298.292	74.81
298.523	82.81
298.753	96.81
298.984	86.81
299.214	92.81
299.445	93.81
299.675	89.81
299.905	89.81
300.136	83.81
300.366	97.81
300.597	96.81
300.827	82.81
301.057	93.81
301.288	92.81
301.518	102.81
301.748	97.81
301.979	99.81
302.209	90.81
302.439	96.81
302.669	92.81
302.9	86.81
303.13	100.81
303.36	85.81
303.59	87.81
303.82	100.81
304.051	79.81
304.281	88.81
304.511	99.81
304.741	79.81
304.971	105.81
305.201	90.81
305.431	75.81
305.661	90.81
305.891	97.81
306.121	101.81
306.352	102.81
306.582	108.81
306.812	83.81
307.042	102.81
307.272	108.81
307.502	87.81
307.731	100.81
307.961	90.81
308.191	94.81
308.421	93.81
308.651	97.81
308.881	96.81
309.111	91.81
309.341	90.81
309.571	101.81
309.8	83.81
310.03	94.81
310.26	102.81
310.49	101.81
310.72	91.81
310.949	109.81
311.179	100.81
311.409	94.81
311.639	96.81
311.868	112.81
312.098	105.81
312.328	105.81
312.557	98.81
312.787	96.81
313.017	88.81
313.246	84.81
313.476	88.81
313.706	88.81
313.935	91.81
314.165	93.81
314.394	88.81
314.624	94.81
314.853	99.81
315.083	102.81
315.312	72.81
315.542	90.81
315.771	96.81
316.001	96.81
316.23	94.81
316.46	97.81
316.689	91.81
316.919	88.81
317.148	97.81
317.377	101.81
317.607	86.81
317.836	92.81
318.065	93.81
318.295	83.81
318.524	93.81
318.753	91.81
318.983	87.81
319.212	98.81
319.441	120.81
319.67	118.81
319.9	99.81
320.129	95.81
320.358	84.81
320.587	91.81
320.816	93.81
321.046	113.81
321.275	106.81
321.504	97.81
321.733	101.81
321.962	95.81
322.191	99.81
322.42	91.81
322.649	113.81
322.878	103.81
323.108	121.81
323.337	116.81
323.566	124.81
323.795	152.81
324.024	168.81
324.253	336.81
324.482	748.81
324.71	1505.81
324.939	1916.81
325.168	718.81
325.397	226.81
325.626	140.81
325.855	128.81
326.084	120.81
326.313	115.81
326.542	129.81
326.77	224.81
326.999	392.81
327.228	831.81
327.457	1519.81
327.686	1163.81
327.914	343.81
328.143	182.81
328.372	126.81
328.6	108.81
328.829	115.81
329.058	128.81
329.287	116.81
329.515	109.81
329.744	108.81
329.972	96.81
330.201	128.81
330.43	125.81
330.658	131.81
330.887	152.81
331.115	125.81
331.344	107.81
331.572	98.81
331.801	110.81
332.03	82.81
332.258	92.81
332.486	82.81
332.715	109.81
332.943	99.81
333.172	96.81
333.4	96.81
333.629	95.81
333.857	110.81
334.085	102.81
334.314	115.81
334.542	139.81
334.771	124.81
334.999	101.81
335.227	92.81
335.455	102.81
335.684	100.81
335.912	92.81
336.14	101.81
336.369	97.81
336.597	98.81
336.825	102.81
337.053	96.81
337.281	94.81
337.51	83.81
337.738	104.81
337.966	91.81
338.194	97.81
338.422	100.81
338.65	92.81
338.878	100.81
339.106	96.81
339.334	96.81
339.562	97.81
339.79	89.81
340.018	90.81
340.246	100.81
340.474	96.81
340.702	89.81
340.93	96.81
341.158	95.81
341.386	96.81
341.614	114.81
341.842	96.81
342.07	95.81
342.298	92.81
342.526	100.81
342.754	85.81
342.981	93.81
343.209	93.81
343.437	105.81
343.665	84.81
343.893	90.81
344.12	101.81
344.348	84.81
344.576	96.81
344.804	89.81
345.031	89.81
345.259	91.81
345.487	97.81
345.714	83.81
345.942	92.81
346.17	101.81
346.397	95.81
346.625	92.81
346.853	97.81
347.08	96.81
347.308	95.81
347.535	91.81
347.763	90.81
347.99	108.81
348.218	94.81
348.445	106.81
348.673	99.81
348.9	104.81
349.128	99.81
349.355	99.81
349.583	113.81
349.81	94.81
350.037	81.81
350.265	94.81
350.492	89.81
350.72	97.81
350.947	97.81
351.174	118.81
351.402	106.81
351.629	95.81
351.856	108.81
352.083	93.81
352.311	95.81
352.538	99.81
352.765	111.81
352.992	105.81
353.22	106.81
353.447	110.81
353.674	107.81
353.901	98.81
354.128	81.81
354.355	86.81
354.583	95.81
354.81	100.81
355.037	93.81
355.264	99.81
355.491	92.81
355.718	93.81
355.945	102.81
356.172	99.81
356.399	95.81
356.626	97.81
356.853	102.81
357.08	92.81
357.307	97.81
357.534	89.81
357.761	93.81
357.988	93.81
358.215	100.81
358.441	99.81
358.668	105.81
358.895	97.81
359.122	88.81
359.349	101.81
359.576	107.81
359.802	106.81
360.029	98.81
360.256	100.81
360.483	83.81
360.709	99.81
360.936	96.81
361.163	91.81
361.39	100.81
361.616	90.81
361.843	87.81
362.07	90.81
362.296	96.81
362.523	70.81
362.749	101.81
362.976	93.81
363.203	95.81
363.429	89.81
363.656	92.81
363.882	88.81
364.109	74.81
364.335	100.81
364.562	88.81
364.788	100.81
365.015	94.81
365.241	90.81
365.468	101.81
365.694	101.81
365.92	103.81
366.147	92.81
366.373	88.81
366.599	91.81
366.826	92.81
367.052	102.81
367.278	96.81
367.505	74.81
367.731	109.81
367.957	78.81
368.184	100.81
368.41	94.81
368.636	110.81
368.862	124.81
369.089	97.81
369.315	86.81
369.541	100.81
369.767	99.81
369.993	95.81
370.219	105.81
370.445	99.81
370.672	75.81
370.898	93.81
371.124	86.81
371.35	89.81
371.576	84.81
371.802	88.81
372.028	82.81
372.254	101.81
372.48	80.81
372.706	93.81
372.932	88.81
373.158	82.81
373.384	77.81
373.61	82.81
373.835	90.81
374.061	91.81
374.287	80.81
374.513	86.81
374.739	88.81
374.965	100.81
375.191	80.81
375.416	96.81
375.642	100.81
375.868	86.81
376.094	83.81
376.319	79.81
376.545	105.81
376.771	92.81
376.997	85.81
377.222	73.81
377.448	86.81
377.674	94.81
377.899	79.81
378.125	82.81
378.35	87.81
378.576	98.81
378.802	99.81
379.027	89.81
379.253	98.81
379.478	95.81
379.704	89.81
379.929	88.81
380.155	85.81
380.38	93.81
380.606	103.81
380.831	88.81
381.057	110.81
381.282	117.81
381.507	96.81
381.733	95.81
381.958	97.81
382.184	106.81
382.409	105.81
382.634	107.81
382.86	113.81
383.085	104.81
383.31	93.81
383.535	105.81
383.761	97.81
383.986	89.81
384.211	80.81
384.436	107.81
384.662	100.81
384.887	91.81
385.112	100.81
385.337	115.81
385.562	117.81
385.787	93.81
386.013	104.81
386.238	100.81
386.463	114.81
386.688	101.81
386.913	101.81
387.138	104.81
387.363	99.81
387.588	105.81
387.813	96.81
388.038	101.81
388.263	104.81
388.488	108.81
388.713	96.81
388.938	92.81
389.163	92.81
389.387	95.81
389.612	88.81
389.837	97.81
390.062	88.81
390.287	101.81
390.512	95.81
390.736	92.81
390.961	87.81
391.186	88.81
391.411	92.81
391.636	93.81
391.86	92.81
392.085	83.81
392.31	87.81
392.534	89.81
392.759	87.81
392.984	86.81
393.208	88.81
393.433	98.81
393.658	98.81
393.882	95.81
394.107	94.81
394.331	101.81
394.556	85.81
394.78	91.81
395.005	87.81
395.229	99.81
395.454	85.81
395.678	85.81
395.903	102.81
396.127	79.81
396.352	88.81
396.576	89.81
396.801	83.81
397.025	96.81
397.249	92.81
397.474	86.81
397.698	94.81
397.922	88.81
398.147	76.81
398.371	87.81
398.595	92.81
398.82	82.81
399.044	84.81
399.268	87.81
399.492	80.81
399.717	70.81
399.941	85.81
400.165	96.81
400.389	93.81
400.613	99.81
400.837	76.81
401.062	80.81
401.286	82.81
401.51	81.81
401.734	93.81
401.958	100.81
402.182	105.81
402.406	143.81
402.63	124.81
402.854	88.81
403.078	76.81
403.302	94.81
403.526	100.81
403.75	84.81
403.974	86.81
404.198	89.81
404.422	85.81
404.645	90.81
404.869	84.81
405.093	96.81
405.317	93.81
405.541	95.81
405.765	104.81
405.988	100.81
406.212	160.81
406.436	213.81
406.66	131.81
406.883	102.81
407.107	82.81
407.331	90.81
407.555	81.81
407.778	106.81
408.002	91.81
408.226	101.81
408.449	91.81
408.673	96.81
408.896	97.81
409.12	87.81
409.344	77.81
409.567	94.81
409.791	95.81
410.014	103.81
410.238	96.81
410.461	90.81
410.685	84.81
410.908	106.81
411.132	117.81
411.355	93.81
411.578	95.81
411.802	97.81
412.025	93.81
412.249	82.81
412.472	102.81
412.695	94.81
412.919	84.81
413.142	86.81
413.365	79.81
413.589	84.81
413.812	91.81
414.035	100.81
414.258	94.81
414.482	87.81
414.705	96.81
414.928	98.81
415.151	93.81
415.374	103.81
415.597	76.81
415.821	95.81
416.044	91.81
416.267	96.81
416.49	85.81
416.713	78.81
416.936	89.81
417.159	81.81
417.382	83.81
417.605	91.81
417.828	88.81
418.051	78.81
418.274	95.81
418.497	83.81
418.72	87.81
418.943	79.81
419.166	78.81
419.389	81.81
419.611	81.81
419.834	85.81
420.057	89.81
420.28	84.81
420.503	99.81
420.726	84.81
420.948	88.81
421.171	101.81
421.394	95.81
421.617	95.81
421.839	106.81
422.062	81.81
422.285	98.81
422.507	96.81
422.73	90.81
422.953	82.81
423.175	80.81
423.398	76.81
423.621	91.81
423.843	96.81
424.066	86.81
424.288	78.81
424.511	98.81
424.733	99.81
424.956	98.81
425.178	96.81
425.401	105.81
425.623	87.81
425.846	93.81
426.068	96.81
426.291	96.81
426.513	99.81
426.735	90.81
426.958	88.81
427.18	91.81
427.402	130.81
427.625	144.81
427.847	131.81
428.069	116.81
428.292	97.81
428.514	96.81
428.736	92.81
428.958	78.81
429.181	94.81
429.403	89.81
429.625	84.81
429.847	96.81
430.069	93.81
430.292	89.81
430.514	97.81
430.736	69.81
430.958	81.81
431.18	85.81
431.402	97.81
431.624	80.81
431.846	93.81
432.068	78.81
432.29	90.81
432.512	90.81
432.734	85.81
432.956	79.81
433.178	101.81
433.4	81.81
433.622	96.81
433.844	89.81
434.066	97.81
434.287	97.81
434.509	94.81
434.731	87.81
434.953	87.81
435.175	110.81
435.397	92.81
435.618	82.81
435.84	109.81
436.062	120.81
436.284	103.81
436.505	113.81
436.727	79.81
436.949	86.81
437.17	99.81
437.392	83.81
437.614	88.81
437.835	78.81
438.057	118.81
438.278	105.81
438.5	109.81
438.721	122.81
438.943	91.81
439.165	89.81
439.386	97.81
439.608	97.81
439.829	101.81
440.05	125.81
440.272	127.81
440.493	102.81
440.715	78.81
440.936	89.81
441.158	88.81
441.379	90.81
441.6	73.81
441.822	104.81
442.043	96.81
442.264	98.81
442.486	113.81
442.707	95.81
442.928	109.81
443.149	119.81
443.371	128.81
443.592	116.81
443.813	112.81
444.034	102.81
444.255	99.81
444.476	88.81
444.698	92.81
444.919	96.81
445.14	130.81
445.361	123.81
445.582	109.81
445.803	113.81
446.024	119.81
446.245	120.81
446.466	109.81
446.687	95.81
446.908	94.81
447.129	89.81
447.35	94.81
447.571	91.81
447.792	96.81
448.013	88.81
448.234	78.81
448.455	94.81
448.675	97.81
448.896	109.81
449.117	96.81
449.338	94.81
449.559	123.81
449.779	127.81
450	101.81
450.221	85.81
450.442	93.81
450.662	115.81
450.883	102.81
451.104	101.81
451.324	97.81
451.545	73.81
451.766	93.81
451.986	77.81
452.207	93.81
452.428	97.81
452.648	94.81
452.869	109.81
453.089	110.81
453.31	93.81
453.53	94.81
453.751	78.81
453.971	102.81
454.192	106.81
454.412	100.81
454.633	83.81
454.853	96.81
455.073	86.81
455.294	98.81
455.514	89.81
455.734	92.81
455.955	72.81
456.175	83.81
456.395	89.81
456.616	90.81
456.836	89.81
457.056	89.81
457.276	92.81
457.497	91.81
457.717	74.81
457.937	80.81
458.157	95.81
458.377	90.81
458.598	97.81
458.818	144.81
459.038	138.81
459.258	123.81
459.478	94.81
459.698	93.81
459.918	85.81
460.138	81.81
460.358	95.81
460.578	94.81
460.798	84.81
461.018	65.81
461.238	83.81
461.458	82.81
461.678	81.81
461.898	87.81
462.118	84.81
462.338	97.81
462.558	97.81
462.777	80.81
462.997	83.81
463.217	99.81
463.437	98.81
463.657	94.81
463.876	75.81
464.096	79.81
464.316	83.81
464.536	98.81
464.755	109.81
464.975	104.81
465.195	154.81
465.414	158.81
465.634	88.81
465.854	94.81
466.073	91.81
466.293	76.81
466.512	97.81
466.732	93.81
466.951	92.81
467.171	76.81
467.391	83.81
467.61	102.81
467.829	90.81
468.049	89.81
468.268	85.81
468.488	82.81
468.707	80.81
468.927	87.81
469.146	84.81
469.365	80.81
469.585	91.81
469.804	90.81
470.023	93.81
470.243	104.81
470.462	98.81
470.681	115.81
470.901	79.81
471.12	80.81
471.339	89.81
471.558	86.81
471.777	97.81
471.997	109.81
472.216	109.81
472.435	127.81
472.654	99.81
472.873	102.81
473.092	84.81
473.311	78.81
473.53	90.81
473.749	92.81
473.968	101.81
474.187	95.81
474.406	98.81
474.625	101.81
474.844	75.81
475.063	66.81
475.282	80.81
475.501	78.81
475.72	84.81
475.939	76.81
476.158	83.81
476.377	86.81
476.596	106.81
476.814	108.81
477.033	94.81
477.252	93.81
477.471	82.81
477.69	83.81
477.908	94.81
478.127	89.81
478.346	91.81
478.564	104.81
478.783	83.81
479.002	91.81
479.22	89.81
479.439	93.81
479.658	91.81
479.876	83.81
480.095	78.81
480.313	82.81
480.532	91.81
480.751	85.81
480.969	92.81
481.188	162.81
481.406	127.81
481.624	100.81
481.843	78.81
482.061	96.81
482.28	83.81
482.498	91.81
482.717	94.81
482.935	87.81
483.153	81.81
483.372	83.81
483.59	103.81
483.808	99.81
484.027	93.81
484.245	92.81
484.463	88.81
484.681	104.81
484.9	89.81
485.118	89.81
485.336	100.81
485.554	88.81
485.772	101.81
485.99	105.81
486.209	106.81
486.427	96.81
486.645	100.81
486.863	108.81
487.081	106.81
487.299	101.81
487.517	90.81
487.735	92.81
487.953	93.81
488.171	90.81
488.389	88.81
488.607	95.81
488.825	72.81
489.043	101.81
489.261	87.81
489.479	99.81
489.696	92.81
489.914	97.81
490.132	95.81
490.35	84.81
490.568	85.81
490.786	105.81
491.003	101.81
491.221	100.81
491.439	90.81
491.657	97.81
491.874	97.81
492.092	76.81
492.31	70.81
492.527	84.81
492.745	93.81
492.963	94.81
493.18	92.81
493.398	99.81
493.615	102.81
493.833	80.81
494.05	95.81
494.268	97.81
494.485	91.81
494.703	92.81
494.92	79.81
495.138	76.81
495.355	96.81
495.573	93.81
495.79	80.81
496.008	75.81
496.225	80.81
496.442	82.81
496.66	92.81
496.877	67.81
497.094	88.81
497.312	96.81
497.529	102.81
497.746	100.81
497.963	76.81
498.181	88.81
498.398	74.81
498.615	90.81
498.832	107.81
499.049	96.81
499.267	99.81
499.484	103.81
499.701	77.81
499.918	92.81
500.135	89.81
500.352	101.81
500.569	115.81
500.786	89.81
501.003	99.81
501.22	106.81
501.437	82.81
501.654	91.81
501.871	105.81
502.088	93.81
502.305	103.81
502.522	88.81
502.739	92.81
502.956	81.81
503.172	97.81
503.389	86.81
503.606	90.81
503.823	109.81
504.04	96.81
504.256	89.81
504.473	99.81
504.69	86.81
504.907	82.81
505.123	86.81
505.34	94.81
505.557	90.81
505.773	87.81
505.99	96.81
506.207	91.81
506.423	81.81
506.64	97.81
506.856	73.81
507.073	96.81
507.289	91.81
507.506	97.81
507.722	111.81
507.939	110.81
508.155	101.81
508.372	105.81
508.588	86.81
508.805	98.81
509.021	88.81
509.238	82.81
509.454	95.81
509.67	96.81
509.887	114.81
510.103	124.81
510.319	203.81
510.536	755.81
510.752	2363.81
510.968	634.81
511.184	148.81
511.401	88.81
511.617	93.81
511.833	102.81
512.049	85.81
512.265	93.81
512.481	96.81
512.698	102.81
512.914	78.81
513.13	94.81
513.346	93.81
513.562	89.81
513.778	92.81
513.994	89.81
514.21	98.81
514.426	101.81
514.642	130.81
514.858	117.81
515.074	157.81
515.29	431.81
515.506	1371.81
515.721	507.81
515.937	150.81
