Data from Circ_1994_H10_HRD10591_00077.txt Node
Date: Wed Jan 03 11:40:45 EST 2024
User: Yrep
Spectrometer: HR+D1059
Trigger mode: 1
Integration Time (sec): 1.000000E-1
Scans to average: 1
Electric dark correction enabled: true
Nonlinearity correction enabled: false
Boxcar width: 0
XAxis mode: Wavelengths
Number of Pixels in Spectrum: 2048
>>>>>Begin Spectral Data<<<<<
223.165	-17.94
223.4	-17.94
223.635	-17.94
223.869	-23.94
224.104	-16.94
224.338	-19.94
224.573	-1.94
224.808	-1.94
225.042	-16.94
225.277	-6.94
225.511	1.06
225.746	-7.94
225.98	-2.94
226.215	8.06
226.449	13.06
226.683	28.06
226.918	33.06
227.152	34.06
227.387	37.06
227.621	39.06
227.856	52.06
228.09	42.06
228.324	47.06
228.559	55.06
228.793	63.06
229.027	59.06
229.262	68.06
229.496	74.06
229.73	80.06
229.964	94.06
230.199	71.06
230.433	76.06
230.667	79.06
230.901	81.06
231.136	70.06
231.37	85.06
231.604	79.06
231.838	97.06
232.072	98.06
232.306	78.06
232.541	97.06
232.775	68.06
233.009	83.06
233.243	60.06
233.477	89.06
233.711	79.06
233.945	79.06
234.179	87.06
234.413	95.06
234.647	81.06
234.881	74.06
235.115	76.06
235.349	83.06
235.583	87.06
235.817	77.06
236.051	70.06
236.285	78.06
236.519	83.06
236.753	87.06
236.987	71.06
237.221	97.06
237.455	68.06
237.689	73.06
237.922	77.06
238.156	76.06
238.39	75.06
238.624	78.06
238.858	77.06
239.091	77.06
239.325	66.06
239.559	77.06
239.793	83.06
240.027	76.06
240.26	79.06
240.494	85.06
240.728	86.06
240.961	80.06
241.195	82.06
241.429	86.06
241.662	84.06
241.896	73.06
242.13	87.06
242.363	69.06
242.597	89.06
242.83	75.06
243.064	78.06
243.298	67.06
243.531	79.06
243.765	80.06
243.998	89.06
244.232	87.06
244.465	89.06
244.699	70.06
244.932	93.06
245.166	78.06
245.399	82.06
245.633	84.06
245.866	66.06
246.099	77.06
246.333	84.06
246.566	63.06
246.8	89.06
247.033	93.06
247.266	76.06
247.5	66.06
247.733	92.06
247.966	80.06
248.2	78.06
248.433	77.06
248.666	66.06
248.899	85.06
249.133	82.06
249.366	86.06
249.599	91.06
249.832	81.06
250.066	71.06
250.299	84.06
250.532	88.06
250.765	75.06
250.998	88.06
251.231	84.06
251.465	100.06
251.698	90.06
251.931	82.06
252.164	74.06
252.397	81.06
252.63	89.06
252.863	74.06
253.096	92.06
253.329	89.06
253.562	81.06
253.795	80.06
254.028	81.06
254.261	93.06
254.494	79.06
254.727	96.06
254.96	81.06
255.193	77.06
255.426	89.06
255.659	87.06
255.892	80.06
256.124	81.06
256.357	69.06
256.59	78.06
256.823	75.06
257.056	85.06
257.289	62.06
257.521	79.06
257.754	84.06
257.987	81.06
258.22	79.06
258.452	82.06
258.685	87.06
258.918	81.06
259.151	71.06
259.383	77.06
259.616	86.06
259.849	82.06
260.081	92.06
260.314	85.06
260.547	83.06
260.779	74.06
261.012	64.06
261.244	95.06
261.477	95.06
261.71	83.06
261.942	100.06
262.175	117.06
262.407	87.06
262.64	73.06
262.872	77.06
263.105	77.06
263.337	86.06
263.57	79.06
263.802	80.06
264.035	82.06
264.267	89.06
264.499	78.06
264.732	88.06
264.964	89.06
265.197	78.06
265.429	91.06
265.661	93.06
265.894	85.06
266.126	77.06
266.358	90.06
266.591	76.06
266.823	79.06
267.055	102.06
267.287	87.06
267.52	90.06
267.752	84.06
267.984	84.06
268.216	80.06
268.448	89.06
268.681	87.06
268.913	81.06
269.145	73.06
269.377	82.06
269.609	94.06
269.841	90.06
270.073	95.06
270.306	90.06
270.538	90.06
270.77	95.06
271.002	97.06
271.234	98.06
271.466	82.06
271.698	89.06
271.93	86.06
272.162	99.06
272.394	75.06
272.626	83.06
272.858	79.06
273.09	78.06
273.322	92.06
273.553	83.06
273.785	82.06
274.017	102.06
274.249	71.06
274.481	82.06
274.713	98.06
274.945	87.06
275.176	76.06
275.408	86.06
275.64	89.06
275.872	90.06
276.104	99.06
276.335	102.06
276.567	90.06
276.799	97.06
277.031	97.06
277.262	82.06
277.494	95.06
277.726	79.06
277.957	74.06
278.189	84.06
278.421	89.06
278.652	89.06
278.884	97.06
279.115	83.06
279.347	80.06
279.579	91.06
279.81	84.06
280.042	91.06
280.273	95.06
280.505	90.06
280.736	95.06
280.968	95.06
281.199	90.06
281.431	92.06
281.662	90.06
281.894	83.06
282.125	105.06
282.356	99.06
282.588	125.06
282.819	98.06
283.051	90.06
283.282	90.06
283.513	94.06
283.745	89.06
283.976	88.06
284.207	82.06
284.439	90.06
284.67	98.06
284.901	78.06
285.132	101.06
285.364	96.06
285.595	82.06
285.826	90.06
286.057	69.06
286.288	97.06
286.52	87.06
286.751	102.06
286.982	95.06
287.213	83.06
287.444	89.06
287.675	82.06
287.906	83.06
288.138	67.06
288.369	85.06
288.6	79.06
288.831	73.06
289.062	90.06
289.293	79.06
289.524	87.06
289.755	83.06
289.986	96.06
290.217	77.06
290.448	77.06
290.679	92.06
290.91	76.06
291.141	97.06
291.371	99.06
291.602	94.06
291.833	89.06
292.064	84.06
292.295	85.06
292.526	93.06
292.757	74.06
292.987	89.06
293.218	94.06
293.449	81.06
293.68	79.06
293.91	81.06
294.141	86.06
294.372	99.06
294.603	89.06
294.833	84.06
295.064	85.06
295.295	92.06
295.525	95.06
295.756	102.06
295.987	109.06
296.217	123.06
296.448	129.06
296.679	85.06
296.909	84.06
297.14	92.06
297.37	85.06
297.601	91.06
297.831	85.06
298.062	93.06
298.292	83.06
298.523	85.06
298.753	92.06
298.984	101.06
299.214	83.06
299.445	94.06
299.675	89.06
299.905	102.06
300.136	82.06
300.366	99.06
300.597	92.06
300.827	86.06
301.057	103.06
301.288	94.06
301.518	95.06
301.748	94.06
301.979	103.06
302.209	96.06
302.439	91.06
302.669	95.06
302.9	98.06
303.13	99.06
303.36	82.06
303.59	99.06
303.82	89.06
304.051	102.06
304.281	109.06
304.511	96.06
304.741	90.06
304.971	88.06
305.201	87.06
305.431	78.06
305.661	92.06
305.891	82.06
306.121	81.06
306.352	112.06
306.582	95.06
306.812	94.06
307.042	85.06
307.272	102.06
307.502	101.06
307.731	100.06
307.961	101.06
308.191	102.06
308.421	97.06
308.651	82.06
308.881	99.06
309.111	90.06
309.341	83.06
309.571	94.06
309.8	86.06
310.03	97.06
310.26	94.06
310.49	89.06
310.72	88.06
310.949	102.06
311.179	108.06
311.409	93.06
311.639	77.06
311.868	97.06
312.098	111.06
312.328	102.06
312.557	100.06
312.787	107.06
313.017	102.06
313.246	101.06
313.476	81.06
313.706	86.06
313.935	98.06
314.165	81.06
314.394	99.06
314.624	98.06
314.853	95.06
315.083	91.06
315.312	106.06
315.542	95.06
315.771	86.06
316.001	83.06
316.23	95.06
316.46	90.06
316.689	86.06
316.919	84.06
317.148	97.06
317.377	93.06
317.607	104.06
317.836	103.06
318.065	104.06
318.295	93.06
318.524	94.06
318.753	99.06
318.983	101.06
319.212	101.06
319.441	110.06
319.67	107.06
319.9	86.06
320.129	97.06
320.358	91.06
320.587	89.06
320.816	109.06
321.046	95.06
321.275	81.06
321.504	82.06
321.733	98.06
321.962	90.06
322.191	93.06
322.42	111.06
322.649	117.06
322.878	109.06
323.108	102.06
323.337	102.06
323.566	119.06
323.795	139.06
324.024	188.06
324.253	329.06
324.482	691.06
324.71	1397.06
324.939	1805.06
325.168	694.06
325.397	218.06
325.626	131.06
325.855	111.06
326.084	127.06
326.313	127.06
326.542	151.06
326.77	230.06
326.999	399.06
327.228	774.06
327.457	1396.06
327.686	1124.06
327.914	325.06
328.143	205.06
328.372	160.06
328.6	132.06
328.829	122.06
329.058	124.06
329.287	126.06
329.515	111.06
329.744	118.06
329.972	124.06
330.201	182.06
330.43	180.06
330.658	142.06
330.887	131.06
331.115	112.06
331.344	102.06
331.572	101.06
331.801	93.06
332.03	105.06
332.258	96.06
332.486	103.06
332.715	85.06
332.943	89.06
333.172	84.06
333.4	116.06
333.629	111.06
333.857	132.06
334.085	126.06
334.314	155.06
334.542	211.06
334.771	209.06
334.999	131.06
335.227	99.06
335.455	89.06
335.684	81.06
335.912	105.06
336.14	94.06
336.369	101.06
336.597	99.06
336.825	95.06
337.053	89.06
337.281	84.06
337.51	83.06
337.738	90.06
337.966	98.06
338.194	93.06
338.422	88.06
338.65	84.06
338.878	93.06
339.106	90.06
339.334	102.06
339.562	86.06
339.79	84.06
340.018	98.06
340.246	103.06
340.474	110.06
340.702	87.06
340.93	97.06
341.158	99.06
341.386	89.06
341.614	101.06
341.842	95.06
342.07	85.06
342.298	91.06
342.526	85.06
342.754	91.06
342.981	93.06
343.209	86.06
343.437	105.06
343.665	102.06
343.893	97.06
344.12	92.06
344.348	102.06
344.576	92.06
344.804	88.06
345.031	103.06
345.259	103.06
345.487	89.06
345.714	97.06
345.942	101.06
346.17	100.06
346.397	97.06
346.625	87.06
346.853	92.06
347.08	90.06
347.308	92.06
347.535	84.06
347.763	86.06
347.99	111.06
348.218	100.06
348.445	105.06
348.673	102.06
348.9	93.06
349.128	87.06
349.355	89.06
349.583	92.06
349.81	91.06
350.037	82.06
350.265	94.06
350.492	107.06
350.72	98.06
350.947	99.06
351.174	95.06
351.402	113.06
351.629	101.06
351.856	100.06
352.083	102.06
352.311	101.06
352.538	115.06
352.765	117.06
352.992	113.06
353.22	104.06
353.447	103.06
353.674	112.06
353.901	105.06
354.128	95.06
354.355	98.06
354.583	107.06
354.81	95.06
355.037	101.06
355.264	81.06
355.491	88.06
355.718	92.06
355.945	97.06
356.172	90.06
356.399	101.06
356.626	102.06
356.853	97.06
357.08	92.06
357.307	86.06
357.534	104.06
357.761	97.06
357.988	94.06
358.215	95.06
358.441	87.06
358.668	98.06
358.895	93.06
359.122	97.06
359.349	74.06
359.576	99.06
359.802	93.06
360.029	101.06
360.256	109.06
360.483	101.06
360.709	90.06
360.936	93.06
361.163	81.06
361.39	87.06
361.616	94.06
361.843	86.06
362.07	99.06
362.296	89.06
362.523	95.06
362.749	92.06
362.976	90.06
363.203	86.06
363.429	83.06
363.656	85.06
363.882	86.06
364.109	90.06
364.335	81.06
364.562	97.06
364.788	91.06
365.015	97.06
365.241	85.06
365.468	95.06
365.694	105.06
365.92	102.06
366.147	90.06
366.373	86.06
366.599	83.06
366.826	79.06
367.052	78.06
367.278	84.06
367.505	91.06
367.731	79.06
367.957	97.06
368.184	91.06
368.41	93.06
368.636	107.06
368.862	120.06
369.089	94.06
369.315	89.06
369.541	91.06
369.767	96.06
369.993	78.06
370.219	93.06
370.445	94.06
370.672	92.06
370.898	78.06
371.124	99.06
371.35	86.06
371.576	99.06
371.802	86.06
372.028	83.06
372.254	108.06
372.48	92.06
372.706	82.06
372.932	92.06
373.158	68.06
373.384	89.06
373.61	92.06
373.835	108.06
374.061	95.06
374.287	98.06
374.513	85.06
374.739	88.06
374.965	97.06
375.191	98.06
375.416	105.06
375.642	96.06
375.868	99.06
376.094	91.06
376.319	67.06
376.545	84.06
376.771	96.06
376.997	91.06
377.222	83.06
377.448	89.06
377.674	78.06
377.899	86.06
378.125	89.06
378.35	84.06
378.576	83.06
378.802	86.06
379.027	105.06
379.253	87.06
379.478	91.06
379.704	85.06
379.929	91.06
380.155	88.06
380.38	97.06
380.606	97.06
380.831	86.06
381.057	93.06
381.282	95.06
381.507	90.06
381.733	97.06
381.958	90.06
382.184	94.06
382.409	94.06
382.634	106.06
382.86	94.06
383.085	82.06
383.31	98.06
383.535	99.06
383.761	94.06
383.986	99.06
384.211	93.06
384.436	97.06
384.662	104.06
384.887	91.06
385.112	101.06
385.337	101.06
385.562	93.06
385.787	86.06
386.013	87.06
386.238	116.06
386.463	111.06
386.688	85.06
386.913	81.06
387.138	96.06
387.363	95.06
387.588	100.06
387.813	94.06
388.038	101.06
388.263	104.06
388.488	118.06
388.713	91.06
388.938	85.06
389.163	86.06
389.387	104.06
389.612	90.06
389.837	106.06
390.062	98.06
390.287	81.06
390.512	93.06
390.736	90.06
390.961	85.06
391.186	92.06
391.411	98.06
391.636	95.06
391.86	91.06
392.085	99.06
392.31	70.06
392.534	92.06
392.759	77.06
392.984	78.06
393.208	81.06
393.433	89.06
393.658	101.06
393.882	91.06
394.107	74.06
394.331	80.06
394.556	92.06
394.78	88.06
395.005	81.06
395.229	89.06
395.454	101.06
395.678	85.06
395.903	95.06
396.127	108.06
396.352	86.06
396.576	93.06
396.801	89.06
397.025	94.06
397.249	67.06
397.474	101.06
397.698	83.06
397.922	93.06
398.147	95.06
398.371	81.06
398.595	91.06
398.82	85.06
399.044	82.06
399.268	81.06
399.492	87.06
399.717	101.06
399.941	83.06
400.165	103.06
400.389	96.06
400.613	102.06
400.837	86.06
401.062	93.06
401.286	108.06
401.51	79.06
401.734	104.06
401.958	86.06
402.182	108.06
402.406	132.06
402.63	92.06
402.854	77.06
403.078	84.06
403.302	85.06
403.526	82.06
403.75	88.06
403.974	81.06
404.198	92.06
404.422	99.06
404.645	80.06
404.869	92.06
405.093	90.06
405.317	97.06
405.541	89.06
405.765	109.06
405.988	106.06
406.212	167.06
406.436	198.06
406.66	130.06
406.883	102.06
407.107	88.06
407.331	110.06
407.555	101.06
407.778	90.06
408.002	87.06
408.226	83.06
408.449	102.06
408.673	99.06
408.896	110.06
409.12	97.06
409.344	101.06
409.567	91.06
409.791	97.06
410.014	81.06
410.238	100.06
410.461	89.06
410.685	90.06
410.908	106.06
411.132	102.06
411.355	93.06
411.578	92.06
411.802	86.06
412.025	83.06
412.249	95.06
412.472	85.06
412.695	78.06
412.919	86.06
413.142	77.06
413.365	99.06
413.589	87.06
413.812	94.06
414.035	77.06
414.258	85.06
414.482	92.06
414.705	78.06
414.928	101.06
415.151	95.06
415.374	83.06
415.597	90.06
415.821	81.06
416.044	93.06
416.267	86.06
416.49	97.06
416.713	86.06
416.936	81.06
417.159	91.06
417.382	96.06
417.605	87.06
417.828	100.06
418.051	94.06
418.274	86.06
418.497	86.06
418.72	74.06
418.943	90.06
419.166	82.06
419.389	101.06
419.611	104.06
419.834	89.06
420.057	92.06
420.28	81.06
420.503	85.06
420.726	95.06
420.948	86.06
421.171	86.06
421.394	81.06
421.617	106.06
421.839	86.06
422.062	73.06
422.285	83.06
422.507	109.06
422.73	94.06
422.953	85.06
423.175	96.06
423.398	90.06
423.621	89.06
423.843	91.06
424.066	88.06
424.288	85.06
424.511	93.06
424.733	94.06
424.956	102.06
425.178	93.06
425.401	94.06
425.623	90.06
425.846	87.06
426.068	94.06
426.291	86.06
426.513	85.06
426.735	74.06
426.958	95.06
427.18	97.06
427.402	111.06
427.625	158.06
427.847	123.06
428.069	125.06
428.292	80.06
428.514	104.06
428.736	94.06
428.958	86.06
429.181	87.06
429.403	80.06
429.625	89.06
429.847	98.06
430.069	102.06
430.292	95.06
430.514	79.06
430.736	81.06
430.958	75.06
431.18	90.06
431.402	91.06
431.624	91.06
431.846	93.06
432.068	77.06
432.29	79.06
432.512	84.06
432.734	84.06
432.956	100.06
433.178	96.06
433.4	85.06
433.622	98.06
433.844	81.06
434.066	105.06
434.287	77.06
434.509	94.06
434.731	103.06
434.953	83.06
435.175	96.06
435.397	76.06
435.618	80.06
435.84	89.06
436.062	97.06
436.284	106.06
436.505	85.06
436.727	107.06
436.949	91.06
437.17	81.06
437.392	92.06
437.614	84.06
437.835	107.06
438.057	113.06
438.278	91.06
438.5	96.06
438.721	117.06
438.943	103.06
439.165	102.06
439.386	84.06
439.608	87.06
439.829	103.06
440.05	120.06
440.272	132.06
440.493	110.06
440.715	87.06
440.936	81.06
441.158	89.06
441.379	91.06
441.6	84.06
441.822	97.06
442.043	81.06
442.264	96.06
442.486	92.06
442.707	85.06
442.928	103.06
443.149	103.06
443.371	109.06
443.592	94.06
443.813	114.06
444.034	102.06
444.255	94.06
444.476	99.06
444.698	75.06
444.919	96.06
445.14	129.06
445.361	116.06
445.582	107.06
445.803	131.06
446.024	125.06
446.245	116.06
446.466	91.06
446.687	86.06
446.908	99.06
447.129	76.06
447.35	79.06
447.571	100.06
447.792	86.06
448.013	99.06
448.234	110.06
448.455	87.06
448.675	108.06
448.896	96.06
449.117	101.06
449.338	102.06
449.559	117.06
449.779	124.06
450	94.06
450.221	95.06
450.442	87.06
450.662	101.06
450.883	94.06
451.104	121.06
451.324	97.06
451.545	89.06
451.766	85.06
451.986	79.06
452.207	91.06
452.428	89.06
452.648	102.06
452.869	108.06
453.089	96.06
453.31	103.06
453.53	99.06
453.751	94.06
453.971	113.06
454.192	104.06
454.412	84.06
454.633	74.06
454.853	91.06
455.073	85.06
455.294	80.06
455.514	90.06
455.734	91.06
455.955	87.06
456.175	75.06
456.395	95.06
456.616	64.06
456.836	93.06
457.056	83.06
457.276	86.06
457.497	93.06
457.717	89.06
457.937	72.06
458.157	83.06
458.377	94.06
458.598	91.06
458.818	131.06
459.038	153.06
459.258	102.06
459.478	87.06
459.698	97.06
459.918	83.06
460.138	73.06
460.358	81.06
460.578	90.06
460.798	83.06
461.018	92.06
461.238	86.06
461.458	86.06
461.678	83.06
461.898	74.06
462.118	85.06
462.338	73.06
462.558	82.06
462.777	77.06
462.997	86.06
463.217	94.06
463.437	101.06
463.657	80.06
463.876	83.06
464.096	83.06
464.316	83.06
464.536	84.06
464.755	81.06
464.975	105.06
465.195	156.06
465.414	141.06
465.634	97.06
465.854	95.06
466.073	77.06
466.293	86.06
466.512	78.06
466.732	76.06
466.951	86.06
467.171	82.06
467.391	96.06
467.61	106.06
467.829	107.06
468.049	108.06
468.268	139.06
468.488	102.06
468.707	77.06
468.927	79.06
469.146	75.06
469.365	81.06
469.585	101.06
469.804	106.06
470.023	100.06
470.243	94.06
470.462	96.06
470.681	98.06
470.901	92.06
471.12	91.06
471.339	96.06
471.558	97.06
471.777	94.06
471.997	97.06
472.216	158.06
472.435	277.06
472.654	127.06
472.873	78.06
473.092	83.06
473.311	98.06
473.53	85.06
473.749	86.06
473.968	98.06
474.187	102.06
474.406	104.06
474.625	94.06
474.844	80.06
475.063	79.06
475.282	99.06
475.501	87.06
475.72	106.06
475.939	98.06
476.158	86.06
476.377	75.06
476.596	93.06
476.814	87.06
477.033	80.06
477.252	99.06
477.471	89.06
477.69	99.06
477.908	90.06
478.127	95.06
478.346	97.06
478.564	87.06
478.783	92.06
479.002	89.06
479.22	90.06
479.439	112.06
479.658	102.06
479.876	100.06
480.095	101.06
480.313	92.06
480.532	90.06
480.751	111.06
480.969	166.06
481.188	437.06
481.406	275.06
481.624	106.06
481.843	81.06
482.061	105.06
482.28	101.06
482.498	85.06
482.717	94.06
482.935	75.06
483.153	75.06
483.372	101.06
483.59	77.06
483.808	78.06
484.027	76.06
484.245	97.06
484.463	100.06
484.681	103.06
484.9	87.06
485.118	90.06
485.336	86.06
485.554	91.06
485.772	97.06
485.99	89.06
486.209	112.06
486.427	97.06
486.645	94.06
486.863	106.06
487.081	96.06
487.299	97.06
487.517	87.06
487.735	97.06
487.953	103.06
488.171	97.06
488.389	85.06
488.607	100.06
488.825	96.06
489.043	90.06
489.261	77.06
489.479	99.06
489.696	97.06
489.914	97.06
490.132	92.06
490.35	94.06
490.568	74.06
490.786	85.06
491.003	71.06
491.221	79.06
491.439	91.06
491.657	96.06
491.874	92.06
492.092	87.06
492.31	83.06
492.527	100.06
492.745	92.06
492.963	97.06
493.18	80.06
493.398	79.06
493.615	93.06
493.833	85.06
494.05	88.06
494.268	94.06
494.485	87.06
494.703	85.06
494.92	106.06
495.138	83.06
495.355	78.06
495.573	110.06
495.79	97.06
496.008	89.06
496.225	86.06
496.442	94.06
496.66	113.06
496.877	98.06
497.094	98.06
497.312	89.06
497.529	73.06
497.746	91.06
497.963	85.06
498.181	93.06
498.398	92.06
498.615	94.06
498.832	91.06
499.049	99.06
499.267	102.06
499.484	92.06
499.701	91.06
499.918	101.06
500.135	88.06
500.352	94.06
500.569	83.06
500.786	87.06
501.003	100.06
501.22	94.06
501.437	103.06
501.654	86.06
501.871	79.06
502.088	93.06
502.305	86.06
502.522	86.06
502.739	83.06
502.956	104.06
503.172	82.06
503.389	107.06
503.606	108.06
503.823	96.06
504.04	80.06
504.256	86.06
504.473	93.06
504.69	86.06
504.907	90.06
505.123	90.06
505.34	100.06
505.557	87.06
505.773	106.06
505.99	88.06
506.207	78.06
506.423	102.06
506.64	91.06
506.856	79.06
507.073	97.06
507.289	93.06
507.506	104.06
507.722	105.06
507.939	101.06
508.155	101.06
508.372	78.06
508.588	101.06
508.805	85.06
509.021	103.06
509.238	91.06
509.454	105.06
509.67	99.06
509.887	96.06
510.103	122.06
510.319	192.06
510.536	678.06
510.752	2105.06
510.968	597.06
511.184	165.06
511.401	103.06
511.617	96.06
511.833	83.06
512.049	92.06
512.265	102.06
512.481	87.06
512.698	91.06
512.914	90.06
513.13	83.06
513.346	82.06
513.562	88.06
513.778	102.06
513.994	95.06
514.21	93.06
514.426	96.06
514.642	107.06
514.858	117.06
515.074	161.06
515.29	382.06
515.506	1243.06
515.721	457.06
