Data from Circ_1994_H10_HRD10591_00092.txt Node
Date: Wed Jan 03 11:40:48 EST 2024
User: Yrep
Spectrometer: HR+D1059
Trigger mode: 1
Integration Time (sec): 1.000000E-1
Scans to average: 1
Electric dark correction enabled: true
Nonlinearity correction enabled: false
Boxcar width: 0
XAxis mode: Wavelengths
Number of Pixels in Spectrum: 2048
>>>>>Begin Spectral Data<<<<<
223.165	-10.19
223.4	-10.19
223.635	-10.19
223.869	-28.19
224.104	-31.19
224.338	-8.19
224.573	-5.19
224.808	-1.19
225.042	-6.19
225.277	0.81
225.511	-2.19
225.746	-0.19
225.98	10.81
226.215	9.81
226.449	10.81
226.683	13.81
226.918	8.81
227.152	37.81
227.387	40.81
227.621	47.81
227.856	57.81
228.09	41.81
228.324	50.81
228.559	50.81
228.793	51.81
229.027	55.81
229.262	57.81
229.496	81.81
229.73	76.81
229.964	77.81
230.199	59.81
230.433	65.81
230.667	73.81
230.901	95.81
231.136	66.81
231.37	62.81
231.604	84.81
231.838	80.81
232.072	78.81
232.306	68.81
232.541	77.81
232.775	84.81
233.009	88.81
233.243	88.81
233.477	90.81
233.711	79.81
233.945	75.81
234.179	82.81
234.413	67.81
234.647	90.81
234.881	82.81
235.115	70.81
235.349	64.81
235.583	81.81
235.817	87.81
236.051	94.81
236.285	78.81
236.519	76.81
236.753	67.81
236.987	82.81
237.221	73.81
237.455	90.81
237.689	87.81
237.922	70.81
238.156	65.81
238.39	69.81
238.624	92.81
238.858	76.81
239.091	77.81
239.325	80.81
239.559	69.81
239.793	75.81
240.027	81.81
240.26	78.81
240.494	72.81
240.728	87.81
240.961	71.81
241.195	76.81
241.429	71.81
241.662	64.81
241.896	84.81
242.13	72.81
242.363	72.81
242.597	79.81
242.83	75.81
243.064	69.81
243.298	68.81
243.531	92.81
243.765	76.81
243.998	72.81
244.232	90.81
244.465	80.81
244.699	81.81
244.932	72.81
245.166	80.81
245.399	73.81
245.633	93.81
245.866	80.81
246.099	82.81
246.333	83.81
246.566	67.81
246.8	76.81
247.033	83.81
247.266	82.81
247.5	83.81
247.733	84.81
247.966	66.81
248.2	69.81
248.433	81.81
248.666	90.81
248.899	72.81
249.133	84.81
249.366	99.81
249.599	108.81
249.832	77.81
250.066	98.81
250.299	77.81
250.532	82.81
250.765	83.81
250.998	56.81
251.231	83.81
251.465	77.81
251.698	75.81
251.931	78.81
252.164	86.81
252.397	80.81
252.63	83.81
252.863	91.81
253.096	84.81
253.329	85.81
253.562	85.81
253.795	77.81
254.028	85.81
254.261	81.81
254.494	77.81
254.727	80.81
254.96	80.81
255.193	76.81
255.426	68.81
255.659	63.81
255.892	86.81
256.124	95.81
256.357	98.81
256.59	75.81
256.823	66.81
257.056	87.81
257.289	80.81
257.521	79.81
257.754	91.81
257.987	85.81
258.22	76.81
258.452	84.81
258.685	79.81
258.918	72.81
259.151	81.81
259.383	69.81
259.616	81.81
259.849	73.81
260.081	97.81
260.314	78.81
260.547	93.81
260.779	77.81
261.012	87.81
261.244	77.81
261.477	90.81
261.71	99.81
261.942	116.81
262.175	116.81
262.407	75.81
262.64	95.81
262.872	89.81
263.105	75.81
263.337	87.81
263.57	89.81
263.802	97.81
264.035	80.81
264.267	75.81
264.499	79.81
264.732	98.81
264.964	80.81
265.197	87.81
265.429	69.81
265.661	67.81
265.894	87.81
266.126	92.81
266.358	90.81
266.591	75.81
266.823	79.81
267.055	94.81
267.287	70.81
267.52	91.81
267.752	80.81
267.984	83.81
268.216	81.81
268.448	84.81
268.681	72.81
268.913	88.81
269.145	74.81
269.377	75.81
269.609	81.81
269.841	85.81
270.073	84.81
270.306	87.81
270.538	76.81
270.77	78.81
271.002	83.81
271.234	93.81
271.466	89.81
271.698	85.81
271.93	78.81
272.162	81.81
272.394	79.81
272.626	75.81
272.858	81.81
273.09	82.81
273.322	61.81
273.553	81.81
273.785	82.81
274.017	80.81
274.249	74.81
274.481	90.81
274.713	93.81
274.945	82.81
275.176	84.81
275.408	72.81
275.64	84.81
275.872	75.81
276.104	84.81
276.335	97.81
276.567	96.81
276.799	97.81
277.031	102.81
277.262	96.81
277.494	89.81
277.726	76.81
277.957	79.81
278.189	79.81
278.421	95.81
278.652	84.81
278.884	89.81
279.115	78.81
279.347	84.81
279.579	79.81
279.81	93.81
280.042	100.81
280.273	81.81
280.505	102.81
280.736	83.81
280.968	90.81
281.199	84.81
281.431	86.81
281.662	76.81
281.894	81.81
282.125	95.81
282.356	105.81
282.588	132.81
282.819	105.81
283.051	83.81
283.282	89.81
283.513	95.81
283.745	91.81
283.976	92.81
284.207	80.81
284.439	80.81
284.67	87.81
284.901	85.81
285.132	103.81
285.364	88.81
285.595	90.81
285.826	92.81
286.057	84.81
286.288	92.81
286.52	76.81
286.751	92.81
286.982	90.81
287.213	90.81
287.444	97.81
287.675	99.81
287.906	89.81
288.138	99.81
288.369	99.81
288.6	94.81
288.831	95.81
289.062	91.81
289.293	86.81
289.524	86.81
289.755	86.81
289.986	91.81
290.217	83.81
290.448	81.81
290.679	97.81
290.91	77.81
291.141	111.81
291.371	79.81
291.602	73.81
291.833	92.81
292.064	97.81
292.295	106.81
292.526	92.81
292.757	87.81
292.987	92.81
293.218	101.81
293.449	81.81
293.68	103.81
293.91	93.81
294.141	96.81
294.372	85.81
294.603	68.81
294.833	85.81
295.064	88.81
295.295	87.81
295.525	91.81
295.756	105.81
295.987	100.81
296.217	128.81
296.448	126.81
296.679	95.81
296.909	94.81
297.14	100.81
297.37	85.81
297.601	86.81
297.831	85.81
298.062	99.81
298.292	89.81
298.523	87.81
298.753	93.81
298.984	92.81
299.214	75.81
299.445	98.81
299.675	92.81
299.905	99.81
300.136	95.81
300.366	76.81
300.597	92.81
300.827	94.81
301.057	98.81
301.288	111.81
301.518	93.81
301.748	89.81
301.979	109.81
302.209	90.81
302.439	78.81
302.669	89.81
302.9	101.81
303.13	96.81
303.36	95.81
303.59	87.81
303.82	106.81
304.051	94.81
304.281	101.81
304.511	101.81
304.741	91.81
304.971	96.81
305.201	89.81
305.431	90.81
305.661	83.81
305.891	85.81
306.121	88.81
306.352	100.81
306.582	111.81
306.812	97.81
307.042	97.81
307.272	90.81
307.502	105.81
307.731	106.81
307.961	83.81
308.191	93.81
308.421	83.81
308.651	89.81
308.881	89.81
309.111	89.81
309.341	94.81
309.571	100.81
309.8	97.81
310.03	98.81
310.26	105.81
310.49	91.81
310.72	86.81
310.949	99.81
311.179	101.81
311.409	84.81
311.639	100.81
311.868	109.81
312.098	93.81
312.328	92.81
312.557	105.81
312.787	99.81
313.017	95.81
313.246	115.81
313.476	91.81
313.706	93.81
313.935	93.81
314.165	99.81
314.394	105.81
314.624	81.81
314.853	103.81
315.083	97.81
315.312	103.81
315.542	93.81
315.771	92.81
316.001	78.81
316.23	89.81
316.46	91.81
316.689	83.81
316.919	96.81
317.148	107.81
317.377	96.81
317.607	91.81
317.836	90.81
318.065	77.81
318.295	101.81
318.524	93.81
318.753	77.81
318.983	93.81
319.212	105.81
319.441	124.81
319.67	115.81
319.9	91.81
320.129	100.81
320.358	77.81
320.587	95.81
320.816	106.81
321.046	93.81
321.275	95.81
321.504	96.81
321.733	86.81
321.962	99.81
322.191	105.81
322.42	111.81
322.649	99.81
322.878	103.81
323.108	107.81
323.337	118.81
323.566	132.81
323.795	154.81
324.024	204.81
324.253	380.81
324.482	788.81
324.71	1525.81
324.939	2027.81
325.168	741.81
325.397	215.81
325.626	143.81
325.855	129.81
326.084	122.81
326.313	123.81
326.542	143.81
326.77	217.81
326.999	425.81
327.228	859.81
327.457	1595.81
327.686	1223.81
327.914	352.81
328.143	223.81
328.372	185.81
328.6	152.81
328.829	115.81
329.058	123.81
329.287	117.81
329.515	118.81
329.744	107.81
329.972	140.81
330.201	185.81
330.43	207.81
330.658	169.81
330.887	164.81
331.115	126.81
331.344	88.81
331.572	111.81
331.801	103.81
332.03	110.81
332.258	104.81
332.486	95.81
332.715	92.81
332.943	93.81
333.172	94.81
333.4	97.81
333.629	109.81
333.857	108.81
334.085	135.81
334.314	179.81
334.542	263.81
334.771	232.81
334.999	129.81
335.227	106.81
335.455	91.81
335.684	105.81
335.912	81.81
336.14	101.81
336.369	119.81
336.597	98.81
336.825	99.81
337.053	83.81
337.281	85.81
337.51	90.81
337.738	95.81
337.966	84.81
338.194	105.81
338.422	100.81
338.65	91.81
338.878	83.81
339.106	110.81
339.334	92.81
339.562	78.81
339.79	82.81
340.018	111.81
340.246	82.81
340.474	80.81
340.702	95.81
340.93	98.81
341.158	103.81
341.386	96.81
341.614	91.81
341.842	99.81
342.07	90.81
342.298	91.81
342.526	93.81
342.754	97.81
342.981	96.81
343.209	106.81
343.437	91.81
343.665	70.81
343.893	92.81
344.12	96.81
344.348	92.81
344.576	82.81
344.804	91.81
345.031	80.81
345.259	98.81
345.487	101.81
345.714	99.81
345.942	92.81
346.17	91.81
346.397	77.81
346.625	92.81
346.853	83.81
347.08	84.81
347.308	96.81
347.535	84.81
347.763	85.81
347.99	102.81
348.218	94.81
348.445	98.81
348.673	86.81
348.9	101.81
349.128	106.81
349.355	91.81
349.583	88.81
349.81	90.81
350.037	84.81
350.265	95.81
350.492	85.81
350.72	106.81
350.947	84.81
351.174	107.81
351.402	107.81
351.629	107.81
351.856	96.81
352.083	105.81
352.311	104.81
352.538	109.81
352.765	102.81
352.992	111.81
353.22	112.81
353.447	102.81
353.674	110.81
353.901	93.81
354.128	99.81
354.355	108.81
354.583	98.81
354.81	101.81
355.037	101.81
355.264	96.81
355.491	74.81
355.718	97.81
355.945	100.81
356.172	98.81
356.399	103.81
356.626	95.81
356.853	92.81
357.08	90.81
357.307	82.81
357.534	74.81
357.761	82.81
357.988	86.81
358.215	100.81
358.441	98.81
358.668	97.81
358.895	82.81
359.122	80.81
359.349	82.81
359.576	98.81
359.802	93.81
360.029	109.81
360.256	99.81
360.483	102.81
360.709	89.81
360.936	84.81
361.163	79.81
361.39	103.81
361.616	111.81
361.843	84.81
362.07	81.81
362.296	85.81
362.523	73.81
362.749	85.81
362.976	77.81
363.203	95.81
363.429	99.81
363.656	82.81
363.882	94.81
364.109	86.81
364.335	78.81
364.562	96.81
364.788	95.81
365.015	100.81
365.241	105.81
365.468	103.81
365.694	100.81
365.92	99.81
366.147	109.81
366.373	98.81
366.599	91.81
366.826	90.81
367.052	93.81
367.278	84.81
367.505	91.81
367.731	85.81
367.957	89.81
368.184	102.81
368.41	94.81
368.636	91.81
368.862	113.81
369.089	98.81
369.315	92.81
369.541	93.81
369.767	89.81
369.993	83.81
370.219	100.81
370.445	83.81
370.672	95.81
370.898	82.81
371.124	83.81
371.35	94.81
371.576	75.81
371.802	76.81
372.028	80.81
372.254	80.81
372.48	80.81
372.706	74.81
372.932	77.81
373.158	105.81
373.384	83.81
373.61	91.81
373.835	71.81
374.061	79.81
374.287	83.81
374.513	90.81
374.739	89.81
374.965	99.81
375.191	77.81
375.416	90.81
375.642	83.81
375.868	83.81
376.094	88.81
376.319	88.81
376.545	87.81
376.771	85.81
376.997	68.81
377.222	93.81
377.448	96.81
377.674	84.81
377.899	95.81
378.125	85.81
378.35	89.81
378.576	85.81
378.802	84.81
379.027	99.81
379.253	85.81
379.478	90.81
379.704	99.81
379.929	100.81
380.155	101.81
380.38	90.81
380.606	88.81
380.831	92.81
381.057	79.81
381.282	91.81
381.507	91.81
381.733	92.81
381.958	90.81
382.184	86.81
382.409	91.81
382.634	96.81
382.86	100.81
383.085	103.81
383.31	102.81
383.535	106.81
383.761	80.81
383.986	94.81
384.211	88.81
384.436	94.81
384.662	79.81
384.887	78.81
385.112	94.81
385.337	96.81
385.562	90.81
385.787	95.81
386.013	99.81
386.238	99.81
386.463	98.81
386.688	82.81
386.913	102.81
387.138	87.81
387.363	96.81
387.588	96.81
387.813	87.81
388.038	77.81
388.263	121.81
388.488	81.81
388.713	87.81
388.938	97.81
389.163	84.81
389.387	97.81
389.612	98.81
389.837	84.81
390.062	105.81
390.287	88.81
390.512	88.81
390.736	83.81
390.961	71.81
391.186	88.81
391.411	85.81
391.636	71.81
391.86	80.81
392.085	94.81
392.31	81.81
392.534	87.81
392.759	86.81
392.984	84.81
393.208	80.81
393.433	93.81
393.658	88.81
393.882	72.81
394.107	90.81
394.331	82.81
394.556	87.81
394.78	81.81
395.005	91.81
395.229	83.81
395.454	84.81
395.678	78.81
395.903	82.81
396.127	80.81
396.352	86.81
396.576	83.81
396.801	87.81
397.025	82.81
397.249	68.81
397.474	83.81
397.698	94.81
397.922	94.81
398.147	88.81
398.371	88.81
398.595	78.81
398.82	84.81
399.044	87.81
399.268	85.81
399.492	92.81
399.717	83.81
399.941	90.81
400.165	81.81
400.389	98.81
400.613	85.81
400.837	89.81
401.062	81.81
401.286	88.81
401.51	99.81
401.734	78.81
401.958	92.81
402.182	123.81
402.406	155.81
402.63	109.81
402.854	83.81
403.078	83.81
403.302	98.81
403.526	91.81
403.75	77.81
403.974	85.81
404.198	76.81
404.422	73.81
404.645	95.81
404.869	87.81
405.093	95.81
405.317	99.81
405.541	115.81
405.765	123.81
405.988	112.81
406.212	159.81
406.436	203.81
406.66	129.81
406.883	97.81
407.107	83.81
407.331	85.81
407.555	92.81
407.778	97.81
408.002	92.81
408.226	91.81
408.449	92.81
408.673	83.81
408.896	85.81
409.12	87.81
409.344	94.81
409.567	89.81
409.791	84.81
410.014	107.81
410.238	100.81
410.461	101.81
410.685	87.81
410.908	90.81
411.132	102.81
411.355	86.81
411.578	89.81
411.802	83.81
412.025	85.81
412.249	90.81
412.472	96.81
412.695	95.81
412.919	88.81
413.142	89.81
413.365	78.81
413.589	83.81
413.812	85.81
414.035	108.81
414.258	101.81
414.482	96.81
414.705	78.81
414.928	82.81
415.151	83.81
415.374	94.81
415.597	78.81
415.821	91.81
416.044	93.81
416.267	82.81
416.49	83.81
416.713	88.81
416.936	81.81
417.159	75.81
417.382	80.81
417.605	89.81
417.828	97.81
418.051	85.81
418.274	84.81
418.497	90.81
418.72	83.81
418.943	86.81
419.166	72.81
419.389	92.81
419.611	87.81
419.834	92.81
420.057	83.81
420.28	92.81
420.503	95.81
420.726	90.81
420.948	101.81
421.171	83.81
421.394	88.81
421.617	81.81
421.839	98.81
422.062	88.81
422.285	96.81
422.507	90.81
422.73	89.81
422.953	101.81
423.175	94.81
423.398	97.81
423.621	92.81
423.843	103.81
424.066	97.81
424.288	87.81
424.511	94.81
424.733	97.81
424.956	109.81
425.178	94.81
425.401	98.81
425.623	95.81
425.846	85.81
426.068	85.81
426.291	88.81
426.513	83.81
426.735	84.81
426.958	91.81
427.18	108.81
427.402	126.81
427.625	155.81
427.847	133.81
428.069	116.81
428.292	88.81
428.514	87.81
428.736	82.81
428.958	79.81
429.181	79.81
429.403	102.81
429.625	85.81
429.847	79.81
430.069	104.81
430.292	71.81
430.514	79.81
430.736	79.81
430.958	88.81
431.18	77.81
431.402	88.81
431.624	86.81
431.846	83.81
432.068	86.81
432.29	94.81
432.512	90.81
432.734	75.81
432.956	83.81
433.178	95.81
433.4	73.81
433.622	83.81
433.844	85.81
434.066	86.81
434.287	92.81
434.509	90.81
434.731	84.81
434.953	98.81
435.175	90.81
435.397	89.81
435.618	107.81
435.84	103.81
436.062	101.81
436.284	105.81
436.505	104.81
436.727	80.81
436.949	82.81
437.17	85.81
437.392	75.81
437.614	87.81
437.835	96.81
438.057	116.81
438.278	119.81
438.5	93.81
438.721	120.81
438.943	97.81
439.165	90.81
439.386	71.81
439.608	91.81
439.829	95.81
440.05	108.81
440.272	121.81
440.493	103.81
440.715	88.81
440.936	87.81
441.158	101.81
441.379	93.81
441.6	92.81
441.822	76.81
442.043	94.81
442.264	112.81
442.486	89.81
442.707	99.81
442.928	92.81
443.149	130.81
443.371	122.81
443.592	104.81
443.813	110.81
444.034	94.81
444.255	104.81
444.476	86.81
444.698	82.81
444.919	92.81
445.14	125.81
445.361	120.81
445.582	110.81
445.803	119.81
446.024	124.81
446.245	135.81
446.466	112.81
446.687	83.81
446.908	85.81
447.129	94.81
447.35	77.81
447.571	81.81
447.792	86.81
448.013	95.81
448.234	96.81
448.455	94.81
448.675	120.81
448.896	106.81
449.117	99.81
449.338	101.81
449.559	124.81
449.779	117.81
450	75.81
450.221	85.81
450.442	90.81
450.662	95.81
450.883	88.81
451.104	121.81
451.324	86.81
451.545	90.81
451.766	94.81
451.986	72.81
452.207	97.81
452.428	92.81
452.648	94.81
452.869	105.81
453.089	114.81
453.31	124.81
453.53	95.81
453.751	83.81
453.971	84.81
454.192	106.81
454.412	76.81
454.633	84.81
454.853	94.81
455.073	97.81
455.294	87.81
455.514	88.81
455.734	100.81
455.955	78.81
456.175	96.81
456.395	99.81
456.616	81.81
456.836	74.81
457.056	94.81
457.276	88.81
457.497	87.81
457.717	89.81
457.937	84.81
458.157	91.81
458.377	84.81
458.598	107.81
458.818	135.81
459.038	148.81
459.258	115.81
459.478	78.81
459.698	83.81
459.918	89.81
460.138	81.81
460.358	92.81
460.578	93.81
460.798	70.81
461.018	97.81
461.238	82.81
461.458	84.81
461.678	85.81
461.898	85.81
462.118	91.81
462.338	79.81
462.558	73.81
462.777	89.81
462.997	86.81
463.217	100.81
463.437	83.81
463.657	67.81
463.876	77.81
464.096	77.81
464.316	88.81
464.536	85.81
464.755	74.81
464.975	99.81
465.195	147.81
465.414	151.81
465.634	88.81
465.854	92.81
466.073	85.81
466.293	79.81
466.512	88.81
466.732	73.81
466.951	83.81
467.171	84.81
467.391	98.81
467.61	100.81
467.829	96.81
468.049	143.81
468.268	155.81
468.488	98.81
468.707	89.81
468.927	89.81
469.146	85.81
469.365	83.81
469.585	89.81
469.804	93.81
470.023	99.81
470.243	99.81
470.462	106.81
470.681	121.81
470.901	85.81
471.12	86.81
471.339	97.81
471.558	92.81
471.777	90.81
471.997	99.81
472.216	203.81
472.435	325.81
472.654	136.81
472.873	79.81
473.092	91.81
473.311	84.81
473.53	86.81
473.749	93.81
473.968	92.81
474.187	102.81
474.406	84.81
474.625	96.81
474.844	87.81
475.063	93.81
475.282	91.81
475.501	91.81
475.72	69.81
475.939	92.81
476.158	78.81
476.377	76.81
476.596	93.81
476.814	80.81
477.033	105.81
477.252	79.81
477.471	83.81
477.69	94.81
477.908	85.81
478.127	96.81
478.346	79.81
478.564	100.81
478.783	87.81
479.002	95.81
479.22	79.81
479.439	96.81
479.658	88.81
479.876	90.81
480.095	97.81
480.313	85.81
480.532	99.81
480.751	105.81
480.969	208.81
481.188	547.81
481.406	343.81
481.624	112.81
481.843	100.81
482.061	83.81
482.28	90.81
482.498	99.81
482.717	91.81
482.935	82.81
483.153	93.81
483.372	93.81
483.59	90.81
483.808	101.81
484.027	93.81
484.245	95.81
484.463	78.81
484.681	94.81
484.9	79.81
485.118	95.81
485.336	104.81
485.554	95.81
485.772	90.81
485.99	109.81
486.209	109.81
486.427	95.81
486.645	88.81
486.863	108.81
487.081	109.81
487.299	101.81
487.517	95.81
487.735	95.81
487.953	99.81
488.171	99.81
488.389	97.81
488.607	96.81
488.825	93.81
489.043	90.81
489.261	81.81
489.479	95.81
489.696	95.81
489.914	84.81
490.132	78.81
490.35	96.81
490.568	80.81
490.786	79.81
491.003	102.81
491.221	83.81
491.439	91.81
491.657	76.81
491.874	83.81
492.092	87.81
492.31	99.81
492.527	87.81
492.745	97.81
492.963	80.81
493.18	88.81
493.398	84.81
493.615	82.81
493.833	102.81
494.05	77.81
494.268	79.81
494.485	86.81
494.703	93.81
494.92	91.81
495.138	87.81
495.355	88.81
495.573	95.81
495.79	87.81
496.008	83.81
496.225	90.81
496.442	85.81
496.66	92.81
496.877	100.81
497.094	98.81
497.312	93.81
497.529	89.81
497.746	98.81
497.963	87.81
498.181	68.81
498.398	109.81
498.615	106.81
498.832	92.81
499.049	84.81
499.267	92.81
499.484	72.81
499.701	88.81
499.918	95.81
500.135	83.81
500.352	83.81
500.569	73.81
500.786	91.81
501.003	85.81
501.22	104.81
501.437	87.81
501.654	93.81
501.871	94.81
502.088	92.81
502.305	80.81
502.522	76.81
502.739	93.81
502.956	91.81
503.172	92.81
503.389	96.81
503.606	104.81
503.823	83.81
504.04	92.81
504.256	90.81
504.473	86.81
504.69	87.81
504.907	94.81
505.123	91.81
505.34	91.81
505.557	83.81
505.773	84.81
505.99	88.81
506.207	80.81
506.423	101.81
506.64	102.81
506.856	84.81
507.073	91.81
507.289	88.81
507.506	101.81
507.722	104.81
507.939	103.81
508.155	85.81
508.372	92.81
508.588	80.81
508.805	88.81
509.021	90.81
509.238	89.81
509.454	96.81
509.67	109.81
509.887	108.81
510.103	138.81
510.319	213.81
510.536	761.81
510.752	2385.81
510.968	665.81
511.184	155.81
511.401	101.81
511.617	98.81
511.833	89.81
512.049	97.81
512.265	76.81
512.481	77.81
512.698	98.81
512.914	75.81
513.13	93.81
513.346	104.81
513.562	88.81
513.778	91.81
513.994	81.81
514.21	97.81
514.426	114.81
514.642	139.81
514.858	123.81
515.074	166.81
515.29	445.81
515.506	1429.81
515.721	529.81
515.937	147.81
516.153	123.81
