Data from Circ_1994_H10_HRD10591_00049.txt Node
Date: Wed Jan 03 11:40:40 EST 2024
User: Yrep
Spectrometer: HR+D1059
Trigger mode: 1
Integration Time (sec): 1.000000E-1
Scans to average: 1
Electric dark correction enabled: true
Nonlinearity correction enabled: false
Boxcar width: 0
XAxis mode: Wavelengths
Number of Pixels in Spectrum: 2048
>>>>>Begin Spectral Data<<<<<
223.165	-24.56
223.4	-24.56
223.635	-24.56
223.869	-25.56
224.104	-20.56
224.338	-11.56
224.573	-17.56
224.808	-11.56
225.042	-3.56
225.277	-15.56
225.511	4.44
225.746	17.44
225.98	7.44
226.215	13.44
226.449	23.44
226.683	16.44
226.918	13.44
227.152	34.44
227.387	23.44
227.621	47.44
227.856	44.44
228.09	50.44
228.324	43.44
228.559	45.44
228.793	57.44
229.027	57.44
229.262	67.44
229.496	68.44
229.73	81.44
229.964	92.44
230.199	69.44
230.433	71.44
230.667	68.44
230.901	88.44
231.136	75.44
231.37	71.44
231.604	76.44
231.838	81.44
232.072	74.44
232.306	85.44
232.541	76.44
232.775	74.44
233.009	69.44
233.243	87.44
233.477	78.44
233.711	88.44
233.945	78.44
234.179	77.44
234.413	87.44
234.647	77.44
234.881	74.44
235.115	81.44
235.349	75.44
235.583	101.44
235.817	76.44
236.051	75.44
236.285	63.44
236.519	68.44
236.753	83.44
236.987	83.44
237.221	73.44
237.455	74.44
237.689	69.44
237.922	66.44
238.156	80.44
238.39	73.44
238.624	80.44
238.858	65.44
239.091	78.44
239.325	83.44
239.559	83.44
239.793	84.44
240.027	83.44
240.26	72.44
240.494	72.44
240.728	78.44
240.961	82.44
241.195	91.44
241.429	66.44
241.662	74.44
241.896	77.44
242.13	76.44
242.363	66.44
242.597	72.44
242.83	76.44
243.064	88.44
243.298	74.44
243.531	67.44
243.765	69.44
243.998	82.44
244.232	72.44
244.465	84.44
244.699	84.44
244.932	71.44
245.166	84.44
245.399	80.44
245.633	91.44
245.866	78.44
246.099	68.44
246.333	75.44
246.566	83.44
246.8	80.44
247.033	89.44
247.266	91.44
247.5	101.44
247.733	82.44
247.966	76.44
248.2	77.44
248.433	84.44
248.666	94.44
248.899	92.44
249.133	78.44
249.366	98.44
249.599	88.44
249.832	82.44
250.066	87.44
250.299	69.44
250.532	73.44
250.765	92.44
250.998	78.44
251.231	94.44
251.465	72.44
251.698	81.44
251.931	72.44
252.164	79.44
252.397	65.44
252.63	77.44
252.863	76.44
253.096	57.44
253.329	79.44
253.562	90.44
253.795	91.44
254.028	74.44
254.261	73.44
254.494	81.44
254.727	84.44
254.96	77.44
255.193	86.44
255.426	87.44
255.659	92.44
255.892	79.44
256.124	79.44
256.357	93.44
256.59	80.44
256.823	79.44
257.056	84.44
257.289	69.44
257.521	81.44
257.754	83.44
257.987	77.44
258.22	88.44
258.452	75.44
258.685	89.44
258.918	83.44
259.151	80.44
259.383	84.44
259.616	92.44
259.849	90.44
260.081	73.44
260.314	113.44
260.547	96.44
260.779	84.44
261.012	84.44
261.244	84.44
261.477	85.44
261.71	98.44
261.942	107.44
262.175	123.44
262.407	84.44
262.64	99.44
262.872	97.44
263.105	88.44
263.337	88.44
263.57	73.44
263.802	87.44
264.035	95.44
264.267	99.44
264.499	85.44
264.732	79.44
264.964	87.44
265.197	81.44
265.429	82.44
265.661	77.44
265.894	82.44
266.126	87.44
266.358	67.44
266.591	65.44
266.823	96.44
267.055	93.44
267.287	93.44
267.52	91.44
267.752	80.44
267.984	82.44
268.216	82.44
268.448	82.44
268.681	83.44
268.913	85.44
269.145	78.44
269.377	66.44
269.609	85.44
269.841	80.44
270.073	85.44
270.306	95.44
270.538	85.44
270.77	80.44
271.002	81.44
271.234	85.44
271.466	84.44
271.698	87.44
271.93	85.44
272.162	71.44
272.394	91.44
272.626	77.44
272.858	87.44
273.09	100.44
273.322	90.44
273.553	83.44
273.785	83.44
274.017	103.44
274.249	90.44
274.481	78.44
274.713	94.44
274.945	103.44
275.176	81.44
275.408	88.44
275.64	89.44
275.872	85.44
276.104	83.44
276.335	75.44
276.567	91.44
276.799	114.44
277.031	88.44
277.262	88.44
277.494	84.44
277.726	101.44
277.957	84.44
278.189	87.44
278.421	84.44
278.652	91.44
278.884	81.44
279.115	86.44
279.347	91.44
279.579	76.44
279.81	96.44
280.042	94.44
280.273	103.44
280.505	76.44
280.736	91.44
280.968	89.44
281.199	88.44
281.431	79.44
281.662	86.44
281.894	95.44
282.125	89.44
282.356	113.44
282.588	122.44
282.819	103.44
283.051	88.44
283.282	84.44
283.513	83.44
283.745	84.44
283.976	80.44
284.207	82.44
284.439	63.44
284.67	83.44
284.901	77.44
285.132	92.44
285.364	88.44
285.595	80.44
285.826	67.44
286.057	78.44
286.288	93.44
286.52	95.44
286.751	82.44
286.982	84.44
287.213	89.44
287.444	80.44
287.675	90.44
287.906	111.44
288.138	95.44
288.369	102.44
288.6	89.44
288.831	93.44
289.062	95.44
289.293	98.44
289.524	93.44
289.755	92.44
289.986	76.44
290.217	103.44
290.448	92.44
290.679	80.44
290.91	95.44
291.141	77.44
291.371	72.44
291.602	89.44
291.833	88.44
292.064	92.44
292.295	89.44
292.526	87.44
292.757	79.44
292.987	84.44
293.218	80.44
293.449	89.44
293.68	84.44
293.91	87.44
294.141	96.44
294.372	84.44
294.603	83.44
294.833	83.44
295.064	66.44
295.295	82.44
295.525	84.44
295.756	101.44
295.987	119.44
296.217	127.44
296.448	120.44
296.679	92.44
296.909	81.44
297.14	85.44
297.37	98.44
297.601	92.44
297.831	99.44
298.062	79.44
298.292	78.44
298.523	90.44
298.753	86.44
298.984	76.44
299.214	89.44
299.445	84.44
299.675	80.44
299.905	90.44
300.136	94.44
300.366	85.44
300.597	92.44
300.827	98.44
301.057	90.44
301.288	104.44
301.518	96.44
301.748	88.44
301.979	98.44
302.209	96.44
302.439	85.44
302.669	76.44
302.9	75.44
303.13	80.44
303.36	94.44
303.59	95.44
303.82	110.44
304.051	96.44
304.281	76.44
304.511	79.44
304.741	83.44
304.971	95.44
305.201	93.44
305.431	102.44
305.661	89.44
305.891	86.44
306.121	105.44
306.352	100.44
306.582	91.44
306.812	98.44
307.042	85.44
307.272	84.44
307.502	86.44
307.731	94.44
307.961	104.44
308.191	83.44
308.421	96.44
308.651	97.44
308.881	87.44
309.111	92.44
309.341	99.44
309.571	105.44
309.8	94.44
310.03	98.44
310.26	97.44
310.49	91.44
310.72	89.44
310.949	99.44
311.179	94.44
311.409	106.44
311.639	92.44
311.868	91.44
312.098	95.44
312.328	94.44
312.557	97.44
312.787	85.44
313.017	82.44
313.246	88.44
313.476	83.44
313.706	90.44
313.935	94.44
314.165	85.44
314.394	108.44
314.624	89.44
314.853	95.44
315.083	85.44
315.312	103.44
315.542	83.44
315.771	99.44
316.001	100.44
316.23	97.44
316.46	84.44
316.689	90.44
316.919	97.44
317.148	79.44
317.377	90.44
317.607	110.44
317.836	91.44
318.065	78.44
318.295	88.44
318.524	77.44
318.753	79.44
318.983	91.44
319.212	106.44
319.441	105.44
319.67	109.44
319.9	93.44
320.129	92.44
320.358	95.44
320.587	88.44
320.816	89.44
321.046	85.44
321.275	88.44
321.504	83.44
321.733	92.44
321.962	97.44
322.191	103.44
322.42	90.44
322.649	107.44
322.878	103.44
323.108	108.44
323.337	116.44
323.566	126.44
323.795	149.44
324.024	182.44
324.253	344.44
324.482	680.44
324.71	1372.44
324.939	1827.44
325.168	679.44
325.397	218.44
325.626	121.44
325.855	107.44
326.084	118.44
326.313	130.44
326.542	133.44
326.77	212.44
326.999	371.44
327.228	773.44
327.457	1342.44
327.686	1092.44
327.914	317.44
328.143	179.44
328.372	162.44
328.6	119.44
328.829	101.44
329.058	121.44
329.287	122.44
329.515	107.44
329.744	106.44
329.972	115.44
330.201	135.44
330.43	166.44
330.658	121.44
330.887	146.44
331.115	118.44
331.344	116.44
331.572	111.44
331.801	90.44
332.03	100.44
332.258	106.44
332.486	87.44
332.715	106.44
332.943	91.44
333.172	99.44
333.4	96.44
333.629	103.44
333.857	109.44
334.085	115.44
334.314	145.44
334.542	175.44
334.771	148.44
334.999	100.44
335.227	100.44
335.455	89.44
335.684	101.44
335.912	101.44
336.14	94.44
336.369	102.44
336.597	103.44
336.825	100.44
337.053	84.44
337.281	71.44
337.51	84.44
337.738	109.44
337.966	89.44
338.194	90.44
338.422	79.44
338.65	90.44
338.878	87.44
339.106	78.44
339.334	91.44
339.562	89.44
339.79	97.44
340.018	99.44
340.246	84.44
340.474	92.44
340.702	73.44
340.93	88.44
341.158	96.44
341.386	99.44
341.614	99.44
341.842	90.44
342.07	75.44
342.298	100.44
342.526	87.44
342.754	81.44
342.981	88.44
343.209	93.44
343.437	93.44
343.665	93.44
343.893	83.44
344.12	92.44
344.348	105.44
344.576	87.44
344.804	104.44
345.031	89.44
345.259	84.44
345.487	92.44
345.714	99.44
345.942	89.44
346.17	98.44
346.397	103.44
346.625	84.44
346.853	91.44
347.08	93.44
347.308	95.44
347.535	100.44
347.763	96.44
347.99	94.44
348.218	101.44
348.445	87.44
348.673	96.44
348.9	84.44
349.128	100.44
349.355	104.44
349.583	93.44
349.81	93.44
350.037	89.44
350.265	97.44
350.492	95.44
350.72	90.44
350.947	95.44
351.174	109.44
351.402	96.44
351.629	106.44
351.856	86.44
352.083	90.44
352.311	93.44
352.538	105.44
352.765	107.44
352.992	120.44
353.22	101.44
353.447	95.44
353.674	90.44
353.901	94.44
354.128	92.44
354.355	85.44
354.583	93.44
354.81	90.44
355.037	103.44
355.264	83.44
355.491	96.44
355.718	74.44
355.945	96.44
356.172	90.44
356.399	95.44
356.626	112.44
356.853	105.44
357.08	91.44
357.307	86.44
357.534	98.44
357.761	91.44
357.988	104.44
358.215	91.44
358.441	84.44
358.668	85.44
358.895	96.44
359.122	104.44
359.349	83.44
359.576	94.44
359.802	101.44
360.029	113.44
360.256	100.44
360.483	89.44
360.709	99.44
360.936	104.44
361.163	89.44
361.39	88.44
361.616	87.44
361.843	81.44
362.07	83.44
362.296	97.44
362.523	76.44
362.749	83.44
362.976	81.44
363.203	81.44
363.429	89.44
363.656	97.44
363.882	92.44
364.109	88.44
364.335	89.44
364.562	90.44
364.788	78.44
365.015	89.44
365.241	88.44
365.468	105.44
365.694	118.44
365.92	101.44
366.147	103.44
366.373	93.44
366.599	76.44
366.826	89.44
367.052	89.44
367.278	78.44
367.505	79.44
367.731	89.44
367.957	76.44
368.184	94.44
368.41	101.44
368.636	103.44
368.862	87.44
369.089	97.44
369.315	91.44
369.541	89.44
369.767	103.44
369.993	93.44
370.219	92.44
370.445	91.44
370.672	85.44
370.898	89.44
371.124	82.44
371.35	91.44
371.576	85.44
371.802	83.44
372.028	90.44
372.254	86.44
372.48	94.44
372.706	91.44
372.932	90.44
373.158	78.44
373.384	84.44
373.61	96.44
373.835	89.44
374.061	89.44
374.287	82.44
374.513	89.44
374.739	83.44
374.965	83.44
375.191	97.44
375.416	99.44
375.642	90.44
375.868	98.44
376.094	99.44
376.319	89.44
376.545	81.44
376.771	79.44
376.997	85.44
377.222	112.44
377.448	92.44
377.674	108.44
377.899	88.44
378.125	106.44
378.35	89.44
378.576	89.44
378.802	80.44
379.027	80.44
379.253	100.44
379.478	78.44
379.704	79.44
379.929	75.44
380.155	89.44
380.38	75.44
380.606	81.44
380.831	87.44
381.057	101.44
381.282	104.44
381.507	98.44
381.733	94.44
381.958	98.44
382.184	95.44
382.409	90.44
382.634	91.44
382.86	100.44
383.085	97.44
383.31	90.44
383.535	94.44
383.761	94.44
383.986	106.44
384.211	89.44
384.436	91.44
384.662	90.44
384.887	99.44
385.112	104.44
385.337	102.44
385.562	109.44
385.787	92.44
386.013	104.44
386.238	109.44
386.463	93.44
386.688	108.44
386.913	108.44
387.138	99.44
387.363	101.44
387.588	99.44
387.813	108.44
388.038	108.44
388.263	93.44
388.488	90.44
388.713	90.44
388.938	96.44
389.163	87.44
389.387	95.44
389.612	93.44
389.837	92.44
390.062	101.44
390.287	81.44
390.512	89.44
390.736	99.44
390.961	98.44
391.186	102.44
391.411	93.44
391.636	78.44
391.86	97.44
392.085	75.44
392.31	78.44
392.534	90.44
392.759	90.44
392.984	99.44
393.208	95.44
393.433	109.44
393.658	105.44
393.882	83.44
394.107	70.44
394.331	81.44
394.556	89.44
394.78	90.44
395.005	84.44
395.229	90.44
395.454	85.44
395.678	89.44
395.903	88.44
396.127	91.44
396.352	84.44
396.576	92.44
396.801	87.44
397.025	86.44
397.249	89.44
397.474	83.44
397.698	84.44
397.922	89.44
398.147	86.44
398.371	93.44
398.595	79.44
398.82	77.44
399.044	80.44
399.268	75.44
399.492	84.44
399.717	92.44
399.941	85.44
400.165	91.44
400.389	81.44
400.613	91.44
400.837	92.44
401.062	75.44
401.286	85.44
401.51	81.44
401.734	89.44
401.958	96.44
402.182	111.44
402.406	140.44
402.63	111.44
402.854	103.44
403.078	95.44
403.302	96.44
403.526	76.44
403.75	75.44
403.974	94.44
404.198	88.44
404.422	92.44
404.645	97.44
404.869	89.44
405.093	82.44
405.317	103.44
405.541	95.44
405.765	91.44
405.988	119.44
406.212	160.44
406.436	209.44
406.66	138.44
406.883	91.44
407.107	92.44
407.331	88.44
407.555	87.44
407.778	83.44
408.002	98.44
408.226	89.44
408.449	85.44
408.673	91.44
408.896	100.44
409.12	94.44
409.344	88.44
409.567	92.44
409.791	85.44
410.014	107.44
410.238	93.44
410.461	94.44
410.685	79.44
410.908	104.44
411.132	102.44
411.355	102.44
411.578	82.44
411.802	83.44
412.025	91.44
412.249	76.44
412.472	80.44
412.695	96.44
412.919	85.44
413.142	90.44
413.365	96.44
413.589	74.44
413.812	83.44
414.035	89.44
414.258	93.44
414.482	93.44
414.705	84.44
414.928	82.44
415.151	82.44
415.374	82.44
415.597	98.44
415.821	89.44
416.044	81.44
416.267	72.44
416.49	94.44
416.713	86.44
416.936	93.44
417.159	83.44
417.382	71.44
417.605	80.44
417.828	102.44
418.051	93.44
418.274	98.44
418.497	89.44
418.72	81.44
418.943	84.44
419.166	79.44
419.389	85.44
419.611	83.44
419.834	85.44
420.057	91.44
420.28	81.44
420.503	92.44
420.726	84.44
420.948	86.44
421.171	82.44
421.394	78.44
421.617	83.44
421.839	89.44
422.062	91.44
422.285	99.44
422.507	97.44
422.73	99.44
422.953	99.44
423.175	89.44
423.398	68.44
423.621	88.44
423.843	106.44
424.066	81.44
424.288	94.44
424.511	87.44
424.733	88.44
424.956	96.44
425.178	99.44
425.401	83.44
425.623	94.44
425.846	90.44
426.068	94.44
426.291	92.44
426.513	80.44
426.735	84.44
426.958	87.44
427.18	90.44
427.402	117.44
427.625	149.44
427.847	116.44
428.069	95.44
428.292	79.44
428.514	87.44
428.736	89.44
428.958	80.44
429.181	89.44
429.403	76.44
429.625	84.44
429.847	90.44
430.069	99.44
430.292	90.44
430.514	87.44
430.736	69.44
430.958	84.44
431.18	81.44
431.402	83.44
431.624	77.44
431.846	79.44
432.068	85.44
432.29	81.44
432.512	95.44
432.734	93.44
432.956	87.44
433.178	96.44
433.4	87.44
433.622	97.44
433.844	93.44
434.066	82.44
434.287	84.44
434.509	93.44
434.731	81.44
434.953	80.44
435.175	82.44
435.397	87.44
435.618	77.44
435.84	104.44
436.062	109.44
436.284	106.44
436.505	100.44
436.727	98.44
436.949	94.44
437.17	98.44
437.392	83.44
437.614	105.44
437.835	106.44
438.057	103.44
438.278	91.44
438.5	92.44
438.721	105.44
438.943	87.44
439.165	85.44
439.386	84.44
439.608	99.44
439.829	93.44
440.05	103.44
440.272	127.44
440.493	104.44
440.715	95.44
440.936	86.44
441.158	76.44
441.379	78.44
441.6	111.44
441.822	101.44
442.043	93.44
442.264	101.44
442.486	84.44
442.707	97.44
442.928	93.44
443.149	116.44
443.371	119.44
443.592	119.44
443.813	120.44
444.034	105.44
444.255	87.44
444.476	97.44
444.698	85.44
444.919	88.44
445.14	131.44
445.361	112.44
445.582	113.44
445.803	117.44
446.024	109.44
446.245	114.44
446.466	100.44
446.687	87.44
446.908	81.44
447.129	94.44
447.35	93.44
447.571	84.44
447.792	92.44
448.013	94.44
448.234	99.44
448.455	100.44
448.675	95.44
448.896	100.44
449.117	97.44
449.338	95.44
449.559	107.44
449.779	111.44
450	89.44
450.221	96.44
450.442	87.44
450.662	88.44
450.883	95.44
451.104	114.44
451.324	78.44
451.545	95.44
451.766	95.44
451.986	93.44
452.207	96.44
452.428	95.44
452.648	96.44
452.869	107.44
453.089	106.44
453.31	98.44
453.53	86.44
453.751	81.44
453.971	93.44
454.192	103.44
454.412	93.44
454.633	86.44
454.853	92.44
455.073	77.44
455.294	95.44
455.514	100.44
455.734	101.44
455.955	87.44
456.175	95.44
456.395	82.44
456.616	91.44
456.836	79.44
457.056	88.44
457.276	87.44
457.497	88.44
457.717	76.44
457.937	91.44
458.157	81.44
458.377	83.44
458.598	104.44
458.818	130.44
459.038	145.44
459.258	94.44
459.478	79.44
459.698	92.44
459.918	77.44
460.138	82.44
460.358	92.44
460.578	80.44
460.798	77.44
461.018	79.44
461.238	105.44
461.458	77.44
461.678	85.44
461.898	87.44
462.118	93.44
462.338	78.44
462.558	84.44
462.777	96.44
462.997	84.44
463.217	90.44
463.437	83.44
463.657	89.44
463.876	94.44
464.096	83.44
464.316	91.44
464.536	81.44
464.755	84.44
464.975	100.44
465.195	161.44
465.414	155.44
465.634	109.44
465.854	79.44
466.073	87.44
466.293	77.44
466.512	80.44
466.732	73.44
466.951	81.44
467.171	92.44
467.391	92.44
467.61	109.44
467.829	90.44
468.049	125.44
468.268	115.44
468.488	85.44
468.707	87.44
468.927	78.44
469.146	95.44
469.365	105.44
469.585	80.44
469.804	87.44
470.023	95.44
470.243	88.44
470.462	89.44
470.681	113.44
470.901	80.44
471.12	83.44
471.339	97.44
471.558	76.44
471.777	87.44
471.997	89.44
472.216	144.44
472.435	201.44
472.654	103.44
472.873	83.44
473.092	78.44
473.311	88.44
473.53	79.44
473.749	85.44
473.968	65.44
474.187	107.44
474.406	93.44
474.625	82.44
474.844	103.44
475.063	81.44
475.282	90.44
475.501	79.44
475.72	87.44
475.939	90.44
476.158	88.44
476.377	79.44
476.596	79.44
476.814	90.44
477.033	96.44
477.252	85.44
477.471	84.44
477.69	91.44
477.908	81.44
478.127	81.44
478.346	99.44
478.564	94.44
478.783	95.44
479.002	84.44
479.22	90.44
479.439	107.44
479.658	104.44
479.876	99.44
480.095	88.44
480.313	97.44
480.532	94.44
480.751	93.44
480.969	145.44
481.188	299.44
481.406	211.44
481.624	97.44
481.843	84.44
482.061	80.44
482.28	75.44
482.498	88.44
482.717	104.44
482.935	92.44
483.153	89.44
483.372	99.44
483.59	87.44
483.808	77.44
484.027	87.44
484.245	83.44
484.463	98.44
484.681	98.44
484.9	105.44
485.118	108.44
485.336	93.44
485.554	95.44
485.772	83.44
485.99	102.44
486.209	94.44
486.427	109.44
486.645	116.44
486.863	97.44
487.081	104.44
487.299	104.44
487.517	93.44
487.735	99.44
487.953	105.44
488.171	96.44
488.389	74.44
488.607	101.44
488.825	100.44
489.043	91.44
489.261	91.44
489.479	82.44
489.696	83.44
489.914	82.44
490.132	84.44
490.35	93.44
490.568	91.44
490.786	89.44
491.003	93.44
491.221	96.44
491.439	90.44
491.657	87.44
491.874	95.44
492.092	94.44
492.31	92.44
492.527	89.44
492.745	90.44
492.963	85.44
493.18	79.44
493.398	88.44
493.615	91.44
493.833	90.44
494.05	97.44
494.268	84.44
494.485	89.44
494.703	93.44
494.92	89.44
495.138	88.44
495.355	90.44
495.573	97.44
495.79	100.44
496.008	85.44
496.225	88.44
496.442	96.44
496.66	96.44
496.877	92.44
497.094	91.44
497.312	77.44
497.529	93.44
497.746	79.44
497.963	85.44
498.181	96.44
498.398	107.44
498.615	101.44
498.832	91.44
499.049	98.44
499.267	86.44
499.484	81.44
499.701	99.44
499.918	107.44
500.135	87.44
500.352	94.44
500.569	93.44
500.786	98.44
501.003	85.44
501.22	76.44
501.437	91.44
501.654	73.44
501.871	112.44
502.088	105.44
502.305	84.44
502.522	90.44
502.739	91.44
502.956	81.44
503.172	103.44
503.389	105.44
503.606	97.44
503.823	99.44
504.04	87.44
504.256	88.44
504.473	81.44
504.69	98.44
504.907	83.44
505.123	98.44
505.34	96.44
505.557	88.44
505.773	91.44
505.99	95.44
506.207	91.44
506.423	75.44
506.64	94.44
506.856	89.44
507.073	101.44
507.289	94.44
507.506	82.44
507.722	104.44
507.939	115.44
508.155	100.44
508.372	80.44
508.588	96.44
508.805	86.44
509.021	107.44
509.238	99.44
509.454	90.44
509.67	110.44
509.887	107.44
510.103	114.44
510.319	212.44
510.536	751.44
510.752	2346.44
510.968	639.44
511.184	161.44
511.401	103.44
511.617	110.44
511.833	75.44
512.049	88.44
512.265	97.44
512.481	93.44
512.698	99.44
512.914	87.44
513.13	105.44
513.346	102.44
513.562	85.44
513.778	101.44
513.994	88.44
514.21	97.44
514.426	117.44
514.642	137.44
514.858	124.44
515.074	157.44
515.29	418.44
515.506	1334.44
515.721	481.44
515.937	150.44
516.153	95.44
