Data from Circ_1994_H10_HRD10591_00071.txt Node
Date: Wed Jan 03 11:40:44 EST 2024
User: Yrep
Spectrometer: HR+D1059
Trigger mode: 1
Integration Time (sec): 1.000000E-1
Scans to average: 1
Electric dark correction enabled: true
Nonlinearity correction enabled: false
Boxcar width: 0
XAxis mode: Wavelengths
Number of Pixels in Spectrum: 2048
>>>>>Begin Spectral Data<<<<<
223.165	-21.81
223.4	-21.81
223.635	-21.81
223.869	-23.81
224.104	-7.81
224.338	-24.81
224.573	-7.81
224.808	-8.81
225.042	-9.81
225.277	-3.81
225.511	-5.81
225.746	10.19
225.98	4.19
226.215	10.19
226.449	12.19
226.683	30.19
226.918	22.19
227.152	25.19
227.387	29.19
227.621	37.19
227.856	36.19
228.09	28.19
228.324	53.19
228.559	57.19
228.793	65.19
229.027	52.19
229.262	82.19
229.496	69.19
229.73	96.19
229.964	72.19
230.199	75.19
230.433	64.19
230.667	76.19
230.901	85.19
231.136	66.19
231.37	90.19
231.604	89.19
231.838	90.19
232.072	91.19
232.306	80.19
232.541	86.19
232.775	81.19
233.009	81.19
233.243	81.19
233.477	90.19
233.711	67.19
233.945	78.19
234.179	90.19
234.413	66.19
234.647	84.19
234.881	72.19
235.115	75.19
235.349	75.19
235.583	72.19
235.817	79.19
236.051	79.19
236.285	68.19
236.519	77.19
236.753	80.19
236.987	74.19
237.221	70.19
237.455	78.19
237.689	72.19
237.922	73.19
238.156	81.19
238.39	81.19
238.624	84.19
238.858	79.19
239.091	84.19
239.325	92.19
239.559	72.19
239.793	74.19
240.027	87.19
240.26	70.19
240.494	69.19
240.728	77.19
240.961	76.19
241.195	73.19
241.429	75.19
241.662	73.19
241.896	69.19
242.13	73.19
242.363	78.19
242.597	67.19
242.83	81.19
243.064	74.19
243.298	75.19
243.531	78.19
243.765	78.19
243.998	75.19
244.232	91.19
244.465	91.19
244.699	84.19
244.932	77.19
245.166	74.19
245.399	80.19
245.633	90.19
245.866	76.19
246.099	90.19
246.333	66.19
246.566	75.19
246.8	72.19
247.033	60.19
247.266	87.19
247.5	78.19
247.733	83.19
247.966	88.19
248.2	82.19
248.433	78.19
248.666	75.19
248.899	88.19
249.133	81.19
249.366	97.19
249.599	84.19
249.832	88.19
250.066	78.19
250.299	70.19
250.532	86.19
250.765	66.19
250.998	86.19
251.231	62.19
251.465	82.19
251.698	82.19
251.931	99.19
252.164	85.19
252.397	80.19
252.63	70.19
252.863	82.19
253.096	73.19
253.329	78.19
253.562	84.19
253.795	68.19
254.028	84.19
254.261	71.19
254.494	89.19
254.727	84.19
254.96	82.19
255.193	83.19
255.426	91.19
255.659	88.19
255.892	81.19
256.124	87.19
256.357	83.19
256.59	77.19
256.823	88.19
257.056	88.19
257.289	89.19
257.521	77.19
257.754	85.19
257.987	83.19
258.22	87.19
258.452	86.19
258.685	82.19
258.918	91.19
259.151	82.19
259.383	86.19
259.616	89.19
259.849	95.19
260.081	81.19
260.314	91.19
260.547	74.19
260.779	86.19
261.012	66.19
261.244	99.19
261.477	90.19
261.71	100.19
261.942	121.19
262.175	117.19
262.407	92.19
262.64	86.19
262.872	88.19
263.105	72.19
263.337	80.19
263.57	75.19
263.802	82.19
264.035	93.19
264.267	82.19
264.499	90.19
264.732	79.19
264.964	83.19
265.197	94.19
265.429	74.19
265.661	73.19
265.894	78.19
266.126	93.19
266.358	90.19
266.591	78.19
266.823	96.19
267.055	78.19
267.287	81.19
267.52	86.19
267.752	89.19
267.984	76.19
268.216	82.19
268.448	76.19
268.681	76.19
268.913	99.19
269.145	84.19
269.377	77.19
269.609	83.19
269.841	93.19
270.073	81.19
270.306	88.19
270.538	84.19
270.77	96.19
271.002	80.19
271.234	80.19
271.466	85.19
271.698	80.19
271.93	99.19
272.162	94.19
272.394	88.19
272.626	82.19
272.858	86.19
273.09	83.19
273.322	82.19
273.553	77.19
273.785	78.19
274.017	94.19
274.249	74.19
274.481	91.19
274.713	89.19
274.945	86.19
275.176	87.19
275.408	81.19
275.64	81.19
275.872	91.19
276.104	94.19
276.335	86.19
276.567	103.19
276.799	108.19
277.031	110.19
277.262	106.19
277.494	86.19
277.726	85.19
277.957	89.19
278.189	84.19
278.421	92.19
278.652	90.19
278.884	89.19
279.115	79.19
279.347	75.19
279.579	93.19
279.81	78.19
280.042	80.19
280.273	86.19
280.505	102.19
280.736	70.19
280.968	82.19
281.199	87.19
281.431	72.19
281.662	80.19
281.894	92.19
282.125	93.19
282.356	129.19
282.588	133.19
282.819	121.19
283.051	75.19
283.282	82.19
283.513	90.19
283.745	100.19
283.976	80.19
284.207	103.19
284.439	102.19
284.67	89.19
284.901	82.19
285.132	86.19
285.364	86.19
285.595	95.19
285.826	100.19
286.057	91.19
286.288	98.19
286.52	77.19
286.751	79.19
286.982	76.19
287.213	79.19
287.444	95.19
287.675	75.19
287.906	93.19
288.138	94.19
288.369	94.19
288.6	89.19
288.831	97.19
289.062	76.19
289.293	94.19
289.524	86.19
289.755	92.19
289.986	86.19
290.217	91.19
290.448	80.19
290.679	90.19
290.91	89.19
291.141	82.19
291.371	83.19
291.602	81.19
291.833	90.19
292.064	98.19
292.295	93.19
292.526	77.19
292.757	84.19
292.987	77.19
293.218	86.19
293.449	83.19
293.68	83.19
293.91	84.19
294.141	86.19
294.372	87.19
294.603	83.19
294.833	97.19
295.064	94.19
295.295	64.19
295.525	89.19
295.756	93.19
295.987	124.19
296.217	138.19
296.448	119.19
296.679	103.19
296.909	88.19
297.14	92.19
297.37	86.19
297.601	88.19
297.831	94.19
298.062	100.19
298.292	82.19
298.523	91.19
298.753	82.19
298.984	80.19
299.214	85.19
299.445	99.19
299.675	89.19
299.905	88.19
300.136	97.19
300.366	101.19
300.597	86.19
300.827	101.19
301.057	90.19
301.288	106.19
301.518	95.19
301.748	98.19
301.979	97.19
302.209	94.19
302.439	86.19
302.669	96.19
302.9	82.19
303.13	91.19
303.36	104.19
303.59	95.19
303.82	91.19
304.051	93.19
304.281	85.19
304.511	108.19
304.741	74.19
304.971	84.19
305.201	102.19
305.431	94.19
305.661	89.19
305.891	88.19
306.121	107.19
306.352	100.19
306.582	106.19
306.812	73.19
307.042	94.19
307.272	99.19
307.502	89.19
307.731	99.19
307.961	94.19
308.191	93.19
308.421	101.19
308.651	86.19
308.881	100.19
309.111	85.19
309.341	96.19
309.571	101.19
309.8	99.19
310.03	94.19
310.26	108.19
310.49	87.19
310.72	90.19
310.949	104.19
311.179	100.19
311.409	90.19
311.639	83.19
311.868	100.19
312.098	87.19
312.328	107.19
312.557	111.19
312.787	111.19
313.017	102.19
313.246	107.19
313.476	92.19
313.706	90.19
313.935	81.19
314.165	105.19
314.394	99.19
314.624	99.19
314.853	93.19
315.083	84.19
315.312	90.19
315.542	95.19
315.771	95.19
316.001	87.19
316.23	100.19
316.46	99.19
316.689	89.19
316.919	89.19
317.148	94.19
317.377	91.19
317.607	102.19
317.836	100.19
318.065	98.19
318.295	96.19
318.524	91.19
318.753	102.19
318.983	86.19
319.212	96.19
319.441	99.19
319.67	100.19
319.9	85.19
320.129	96.19
320.358	94.19
320.587	88.19
320.816	92.19
321.046	89.19
321.275	96.19
321.504	97.19
321.733	93.19
321.962	103.19
322.191	92.19
322.42	95.19
322.649	114.19
322.878	119.19
323.108	111.19
323.337	115.19
323.566	119.19
323.795	147.19
324.024	183.19
324.253	344.19
324.482	752.19
324.71	1510.19
324.939	1940.19
325.168	709.19
325.397	233.19
325.626	145.19
325.855	116.19
326.084	120.19
326.313	115.19
326.542	140.19
326.77	220.19
326.999	428.19
327.228	816.19
327.457	1509.19
327.686	1174.19
327.914	341.19
328.143	204.19
328.372	179.19
328.6	126.19
328.829	99.19
329.058	133.19
329.287	128.19
329.515	114.19
329.744	102.19
329.972	136.19
330.201	166.19
330.43	184.19
330.658	151.19
330.887	140.19
331.115	128.19
331.344	107.19
331.572	103.19
331.801	112.19
332.03	101.19
332.258	100.19
332.486	95.19
332.715	91.19
332.943	107.19
333.172	102.19
333.4	100.19
333.629	93.19
333.857	115.19
334.085	138.19
334.314	158.19
334.542	209.19
334.771	216.19
334.999	119.19
335.227	101.19
335.455	108.19
335.684	95.19
335.912	92.19
336.14	102.19
336.369	95.19
336.597	96.19
336.825	100.19
337.053	100.19
337.281	88.19
337.51	101.19
337.738	86.19
337.966	99.19
338.194	96.19
338.422	102.19
338.65	92.19
338.878	92.19
339.106	89.19
339.334	82.19
339.562	90.19
339.79	99.19
340.018	91.19
340.246	100.19
340.474	95.19
340.702	85.19
340.93	101.19
341.158	85.19
341.386	86.19
341.614	93.19
341.842	89.19
342.07	90.19
342.298	106.19
342.526	94.19
342.754	86.19
342.981	86.19
343.209	97.19
343.437	88.19
343.665	98.19
343.893	86.19
344.12	93.19
344.348	102.19
344.576	93.19
344.804	91.19
345.031	90.19
345.259	103.19
345.487	108.19
345.714	102.19
345.942	82.19
346.17	95.19
346.397	96.19
346.625	88.19
346.853	85.19
347.08	79.19
347.308	93.19
347.535	97.19
347.763	99.19
347.99	103.19
348.218	90.19
348.445	82.19
348.673	104.19
348.9	90.19
349.128	91.19
349.355	84.19
349.583	92.19
349.81	92.19
350.037	88.19
350.265	89.19
350.492	96.19
350.72	106.19
350.947	106.19
351.174	106.19
351.402	110.19
351.629	91.19
351.856	89.19
352.083	98.19
352.311	117.19
352.538	117.19
352.765	108.19
352.992	97.19
353.22	118.19
353.447	107.19
353.674	89.19
353.901	93.19
354.128	105.19
354.355	96.19
354.583	112.19
354.81	97.19
355.037	91.19
355.264	98.19
355.491	84.19
355.718	110.19
355.945	98.19
356.172	95.19
356.399	88.19
356.626	98.19
356.853	82.19
357.08	84.19
357.307	83.19
357.534	88.19
357.761	88.19
357.988	112.19
358.215	96.19
358.441	93.19
358.668	101.19
358.895	94.19
359.122	97.19
359.349	99.19
359.576	90.19
359.802	93.19
360.029	100.19
360.256	96.19
360.483	116.19
360.709	97.19
360.936	77.19
361.163	89.19
361.39	90.19
361.616	92.19
361.843	82.19
362.07	84.19
362.296	96.19
362.523	78.19
362.749	90.19
362.976	80.19
363.203	86.19
363.429	86.19
363.656	89.19
363.882	75.19
364.109	90.19
364.335	88.19
364.562	90.19
364.788	101.19
365.015	88.19
365.241	100.19
365.468	110.19
365.694	109.19
365.92	102.19
366.147	96.19
366.373	101.19
366.599	94.19
366.826	96.19
367.052	78.19
367.278	88.19
367.505	92.19
367.731	97.19
367.957	90.19
368.184	93.19
368.41	105.19
368.636	110.19
368.862	128.19
369.089	97.19
369.315	97.19
369.541	98.19
369.767	93.19
369.993	91.19
370.219	97.19
370.445	97.19
370.672	98.19
370.898	89.19
371.124	80.19
371.35	76.19
371.576	94.19
371.802	88.19
372.028	85.19
372.254	90.19
372.48	91.19
372.706	96.19
372.932	86.19
373.158	102.19
373.384	94.19
373.61	76.19
373.835	84.19
374.061	78.19
374.287	80.19
374.513	95.19
374.739	84.19
374.965	86.19
375.191	91.19
375.416	73.19
375.642	90.19
375.868	88.19
376.094	101.19
376.319	87.19
376.545	85.19
376.771	93.19
376.997	97.19
377.222	85.19
377.448	100.19
377.674	88.19
377.899	92.19
378.125	86.19
378.35	90.19
378.576	91.19
378.802	89.19
379.027	90.19
379.253	96.19
379.478	88.19
379.704	80.19
379.929	97.19
380.155	102.19
380.38	100.19
380.606	99.19
380.831	95.19
381.057	97.19
381.282	93.19
381.507	95.19
381.733	90.19
381.958	90.19
382.184	94.19
382.409	101.19
382.634	101.19
382.86	107.19
383.085	102.19
383.31	91.19
383.535	100.19
383.761	98.19
383.986	104.19
384.211	100.19
384.436	107.19
384.662	95.19
384.887	105.19
385.112	94.19
385.337	107.19
385.562	88.19
385.787	88.19
386.013	116.19
386.238	105.19
386.463	104.19
386.688	97.19
386.913	102.19
387.138	116.19
387.363	108.19
387.588	93.19
387.813	108.19
388.038	103.19
388.263	94.19
388.488	112.19
388.713	97.19
388.938	101.19
389.163	94.19
389.387	97.19
389.612	94.19
389.837	98.19
390.062	84.19
390.287	84.19
390.512	84.19
390.736	82.19
390.961	93.19
391.186	76.19
391.411	102.19
391.636	95.19
391.86	86.19
392.085	76.19
392.31	83.19
392.534	96.19
392.759	88.19
392.984	75.19
393.208	82.19
393.433	96.19
393.658	89.19
393.882	88.19
394.107	89.19
394.331	74.19
394.556	96.19
394.78	97.19
395.005	90.19
395.229	84.19
395.454	86.19
395.678	94.19
395.903	80.19
396.127	84.19
396.352	94.19
396.576	99.19
396.801	92.19
397.025	68.19
397.249	77.19
397.474	93.19
397.698	76.19
397.922	100.19
398.147	81.19
398.371	75.19
398.595	81.19
398.82	90.19
399.044	77.19
399.268	94.19
399.492	90.19
399.717	80.19
399.941	85.19
400.165	105.19
400.389	86.19
400.613	86.19
400.837	87.19
401.062	79.19
401.286	82.19
401.51	92.19
401.734	80.19
401.958	99.19
402.182	123.19
402.406	158.19
402.63	116.19
402.854	98.19
403.078	78.19
403.302	95.19
403.526	89.19
403.75	81.19
403.974	99.19
404.198	95.19
404.422	84.19
404.645	92.19
404.869	100.19
405.093	86.19
405.317	97.19
405.541	110.19
405.765	96.19
405.988	112.19
406.212	168.19
406.436	207.19
406.66	155.19
406.883	106.19
407.107	97.19
407.331	101.19
407.555	106.19
407.778	72.19
408.002	77.19
408.226	98.19
408.449	91.19
408.673	83.19
408.896	86.19
409.12	84.19
409.344	95.19
409.567	84.19
409.791	91.19
410.014	81.19
410.238	106.19
410.461	90.19
410.685	81.19
410.908	96.19
411.132	101.19
411.355	92.19
411.578	94.19
411.802	101.19
412.025	92.19
412.249	93.19
412.472	102.19
412.695	100.19
412.919	83.19
413.142	75.19
413.365	93.19
413.589	100.19
413.812	93.19
414.035	85.19
414.258	95.19
414.482	85.19
414.705	85.19
414.928	90.19
415.151	88.19
415.374	92.19
415.597	78.19
415.821	82.19
416.044	80.19
416.267	82.19
416.49	76.19
416.713	83.19
416.936	87.19
417.159	91.19
417.382	78.19
417.605	93.19
417.828	93.19
418.051	90.19
418.274	95.19
418.497	101.19
418.72	86.19
418.943	84.19
419.166	81.19
419.389	85.19
419.611	81.19
419.834	82.19
420.057	96.19
420.28	85.19
420.503	75.19
420.726	98.19
420.948	101.19
421.171	88.19
421.394	83.19
421.617	99.19
421.839	84.19
422.062	79.19
422.285	94.19
422.507	91.19
422.73	103.19
422.953	81.19
423.175	95.19
423.398	89.19
423.621	80.19
423.843	82.19
424.066	94.19
424.288	89.19
424.511	96.19
424.733	92.19
424.956	107.19
425.178	111.19
425.401	108.19
425.623	96.19
425.846	92.19
426.068	92.19
426.291	82.19
426.513	72.19
426.735	94.19
426.958	94.19
427.18	120.19
427.402	132.19
427.625	129.19
427.847	141.19
428.069	125.19
428.292	96.19
428.514	99.19
428.736	99.19
428.958	92.19
429.181	89.19
429.403	83.19
429.625	94.19
429.847	96.19
430.069	97.19
430.292	80.19
430.514	84.19
430.736	102.19
430.958	85.19
431.18	87.19
431.402	84.19
431.624	84.19
431.846	96.19
432.068	90.19
432.29	97.19
432.512	86.19
432.734	87.19
432.956	82.19
433.178	102.19
433.4	90.19
433.622	96.19
433.844	84.19
434.066	75.19
434.287	85.19
434.509	89.19
434.731	93.19
434.953	98.19
435.175	93.19
435.397	87.19
435.618	87.19
435.84	104.19
436.062	118.19
436.284	109.19
436.505	93.19
436.727	92.19
436.949	76.19
437.17	88.19
437.392	80.19
437.614	77.19
437.835	109.19
438.057	117.19
438.278	91.19
438.5	105.19
438.721	117.19
438.943	101.19
439.165	89.19
439.386	94.19
439.608	80.19
439.829	84.19
440.05	104.19
440.272	148.19
440.493	99.19
440.715	76.19
440.936	70.19
441.158	90.19
441.379	115.19
441.6	88.19
441.822	85.19
442.043	90.19
442.264	99.19
442.486	87.19
442.707	96.19
442.928	105.19
443.149	129.19
443.371	131.19
443.592	90.19
443.813	105.19
444.034	93.19
444.255	97.19
444.476	90.19
444.698	93.19
444.919	91.19
445.14	118.19
445.361	109.19
445.582	112.19
445.803	129.19
446.024	135.19
446.245	127.19
446.466	94.19
446.687	79.19
446.908	97.19
447.129	85.19
447.35	84.19
447.571	92.19
447.792	93.19
448.013	104.19
448.234	97.19
448.455	95.19
448.675	116.19
448.896	111.19
449.117	94.19
449.338	101.19
449.559	122.19
449.779	118.19
450	78.19
450.221	79.19
450.442	96.19
450.662	88.19
450.883	96.19
451.104	113.19
451.324	87.19
451.545	84.19
451.766	92.19
451.986	92.19
452.207	80.19
452.428	85.19
452.648	96.19
452.869	123.19
453.089	119.19
453.31	108.19
453.53	94.19
453.751	95.19
453.971	104.19
454.192	115.19
454.412	95.19
454.633	90.19
454.853	76.19
455.073	81.19
455.294	85.19
455.514	97.19
455.734	96.19
455.955	74.19
456.175	76.19
456.395	85.19
456.616	90.19
456.836	87.19
457.056	80.19
457.276	93.19
457.497	97.19
457.717	72.19
457.937	84.19
458.157	88.19
458.377	91.19
458.598	106.19
458.818	142.19
459.038	160.19
459.258	104.19
459.478	82.19
459.698	82.19
459.918	84.19
460.138	80.19
460.358	91.19
460.578	84.19
460.798	88.19
461.018	96.19
461.238	87.19
461.458	75.19
461.678	84.19
461.898	95.19
462.118	93.19
462.338	85.19
462.558	93.19
462.777	83.19
462.997	81.19
463.217	81.19
463.437	86.19
463.657	88.19
463.876	84.19
464.096	77.19
464.316	81.19
464.536	91.19
464.755	90.19
464.975	103.19
465.195	154.19
465.414	143.19
465.634	94.19
465.854	85.19
466.073	84.19
466.293	93.19
466.512	88.19
466.732	82.19
466.951	109.19
467.171	95.19
467.391	95.19
467.61	109.19
467.829	85.19
468.049	126.19
468.268	123.19
468.488	87.19
468.707	91.19
468.927	80.19
469.146	93.19
469.365	72.19
469.585	90.19
469.804	82.19
470.023	89.19
470.243	99.19
470.462	96.19
470.681	104.19
470.901	85.19
471.12	87.19
471.339	76.19
471.558	95.19
471.777	92.19
471.997	108.19
472.216	183.19
472.435	244.19
472.654	106.19
472.873	90.19
473.092	78.19
473.311	76.19
473.53	97.19
473.749	88.19
473.968	93.19
474.187	102.19
474.406	101.19
474.625	74.19
474.844	82.19
475.063	92.19
475.282	93.19
475.501	91.19
475.72	86.19
475.939	94.19
476.158	83.19
476.377	91.19
476.596	88.19
476.814	100.19
477.033	84.19
477.252	86.19
477.471	85.19
477.69	73.19
477.908	94.19
478.127	91.19
478.346	77.19
478.564	88.19
478.783	102.19
479.002	84.19
479.22	73.19
479.439	106.19
479.658	83.19
479.876	97.19
480.095	86.19
480.313	84.19
480.532	100.19
480.751	98.19
480.969	166.19
481.188	420.19
481.406	288.19
481.624	110.19
481.843	90.19
482.061	76.19
482.28	97.19
482.498	77.19
482.717	87.19
482.935	85.19
483.153	88.19
483.372	73.19
483.59	100.19
483.808	74.19
484.027	93.19
484.245	97.19
484.463	90.19
484.681	96.19
484.9	91.19
485.118	86.19
485.336	102.19
485.554	87.19
485.772	104.19
485.99	105.19
486.209	105.19
486.427	101.19
486.645	98.19
486.863	102.19
487.081	101.19
487.299	102.19
487.517	92.19
487.735	96.19
487.953	104.19
488.171	90.19
488.389	87.19
488.607	104.19
488.825	103.19
489.043	82.19
489.261	88.19
489.479	94.19
489.696	81.19
489.914	90.19
490.132	88.19
490.35	90.19
490.568	97.19
490.786	92.19
491.003	81.19
491.221	98.19
491.439	101.19
491.657	84.19
491.874	80.19
492.092	85.19
492.31	99.19
492.527	95.19
492.745	84.19
492.963	80.19
493.18	81.19
493.398	95.19
493.615	105.19
493.833	84.19
494.05	74.19
494.268	108.19
494.485	91.19
494.703	96.19
494.92	88.19
495.138	78.19
495.355	84.19
495.573	93.19
495.79	95.19
496.008	105.19
496.225	83.19
496.442	97.19
496.66	95.19
496.877	88.19
497.094	82.19
497.312	99.19
497.529	87.19
497.746	94.19
497.963	80.19
498.181	101.19
498.398	104.19
498.615	102.19
498.832	96.19
499.049	80.19
499.267	86.19
499.484	70.19
499.701	79.19
499.918	78.19
500.135	84.19
500.352	86.19
500.569	83.19
500.786	105.19
501.003	87.19
501.22	83.19
501.437	93.19
501.654	100.19
501.871	105.19
502.088	98.19
502.305	91.19
502.522	97.19
502.739	95.19
502.956	78.19
503.172	84.19
503.389	93.19
503.606	108.19
503.823	76.19
504.04	93.19
504.256	95.19
504.473	95.19
504.69	93.19
504.907	79.19
505.123	93.19
505.34	86.19
505.557	95.19
505.773	89.19
505.99	96.19
506.207	93.19
506.423	84.19
506.64	92.19
506.856	80.19
507.073	96.19
507.289	92.19
507.506	113.19
507.722	122.19
507.939	123.19
508.155	108.19
508.372	103.19
508.588	91.19
508.805	90.19
509.021	92.19
509.238	112.19
509.454	93.19
509.67	97.19
509.887	115.19
510.103	134.19
510.319	219.19
510.536	756.19
510.752	2419.19
510.968	660.19
511.184	156.19
511.401	115.19
511.617	98.19
511.833	91.19
512.049	93.19
512.265	87.19
512.481	78.19
512.698	80.19
512.914	89.19
513.13	100.19
513.346	83.19
513.562	93.19
513.778	98.19
513.994	98.19
514.21	117.19
514.426	107.19
514.642	132.19
514.858	107.19
515.074	163.19
515.29	449.19
515.506	1424.19
515.721	525.19
