Data from Circ_1994_H10_HRD10591_00024.txt Node
Date: Wed Jan 03 11:40:35 EST 2024
User: Yrep
Spectrometer: HR+D1059
Trigger mode: 1
Integration Time (sec): 1.000000E-1
Scans to average: 1
Electric dark correction enabled: true
Nonlinearity correction enabled: false
Boxcar width: 0
XAxis mode: Wavelengths
Number of Pixels in Spectrum: 2048
>>>>>Begin Spectral Data<<<<<
223.165	-28.88
223.4	-28.88
223.635	-28.88
223.869	-26.88
224.104	-24.88
224.338	-18.88
224.573	-22.88
224.808	-22.88
225.042	11.12
225.277	-0.88
225.511	0.12
225.746	10.12
225.98	13.12
226.215	2.12
226.449	22.12
226.683	31.12
226.918	28.12
227.152	28.12
227.387	36.12
227.621	38.12
227.856	40.12
228.09	34.12
228.324	46.12
228.559	67.12
228.793	68.12
229.027	63.12
229.262	70.12
229.496	76.12
229.73	88.12
229.964	85.12
230.199	76.12
230.433	84.12
230.667	82.12
230.901	91.12
231.136	70.12
231.37	79.12
231.604	84.12
231.838	63.12
232.072	73.12
232.306	82.12
232.541	91.12
232.775	89.12
233.009	77.12
233.243	78.12
233.477	77.12
233.711	78.12
233.945	81.12
234.179	73.12
234.413	77.12
234.647	71.12
234.881	99.12
235.115	76.12
235.349	90.12
235.583	78.12
235.817	71.12
236.051	75.12
236.285	87.12
236.519	80.12
236.753	76.12
236.987	75.12
237.221	92.12
237.455	74.12
237.689	78.12
237.922	86.12
238.156	80.12
238.39	82.12
238.624	72.12
238.858	78.12
239.091	62.12
239.325	78.12
239.559	81.12
239.793	78.12
240.027	59.12
240.26	62.12
240.494	75.12
240.728	85.12
240.961	85.12
241.195	75.12
241.429	86.12
241.662	77.12
241.896	74.12
242.13	83.12
242.363	75.12
242.597	76.12
242.83	82.12
243.064	79.12
243.298	84.12
243.531	86.12
243.765	76.12
243.998	96.12
244.232	91.12
244.465	88.12
244.699	93.12
244.932	84.12
245.166	90.12
245.399	75.12
245.633	77.12
245.866	75.12
246.099	66.12
246.333	69.12
246.566	79.12
246.8	81.12
247.033	83.12
247.266	75.12
247.5	81.12
247.733	79.12
247.966	67.12
248.2	84.12
248.433	73.12
248.666	78.12
248.899	85.12
249.133	82.12
249.366	100.12
249.599	100.12
249.832	88.12
250.066	75.12
250.299	84.12
250.532	81.12
250.765	82.12
250.998	73.12
251.231	77.12
251.465	89.12
251.698	79.12
251.931	71.12
252.164	81.12
252.397	73.12
252.63	78.12
252.863	83.12
253.096	103.12
253.329	77.12
253.562	74.12
253.795	96.12
254.028	84.12
254.261	76.12
254.494	90.12
254.727	89.12
254.96	87.12
255.193	82.12
255.426	73.12
255.659	74.12
255.892	75.12
256.124	90.12
256.357	78.12
256.59	82.12
256.823	80.12
257.056	78.12
257.289	83.12
257.521	79.12
257.754	86.12
257.987	94.12
258.22	77.12
258.452	92.12
258.685	93.12
258.918	80.12
259.151	73.12
259.383	87.12
259.616	81.12
259.849	94.12
260.081	81.12
260.314	77.12
260.547	75.12
260.779	93.12
261.012	77.12
261.244	93.12
261.477	95.12
261.71	113.12
261.942	114.12
262.175	118.12
262.407	83.12
262.64	98.12
262.872	76.12
263.105	85.12
263.337	83.12
263.57	77.12
263.802	87.12
264.035	92.12
264.267	77.12
264.499	86.12
264.732	80.12
264.964	85.12
265.197	87.12
265.429	90.12
265.661	84.12
265.894	75.12
266.126	92.12
266.358	89.12
266.591	93.12
266.823	83.12
267.055	91.12
267.287	78.12
267.52	89.12
267.752	74.12
267.984	82.12
268.216	92.12
268.448	76.12
268.681	68.12
268.913	79.12
269.145	79.12
269.377	91.12
269.609	82.12
269.841	85.12
270.073	76.12
270.306	92.12
270.538	75.12
270.77	92.12
271.002	84.12
271.234	73.12
271.466	102.12
271.698	83.12
271.93	84.12
272.162	77.12
272.394	86.12
272.626	91.12
272.858	87.12
273.09	87.12
273.322	92.12
273.553	81.12
273.785	93.12
274.017	78.12
274.249	91.12
274.481	86.12
274.713	70.12
274.945	103.12
275.176	101.12
275.408	97.12
275.64	79.12
275.872	90.12
276.104	91.12
276.335	98.12
276.567	99.12
276.799	99.12
277.031	102.12
277.262	101.12
277.494	98.12
277.726	80.12
277.957	88.12
278.189	106.12
278.421	91.12
278.652	82.12
278.884	82.12
279.115	66.12
279.347	81.12
279.579	91.12
279.81	85.12
280.042	81.12
280.273	94.12
280.505	98.12
280.736	68.12
280.968	86.12
281.199	95.12
281.431	94.12
281.662	99.12
281.894	99.12
282.125	101.12
282.356	109.12
282.588	145.12
282.819	123.12
283.051	86.12
283.282	88.12
283.513	100.12
283.745	87.12
283.976	92.12
284.207	95.12
284.439	90.12
284.67	88.12
284.901	85.12
285.132	97.12
285.364	94.12
285.595	96.12
285.826	103.12
286.057	93.12
286.288	94.12
286.52	96.12
286.751	90.12
286.982	77.12
287.213	84.12
287.444	83.12
287.675	89.12
287.906	102.12
288.138	85.12
288.369	88.12
288.6	94.12
288.831	82.12
289.062	92.12
289.293	77.12
289.524	76.12
289.755	93.12
289.986	80.12
290.217	87.12
290.448	88.12
290.679	90.12
290.91	93.12
291.141	85.12
291.371	91.12
291.602	89.12
291.833	81.12
292.064	79.12
292.295	87.12
292.526	89.12
292.757	95.12
292.987	70.12
293.218	82.12
293.449	84.12
293.68	101.12
293.91	93.12
294.141	100.12
294.372	86.12
294.603	85.12
294.833	77.12
295.064	97.12
295.295	86.12
295.525	93.12
295.756	121.12
295.987	118.12
296.217	137.12
296.448	128.12
296.679	95.12
296.909	90.12
297.14	79.12
297.37	93.12
297.601	91.12
297.831	92.12
298.062	93.12
298.292	87.12
298.523	85.12
298.753	93.12
298.984	86.12
299.214	90.12
299.445	89.12
299.675	92.12
299.905	106.12
300.136	102.12
300.366	91.12
300.597	99.12
300.827	98.12
301.057	98.12
301.288	103.12
301.518	99.12
301.748	107.12
301.979	103.12
302.209	104.12
302.439	80.12
302.669	102.12
302.9	102.12
303.13	84.12
303.36	93.12
303.59	96.12
303.82	102.12
304.051	95.12
304.281	94.12
304.511	95.12
304.741	96.12
304.971	83.12
305.201	82.12
305.431	83.12
305.661	92.12
305.891	97.12
306.121	99.12
306.352	106.12
306.582	101.12
306.812	88.12
307.042	88.12
307.272	108.12
307.502	84.12
307.731	91.12
307.961	78.12
308.191	82.12
308.421	97.12
308.651	98.12
308.881	88.12
309.111	75.12
309.341	98.12
309.571	113.12
309.8	92.12
310.03	99.12
310.26	98.12
310.49	91.12
310.72	94.12
310.949	95.12
311.179	107.12
311.409	88.12
311.639	102.12
311.868	97.12
312.098	109.12
312.328	102.12
312.557	94.12
312.787	111.12
313.017	104.12
313.246	106.12
313.476	89.12
313.706	96.12
313.935	107.12
314.165	107.12
314.394	105.12
314.624	93.12
314.853	91.12
315.083	84.12
315.312	93.12
315.542	103.12
315.771	93.12
316.001	99.12
316.23	96.12
316.46	93.12
316.689	99.12
316.919	98.12
317.148	99.12
317.377	104.12
317.607	94.12
317.836	93.12
318.065	95.12
318.295	79.12
318.524	100.12
318.753	91.12
318.983	90.12
319.212	102.12
319.441	98.12
319.67	107.12
319.9	85.12
320.129	88.12
320.358	99.12
320.587	94.12
320.816	110.12
321.046	95.12
321.275	75.12
321.504	77.12
321.733	100.12
321.962	111.12
322.191	93.12
322.42	112.12
322.649	109.12
322.878	104.12
323.108	121.12
323.337	125.12
323.566	137.12
323.795	151.12
324.024	191.12
324.253	388.12
324.482	747.12
324.71	1547.12
324.939	1981.12
325.168	767.12
325.397	250.12
325.626	139.12
325.855	128.12
326.084	130.12
326.313	122.12
326.542	158.12
326.77	217.12
326.999	415.12
327.228	847.12
327.457	1539.12
327.686	1229.12
327.914	339.12
328.143	198.12
328.372	154.12
328.6	117.12
328.829	124.12
329.058	121.12
329.287	132.12
329.515	101.12
329.744	115.12
329.972	109.12
330.201	127.12
330.43	134.12
330.658	132.12
330.887	142.12
331.115	116.12
331.344	98.12
331.572	103.12
331.801	103.12
332.03	118.12
332.258	90.12
332.486	83.12
332.715	95.12
332.943	104.12
333.172	96.12
333.4	100.12
333.629	105.12
333.857	99.12
334.085	115.12
334.314	112.12
334.542	148.12
334.771	129.12
334.999	107.12
335.227	88.12
335.455	93.12
335.684	110.12
335.912	103.12
336.14	98.12
336.369	102.12
336.597	105.12
336.825	98.12
337.053	95.12
337.281	91.12
337.51	101.12
337.738	97.12
337.966	102.12
338.194	95.12
338.422	91.12
338.65	111.12
338.878	110.12
339.106	95.12
339.334	90.12
339.562	81.12
339.79	102.12
340.018	79.12
340.246	78.12
340.474	97.12
340.702	101.12
340.93	86.12
341.158	98.12
341.386	99.12
341.614	107.12
341.842	93.12
342.07	85.12
342.298	81.12
342.526	90.12
342.754	97.12
342.981	80.12
343.209	92.12
343.437	101.12
343.665	78.12
343.893	86.12
344.12	86.12
344.348	81.12
344.576	90.12
344.804	100.12
345.031	92.12
345.259	103.12
345.487	90.12
345.714	91.12
345.942	105.12
346.17	96.12
346.397	90.12
346.625	90.12
346.853	80.12
347.08	105.12
347.308	89.12
347.535	100.12
347.763	111.12
347.99	99.12
348.218	98.12
348.445	93.12
348.673	95.12
348.9	98.12
349.128	99.12
349.355	102.12
349.583	98.12
349.81	100.12
350.037	99.12
350.265	112.12
350.492	87.12
350.72	103.12
350.947	103.12
351.174	106.12
351.402	119.12
351.629	95.12
351.856	102.12
352.083	102.12
352.311	111.12
352.538	121.12
352.765	131.12
352.992	99.12
353.22	115.12
353.447	99.12
353.674	103.12
353.901	76.12
354.128	87.12
354.355	97.12
354.583	109.12
354.81	100.12
355.037	99.12
355.264	99.12
355.491	95.12
355.718	89.12
355.945	105.12
356.172	88.12
356.399	89.12
356.626	92.12
356.853	107.12
357.08	96.12
357.307	100.12
357.534	113.12
357.761	93.12
357.988	100.12
358.215	84.12
358.441	90.12
358.668	89.12
358.895	95.12
359.122	86.12
359.349	88.12
359.576	98.12
359.802	94.12
360.029	127.12
360.256	113.12
360.483	97.12
360.709	79.12
360.936	85.12
361.163	97.12
361.39	93.12
361.616	106.12
361.843	97.12
362.07	89.12
362.296	99.12
362.523	100.12
362.749	101.12
362.976	87.12
363.203	102.12
363.429	93.12
363.656	88.12
363.882	86.12
364.109	100.12
364.335	96.12
364.562	81.12
364.788	97.12
365.015	92.12
365.241	96.12
365.468	106.12
365.694	91.12
365.92	99.12
366.147	88.12
366.373	86.12
366.599	96.12
366.826	80.12
367.052	82.12
367.278	91.12
367.505	101.12
367.731	95.12
367.957	109.12
368.184	89.12
368.41	87.12
368.636	119.12
368.862	113.12
369.089	90.12
369.315	100.12
369.541	85.12
369.767	81.12
369.993	85.12
370.219	101.12
370.445	78.12
370.672	93.12
370.898	82.12
371.124	89.12
371.35	86.12
371.576	79.12
371.802	97.12
372.028	85.12
372.254	88.12
372.48	98.12
372.706	83.12
372.932	80.12
373.158	83.12
373.384	83.12
373.61	82.12
373.835	96.12
374.061	91.12
374.287	90.12
374.513	85.12
374.739	77.12
374.965	92.12
375.191	101.12
375.416	101.12
375.642	103.12
375.868	91.12
376.094	77.12
376.319	97.12
376.545	90.12
376.771	94.12
376.997	91.12
377.222	89.12
377.448	93.12
377.674	85.12
377.899	92.12
378.125	86.12
378.35	95.12
378.576	101.12
378.802	91.12
379.027	85.12
379.253	87.12
379.478	84.12
379.704	93.12
379.929	96.12
380.155	93.12
380.38	95.12
380.606	97.12
380.831	93.12
381.057	121.12
381.282	108.12
381.507	89.12
381.733	100.12
381.958	105.12
382.184	91.12
382.409	96.12
382.634	92.12
382.86	88.12
383.085	107.12
383.31	90.12
383.535	91.12
383.761	94.12
383.986	102.12
384.211	86.12
384.436	104.12
384.662	106.12
384.887	93.12
385.112	105.12
385.337	106.12
385.562	88.12
385.787	102.12
386.013	98.12
386.238	109.12
386.463	108.12
386.688	106.12
386.913	92.12
387.138	101.12
387.363	108.12
387.588	99.12
387.813	108.12
388.038	107.12
388.263	105.12
388.488	113.12
388.713	98.12
388.938	95.12
389.163	90.12
389.387	101.12
389.612	107.12
389.837	92.12
390.062	84.12
390.287	87.12
390.512	90.12
390.736	85.12
390.961	87.12
391.186	101.12
391.411	103.12
391.636	83.12
391.86	91.12
392.085	77.12
392.31	88.12
392.534	82.12
392.759	88.12
392.984	95.12
393.208	98.12
393.433	100.12
393.658	113.12
393.882	80.12
394.107	83.12
394.331	82.12
394.556	81.12
394.78	91.12
395.005	80.12
395.229	95.12
395.454	88.12
395.678	92.12
395.903	81.12
396.127	89.12
396.352	95.12
396.576	82.12
396.801	98.12
397.025	77.12
397.249	95.12
397.474	98.12
397.698	85.12
397.922	85.12
398.147	95.12
398.371	84.12
398.595	92.12
398.82	86.12
399.044	97.12
399.268	86.12
399.492	78.12
399.717	94.12
399.941	91.12
400.165	90.12
400.389	98.12
400.613	92.12
400.837	88.12
401.062	94.12
401.286	87.12
401.51	87.12
401.734	97.12
401.958	102.12
402.182	124.12
402.406	175.12
402.63	109.12
402.854	84.12
403.078	101.12
403.302	87.12
403.526	81.12
403.75	89.12
403.974	83.12
404.198	91.12
404.422	94.12
404.645	80.12
404.869	93.12
405.093	90.12
405.317	102.12
405.541	100.12
405.765	92.12
405.988	103.12
406.212	173.12
406.436	234.12
406.66	143.12
406.883	102.12
407.107	92.12
407.331	101.12
407.555	85.12
407.778	84.12
408.002	83.12
408.226	83.12
408.449	88.12
408.673	84.12
408.896	101.12
409.12	86.12
409.344	76.12
409.567	86.12
409.791	90.12
410.014	102.12
410.238	89.12
410.461	87.12
410.685	89.12
410.908	93.12
411.132	115.12
411.355	92.12
411.578	93.12
411.802	95.12
412.025	93.12
412.249	106.12
412.472	88.12
412.695	102.12
412.919	97.12
413.142	107.12
413.365	91.12
413.589	70.12
413.812	102.12
414.035	80.12
414.258	88.12
414.482	107.12
414.705	89.12
414.928	84.12
415.151	103.12
415.374	85.12
415.597	81.12
415.821	87.12
416.044	77.12
416.267	87.12
416.49	92.12
416.713	83.12
416.936	96.12
417.159	89.12
417.382	94.12
417.605	89.12
417.828	87.12
418.051	87.12
418.274	86.12
418.497	91.12
418.72	85.12
418.943	86.12
419.166	90.12
419.389	98.12
419.611	90.12
419.834	95.12
420.057	109.12
420.28	86.12
420.503	90.12
420.726	92.12
420.948	94.12
421.171	89.12
421.394	100.12
421.617	109.12
421.839	97.12
422.062	97.12
422.285	94.12
422.507	89.12
422.73	99.12
422.953	92.12
423.175	80.12
423.398	92.12
423.621	101.12
423.843	106.12
424.066	95.12
424.288	94.12
424.511	90.12
424.733	96.12
424.956	99.12
425.178	94.12
425.401	81.12
425.623	78.12
425.846	95.12
426.068	90.12
426.291	94.12
426.513	95.12
426.735	83.12
426.958	103.12
427.18	110.12
427.402	142.12
427.625	159.12
427.847	118.12
428.069	109.12
428.292	82.12
428.514	81.12
428.736	82.12
428.958	76.12
429.181	78.12
429.403	86.12
429.625	101.12
429.847	79.12
430.069	103.12
430.292	94.12
430.514	81.12
430.736	89.12
430.958	87.12
431.18	90.12
431.402	85.12
431.624	99.12
431.846	76.12
432.068	80.12
432.29	87.12
432.512	100.12
432.734	93.12
432.956	92.12
433.178	93.12
433.4	101.12
433.622	91.12
433.844	86.12
434.066	101.12
434.287	84.12
434.509	78.12
434.731	91.12
434.953	84.12
435.175	92.12
435.397	77.12
435.618	98.12
435.84	84.12
436.062	107.12
436.284	100.12
436.505	99.12
436.727	85.12
436.949	97.12
437.17	84.12
437.392	92.12
437.614	93.12
437.835	101.12
438.057	106.12
438.278	85.12
438.5	117.12
438.721	101.12
438.943	104.12
439.165	91.12
439.386	91.12
439.608	93.12
439.829	87.12
440.05	108.12
440.272	145.12
440.493	108.12
440.715	80.12
440.936	82.12
441.158	95.12
441.379	82.12
441.6	106.12
441.822	87.12
442.043	92.12
442.264	92.12
442.486	86.12
442.707	87.12
442.928	94.12
443.149	129.12
443.371	121.12
443.592	108.12
443.813	106.12
444.034	101.12
444.255	93.12
444.476	90.12
444.698	90.12
444.919	95.12
445.14	133.12
445.361	112.12
445.582	114.12
445.803	134.12
446.024	127.12
446.245	130.12
446.466	98.12
446.687	98.12
446.908	87.12
447.129	89.12
447.35	107.12
447.571	97.12
447.792	92.12
448.013	89.12
448.234	108.12
448.455	95.12
448.675	102.12
448.896	111.12
449.117	87.12
449.338	94.12
449.559	125.12
449.779	105.12
450	86.12
450.221	96.12
450.442	96.12
450.662	94.12
450.883	105.12
451.104	103.12
451.324	105.12
451.545	99.12
451.766	103.12
451.986	87.12
452.207	90.12
452.428	100.12
452.648	102.12
452.869	101.12
453.089	111.12
453.31	108.12
453.53	104.12
453.751	95.12
453.971	105.12
454.192	123.12
454.412	102.12
454.633	105.12
454.853	102.12
455.073	91.12
455.294	87.12
455.514	113.12
455.734	91.12
455.955	82.12
456.175	107.12
456.395	91.12
456.616	86.12
456.836	92.12
457.056	94.12
457.276	93.12
457.497	75.12
457.717	83.12
457.937	86.12
458.157	97.12
458.377	101.12
458.598	98.12
458.818	130.12
459.038	146.12
459.258	119.12
459.478	104.12
459.698	89.12
459.918	77.12
460.138	76.12
460.358	89.12
460.578	102.12
460.798	97.12
461.018	92.12
461.238	85.12
461.458	88.12
461.678	76.12
461.898	86.12
462.118	96.12
462.338	83.12
462.558	91.12
462.777	85.12
462.997	82.12
463.217	83.12
463.437	91.12
463.657	101.12
463.876	92.12
464.096	93.12
464.316	92.12
464.536	88.12
464.755	94.12
464.975	112.12
465.195	163.12
465.414	158.12
465.634	87.12
465.854	97.12
466.073	82.12
466.293	101.12
466.512	98.12
466.732	88.12
466.951	76.12
467.171	87.12
467.391	101.12
467.61	88.12
467.829	109.12
468.049	109.12
468.268	101.12
468.488	99.12
468.707	87.12
468.927	83.12
469.146	93.12
469.365	93.12
469.585	92.12
469.804	125.12
470.023	111.12
470.243	96.12
470.462	89.12
470.681	95.12
470.901	86.12
471.12	83.12
471.339	85.12
471.558	86.12
471.777	92.12
471.997	94.12
472.216	114.12
472.435	156.12
472.654	93.12
472.873	95.12
473.092	93.12
473.311	89.12
473.53	73.12
473.749	86.12
473.968	110.12
474.187	96.12
474.406	87.12
474.625	92.12
474.844	98.12
475.063	84.12
475.282	73.12
475.501	75.12
475.72	93.12
475.939	84.12
476.158	83.12
476.377	91.12
476.596	79.12
476.814	89.12
477.033	83.12
477.252	92.12
477.471	82.12
477.69	92.12
477.908	82.12
478.127	89.12
478.346	98.12
478.564	95.12
478.783	100.12
479.002	108.12
479.22	77.12
479.439	106.12
479.658	97.12
479.876	102.12
480.095	84.12
480.313	95.12
480.532	101.12
480.751	98.12
480.969	120.12
481.188	230.12
481.406	163.12
481.624	99.12
481.843	96.12
482.061	100.12
482.28	94.12
482.498	96.12
482.717	99.12
482.935	87.12
483.153	95.12
483.372	87.12
483.59	94.12
483.808	86.12
484.027	82.12
484.245	96.12
484.463	87.12
484.681	98.12
484.9	82.12
485.118	95.12
485.336	96.12
485.554	116.12
485.772	100.12
485.99	102.12
486.209	96.12
486.427	95.12
486.645	97.12
486.863	102.12
487.081	113.12
487.299	95.12
487.517	105.12
487.735	87.12
487.953	89.12
488.171	84.12
488.389	93.12
488.607	106.12
488.825	93.12
489.043	99.12
489.261	88.12
489.479	69.12
489.696	82.12
489.914	92.12
490.132	89.12
490.35	99.12
490.568	104.12
490.786	75.12
491.003	84.12
491.221	94.12
491.439	97.12
491.657	87.12
491.874	97.12
492.092	106.12
492.31	104.12
492.527	100.12
492.745	98.12
492.963	101.12
493.18	88.12
493.398	93.12
493.615	102.12
493.833	93.12
494.05	101.12
494.268	108.12
494.485	96.12
494.703	104.12
494.92	89.12
495.138	96.12
495.355	79.12
495.573	100.12
495.79	93.12
496.008	94.12
496.225	100.12
496.442	93.12
496.66	85.12
496.877	109.12
497.094	91.12
497.312	92.12
497.529	80.12
497.746	99.12
497.963	98.12
498.181	94.12
498.398	95.12
498.615	87.12
498.832	102.12
499.049	85.12
499.267	87.12
499.484	94.12
499.701	90.12
499.918	89.12
500.135	84.12
500.352	116.12
500.569	87.12
500.786	90.12
501.003	82.12
501.22	80.12
501.437	93.12
501.654	94.12
501.871	101.12
502.088	101.12
502.305	94.12
502.522	78.12
502.739	96.12
502.956	91.12
503.172	93.12
503.389	99.12
503.606	113.12
503.823	97.12
504.04	95.12
504.256	101.12
504.473	92.12
504.69	93.12
504.907	100.12
505.123	94.12
505.34	102.12
505.557	91.12
505.773	96.12
505.99	100.12
506.207	95.12
506.423	108.12
506.64	97.12
506.856	77.12
507.073	96.12
507.289	84.12
507.506	96.12
507.722	112.12
507.939	93.12
508.155	92.12
508.372	98.12
508.588	94.12
508.805	95.12
509.021	118.12
509.238	97.12
509.454	98.12
509.67	95.12
509.887	106.12
510.103	148.12
510.319	231.12
510.536	848.12
510.752	2633.12
510.968	696.12
511.184	153.12
511.401	120.12
511.617	112.12
511.833	101.12
512.049	99.12
512.265	98.12
512.481	95.12
512.698	90.12
512.914	90.12
513.13	89.12
513.346	104.12
513.562	86.12
513.778	100.12
513.994	97.12
514.21	97.12
514.426	103.12
514.642	131.12
514.858	133.12
515.074	169.12
