Data from Circ_1994_H10_HRD10591_00069.txt Node
Date: Wed Jan 03 11:40:44 EST 2024
User: Yrep
Spectrometer: HR+D1059
Trigger mode: 1
Integration Time (sec): 1.000000E-1
Scans to average: 1
Electric dark correction enabled: true
Nonlinearity correction enabled: false
Boxcar width: 0
XAxis mode: Wavelengths
Number of Pixels in Spectrum: 2048
>>>>>Begin Spectral Data<<<<<
223.165	-21.25
223.4	-21.25
223.635	-21.25
223.869	-19.25
224.104	-11.25
224.338	-19.25
224.573	-20.25
224.808	-1.25
225.042	-3.25
225.277	-20.25
225.511	-4.25
225.746	3.75
225.98	17.75
226.215	13.75
226.449	16.75
226.683	17.75
226.918	28.75
227.152	21.75
227.387	20.75
227.621	35.75
227.856	44.75
228.09	45.75
228.324	59.75
228.559	58.75
228.793	56.75
229.027	65.75
229.262	67.75
229.496	72.75
229.73	73.75
229.964	80.75
230.199	64.75
230.433	60.75
230.667	73.75
230.901	72.75
231.136	87.75
231.37	73.75
231.604	77.75
231.838	77.75
232.072	79.75
232.306	73.75
232.541	83.75
232.775	81.75
233.009	79.75
233.243	85.75
233.477	88.75
233.711	83.75
233.945	70.75
234.179	73.75
234.413	84.75
234.647	79.75
234.881	88.75
235.115	75.75
235.349	81.75
235.583	88.75
235.817	85.75
236.051	68.75
236.285	79.75
236.519	86.75
236.753	72.75
236.987	82.75
237.221	83.75
237.455	87.75
237.689	77.75
237.922	68.75
238.156	71.75
238.39	84.75
238.624	78.75
238.858	65.75
239.091	74.75
239.325	68.75
239.559	76.75
239.793	75.75
240.027	88.75
240.26	73.75
240.494	80.75
240.728	72.75
240.961	71.75
241.195	83.75
241.429	81.75
241.662	83.75
241.896	56.75
242.13	75.75
242.363	80.75
242.597	63.75
242.83	65.75
243.064	76.75
243.298	76.75
243.531	65.75
243.765	79.75
243.998	67.75
244.232	83.75
244.465	76.75
244.699	74.75
244.932	69.75
245.166	75.75
245.399	72.75
245.633	87.75
245.866	80.75
246.099	79.75
246.333	84.75
246.566	86.75
246.8	79.75
247.033	82.75
247.266	75.75
247.5	89.75
247.733	91.75
247.966	67.75
248.2	81.75
248.433	87.75
248.666	81.75
248.899	72.75
249.133	68.75
249.366	92.75
249.599	94.75
249.832	77.75
250.066	95.75
250.299	82.75
250.532	81.75
250.765	83.75
250.998	76.75
251.231	75.75
251.465	71.75
251.698	75.75
251.931	82.75
252.164	90.75
252.397	77.75
252.63	86.75
252.863	77.75
253.096	70.75
253.329	73.75
253.562	76.75
253.795	89.75
254.028	85.75
254.261	81.75
254.494	77.75
254.727	89.75
254.96	89.75
255.193	68.75
255.426	89.75
255.659	75.75
255.892	75.75
256.124	90.75
256.357	79.75
256.59	82.75
256.823	83.75
257.056	77.75
257.289	90.75
257.521	74.75
257.754	80.75
257.987	80.75
258.22	78.75
258.452	74.75
258.685	83.75
258.918	77.75
259.151	88.75
259.383	78.75
259.616	85.75
259.849	77.75
260.081	84.75
260.314	74.75
260.547	78.75
260.779	82.75
261.012	72.75
261.244	64.75
261.477	85.75
261.71	91.75
261.942	113.75
262.175	104.75
262.407	99.75
262.64	82.75
262.872	82.75
263.105	78.75
263.337	79.75
263.57	74.75
263.802	86.75
264.035	69.75
264.267	75.75
264.499	79.75
264.732	76.75
264.964	74.75
265.197	78.75
265.429	90.75
265.661	66.75
265.894	75.75
266.126	66.75
266.358	84.75
266.591	83.75
266.823	88.75
267.055	91.75
267.287	83.75
267.52	81.75
267.752	88.75
267.984	87.75
268.216	87.75
268.448	95.75
268.681	81.75
268.913	93.75
269.145	83.75
269.377	70.75
269.609	79.75
269.841	83.75
270.073	84.75
270.306	79.75
270.538	70.75
270.77	80.75
271.002	86.75
271.234	87.75
271.466	91.75
271.698	100.75
271.93	81.75
272.162	77.75
272.394	92.75
272.626	82.75
272.858	82.75
273.09	100.75
273.322	84.75
273.553	79.75
273.785	89.75
274.017	92.75
274.249	81.75
274.481	84.75
274.713	83.75
274.945	86.75
275.176	71.75
275.408	76.75
275.64	73.75
275.872	96.75
276.104	85.75
276.335	87.75
276.567	83.75
276.799	103.75
277.031	116.75
277.262	78.75
277.494	80.75
277.726	94.75
277.957	79.75
278.189	86.75
278.421	76.75
278.652	69.75
278.884	75.75
279.115	93.75
279.347	84.75
279.579	83.75
279.81	85.75
280.042	87.75
280.273	97.75
280.505	87.75
280.736	88.75
280.968	90.75
281.199	109.75
281.431	84.75
281.662	80.75
281.894	85.75
282.125	91.75
282.356	105.75
282.588	127.75
282.819	121.75
283.051	92.75
283.282	81.75
283.513	85.75
283.745	74.75
283.976	88.75
284.207	79.75
284.439	85.75
284.67	79.75
284.901	95.75
285.132	91.75
285.364	89.75
285.595	75.75
285.826	85.75
286.057	79.75
286.288	76.75
286.52	79.75
286.751	75.75
286.982	81.75
287.213	77.75
287.444	88.75
287.675	93.75
287.906	104.75
288.138	80.75
288.369	97.75
288.6	89.75
288.831	88.75
289.062	98.75
289.293	88.75
289.524	83.75
289.755	83.75
289.986	73.75
290.217	80.75
290.448	72.75
290.679	87.75
290.91	85.75
291.141	86.75
291.371	85.75
291.602	77.75
291.833	88.75
292.064	93.75
292.295	86.75
292.526	83.75
292.757	87.75
292.987	74.75
293.218	92.75
293.449	85.75
293.68	89.75
293.91	65.75
294.141	88.75
294.372	98.75
294.603	77.75
294.833	79.75
295.064	87.75
295.295	91.75
295.525	99.75
295.756	104.75
295.987	108.75
296.217	131.75
296.448	135.75
296.679	89.75
296.909	84.75
297.14	82.75
297.37	91.75
297.601	83.75
297.831	83.75
298.062	80.75
298.292	94.75
298.523	92.75
298.753	81.75
298.984	81.75
299.214	97.75
299.445	97.75
299.675	96.75
299.905	92.75
300.136	89.75
300.366	83.75
300.597	81.75
300.827	83.75
301.057	90.75
301.288	95.75
301.518	96.75
301.748	96.75
301.979	93.75
302.209	93.75
302.439	80.75
302.669	82.75
302.9	100.75
303.13	98.75
303.36	106.75
303.59	99.75
303.82	101.75
304.051	89.75
304.281	83.75
304.511	96.75
304.741	82.75
304.971	88.75
305.201	79.75
305.431	85.75
305.661	84.75
305.891	80.75
306.121	103.75
306.352	90.75
306.582	104.75
306.812	100.75
307.042	100.75
307.272	94.75
307.502	107.75
307.731	95.75
307.961	85.75
308.191	84.75
308.421	82.75
308.651	85.75
308.881	81.75
309.111	82.75
309.341	95.75
309.571	100.75
309.8	91.75
310.03	91.75
310.26	100.75
310.49	95.75
310.72	99.75
310.949	95.75
311.179	92.75
311.409	113.75
311.639	89.75
311.868	97.75
312.098	79.75
312.328	105.75
312.557	101.75
312.787	97.75
313.017	91.75
313.246	91.75
313.476	100.75
313.706	93.75
313.935	92.75
314.165	103.75
314.394	97.75
314.624	91.75
314.853	97.75
315.083	83.75
315.312	95.75
315.542	95.75
315.771	97.75
316.001	108.75
316.23	92.75
316.46	85.75
316.689	95.75
316.919	99.75
317.148	92.75
317.377	91.75
317.607	95.75
317.836	85.75
318.065	93.75
318.295	85.75
318.524	92.75
318.753	93.75
318.983	93.75
319.212	107.75
319.441	101.75
319.67	124.75
319.9	105.75
320.129	94.75
320.358	89.75
320.587	97.75
320.816	96.75
321.046	104.75
321.275	100.75
321.504	97.75
321.733	108.75
321.962	85.75
322.191	89.75
322.42	97.75
322.649	113.75
322.878	101.75
323.108	115.75
323.337	112.75
323.566	123.75
323.795	124.75
324.024	191.75
324.253	353.75
324.482	745.75
324.71	1461.75
324.939	1893.75
325.168	706.75
325.397	241.75
325.626	131.75
325.855	124.75
326.084	114.75
326.313	143.75
326.542	136.75
326.77	210.75
326.999	399.75
327.228	800.75
327.457	1465.75
327.686	1107.75
327.914	338.75
328.143	192.75
328.372	163.75
328.6	137.75
328.829	120.75
329.058	125.75
329.287	126.75
329.515	112.75
329.744	111.75
329.972	123.75
330.201	136.75
330.43	188.75
330.658	155.75
330.887	130.75
331.115	121.75
331.344	102.75
331.572	107.75
331.801	113.75
332.03	107.75
332.258	89.75
332.486	95.75
332.715	102.75
332.943	102.75
333.172	104.75
333.4	93.75
333.629	106.75
333.857	122.75
334.085	128.75
334.314	154.75
334.542	207.75
334.771	203.75
334.999	113.75
335.227	103.75
335.455	88.75
335.684	89.75
335.912	99.75
336.14	93.75
336.369	96.75
336.597	100.75
336.825	100.75
337.053	83.75
337.281	90.75
337.51	79.75
337.738	98.75
337.966	90.75
338.194	85.75
338.422	102.75
338.65	95.75
338.878	79.75
339.106	102.75
339.334	93.75
339.562	93.75
339.79	77.75
340.018	89.75
340.246	102.75
340.474	96.75
340.702	94.75
340.93	93.75
341.158	95.75
341.386	84.75
341.614	99.75
341.842	89.75
342.07	90.75
342.298	108.75
342.526	91.75
342.754	84.75
342.981	84.75
343.209	95.75
343.437	91.75
343.665	91.75
343.893	99.75
344.12	80.75
344.348	87.75
344.576	89.75
344.804	88.75
345.031	99.75
345.259	98.75
345.487	78.75
345.714	76.75
345.942	95.75
346.17	95.75
346.397	88.75
346.625	75.75
346.853	96.75
347.08	94.75
347.308	111.75
347.535	104.75
347.763	99.75
347.99	112.75
348.218	109.75
348.445	87.75
348.673	93.75
348.9	103.75
349.128	103.75
349.355	107.75
349.583	100.75
349.81	102.75
350.037	97.75
350.265	103.75
350.492	86.75
350.72	97.75
350.947	95.75
351.174	101.75
351.402	107.75
351.629	99.75
351.856	101.75
352.083	94.75
352.311	108.75
352.538	113.75
352.765	106.75
352.992	125.75
353.22	104.75
353.447	123.75
353.674	104.75
353.901	95.75
354.128	83.75
354.355	78.75
354.583	90.75
354.81	83.75
355.037	93.75
355.264	85.75
355.491	77.75
355.718	97.75
355.945	87.75
356.172	105.75
356.399	102.75
356.626	94.75
356.853	102.75
357.08	91.75
357.307	100.75
357.534	86.75
357.761	93.75
357.988	82.75
358.215	85.75
358.441	82.75
358.668	97.75
358.895	95.75
359.122	97.75
359.349	89.75
359.576	92.75
359.802	99.75
360.029	109.75
360.256	106.75
360.483	96.75
360.709	84.75
360.936	104.75
361.163	101.75
361.39	101.75
361.616	84.75
361.843	96.75
362.07	90.75
362.296	93.75
362.523	92.75
362.749	99.75
362.976	90.75
363.203	89.75
363.429	92.75
363.656	95.75
363.882	88.75
364.109	87.75
364.335	97.75
364.562	84.75
364.788	95.75
365.015	87.75
365.241	102.75
365.468	109.75
365.694	103.75
365.92	97.75
366.147	89.75
366.373	78.75
366.599	93.75
366.826	95.75
367.052	88.75
367.278	84.75
367.505	88.75
367.731	81.75
367.957	87.75
368.184	96.75
368.41	102.75
368.636	120.75
368.862	121.75
369.089	110.75
369.315	95.75
369.541	96.75
369.767	83.75
369.993	89.75
370.219	85.75
370.445	95.75
370.672	98.75
370.898	84.75
371.124	95.75
371.35	83.75
371.576	75.75
371.802	90.75
372.028	82.75
372.254	98.75
372.48	79.75
372.706	85.75
372.932	90.75
373.158	75.75
373.384	94.75
373.61	98.75
373.835	86.75
374.061	75.75
374.287	99.75
374.513	90.75
374.739	88.75
374.965	91.75
375.191	92.75
375.416	96.75
375.642	98.75
375.868	96.75
376.094	99.75
376.319	91.75
376.545	74.75
376.771	95.75
376.997	87.75
377.222	78.75
377.448	92.75
377.674	91.75
377.899	88.75
378.125	84.75
378.35	91.75
378.576	84.75
378.802	76.75
379.027	102.75
379.253	105.75
379.478	99.75
379.704	91.75
379.929	97.75
380.155	97.75
380.38	82.75
380.606	77.75
380.831	84.75
381.057	98.75
381.282	90.75
381.507	85.75
381.733	83.75
381.958	90.75
382.184	93.75
382.409	92.75
382.634	92.75
382.86	93.75
383.085	99.75
383.31	101.75
383.535	91.75
383.761	95.75
383.986	90.75
384.211	100.75
384.436	93.75
384.662	94.75
384.887	99.75
385.112	81.75
385.337	101.75
385.562	92.75
385.787	81.75
386.013	97.75
386.238	95.75
386.463	105.75
386.688	109.75
386.913	92.75
387.138	96.75
387.363	111.75
387.588	81.75
387.813	93.75
388.038	105.75
388.263	107.75
388.488	115.75
388.713	113.75
388.938	93.75
389.163	87.75
389.387	95.75
389.612	93.75
389.837	76.75
390.062	89.75
390.287	80.75
390.512	93.75
390.736	88.75
390.961	95.75
391.186	82.75
391.411	89.75
391.636	99.75
391.86	106.75
392.085	99.75
392.31	81.75
392.534	72.75
392.759	89.75
392.984	82.75
393.208	100.75
393.433	100.75
393.658	88.75
393.882	78.75
394.107	81.75
394.331	89.75
394.556	91.75
394.78	84.75
395.005	87.75
395.229	85.75
395.454	71.75
395.678	94.75
395.903	89.75
396.127	94.75
396.352	83.75
396.576	78.75
396.801	95.75
397.025	84.75
397.249	91.75
397.474	93.75
397.698	82.75
397.922	90.75
398.147	97.75
398.371	87.75
398.595	90.75
398.82	86.75
399.044	86.75
399.268	88.75
399.492	87.75
399.717	93.75
399.941	101.75
400.165	98.75
400.389	88.75
400.613	90.75
400.837	84.75
401.062	86.75
401.286	100.75
401.51	87.75
401.734	95.75
401.958	89.75
402.182	115.75
402.406	151.75
402.63	119.75
402.854	93.75
403.078	87.75
403.302	74.75
403.526	80.75
403.75	82.75
403.974	100.75
404.198	91.75
404.422	86.75
404.645	70.75
404.869	105.75
405.093	91.75
405.317	112.75
405.541	103.75
405.765	105.75
405.988	113.75
406.212	163.75
406.436	222.75
406.66	124.75
406.883	88.75
407.107	90.75
407.331	92.75
407.555	91.75
407.778	91.75
408.002	81.75
408.226	93.75
408.449	83.75
408.673	101.75
408.896	92.75
409.12	96.75
409.344	77.75
409.567	86.75
409.791	79.75
410.014	88.75
410.238	95.75
410.461	81.75
410.685	91.75
410.908	97.75
411.132	96.75
411.355	106.75
411.578	90.75
411.802	85.75
412.025	66.75
412.249	95.75
412.472	92.75
412.695	90.75
412.919	83.75
413.142	94.75
413.365	75.75
413.589	95.75
413.812	93.75
414.035	98.75
414.258	74.75
414.482	82.75
414.705	96.75
414.928	87.75
415.151	89.75
415.374	90.75
415.597	82.75
415.821	99.75
416.044	89.75
416.267	79.75
416.49	93.75
416.713	92.75
416.936	83.75
417.159	93.75
417.382	88.75
417.605	74.75
417.828	82.75
418.051	92.75
418.274	88.75
418.497	77.75
418.72	95.75
418.943	88.75
419.166	88.75
419.389	89.75
419.611	99.75
419.834	85.75
420.057	81.75
420.28	98.75
420.503	88.75
420.726	95.75
420.948	80.75
421.171	104.75
421.394	92.75
421.617	87.75
421.839	83.75
422.062	87.75
422.285	90.75
422.507	105.75
422.73	106.75
422.953	84.75
423.175	75.75
423.398	95.75
423.621	90.75
423.843	87.75
424.066	87.75
424.288	88.75
424.511	86.75
424.733	93.75
424.956	91.75
425.178	101.75
425.401	104.75
425.623	109.75
425.846	91.75
426.068	102.75
426.291	92.75
426.513	84.75
426.735	87.75
426.958	82.75
427.18	90.75
427.402	120.75
427.625	154.75
427.847	139.75
428.069	112.75
428.292	89.75
428.514	75.75
428.736	100.75
428.958	88.75
429.181	87.75
429.403	94.75
429.625	87.75
429.847	92.75
430.069	100.75
430.292	92.75
430.514	76.75
430.736	93.75
430.958	83.75
431.18	77.75
431.402	82.75
431.624	76.75
431.846	79.75
432.068	79.75
432.29	88.75
432.512	100.75
432.734	90.75
432.956	88.75
433.178	91.75
433.4	94.75
433.622	97.75
433.844	100.75
434.066	82.75
434.287	89.75
434.509	76.75
434.731	75.75
434.953	94.75
435.175	66.75
435.397	92.75
435.618	90.75
435.84	102.75
436.062	121.75
436.284	104.75
436.505	105.75
436.727	104.75
436.949	94.75
437.17	84.75
437.392	78.75
437.614	93.75
437.835	116.75
438.057	107.75
438.278	98.75
438.5	108.75
438.721	116.75
438.943	98.75
439.165	100.75
439.386	88.75
439.608	79.75
439.829	95.75
440.05	106.75
440.272	121.75
440.493	79.75
440.715	87.75
440.936	73.75
441.158	92.75
441.379	101.75
441.6	104.75
441.822	103.75
442.043	96.75
442.264	96.75
442.486	96.75
442.707	93.75
442.928	86.75
443.149	120.75
443.371	119.75
443.592	109.75
443.813	90.75
444.034	92.75
444.255	100.75
444.476	92.75
444.698	76.75
444.919	93.75
445.14	131.75
445.361	110.75
445.582	109.75
445.803	130.75
446.024	113.75
446.245	125.75
446.466	109.75
446.687	89.75
446.908	109.75
447.129	93.75
447.35	108.75
447.571	90.75
447.792	105.75
448.013	95.75
448.234	95.75
448.455	97.75
448.675	106.75
448.896	135.75
449.117	96.75
449.338	89.75
449.559	131.75
449.779	115.75
450	100.75
450.221	95.75
450.442	90.75
450.662	100.75
450.883	103.75
451.104	102.75
451.324	82.75
451.545	71.75
451.766	99.75
451.986	72.75
452.207	92.75
452.428	92.75
452.648	98.75
452.869	99.75
453.089	102.75
453.31	103.75
453.53	101.75
453.751	104.75
453.971	103.75
454.192	98.75
454.412	89.75
454.633	86.75
454.853	74.75
455.073	75.75
455.294	99.75
455.514	98.75
455.734	79.75
455.955	76.75
456.175	77.75
456.395	87.75
456.616	99.75
456.836	81.75
457.056	97.75
457.276	85.75
457.497	93.75
457.717	78.75
457.937	71.75
458.157	83.75
458.377	91.75
458.598	105.75
458.818	141.75
459.038	155.75
459.258	109.75
459.478	84.75
459.698	89.75
459.918	89.75
460.138	82.75
460.358	78.75
460.578	87.75
460.798	97.75
461.018	78.75
461.238	85.75
461.458	85.75
461.678	90.75
461.898	89.75
462.118	93.75
462.338	84.75
462.558	100.75
462.777	91.75
462.997	95.75
463.217	88.75
463.437	85.75
463.657	77.75
463.876	92.75
464.096	88.75
464.316	97.75
464.536	74.75
464.755	92.75
464.975	106.75
465.195	151.75
465.414	149.75
465.634	101.75
465.854	85.75
466.073	78.75
466.293	93.75
466.512	90.75
466.732	85.75
466.951	81.75
467.171	87.75
467.391	96.75
467.61	120.75
467.829	119.75
468.049	115.75
468.268	128.75
468.488	84.75
468.707	74.75
468.927	83.75
469.146	88.75
469.365	87.75
469.585	87.75
469.804	95.75
470.023	89.75
470.243	98.75
470.462	102.75
470.681	95.75
470.901	100.75
471.12	78.75
471.339	72.75
471.558	76.75
471.777	87.75
471.997	99.75
472.216	152.75
472.435	247.75
472.654	107.75
472.873	101.75
473.092	77.75
473.311	82.75
473.53	91.75
473.749	87.75
473.968	90.75
474.187	91.75
474.406	114.75
474.625	93.75
474.844	91.75
475.063	86.75
475.282	91.75
475.501	85.75
475.72	90.75
475.939	84.75
476.158	85.75
476.377	88.75
476.596	83.75
476.814	82.75
477.033	96.75
477.252	104.75
477.471	93.75
477.69	89.75
477.908	104.75
478.127	83.75
478.346	89.75
478.564	108.75
478.783	84.75
479.002	86.75
479.22	91.75
479.439	115.75
479.658	101.75
479.876	95.75
480.095	72.75
480.313	95.75
480.532	96.75
480.751	98.75
480.969	160.75
481.188	429.75
481.406	267.75
481.624	110.75
481.843	102.75
482.061	90.75
482.28	81.75
482.498	96.75
482.717	82.75
482.935	93.75
483.153	89.75
483.372	67.75
483.59	101.75
483.808	91.75
484.027	84.75
484.245	91.75
484.463	91.75
484.681	88.75
484.9	105.75
485.118	90.75
485.336	90.75
485.554	93.75
485.772	93.75
485.99	105.75
486.209	111.75
486.427	92.75
486.645	102.75
486.863	115.75
487.081	92.75
487.299	96.75
487.517	109.75
487.735	94.75
487.953	81.75
488.171	101.75
488.389	85.75
488.607	84.75
488.825	86.75
489.043	81.75
489.261	87.75
489.479	83.75
489.696	89.75
489.914	91.75
490.132	98.75
490.35	103.75
490.568	81.75
490.786	83.75
491.003	87.75
491.221	96.75
491.439	96.75
491.657	83.75
491.874	91.75
492.092	86.75
492.31	98.75
492.527	88.75
492.745	89.75
492.963	95.75
493.18	85.75
493.398	86.75
493.615	100.75
493.833	100.75
494.05	84.75
494.268	86.75
494.485	83.75
494.703	72.75
494.92	98.75
495.138	86.75
495.355	80.75
495.573	85.75
495.79	93.75
496.008	90.75
496.225	87.75
496.442	95.75
496.66	85.75
496.877	82.75
497.094	83.75
497.312	94.75
497.529	84.75
497.746	86.75
497.963	88.75
498.181	83.75
498.398	89.75
498.615	103.75
498.832	95.75
499.049	99.75
499.267	79.75
499.484	84.75
499.701	83.75
499.918	76.75
500.135	85.75
500.352	85.75
500.569	89.75
500.786	91.75
501.003	85.75
501.22	64.75
501.437	79.75
501.654	84.75
501.871	89.75
502.088	89.75
502.305	95.75
502.522	72.75
502.739	94.75
502.956	91.75
503.172	94.75
503.389	92.75
503.606	111.75
503.823	95.75
504.04	84.75
504.256	91.75
504.473	84.75
504.69	96.75
504.907	96.75
505.123	97.75
505.34	96.75
505.557	90.75
505.773	75.75
505.99	77.75
506.207	88.75
506.423	94.75
506.64	90.75
506.856	95.75
507.073	83.75
507.289	103.75
507.506	100.75
507.722	99.75
507.939	99.75
508.155	107.75
508.372	100.75
508.588	100.75
508.805	96.75
509.021	103.75
509.238	88.75
509.454	96.75
509.67	107.75
509.887	97.75
510.103	131.75
510.319	205.75
510.536	749.75
510.752	2342.75
510.968	639.75
511.184	153.75
511.401	115.75
511.617	88.75
511.833	99.75
512.049	92.75
512.265	78.75
512.481	85.75
512.698	73.75
512.914	68.75
513.13	95.75
513.346	97.75
513.562	95.75
513.778	94.75
513.994	90.75
514.21	103.75
514.426	115.75
514.642	133.75
514.858	114.75
515.074	160.75
515.29	421.75
515.506	1337.75
515.721	496.75
515.937	145.75
