Data from Circ_1994_H10_HRD10591_00047.txt Node
Date: Wed Jan 03 11:40:39 EST 2024
User: Yrep
Spectrometer: HR+D1059
Trigger mode: 1
Integration Time (sec): 1.000000E-1
Scans to average: 1
Electric dark correction enabled: true
Nonlinearity correction enabled: false
Boxcar width: 0
XAxis mode: Wavelengths
Number of Pixels in Spectrum: 2048
>>>>>Begin Spectral Data<<<<<
223.165	-19.31
223.4	-19.31
223.635	-19.31
223.869	-25.31
224.104	-4.31
224.338	-20.31
224.573	-8.31
224.808	-6.31
225.042	-9.31
225.277	-12.31
225.511	-4.31
225.746	17.69
225.98	2.69
226.215	20.69
226.449	21.69
226.683	9.69
226.918	12.69
227.152	24.69
227.387	35.69
227.621	30.69
227.856	55.69
228.09	62.69
228.324	49.69
228.559	69.69
228.793	84.69
229.027	66.69
229.262	74.69
229.496	60.69
229.73	70.69
229.964	74.69
230.199	67.69
230.433	77.69
230.667	84.69
230.901	80.69
231.136	67.69
231.37	91.69
231.604	85.69
231.838	87.69
232.072	82.69
232.306	80.69
232.541	87.69
232.775	88.69
233.009	78.69
233.243	94.69
233.477	91.69
233.711	85.69
233.945	75.69
234.179	84.69
234.413	69.69
234.647	82.69
234.881	72.69
235.115	72.69
235.349	83.69
235.583	78.69
235.817	69.69
236.051	81.69
236.285	64.69
236.519	74.69
236.753	65.69
236.987	95.69
237.221	74.69
237.455	76.69
237.689	81.69
237.922	91.69
238.156	71.69
238.39	61.69
238.624	83.69
238.858	74.69
239.091	73.69
239.325	78.69
239.559	76.69
239.793	80.69
240.027	85.69
240.26	70.69
240.494	81.69
240.728	80.69
240.961	86.69
241.195	62.69
241.429	88.69
241.662	81.69
241.896	76.69
242.13	72.69
242.363	78.69
242.597	73.69
242.83	80.69
243.064	72.69
243.298	70.69
243.531	80.69
243.765	85.69
243.998	67.69
244.232	81.69
244.465	87.69
244.699	69.69
244.932	76.69
245.166	89.69
245.399	92.69
245.633	93.69
245.866	90.69
246.099	74.69
246.333	88.69
246.566	85.69
246.8	76.69
247.033	101.69
247.266	92.69
247.5	70.69
247.733	88.69
247.966	84.69
248.2	77.69
248.433	78.69
248.666	69.69
248.899	78.69
249.133	82.69
249.366	90.69
249.599	92.69
249.832	95.69
250.066	88.69
250.299	74.69
250.532	72.69
250.765	74.69
250.998	91.69
251.231	84.69
251.465	72.69
251.698	72.69
251.931	89.69
252.164	70.69
252.397	73.69
252.63	82.69
252.863	86.69
253.096	76.69
253.329	94.69
253.562	78.69
253.795	76.69
254.028	80.69
254.261	83.69
254.494	77.69
254.727	82.69
254.96	82.69
255.193	85.69
255.426	92.69
255.659	83.69
255.892	82.69
256.124	76.69
256.357	82.69
256.59	85.69
256.823	84.69
257.056	84.69
257.289	90.69
257.521	84.69
257.754	78.69
257.987	88.69
258.22	76.69
258.452	77.69
258.685	70.69
258.918	89.69
259.151	76.69
259.383	77.69
259.616	69.69
259.849	82.69
260.081	67.69
260.314	70.69
260.547	76.69
260.779	78.69
261.012	79.69
261.244	77.69
261.477	83.69
261.71	92.69
261.942	100.69
262.175	113.69
262.407	95.69
262.64	84.69
262.872	78.69
263.105	82.69
263.337	88.69
263.57	79.69
263.802	77.69
264.035	80.69
264.267	80.69
264.499	87.69
264.732	77.69
264.964	90.69
265.197	78.69
265.429	90.69
265.661	91.69
265.894	84.69
266.126	84.69
266.358	85.69
266.591	74.69
266.823	89.69
267.055	80.69
267.287	70.69
267.52	94.69
267.752	89.69
267.984	81.69
268.216	84.69
268.448	80.69
268.681	80.69
268.913	78.69
269.145	80.69
269.377	78.69
269.609	91.69
269.841	100.69
270.073	92.69
270.306	84.69
270.538	85.69
270.77	82.69
271.002	78.69
271.234	81.69
271.466	93.69
271.698	99.69
271.93	84.69
272.162	82.69
272.394	88.69
272.626	86.69
272.858	81.69
273.09	89.69
273.322	96.69
273.553	72.69
273.785	92.69
274.017	68.69
274.249	80.69
274.481	87.69
274.713	89.69
274.945	68.69
275.176	92.69
275.408	91.69
275.64	77.69
275.872	81.69
276.104	79.69
276.335	97.69
276.567	83.69
276.799	99.69
277.031	106.69
277.262	84.69
277.494	79.69
277.726	76.69
277.957	94.69
278.189	101.69
278.421	90.69
278.652	74.69
278.884	90.69
279.115	104.69
279.347	94.69
279.579	90.69
279.81	81.69
280.042	96.69
280.273	98.69
280.505	87.69
280.736	96.69
280.968	95.69
281.199	73.69
281.431	89.69
281.662	98.69
281.894	91.69
282.125	84.69
282.356	121.69
282.588	126.69
282.819	110.69
283.051	70.69
283.282	81.69
283.513	88.69
283.745	80.69
283.976	91.69
284.207	93.69
284.439	97.69
284.67	87.69
284.901	76.69
285.132	86.69
285.364	93.69
285.595	85.69
285.826	86.69
286.057	100.69
286.288	86.69
286.52	99.69
286.751	87.69
286.982	95.69
287.213	98.69
287.444	94.69
287.675	92.69
287.906	85.69
288.138	93.69
288.369	108.69
288.6	82.69
288.831	77.69
289.062	79.69
289.293	84.69
289.524	93.69
289.755	89.69
289.986	79.69
290.217	91.69
290.448	82.69
290.679	92.69
290.91	93.69
291.141	79.69
291.371	79.69
291.602	84.69
291.833	72.69
292.064	84.69
292.295	93.69
292.526	86.69
292.757	79.69
292.987	84.69
293.218	79.69
293.449	84.69
293.68	100.69
293.91	82.69
294.141	88.69
294.372	66.69
294.603	92.69
294.833	85.69
295.064	88.69
295.295	82.69
295.525	93.69
295.756	94.69
295.987	118.69
296.217	144.69
296.448	111.69
296.679	94.69
296.909	86.69
297.14	107.69
297.37	96.69
297.601	81.69
297.831	88.69
298.062	104.69
298.292	87.69
298.523	92.69
298.753	81.69
298.984	90.69
299.214	80.69
299.445	96.69
299.675	86.69
299.905	106.69
300.136	85.69
300.366	88.69
300.597	89.69
300.827	91.69
301.057	94.69
301.288	102.69
301.518	85.69
301.748	78.69
301.979	98.69
302.209	90.69
302.439	87.69
302.669	97.69
302.9	81.69
303.13	94.69
303.36	109.69
303.59	117.69
303.82	111.69
304.051	95.69
304.281	95.69
304.511	85.69
304.741	99.69
304.971	90.69
305.201	77.69
305.431	100.69
305.661	88.69
305.891	83.69
306.121	82.69
306.352	98.69
306.582	114.69
306.812	101.69
307.042	85.69
307.272	101.69
307.502	96.69
307.731	86.69
307.961	78.69
308.191	94.69
308.421	70.69
308.651	93.69
308.881	88.69
309.111	87.69
309.341	80.69
309.571	107.69
309.8	104.69
310.03	112.69
310.26	84.69
310.49	108.69
310.72	104.69
310.949	104.69
311.179	96.69
311.409	95.69
311.639	103.69
311.868	96.69
312.098	84.69
312.328	96.69
312.557	92.69
312.787	102.69
313.017	91.69
313.246	103.69
313.476	83.69
313.706	91.69
313.935	88.69
314.165	108.69
314.394	103.69
314.624	96.69
314.853	92.69
315.083	98.69
315.312	92.69
315.542	99.69
315.771	83.69
316.001	102.69
316.23	100.69
316.46	89.69
316.689	90.69
316.919	84.69
317.148	88.69
317.377	101.69
317.607	96.69
317.836	98.69
318.065	91.69
318.295	95.69
318.524	87.69
318.753	93.69
318.983	97.69
319.212	103.69
319.441	112.69
319.67	116.69
319.9	84.69
320.129	93.69
320.358	81.69
320.587	88.69
320.816	97.69
321.046	94.69
321.275	103.69
321.504	97.69
321.733	92.69
321.962	108.69
322.191	111.69
322.42	110.69
322.649	114.69
322.878	99.69
323.108	107.69
323.337	134.69
323.566	152.69
323.795	157.69
324.024	183.69
324.253	344.69
324.482	754.69
324.71	1492.69
324.939	1974.69
325.168	759.69
325.397	232.69
325.626	140.69
325.855	120.69
326.084	126.69
326.313	137.69
326.542	144.69
326.77	202.69
326.999	422.69
327.228	837.69
327.457	1532.69
327.686	1225.69
327.914	349.69
328.143	200.69
328.372	164.69
328.6	140.69
328.829	122.69
329.058	129.69
329.287	138.69
329.515	106.69
329.744	104.69
329.972	121.69
330.201	152.69
330.43	149.69
330.658	129.69
330.887	121.69
331.115	117.69
331.344	101.69
331.572	95.69
331.801	103.69
332.03	106.69
332.258	99.69
332.486	98.69
332.715	104.69
332.943	96.69
333.172	102.69
333.4	88.69
333.629	108.69
333.857	118.69
334.085	110.69
334.314	156.69
334.542	160.69
334.771	156.69
334.999	122.69
335.227	102.69
335.455	95.69
335.684	95.69
335.912	96.69
336.14	102.69
336.369	109.69
336.597	91.69
336.825	94.69
337.053	100.69
337.281	100.69
337.51	95.69
337.738	101.69
337.966	106.69
338.194	101.69
338.422	98.69
338.65	102.69
338.878	106.69
339.106	99.69
339.334	94.69
339.562	85.69
339.79	85.69
340.018	89.69
340.246	100.69
340.474	89.69
340.702	92.69
340.93	73.69
341.158	88.69
341.386	106.69
341.614	87.69
341.842	95.69
342.07	89.69
342.298	97.69
342.526	90.69
342.754	91.69
342.981	93.69
343.209	98.69
343.437	106.69
343.665	97.69
343.893	94.69
344.12	93.69
344.348	93.69
344.576	104.69
344.804	90.69
345.031	99.69
345.259	112.69
345.487	102.69
345.714	98.69
345.942	90.69
346.17	95.69
346.397	103.69
346.625	86.69
346.853	105.69
347.08	108.69
347.308	94.69
347.535	97.69
347.763	96.69
347.99	101.69
348.218	106.69
348.445	91.69
348.673	95.69
348.9	85.69
349.128	90.69
349.355	84.69
349.583	97.69
349.81	79.69
350.037	95.69
350.265	84.69
350.492	99.69
350.72	106.69
350.947	107.69
351.174	111.69
351.402	118.69
351.629	106.69
351.856	98.69
352.083	93.69
352.311	100.69
352.538	114.69
352.765	109.69
352.992	116.69
353.22	97.69
353.447	89.69
353.674	99.69
353.901	96.69
354.128	105.69
354.355	112.69
354.583	94.69
354.81	89.69
355.037	93.69
355.264	83.69
355.491	97.69
355.718	86.69
355.945	90.69
356.172	110.69
356.399	99.69
356.626	92.69
356.853	96.69
357.08	83.69
357.307	79.69
357.534	96.69
357.761	93.69
357.988	103.69
358.215	94.69
358.441	90.69
358.668	98.69
358.895	93.69
359.122	95.69
359.349	89.69
359.576	100.69
359.802	99.69
360.029	129.69
360.256	100.69
360.483	101.69
360.709	93.69
360.936	97.69
361.163	84.69
361.39	102.69
361.616	80.69
361.843	93.69
362.07	101.69
362.296	93.69
362.523	80.69
362.749	86.69
362.976	84.69
363.203	87.69
363.429	85.69
363.656	91.69
363.882	99.69
364.109	73.69
364.335	89.69
364.562	91.69
364.788	86.69
365.015	94.69
365.241	92.69
365.468	112.69
365.694	114.69
365.92	106.69
366.147	95.69
366.373	85.69
366.599	95.69
366.826	81.69
367.052	101.69
367.278	82.69
367.505	77.69
367.731	93.69
367.957	88.69
368.184	106.69
368.41	102.69
368.636	111.69
368.862	109.69
369.089	119.69
369.315	92.69
369.541	94.69
369.767	87.69
369.993	92.69
370.219	91.69
370.445	88.69
370.672	90.69
370.898	87.69
371.124	84.69
371.35	86.69
371.576	96.69
371.802	92.69
372.028	85.69
372.254	92.69
372.48	86.69
372.706	74.69
372.932	93.69
373.158	96.69
373.384	100.69
373.61	97.69
373.835	95.69
374.061	82.69
374.287	85.69
374.513	87.69
374.739	96.69
374.965	98.69
375.191	99.69
375.416	96.69
375.642	88.69
375.868	101.69
376.094	105.69
376.319	86.69
376.545	88.69
376.771	91.69
376.997	99.69
377.222	86.69
377.448	94.69
377.674	93.69
377.899	91.69
378.125	101.69
378.35	100.69
378.576	82.69
378.802	104.69
379.027	90.69
379.253	106.69
379.478	93.69
379.704	97.69
379.929	104.69
380.155	87.69
380.38	90.69
380.606	88.69
380.831	73.69
381.057	95.69
381.282	95.69
381.507	91.69
381.733	99.69
381.958	90.69
382.184	99.69
382.409	96.69
382.634	90.69
382.86	103.69
383.085	104.69
383.31	94.69
383.535	100.69
383.761	89.69
383.986	90.69
384.211	100.69
384.436	101.69
384.662	98.69
384.887	92.69
385.112	97.69
385.337	117.69
385.562	101.69
385.787	111.69
386.013	115.69
386.238	116.69
386.463	106.69
386.688	109.69
386.913	94.69
387.138	91.69
387.363	89.69
387.588	100.69
387.813	91.69
388.038	100.69
388.263	94.69
388.488	114.69
388.713	97.69
388.938	101.69
389.163	84.69
389.387	79.69
389.612	87.69
389.837	95.69
390.062	102.69
390.287	87.69
390.512	80.69
390.736	91.69
390.961	98.69
391.186	108.69
391.411	99.69
391.636	94.69
391.86	83.69
392.085	86.69
392.31	80.69
392.534	80.69
392.759	88.69
392.984	92.69
393.208	86.69
393.433	99.69
393.658	99.69
393.882	88.69
394.107	85.69
394.331	93.69
394.556	72.69
394.78	83.69
395.005	88.69
395.229	85.69
395.454	85.69
395.678	85.69
395.903	88.69
396.127	93.69
396.352	93.69
396.576	86.69
396.801	83.69
397.025	96.69
397.249	78.69
397.474	92.69
397.698	77.69
397.922	88.69
398.147	82.69
398.371	80.69
398.595	85.69
398.82	73.69
399.044	78.69
399.268	93.69
399.492	86.69
399.717	91.69
399.941	76.69
400.165	91.69
400.389	91.69
400.613	86.69
400.837	90.69
401.062	93.69
401.286	86.69
401.51	92.69
401.734	93.69
401.958	98.69
402.182	128.69
402.406	144.69
402.63	113.69
402.854	95.69
403.078	88.69
403.302	76.69
403.526	93.69
403.75	83.69
403.974	87.69
404.198	82.69
404.422	80.69
404.645	87.69
404.869	92.69
405.093	96.69
405.317	112.69
405.541	102.69
405.765	95.69
405.988	128.69
406.212	181.69
406.436	219.69
406.66	146.69
406.883	106.69
407.107	95.69
407.331	91.69
407.555	105.69
407.778	114.69
408.002	108.69
408.226	93.69
408.449	90.69
408.673	93.69
408.896	92.69
409.12	94.69
409.344	102.69
409.567	91.69
409.791	85.69
410.014	96.69
410.238	90.69
410.461	94.69
410.685	97.69
410.908	90.69
411.132	105.69
411.355	101.69
411.578	92.69
411.802	75.69
412.025	86.69
412.249	95.69
412.472	93.69
412.695	98.69
412.919	91.69
413.142	94.69
413.365	92.69
413.589	89.69
413.812	87.69
414.035	85.69
414.258	88.69
414.482	89.69
414.705	84.69
414.928	92.69
415.151	105.69
415.374	102.69
415.597	98.69
415.821	85.69
416.044	88.69
416.267	91.69
416.49	86.69
416.713	84.69
416.936	72.69
417.159	80.69
417.382	85.69
417.605	93.69
417.828	79.69
418.051	83.69
418.274	88.69
418.497	93.69
418.72	97.69
418.943	90.69
419.166	78.69
419.389	93.69
419.611	91.69
419.834	95.69
420.057	98.69
420.28	89.69
420.503	85.69
420.726	80.69
420.948	85.69
421.171	96.69
421.394	88.69
421.617	81.69
421.839	81.69
422.062	89.69
422.285	83.69
422.507	94.69
422.73	92.69
422.953	86.69
423.175	80.69
423.398	93.69
423.621	89.69
423.843	86.69
424.066	79.69
424.288	98.69
424.511	91.69
424.733	94.69
424.956	98.69
425.178	94.69
425.401	89.69
425.623	92.69
425.846	78.69
426.068	85.69
426.291	96.69
426.513	84.69
426.735	97.69
426.958	92.69
427.18	110.69
427.402	141.69
427.625	162.69
427.847	121.69
428.069	106.69
428.292	75.69
428.514	96.69
428.736	77.69
428.958	92.69
429.181	88.69
429.403	92.69
429.625	69.69
429.847	91.69
430.069	88.69
430.292	100.69
430.514	97.69
430.736	90.69
430.958	81.69
431.18	80.69
431.402	88.69
431.624	84.69
431.846	83.69
432.068	84.69
432.29	95.69
432.512	83.69
432.734	77.69
432.956	98.69
433.178	93.69
433.4	100.69
433.622	97.69
433.844	87.69
434.066	99.69
434.287	91.69
434.509	90.69
434.731	87.69
434.953	78.69
435.175	86.69
435.397	92.69
435.618	105.69
435.84	89.69
436.062	110.69
436.284	102.69
436.505	93.69
436.727	83.69
436.949	87.69
437.17	80.69
437.392	83.69
437.614	96.69
437.835	95.69
438.057	99.69
438.278	109.69
438.5	111.69
438.721	109.69
438.943	97.69
439.165	77.69
439.386	84.69
439.608	85.69
439.829	112.69
440.05	116.69
440.272	129.69
440.493	103.69
440.715	84.69
440.936	89.69
441.158	104.69
441.379	95.69
441.6	110.69
441.822	102.69
442.043	83.69
442.264	104.69
442.486	102.69
442.707	95.69
442.928	101.69
443.149	126.69
443.371	125.69
443.592	98.69
443.813	105.69
444.034	98.69
444.255	85.69
444.476	93.69
444.698	97.69
444.919	92.69
445.14	121.69
445.361	118.69
445.582	108.69
445.803	124.69
446.024	125.69
446.245	139.69
446.466	97.69
446.687	103.69
446.908	97.69
447.129	97.69
447.35	84.69
447.571	79.69
447.792	92.69
448.013	94.69
448.234	108.69
448.455	120.69
448.675	106.69
448.896	115.69
449.117	106.69
449.338	100.69
449.559	129.69
449.779	124.69
450	77.69
450.221	94.69
450.442	113.69
450.662	103.69
450.883	108.69
451.104	112.69
451.324	99.69
451.545	97.69
451.766	88.69
451.986	93.69
452.207	101.69
452.428	89.69
452.648	102.69
452.869	101.69
453.089	114.69
453.31	113.69
453.53	88.69
453.751	88.69
453.971	91.69
454.192	108.69
454.412	96.69
454.633	83.69
454.853	82.69
455.073	84.69
455.294	80.69
455.514	95.69
455.734	80.69
455.955	80.69
456.175	99.69
456.395	92.69
456.616	92.69
456.836	74.69
457.056	85.69
457.276	70.69
457.497	81.69
457.717	79.69
457.937	95.69
458.157	94.69
458.377	100.69
458.598	90.69
458.818	151.69
459.038	159.69
459.258	109.69
459.478	83.69
459.698	92.69
459.918	76.69
460.138	80.69
460.358	88.69
460.578	94.69
460.798	84.69
461.018	79.69
461.238	87.69
461.458	84.69
461.678	76.69
461.898	99.69
462.118	93.69
462.338	80.69
462.558	88.69
462.777	73.69
462.997	101.69
463.217	84.69
463.437	85.69
463.657	79.69
463.876	92.69
464.096	89.69
464.316	102.69
464.536	91.69
464.755	94.69
464.975	107.69
465.195	159.69
465.414	153.69
465.634	118.69
465.854	86.69
466.073	84.69
466.293	96.69
466.512	84.69
466.732	82.69
466.951	92.69
467.171	93.69
467.391	83.69
467.61	102.69
467.829	107.69
468.049	99.69
468.268	125.69
468.488	91.69
468.707	86.69
468.927	82.69
469.146	80.69
469.365	86.69
469.585	92.69
469.804	98.69
470.023	110.69
470.243	78.69
470.462	93.69
470.681	109.69
470.901	95.69
471.12	106.69
471.339	80.69
471.558	72.69
471.777	86.69
471.997	89.69
472.216	132.69
472.435	174.69
472.654	108.69
472.873	94.69
473.092	83.69
473.311	79.69
473.53	87.69
473.749	90.69
473.968	87.69
474.187	85.69
474.406	103.69
474.625	89.69
474.844	86.69
475.063	92.69
475.282	91.69
475.501	74.69
475.72	102.69
475.939	96.69
476.158	81.69
476.377	88.69
476.596	87.69
476.814	98.69
477.033	84.69
477.252	79.69
477.471	85.69
477.69	97.69
477.908	85.69
478.127	78.69
478.346	69.69
478.564	85.69
478.783	100.69
479.002	89.69
479.22	92.69
479.439	94.69
479.658	90.69
479.876	93.69
480.095	77.69
480.313	99.69
480.532	82.69
480.751	97.69
480.969	139.69
481.188	288.69
481.406	182.69
481.624	106.69
481.843	84.69
482.061	84.69
482.28	79.69
482.498	92.69
482.717	76.69
482.935	83.69
483.153	73.69
483.372	78.69
483.59	93.69
483.808	90.69
484.027	93.69
484.245	91.69
484.463	96.69
484.681	96.69
484.9	89.69
485.118	85.69
485.336	106.69
485.554	105.69
485.772	110.69
485.99	98.69
486.209	105.69
486.427	105.69
486.645	91.69
486.863	99.69
487.081	105.69
487.299	96.69
487.517	99.69
487.735	87.69
487.953	88.69
488.171	91.69
488.389	93.69
488.607	97.69
488.825	94.69
489.043	100.69
489.261	97.69
489.479	95.69
489.696	100.69
489.914	91.69
490.132	91.69
490.35	77.69
490.568	81.69
490.786	80.69
491.003	100.69
491.221	77.69
491.439	82.69
491.657	101.69
491.874	96.69
492.092	76.69
492.31	96.69
492.527	100.69
492.745	87.69
492.963	76.69
493.18	92.69
493.398	92.69
493.615	110.69
493.833	94.69
494.05	89.69
494.268	95.69
494.485	93.69
494.703	100.69
494.92	80.69
495.138	83.69
495.355	76.69
495.573	80.69
495.79	88.69
496.008	101.69
496.225	85.69
496.442	97.69
496.66	84.69
496.877	94.69
497.094	91.69
497.312	98.69
497.529	94.69
497.746	86.69
497.963	101.69
498.181	103.69
498.398	86.69
498.615	99.69
498.832	103.69
499.049	85.69
499.267	86.69
499.484	87.69
499.701	79.69
499.918	88.69
500.135	78.69
500.352	88.69
500.569	97.69
500.786	81.69
501.003	81.69
501.22	91.69
501.437	89.69
501.654	95.69
501.871	100.69
502.088	87.69
502.305	91.69
502.522	81.69
502.739	84.69
502.956	87.69
503.172	82.69
503.389	92.69
503.606	100.69
503.823	95.69
504.04	86.69
504.256	84.69
504.473	82.69
504.69	75.69
504.907	109.69
505.123	96.69
505.34	90.69
505.557	91.69
505.773	96.69
505.99	86.69
506.207	96.69
506.423	97.69
506.64	86.69
506.856	94.69
507.073	94.69
507.289	96.69
507.506	91.69
507.722	124.69
507.939	122.69
508.155	83.69
508.372	99.69
508.588	80.69
508.805	100.69
509.021	95.69
509.238	99.69
509.454	88.69
509.67	103.69
509.887	117.69
510.103	121.69
510.319	212.69
510.536	783.69
510.752	2499.69
510.968	681.69
511.184	154.69
511.401	123.69
511.617	94.69
511.833	94.69
512.049	89.69
512.265	91.69
512.481	91.69
512.698	92.69
512.914	80.69
513.13	92.69
513.346	81.69
513.562	95.69
513.778	106.69
513.994	106.69
514.21	91.69
514.426	123.69
514.642	131.69
514.858	130.69
515.074	162.69
515.29	448.69
515.506	1511.69
515.721	524.69
