Data from Circ_1994_H10_HRD10591_00046.txt Node
Date: Wed Jan 03 11:40:39 EST 2024
User: Yrep
Spectrometer: HR+D1059
Trigger mode: 1
Integration Time (sec): 1.000000E-1
Scans to average: 1
Electric dark correction enabled: true
Nonlinearity correction enabled: false
Boxcar width: 0
XAxis mode: Wavelengths
Number of Pixels in Spectrum: 2048
>>>>>Begin Spectral Data<<<<<
223.165	-19.31
223.4	-19.31
223.635	-19.31
223.869	-10.31
224.104	-30.31
224.338	-21.31
224.573	-14.31
224.808	-15.31
225.042	-7.31
225.277	-8.31
225.511	-10.31
225.746	-0.31
225.98	16.69
226.215	16.69
226.449	22.69
226.683	30.69
226.918	24.69
227.152	25.69
227.387	44.69
227.621	22.69
227.856	45.69
228.09	58.69
228.324	61.69
228.559	55.69
228.793	52.69
229.027	63.69
229.262	55.69
229.496	74.69
229.73	64.69
229.964	71.69
230.199	59.69
230.433	70.69
230.667	73.69
230.901	73.69
231.136	70.69
231.37	77.69
231.604	65.69
231.838	76.69
232.072	64.69
232.306	75.69
232.541	79.69
232.775	87.69
233.009	77.69
233.243	83.69
233.477	76.69
233.711	80.69
233.945	88.69
234.179	84.69
234.413	78.69
234.647	74.69
234.881	89.69
235.115	86.69
235.349	75.69
235.583	92.69
235.817	74.69
236.051	64.69
236.285	49.69
236.519	74.69
236.753	82.69
236.987	81.69
237.221	71.69
237.455	78.69
237.689	81.69
237.922	75.69
238.156	81.69
238.39	70.69
238.624	61.69
238.858	66.69
239.091	78.69
239.325	58.69
239.559	56.69
239.793	74.69
240.027	68.69
240.26	74.69
240.494	64.69
240.728	83.69
240.961	62.69
241.195	64.69
241.429	71.69
241.662	74.69
241.896	62.69
242.13	81.69
242.363	75.69
242.597	76.69
242.83	73.69
243.064	89.69
243.298	70.69
243.531	86.69
243.765	71.69
243.998	74.69
244.232	78.69
244.465	76.69
244.699	78.69
244.932	83.69
245.166	58.69
245.399	69.69
245.633	72.69
245.866	77.69
246.099	75.69
246.333	70.69
246.566	66.69
246.8	68.69
247.033	73.69
247.266	68.69
247.5	79.69
247.733	77.69
247.966	69.69
248.2	91.69
248.433	74.69
248.666	80.69
248.899	79.69
249.133	90.69
249.366	90.69
249.599	94.69
249.832	82.69
250.066	88.69
250.299	77.69
250.532	87.69
250.765	87.69
250.998	76.69
251.231	81.69
251.465	94.69
251.698	84.69
251.931	77.69
252.164	85.69
252.397	89.69
252.63	72.69
252.863	77.69
253.096	75.69
253.329	76.69
253.562	60.69
253.795	77.69
254.028	89.69
254.261	74.69
254.494	71.69
254.727	58.69
254.96	92.69
255.193	80.69
255.426	75.69
255.659	78.69
255.892	79.69
256.124	70.69
256.357	70.69
256.59	93.69
256.823	81.69
257.056	85.69
257.289	84.69
257.521	86.69
257.754	84.69
257.987	88.69
258.22	66.69
258.452	71.69
258.685	75.69
258.918	93.69
259.151	73.69
259.383	82.69
259.616	77.69
259.849	86.69
260.081	62.69
260.314	85.69
260.547	88.69
260.779	80.69
261.012	79.69
261.244	81.69
261.477	85.69
261.71	78.69
261.942	93.69
262.175	135.69
262.407	90.69
262.64	74.69
262.872	86.69
263.105	72.69
263.337	76.69
263.57	87.69
263.802	80.69
264.035	86.69
264.267	88.69
264.499	90.69
264.732	89.69
264.964	90.69
265.197	73.69
265.429	73.69
265.661	95.69
265.894	76.69
266.126	78.69
266.358	87.69
266.591	98.69
266.823	84.69
267.055	93.69
267.287	79.69
267.52	88.69
267.752	74.69
267.984	80.69
268.216	84.69
268.448	85.69
268.681	76.69
268.913	80.69
269.145	77.69
269.377	73.69
269.609	74.69
269.841	87.69
270.073	89.69
270.306	93.69
270.538	65.69
270.77	73.69
271.002	66.69
271.234	76.69
271.466	67.69
271.698	75.69
271.93	96.69
272.162	83.69
272.394	91.69
272.626	85.69
272.858	71.69
273.09	80.69
273.322	66.69
273.553	81.69
273.785	75.69
274.017	87.69
274.249	82.69
274.481	84.69
274.713	89.69
274.945	77.69
275.176	84.69
275.408	87.69
275.64	87.69
275.872	80.69
276.104	87.69
276.335	93.69
276.567	93.69
276.799	96.69
277.031	98.69
277.262	62.69
277.494	84.69
277.726	71.69
277.957	91.69
278.189	90.69
278.421	91.69
278.652	82.69
278.884	81.69
279.115	81.69
279.347	84.69
279.579	74.69
279.81	77.69
280.042	98.69
280.273	91.69
280.505	77.69
280.736	93.69
280.968	79.69
281.199	86.69
281.431	85.69
281.662	76.69
281.894	84.69
282.125	83.69
282.356	92.69
282.588	141.69
282.819	110.69
283.051	88.69
283.282	74.69
283.513	72.69
283.745	86.69
283.976	87.69
284.207	88.69
284.439	78.69
284.67	82.69
284.901	78.69
285.132	80.69
285.364	86.69
285.595	89.69
285.826	100.69
286.057	80.69
286.288	77.69
286.52	83.69
286.751	69.69
286.982	87.69
287.213	84.69
287.444	73.69
287.675	79.69
287.906	79.69
288.138	77.69
288.369	75.69
288.6	91.69
288.831	74.69
289.062	85.69
289.293	93.69
289.524	81.69
289.755	86.69
289.986	95.69
290.217	104.69
290.448	89.69
290.679	82.69
290.91	103.69
291.141	87.69
291.371	60.69
291.602	87.69
291.833	83.69
292.064	91.69
292.295	85.69
292.526	87.69
292.757	78.69
292.987	81.69
293.218	85.69
293.449	72.69
293.68	93.69
293.91	89.69
294.141	96.69
294.372	86.69
294.603	98.69
294.833	86.69
295.064	73.69
295.295	76.69
295.525	72.69
295.756	104.69
295.987	102.69
296.217	120.69
296.448	120.69
296.679	102.69
296.909	87.69
297.14	84.69
297.37	81.69
297.601	98.69
297.831	73.69
298.062	68.69
298.292	79.69
298.523	85.69
298.753	88.69
298.984	91.69
299.214	80.69
299.445	90.69
299.675	106.69
299.905	85.69
300.136	90.69
300.366	84.69
300.597	79.69
300.827	88.69
301.057	93.69
301.288	108.69
301.518	72.69
301.748	80.69
301.979	97.69
302.209	89.69
302.439	64.69
302.669	85.69
302.9	70.69
303.13	79.69
303.36	89.69
303.59	101.69
303.82	95.69
304.051	90.69
304.281	97.69
304.511	90.69
304.741	85.69
304.971	90.69
305.201	89.69
305.431	93.69
305.661	78.69
305.891	84.69
306.121	86.69
306.352	89.69
306.582	99.69
306.812	95.69
307.042	82.69
307.272	93.69
307.502	84.69
307.731	79.69
307.961	80.69
308.191	90.69
308.421	76.69
308.651	88.69
308.881	88.69
309.111	94.69
309.341	96.69
309.571	92.69
309.8	85.69
310.03	101.69
310.26	84.69
310.49	88.69
310.72	87.69
310.949	95.69
311.179	89.69
311.409	80.69
311.639	84.69
311.868	102.69
312.098	91.69
312.328	91.69
312.557	84.69
312.787	112.69
313.017	94.69
313.246	81.69
313.476	73.69
313.706	86.69
313.935	92.69
314.165	92.69
314.394	87.69
314.624	91.69
314.853	98.69
315.083	87.69
315.312	78.69
315.542	85.69
315.771	80.69
316.001	83.69
316.23	104.69
316.46	96.69
316.689	81.69
316.919	85.69
317.148	92.69
317.377	76.69
317.607	83.69
317.836	87.69
318.065	86.69
318.295	103.69
318.524	83.69
318.753	89.69
318.983	91.69
319.212	81.69
319.441	96.69
319.67	88.69
319.9	100.69
320.129	99.69
320.358	88.69
320.587	97.69
320.816	99.69
321.046	95.69
321.275	94.69
321.504	85.69
321.733	95.69
321.962	92.69
322.191	94.69
322.42	106.69
322.649	98.69
322.878	99.69
323.108	116.69
323.337	102.69
323.566	123.69
323.795	138.69
324.024	188.69
324.253	337.69
324.482	712.69
324.71	1463.69
324.939	1882.69
325.168	721.69
325.397	222.69
325.626	140.69
325.855	106.69
326.084	108.69
326.313	107.69
326.542	137.69
326.77	218.69
326.999	404.69
327.228	792.69
327.457	1401.69
327.686	1129.69
327.914	333.69
328.143	174.69
328.372	148.69
328.6	125.69
328.829	105.69
329.058	107.69
329.287	101.69
329.515	100.69
329.744	98.69
329.972	100.69
330.201	131.69
330.43	153.69
330.658	135.69
330.887	137.69
331.115	106.69
331.344	108.69
331.572	92.69
331.801	103.69
332.03	86.69
332.258	102.69
332.486	90.69
332.715	92.69
332.943	96.69
333.172	88.69
333.4	90.69
333.629	93.69
333.857	103.69
334.085	118.69
334.314	122.69
334.542	161.69
334.771	153.69
334.999	116.69
335.227	96.69
335.455	76.69
335.684	98.69
335.912	82.69
336.14	110.69
336.369	95.69
336.597	102.69
336.825	104.69
337.053	93.69
337.281	96.69
337.51	78.69
337.738	84.69
337.966	78.69
338.194	105.69
338.422	94.69
338.65	90.69
338.878	87.69
339.106	85.69
339.334	101.69
339.562	101.69
339.79	88.69
340.018	88.69
340.246	77.69
340.474	94.69
340.702	77.69
340.93	89.69
341.158	90.69
341.386	105.69
341.614	89.69
341.842	98.69
342.07	89.69
342.298	90.69
342.526	88.69
342.754	87.69
342.981	81.69
343.209	89.69
343.437	102.69
343.665	90.69
343.893	90.69
344.12	95.69
344.348	91.69
344.576	93.69
344.804	82.69
345.031	96.69
345.259	88.69
345.487	84.69
345.714	79.69
345.942	87.69
346.17	91.69
346.397	80.69
346.625	93.69
346.853	94.69
347.08	79.69
347.308	90.69
347.535	93.69
347.763	94.69
347.99	96.69
348.218	88.69
348.445	82.69
348.673	96.69
348.9	101.69
349.128	97.69
349.355	88.69
349.583	94.69
349.81	96.69
350.037	81.69
350.265	83.69
350.492	70.69
350.72	82.69
350.947	100.69
351.174	109.69
351.402	106.69
351.629	93.69
351.856	93.69
352.083	103.69
352.311	104.69
352.538	107.69
352.765	97.69
352.992	102.69
353.22	104.69
353.447	96.69
353.674	105.69
353.901	81.69
354.128	112.69
354.355	105.69
354.583	107.69
354.81	93.69
355.037	87.69
355.264	86.69
355.491	73.69
355.718	90.69
355.945	94.69
356.172	100.69
356.399	102.69
356.626	98.69
356.853	85.69
357.08	82.69
357.307	83.69
357.534	86.69
357.761	87.69
357.988	95.69
358.215	87.69
358.441	88.69
358.668	85.69
358.895	80.69
359.122	85.69
359.349	94.69
359.576	78.69
359.802	82.69
360.029	96.69
360.256	98.69
360.483	107.69
360.709	84.69
360.936	85.69
361.163	83.69
361.39	93.69
361.616	89.69
361.843	94.69
362.07	100.69
362.296	78.69
362.523	73.69
362.749	100.69
362.976	80.69
363.203	90.69
363.429	72.69
363.656	111.69
363.882	90.69
364.109	88.69
364.335	87.69
364.562	92.69
364.788	76.69
365.015	88.69
365.241	103.69
365.468	100.69
365.694	86.69
365.92	102.69
366.147	89.69
366.373	80.69
366.599	76.69
366.826	92.69
367.052	85.69
367.278	92.69
367.505	96.69
367.731	86.69
367.957	98.69
368.184	92.69
368.41	93.69
368.636	92.69
368.862	118.69
369.089	78.69
369.315	84.69
369.541	90.69
369.767	80.69
369.993	84.69
370.219	80.69
370.445	90.69
370.672	82.69
370.898	93.69
371.124	80.69
371.35	80.69
371.576	91.69
371.802	90.69
372.028	81.69
372.254	80.69
372.48	87.69
372.706	73.69
372.932	84.69
373.158	81.69
373.384	70.69
373.61	97.69
373.835	93.69
374.061	86.69
374.287	90.69
374.513	95.69
374.739	95.69
374.965	96.69
375.191	86.69
375.416	72.69
375.642	74.69
375.868	79.69
376.094	70.69
376.319	90.69
376.545	105.69
376.771	100.69
376.997	90.69
377.222	98.69
377.448	81.69
377.674	81.69
377.899	78.69
378.125	79.69
378.35	92.69
378.576	72.69
378.802	95.69
379.027	81.69
379.253	85.69
379.478	76.69
379.704	81.69
379.929	79.69
380.155	91.69
380.38	87.69
380.606	84.69
380.831	80.69
381.057	90.69
381.282	97.69
381.507	97.69
381.733	89.69
381.958	85.69
382.184	75.69
382.409	84.69
382.634	101.69
382.86	87.69
383.085	97.69
383.31	93.69
383.535	84.69
383.761	92.69
383.986	79.69
384.211	80.69
384.436	96.69
384.662	91.69
384.887	78.69
385.112	104.69
385.337	102.69
385.562	92.69
385.787	94.69
386.013	111.69
386.238	99.69
386.463	106.69
386.688	107.69
386.913	97.69
387.138	96.69
387.363	97.69
387.588	90.69
387.813	88.69
388.038	97.69
388.263	94.69
388.488	87.69
388.713	88.69
388.938	93.69
389.163	86.69
389.387	97.69
389.612	87.69
389.837	74.69
390.062	91.69
390.287	79.69
390.512	94.69
390.736	81.69
390.961	78.69
391.186	81.69
391.411	105.69
391.636	93.69
391.86	76.69
392.085	81.69
392.31	91.69
392.534	90.69
392.759	70.69
392.984	91.69
393.208	99.69
393.433	72.69
393.658	78.69
393.882	81.69
394.107	82.69
394.331	92.69
394.556	65.69
394.78	95.69
395.005	87.69
395.229	81.69
395.454	69.69
395.678	76.69
395.903	89.69
396.127	86.69
396.352	90.69
396.576	82.69
396.801	84.69
397.025	93.69
397.249	84.69
397.474	76.69
397.698	91.69
397.922	95.69
398.147	88.69
398.371	92.69
398.595	81.69
398.82	78.69
399.044	86.69
399.268	86.69
399.492	89.69
399.717	72.69
399.941	94.69
400.165	94.69
400.389	88.69
400.613	74.69
400.837	76.69
401.062	74.69
401.286	70.69
401.51	86.69
401.734	85.69
401.958	94.69
402.182	124.69
402.406	152.69
402.63	106.69
402.854	92.69
403.078	95.69
403.302	97.69
403.526	93.69
403.75	79.69
403.974	87.69
404.198	84.69
404.422	85.69
404.645	80.69
404.869	88.69
405.093	95.69
405.317	92.69
405.541	93.69
405.765	95.69
405.988	123.69
406.212	159.69
406.436	232.69
406.66	144.69
406.883	92.69
407.107	83.69
407.331	93.69
407.555	85.69
407.778	97.69
408.002	70.69
408.226	82.69
408.449	70.69
408.673	97.69
408.896	69.69
409.12	87.69
409.344	91.69
409.567	78.69
409.791	92.69
410.014	86.69
410.238	85.69
410.461	87.69
410.685	84.69
410.908	86.69
411.132	92.69
411.355	104.69
411.578	93.69
411.802	68.69
412.025	91.69
412.249	88.69
412.472	95.69
412.695	101.69
412.919	69.69
413.142	85.69
413.365	84.69
413.589	93.69
413.812	84.69
414.035	70.69
414.258	75.69
414.482	77.69
414.705	89.69
414.928	86.69
415.151	91.69
415.374	88.69
415.597	107.69
415.821	78.69
416.044	82.69
416.267	94.69
416.49	78.69
416.713	80.69
416.936	76.69
417.159	76.69
417.382	74.69
417.605	86.69
417.828	97.69
418.051	98.69
418.274	68.69
418.497	73.69
418.72	72.69
418.943	89.69
419.166	93.69
419.389	80.69
419.611	74.69
419.834	75.69
420.057	95.69
420.28	73.69
420.503	79.69
420.726	80.69
420.948	72.69
421.171	85.69
421.394	92.69
421.617	98.69
421.839	89.69
422.062	66.69
422.285	85.69
422.507	88.69
422.73	96.69
422.953	94.69
423.175	72.69
423.398	73.69
423.621	97.69
423.843	85.69
424.066	82.69
424.288	86.69
424.511	88.69
424.733	101.69
424.956	111.69
425.178	74.69
425.401	94.69
425.623	95.69
425.846	87.69
426.068	99.69
426.291	97.69
426.513	64.69
426.735	93.69
426.958	82.69
427.18	102.69
427.402	126.69
427.625	156.69
427.847	122.69
428.069	108.69
428.292	88.69
428.514	92.69
428.736	63.69
428.958	78.69
429.181	100.69
429.403	88.69
429.625	85.69
429.847	96.69
430.069	84.69
430.292	90.69
430.514	85.69
430.736	87.69
430.958	71.69
431.18	77.69
431.402	82.69
431.624	77.69
431.846	88.69
432.068	80.69
432.29	89.69
432.512	88.69
432.734	88.69
432.956	80.69
433.178	81.69
433.4	74.69
433.622	80.69
433.844	92.69
434.066	88.69
434.287	87.69
434.509	79.69
434.731	75.69
434.953	71.69
435.175	93.69
435.397	95.69
435.618	91.69
435.84	103.69
436.062	103.69
436.284	104.69
436.505	82.69
436.727	101.69
436.949	95.69
437.17	85.69
437.392	74.69
437.614	94.69
437.835	100.69
438.057	116.69
438.278	100.69
438.5	72.69
438.721	103.69
438.943	96.69
439.165	82.69
439.386	90.69
439.608	77.69
439.829	100.69
440.05	111.69
440.272	127.69
440.493	82.69
440.715	97.69
440.936	77.69
441.158	85.69
441.379	76.69
441.6	73.69
441.822	91.69
442.043	88.69
442.264	92.69
442.486	91.69
442.707	81.69
442.928	104.69
443.149	113.69
443.371	124.69
443.592	102.69
443.813	94.69
444.034	97.69
444.255	97.69
444.476	79.69
444.698	88.69
444.919	99.69
445.14	126.69
445.361	116.69
445.582	109.69
445.803	112.69
446.024	115.69
446.245	116.69
446.466	103.69
446.687	101.69
446.908	72.69
447.129	96.69
447.35	79.69
447.571	89.69
447.792	98.69
448.013	104.69
448.234	100.69
448.455	103.69
448.675	110.69
448.896	95.69
449.117	103.69
449.338	90.69
449.559	118.69
449.779	119.69
450	94.69
450.221	90.69
450.442	96.69
450.662	84.69
450.883	98.69
451.104	101.69
451.324	104.69
451.545	77.69
451.766	82.69
451.986	80.69
452.207	90.69
452.428	77.69
452.648	105.69
452.869	104.69
453.089	109.69
453.31	111.69
453.53	92.69
453.751	89.69
453.971	81.69
454.192	101.69
454.412	88.69
454.633	82.69
454.853	78.69
455.073	81.69
455.294	87.69
455.514	92.69
455.734	82.69
455.955	76.69
456.175	77.69
456.395	92.69
456.616	90.69
456.836	87.69
457.056	87.69
457.276	76.69
457.497	86.69
457.717	84.69
457.937	82.69
458.157	88.69
458.377	90.69
458.598	86.69
458.818	153.69
459.038	153.69
459.258	90.69
459.478	94.69
459.698	77.69
459.918	82.69
460.138	84.69
460.358	76.69
460.578	85.69
460.798	81.69
461.018	78.69
461.238	92.69
461.458	69.69
461.678	73.69
461.898	84.69
462.118	78.69
462.338	86.69
462.558	78.69
462.777	75.69
462.997	68.69
463.217	73.69
463.437	70.69
463.657	77.69
463.876	77.69
464.096	79.69
464.316	78.69
464.536	87.69
464.755	109.69
464.975	111.69
465.195	157.69
465.414	152.69
465.634	83.69
465.854	82.69
466.073	101.69
466.293	95.69
466.512	84.69
466.732	91.69
466.951	77.69
467.171	88.69
467.391	84.69
467.61	95.69
467.829	96.69
468.049	97.69
468.268	95.69
468.488	79.69
468.707	86.69
468.927	89.69
469.146	73.69
469.365	95.69
469.585	75.69
469.804	92.69
470.023	91.69
470.243	104.69
470.462	104.69
470.681	92.69
470.901	80.69
471.12	66.69
471.339	70.69
471.558	69.69
471.777	78.69
471.997	100.69
472.216	121.69
472.435	181.69
472.654	100.69
472.873	91.69
473.092	90.69
473.311	88.69
473.53	86.69
473.749	82.69
473.968	90.69
474.187	92.69
474.406	74.69
474.625	88.69
474.844	83.69
475.063	85.69
475.282	85.69
475.501	88.69
475.72	86.69
475.939	93.69
476.158	85.69
476.377	88.69
476.596	95.69
476.814	95.69
477.033	84.69
477.252	95.69
477.471	82.69
477.69	80.69
477.908	88.69
478.127	81.69
478.346	88.69
478.564	98.69
478.783	90.69
479.002	88.69
479.22	95.69
479.439	84.69
479.658	95.69
479.876	88.69
480.095	90.69
480.313	79.69
480.532	98.69
480.751	86.69
480.969	136.69
481.188	266.69
481.406	188.69
481.624	95.69
481.843	91.69
482.061	83.69
482.28	83.69
482.498	76.69
482.717	83.69
482.935	93.69
483.153	89.69
483.372	71.69
483.59	94.69
483.808	80.69
484.027	83.69
484.245	83.69
484.463	79.69
484.681	89.69
484.9	91.69
485.118	98.69
485.336	104.69
485.554	78.69
485.772	95.69
485.99	93.69
486.209	106.69
486.427	107.69
486.645	111.69
486.863	97.69
487.081	100.69
487.299	84.69
487.517	94.69
487.735	77.69
487.953	86.69
488.171	86.69
488.389	96.69
488.607	86.69
488.825	84.69
489.043	74.69
489.261	87.69
489.479	95.69
489.696	87.69
489.914	89.69
490.132	81.69
490.35	91.69
490.568	82.69
490.786	83.69
491.003	93.69
491.221	85.69
491.439	98.69
491.657	87.69
491.874	79.69
492.092	80.69
492.31	97.69
492.527	84.69
492.745	74.69
492.963	94.69
493.18	88.69
493.398	98.69
493.615	90.69
493.833	79.69
494.05	74.69
494.268	92.69
494.485	91.69
494.703	86.69
494.92	64.69
495.138	92.69
495.355	86.69
495.573	91.69
495.79	93.69
496.008	90.69
496.225	71.69
496.442	89.69
496.66	84.69
496.877	89.69
497.094	83.69
497.312	88.69
497.529	78.69
497.746	86.69
497.963	85.69
498.181	79.69
498.398	94.69
498.615	100.69
498.832	91.69
499.049	69.69
499.267	87.69
499.484	83.69
499.701	84.69
499.918	75.69
500.135	88.69
500.352	89.69
500.569	101.69
500.786	82.69
501.003	91.69
501.22	102.69
501.437	81.69
501.654	94.69
501.871	102.69
502.088	85.69
502.305	83.69
502.522	91.69
502.739	91.69
502.956	81.69
503.172	79.69
503.389	89.69
503.606	93.69
503.823	83.69
504.04	96.69
504.256	96.69
504.473	82.69
504.69	83.69
504.907	88.69
505.123	96.69
505.34	80.69
505.557	91.69
505.773	82.69
505.99	83.69
506.207	89.69
506.423	80.69
506.64	79.69
506.856	88.69
507.073	104.69
507.289	91.69
507.506	92.69
507.722	104.69
507.939	92.69
508.155	87.69
508.372	82.69
508.588	77.69
508.805	97.69
509.021	95.69
509.238	87.69
509.454	102.69
509.67	104.69
509.887	97.69
510.103	127.69
510.319	208.69
510.536	778.69
510.752	2457.69
510.968	677.69
511.184	150.69
511.401	117.69
511.617	92.69
511.833	88.69
512.049	72.69
512.265	98.69
512.481	102.69
512.698	75.69
512.914	88.69
513.13	84.69
513.346	76.69
513.562	88.69
513.778	84.69
513.994	85.69
514.21	91.69
514.426	95.69
514.642	120.69
514.858	108.69
515.074	155.69
515.29	437.69
515.506	1432.69
515.721	511.69
515.937	137.69
516.153	101.69
516.369	88.69
516.585	87.69
516.801	104.69
517.016	82.69
