Data from Circ_1994_H10_HRD10591_00043.txt Node
Date: Wed Jan 03 11:40:39 EST 2024
User: Yrep
Spectrometer: HR+D1059
Trigger mode: 1
Integration Time (sec): 1.000000E-1
Scans to average: 1
Electric dark correction enabled: true
Nonlinearity correction enabled: false
Boxcar width: 0
XAxis mode: Wavelengths
Number of Pixels in Spectrum: 2048
>>>>>Begin Spectral Data<<<<<
223.165	-15.62
223.4	-15.62
223.635	-15.62
223.869	-23.62
224.104	-30.62
224.338	-23.62
224.573	-9.62
224.808	-28.62
225.042	8.38
225.277	-2.62
225.511	2.38
225.746	-6.62
225.98	8.38
226.215	19.38
226.449	21.38
226.683	26.38
226.918	31.38
227.152	23.38
227.387	36.38
227.621	22.38
227.856	50.38
228.09	50.38
228.324	49.38
228.559	38.38
228.793	62.38
229.027	69.38
229.262	71.38
229.496	61.38
229.73	93.38
229.964	79.38
230.199	79.38
230.433	80.38
230.667	81.38
230.901	77.38
231.136	82.38
231.37	80.38
231.604	78.38
231.838	72.38
232.072	80.38
232.306	83.38
232.541	68.38
232.775	82.38
233.009	84.38
233.243	70.38
233.477	81.38
233.711	79.38
233.945	75.38
234.179	64.38
234.413	87.38
234.647	73.38
234.881	76.38
235.115	74.38
235.349	87.38
235.583	86.38
235.817	76.38
236.051	77.38
236.285	85.38
236.519	76.38
236.753	82.38
236.987	83.38
237.221	82.38
237.455	76.38
237.689	73.38
237.922	80.38
238.156	75.38
238.39	71.38
238.624	65.38
238.858	70.38
239.091	79.38
239.325	74.38
239.559	75.38
239.793	74.38
240.027	58.38
240.26	61.38
240.494	63.38
240.728	77.38
240.961	59.38
241.195	89.38
241.429	74.38
241.662	66.38
241.896	69.38
242.13	78.38
242.363	76.38
242.597	72.38
242.83	71.38
243.064	78.38
243.298	65.38
243.531	80.38
243.765	80.38
243.998	67.38
244.232	69.38
244.465	62.38
244.699	72.38
244.932	65.38
245.166	68.38
245.399	79.38
245.633	59.38
245.866	70.38
246.099	69.38
246.333	63.38
246.566	71.38
246.8	80.38
247.033	80.38
247.266	75.38
247.5	79.38
247.733	80.38
247.966	68.38
248.2	68.38
248.433	66.38
248.666	85.38
248.899	80.38
249.133	76.38
249.366	89.38
249.599	94.38
249.832	78.38
250.066	61.38
250.299	90.38
250.532	81.38
250.765	82.38
250.998	69.38
251.231	86.38
251.465	83.38
251.698	64.38
251.931	83.38
252.164	84.38
252.397	73.38
252.63	77.38
252.863	86.38
253.096	90.38
253.329	89.38
253.562	69.38
253.795	84.38
254.028	82.38
254.261	76.38
254.494	78.38
254.727	76.38
254.96	90.38
255.193	88.38
255.426	92.38
255.659	66.38
255.892	76.38
256.124	65.38
256.357	80.38
256.59	61.38
256.823	73.38
257.056	88.38
257.289	86.38
257.521	66.38
257.754	82.38
257.987	77.38
258.22	97.38
258.452	95.38
258.685	87.38
258.918	80.38
259.151	78.38
259.383	89.38
259.616	66.38
259.849	73.38
260.081	55.38
260.314	80.38
260.547	79.38
260.779	83.38
261.012	76.38
261.244	69.38
261.477	73.38
261.71	78.38
261.942	103.38
262.175	116.38
262.407	89.38
262.64	84.38
262.872	73.38
263.105	94.38
263.337	80.38
263.57	84.38
263.802	76.38
264.035	90.38
264.267	63.38
264.499	75.38
264.732	88.38
264.964	82.38
265.197	75.38
265.429	85.38
265.661	85.38
265.894	73.38
266.126	86.38
266.358	93.38
266.591	97.38
266.823	75.38
267.055	73.38
267.287	70.38
267.52	73.38
267.752	85.38
267.984	71.38
268.216	72.38
268.448	82.38
268.681	81.38
268.913	66.38
269.145	90.38
269.377	81.38
269.609	91.38
269.841	76.38
270.073	70.38
270.306	80.38
270.538	73.38
270.77	76.38
271.002	82.38
271.234	87.38
271.466	81.38
271.698	84.38
271.93	85.38
272.162	77.38
272.394	88.38
272.626	80.38
272.858	82.38
273.09	93.38
273.322	76.38
273.553	79.38
273.785	88.38
274.017	76.38
274.249	76.38
274.481	84.38
274.713	84.38
274.945	70.38
275.176	82.38
275.408	101.38
275.64	72.38
275.872	89.38
276.104	87.38
276.335	88.38
276.567	91.38
276.799	107.38
277.031	90.38
277.262	84.38
277.494	84.38
277.726	82.38
277.957	91.38
278.189	82.38
278.421	79.38
278.652	88.38
278.884	84.38
279.115	72.38
279.347	80.38
279.579	90.38
279.81	82.38
280.042	83.38
280.273	102.38
280.505	84.38
280.736	86.38
280.968	72.38
281.199	85.38
281.431	80.38
281.662	86.38
281.894	98.38
282.125	101.38
282.356	113.38
282.588	118.38
282.819	106.38
283.051	95.38
283.282	102.38
283.513	88.38
283.745	80.38
283.976	83.38
284.207	96.38
284.439	84.38
284.67	88.38
284.901	87.38
285.132	76.38
285.364	72.38
285.595	71.38
285.826	82.38
286.057	79.38
286.288	84.38
286.52	76.38
286.751	72.38
286.982	69.38
287.213	80.38
287.444	98.38
287.675	79.38
287.906	94.38
288.138	83.38
288.369	88.38
288.6	89.38
288.831	72.38
289.062	69.38
289.293	93.38
289.524	89.38
289.755	75.38
289.986	60.38
290.217	77.38
290.448	78.38
290.679	73.38
290.91	84.38
291.141	81.38
291.371	85.38
291.602	92.38
291.833	89.38
292.064	93.38
292.295	80.38
292.526	71.38
292.757	62.38
292.987	82.38
293.218	86.38
293.449	95.38
293.68	81.38
293.91	75.38
294.141	93.38
294.372	84.38
294.603	85.38
294.833	87.38
295.064	86.38
295.295	81.38
295.525	93.38
295.756	85.38
295.987	103.38
296.217	143.38
296.448	116.38
296.679	87.38
296.909	81.38
297.14	84.38
297.37	93.38
297.601	84.38
297.831	71.38
298.062	79.38
298.292	84.38
298.523	83.38
298.753	97.38
298.984	92.38
299.214	76.38
299.445	92.38
299.675	75.38
299.905	93.38
300.136	93.38
300.366	88.38
300.597	95.38
300.827	88.38
301.057	99.38
301.288	95.38
301.518	76.38
301.748	82.38
301.979	104.38
302.209	78.38
302.439	78.38
302.669	76.38
302.9	73.38
303.13	92.38
303.36	104.38
303.59	94.38
303.82	116.38
304.051	95.38
304.281	89.38
304.511	82.38
304.741	81.38
304.971	72.38
305.201	78.38
305.431	96.38
305.661	95.38
305.891	86.38
306.121	85.38
306.352	87.38
306.582	95.38
306.812	93.38
307.042	90.38
307.272	91.38
307.502	106.38
307.731	92.38
307.961	90.38
308.191	85.38
308.421	92.38
308.651	97.38
308.881	100.38
309.111	86.38
309.341	90.38
309.571	93.38
309.8	88.38
310.03	78.38
310.26	111.38
310.49	83.38
310.72	76.38
310.949	99.38
311.179	94.38
311.409	98.38
311.639	81.38
311.868	90.38
312.098	96.38
312.328	105.38
312.557	108.38
312.787	103.38
313.017	96.38
313.246	100.38
313.476	88.38
313.706	80.38
313.935	84.38
314.165	97.38
314.394	92.38
314.624	92.38
314.853	92.38
315.083	91.38
315.312	76.38
315.542	78.38
315.771	88.38
316.001	90.38
316.23	84.38
316.46	95.38
316.689	94.38
316.919	88.38
317.148	87.38
317.377	88.38
317.607	96.38
317.836	76.38
318.065	94.38
318.295	95.38
318.524	72.38
318.753	79.38
318.983	90.38
319.212	86.38
319.441	107.38
319.67	96.38
319.9	84.38
320.129	89.38
320.358	101.38
320.587	98.38
320.816	99.38
321.046	95.38
321.275	88.38
321.504	92.38
321.733	93.38
321.962	87.38
322.191	83.38
322.42	99.38
322.649	98.38
322.878	108.38
323.108	108.38
323.337	135.38
323.566	123.38
323.795	126.38
324.024	175.38
324.253	351.38
324.482	744.38
324.71	1472.38
324.939	1896.38
325.168	717.38
325.397	224.38
325.626	144.38
325.855	115.38
326.084	117.38
326.313	124.38
326.542	144.38
326.77	206.38
326.999	397.38
327.228	828.38
327.457	1464.38
327.686	1166.38
327.914	332.38
328.143	188.38
328.372	142.38
328.6	122.38
328.829	106.38
329.058	122.38
329.287	118.38
329.515	109.38
329.744	105.38
329.972	114.38
330.201	119.38
330.43	148.38
330.658	140.38
330.887	129.38
331.115	105.38
331.344	95.38
331.572	90.38
331.801	106.38
332.03	102.38
332.258	98.38
332.486	93.38
332.715	95.38
332.943	77.38
333.172	82.38
333.4	95.38
333.629	102.38
333.857	100.38
334.085	109.38
334.314	132.38
334.542	166.38
334.771	154.38
334.999	106.38
335.227	94.38
335.455	82.38
335.684	102.38
335.912	95.38
336.14	92.38
336.369	94.38
336.597	96.38
336.825	85.38
337.053	99.38
337.281	87.38
337.51	93.38
337.738	96.38
337.966	108.38
338.194	94.38
338.422	84.38
338.65	90.38
338.878	87.38
339.106	90.38
339.334	85.38
339.562	93.38
339.79	93.38
340.018	96.38
340.246	96.38
340.474	80.38
340.702	66.38
340.93	89.38
341.158	89.38
341.386	93.38
341.614	109.38
341.842	93.38
342.07	78.38
342.298	87.38
342.526	76.38
342.754	76.38
342.981	84.38
343.209	81.38
343.437	98.38
343.665	103.38
343.893	92.38
344.12	91.38
344.348	101.38
344.576	84.38
344.804	87.38
345.031	86.38
345.259	83.38
345.487	97.38
345.714	83.38
345.942	86.38
346.17	91.38
346.397	95.38
346.625	95.38
346.853	89.38
347.08	88.38
347.308	98.38
347.535	96.38
347.763	88.38
347.99	92.38
348.218	92.38
348.445	92.38
348.673	96.38
348.9	90.38
349.128	101.38
349.355	78.38
349.583	104.38
349.81	94.38
350.037	86.38
350.265	80.38
350.492	91.38
350.72	87.38
350.947	91.38
351.174	101.38
351.402	99.38
351.629	103.38
351.856	107.38
352.083	96.38
352.311	100.38
352.538	100.38
352.765	105.38
352.992	95.38
353.22	87.38
353.447	96.38
353.674	98.38
353.901	83.38
354.128	90.38
354.355	87.38
354.583	76.38
354.81	100.38
355.037	101.38
355.264	90.38
355.491	94.38
355.718	86.38
355.945	105.38
356.172	98.38
356.399	102.38
356.626	89.38
356.853	87.38
357.08	89.38
357.307	85.38
357.534	73.38
357.761	88.38
357.988	97.38
358.215	89.38
358.441	84.38
358.668	86.38
358.895	84.38
359.122	90.38
359.349	86.38
359.576	81.38
359.802	79.38
360.029	102.38
360.256	98.38
360.483	92.38
360.709	102.38
360.936	97.38
361.163	88.38
361.39	96.38
361.616	86.38
361.843	84.38
362.07	102.38
362.296	87.38
362.523	89.38
362.749	93.38
362.976	92.38
363.203	87.38
363.429	76.38
363.656	90.38
363.882	104.38
364.109	89.38
364.335	98.38
364.562	73.38
364.788	91.38
365.015	89.38
365.241	107.38
365.468	102.38
365.694	99.38
365.92	88.38
366.147	106.38
366.373	77.38
366.599	79.38
366.826	76.38
367.052	88.38
367.278	90.38
367.505	84.38
367.731	78.38
367.957	82.38
368.184	97.38
368.41	89.38
368.636	110.38
368.862	112.38
369.089	109.38
369.315	78.38
369.541	77.38
369.767	94.38
369.993	89.38
370.219	86.38
370.445	86.38
370.672	79.38
370.898	76.38
371.124	82.38
371.35	81.38
371.576	90.38
371.802	72.38
372.028	73.38
372.254	83.38
372.48	102.38
372.706	84.38
372.932	76.38
373.158	91.38
373.384	87.38
373.61	84.38
373.835	80.38
374.061	89.38
374.287	90.38
374.513	87.38
374.739	98.38
374.965	82.38
375.191	80.38
375.416	85.38
375.642	92.38
375.868	90.38
376.094	79.38
376.319	85.38
376.545	75.38
376.771	86.38
376.997	91.38
377.222	85.38
377.448	84.38
377.674	90.38
377.899	90.38
378.125	89.38
378.35	76.38
378.576	80.38
378.802	93.38
379.027	90.38
379.253	91.38
379.478	82.38
379.704	84.38
379.929	92.38
380.155	88.38
380.38	81.38
380.606	78.38
380.831	87.38
381.057	97.38
381.282	69.38
381.507	82.38
381.733	80.38
381.958	86.38
382.184	84.38
382.409	94.38
382.634	79.38
382.86	85.38
383.085	102.38
383.31	96.38
383.535	76.38
383.761	98.38
383.986	98.38
384.211	91.38
384.436	95.38
384.662	91.38
384.887	103.38
385.112	86.38
385.337	90.38
385.562	101.38
385.787	124.38
386.013	109.38
386.238	103.38
386.463	102.38
386.688	115.38
386.913	98.38
387.138	112.38
387.363	104.38
387.588	84.38
387.813	95.38
388.038	93.38
388.263	105.38
388.488	105.38
388.713	89.38
388.938	92.38
389.163	84.38
389.387	91.38
389.612	88.38
389.837	102.38
390.062	94.38
390.287	97.38
390.512	89.38
390.736	94.38
390.961	82.38
391.186	98.38
391.411	105.38
391.636	97.38
391.86	77.38
392.085	77.38
392.31	69.38
392.534	80.38
392.759	78.38
392.984	93.38
393.208	79.38
393.433	90.38
393.658	80.38
393.882	95.38
394.107	81.38
394.331	81.38
394.556	79.38
394.78	100.38
395.005	74.38
395.229	76.38
395.454	100.38
395.678	86.38
395.903	70.38
396.127	81.38
396.352	80.38
396.576	76.38
396.801	77.38
397.025	86.38
397.249	93.38
397.474	73.38
397.698	94.38
397.922	81.38
398.147	88.38
398.371	75.38
398.595	99.38
398.82	79.38
399.044	79.38
399.268	80.38
399.492	99.38
399.717	86.38
399.941	86.38
400.165	82.38
400.389	84.38
400.613	84.38
400.837	75.38
401.062	80.38
401.286	71.38
401.51	84.38
401.734	85.38
401.958	85.38
402.182	105.38
402.406	143.38
402.63	108.38
402.854	106.38
403.078	92.38
403.302	78.38
403.526	86.38
403.75	75.38
403.974	77.38
404.198	73.38
404.422	73.38
404.645	81.38
404.869	80.38
405.093	86.38
405.317	105.38
405.541	92.38
405.765	94.38
405.988	104.38
406.212	158.38
406.436	220.38
406.66	128.38
406.883	92.38
407.107	86.38
407.331	88.38
407.555	93.38
407.778	82.38
408.002	87.38
408.226	88.38
408.449	93.38
408.673	78.38
408.896	78.38
409.12	90.38
409.344	75.38
409.567	77.38
409.791	89.38
410.014	78.38
410.238	70.38
410.461	84.38
410.685	82.38
410.908	84.38
411.132	92.38
411.355	82.38
411.578	86.38
411.802	66.38
412.025	78.38
412.249	93.38
412.472	93.38
412.695	92.38
412.919	83.38
413.142	80.38
413.365	65.38
413.589	91.38
413.812	80.38
414.035	86.38
414.258	88.38
414.482	80.38
414.705	78.38
414.928	85.38
415.151	95.38
415.374	81.38
415.597	78.38
415.821	82.38
416.044	76.38
416.267	80.38
416.49	80.38
416.713	75.38
416.936	79.38
417.159	72.38
417.382	88.38
417.605	75.38
417.828	76.38
418.051	80.38
418.274	88.38
418.497	93.38
418.72	78.38
418.943	84.38
419.166	88.38
419.389	70.38
419.611	87.38
419.834	77.38
420.057	87.38
420.28	86.38
420.503	72.38
420.726	77.38
420.948	91.38
421.171	82.38
421.394	92.38
421.617	78.38
421.839	85.38
422.062	90.38
422.285	74.38
422.507	106.38
422.73	98.38
422.953	66.38
423.175	70.38
423.398	90.38
423.621	82.38
423.843	80.38
424.066	74.38
424.288	79.38
424.511	86.38
424.733	77.38
424.956	93.38
425.178	93.38
425.401	89.38
425.623	92.38
425.846	92.38
426.068	82.38
426.291	71.38
426.513	92.38
426.735	81.38
426.958	93.38
427.18	99.38
427.402	114.38
427.625	145.38
427.847	113.38
428.069	116.38
428.292	101.38
428.514	67.38
428.736	82.38
428.958	96.38
429.181	90.38
429.403	88.38
429.625	82.38
429.847	92.38
430.069	105.38
430.292	70.38
430.514	80.38
430.736	78.38
430.958	96.38
431.18	80.38
431.402	76.38
431.624	73.38
431.846	83.38
432.068	85.38
432.29	92.38
432.512	77.38
432.734	96.38
432.956	90.38
433.178	102.38
433.4	82.38
433.622	86.38
433.844	93.38
434.066	86.38
434.287	87.38
434.509	84.38
434.731	93.38
434.953	83.38
435.175	77.38
435.397	104.38
435.618	83.38
435.84	86.38
436.062	118.38
436.284	111.38
436.505	92.38
436.727	100.38
436.949	90.38
437.17	87.38
437.392	89.38
437.614	101.38
437.835	101.38
438.057	123.38
438.278	113.38
438.5	94.38
438.721	90.38
438.943	97.38
439.165	82.38
439.386	82.38
439.608	93.38
439.829	89.38
440.05	109.38
440.272	129.38
440.493	95.38
440.715	72.38
440.936	83.38
441.158	73.38
441.379	94.38
441.6	81.38
441.822	89.38
442.043	95.38
442.264	106.38
442.486	82.38
442.707	92.38
442.928	91.38
443.149	129.38
443.371	132.38
443.592	102.38
443.813	93.38
444.034	83.38
444.255	91.38
444.476	71.38
444.698	92.38
444.919	74.38
445.14	114.38
445.361	131.38
445.582	108.38
445.803	120.38
446.024	125.38
446.245	121.38
446.466	96.38
446.687	92.38
446.908	81.38
447.129	92.38
447.35	89.38
447.571	92.38
447.792	89.38
448.013	81.38
448.234	109.38
448.455	109.38
448.675	98.38
448.896	94.38
449.117	97.38
449.338	102.38
449.559	110.38
449.779	110.38
450	81.38
450.221	91.38
450.442	93.38
450.662	86.38
450.883	104.38
451.104	111.38
451.324	94.38
451.545	97.38
451.766	69.38
451.986	80.38
452.207	80.38
452.428	97.38
452.648	93.38
452.869	103.38
453.089	118.38
453.31	109.38
453.53	97.38
453.751	97.38
453.971	96.38
454.192	101.38
454.412	75.38
454.633	72.38
454.853	73.38
455.073	78.38
455.294	84.38
455.514	90.38
455.734	86.38
455.955	81.38
456.175	88.38
456.395	99.38
456.616	64.38
456.836	80.38
457.056	85.38
457.276	83.38
457.497	83.38
457.717	86.38
457.937	89.38
458.157	76.38
458.377	80.38
458.598	88.38
458.818	157.38
459.038	150.38
459.258	111.38
459.478	89.38
459.698	93.38
459.918	83.38
460.138	79.38
460.358	88.38
460.578	74.38
460.798	73.38
461.018	96.38
461.238	81.38
461.458	79.38
461.678	79.38
461.898	81.38
462.118	88.38
462.338	70.38
462.558	83.38
462.777	74.38
462.997	75.38
463.217	73.38
463.437	97.38
463.657	91.38
463.876	90.38
464.096	77.38
464.316	87.38
464.536	87.38
464.755	82.38
464.975	90.38
465.195	152.38
465.414	150.38
465.634	81.38
465.854	84.38
466.073	87.38
466.293	90.38
466.512	65.38
466.732	84.38
466.951	98.38
467.171	94.38
467.391	85.38
467.61	100.38
467.829	88.38
468.049	113.38
468.268	102.38
468.488	83.38
468.707	86.38
468.927	86.38
469.146	93.38
469.365	87.38
469.585	93.38
469.804	97.38
470.023	88.38
470.243	82.38
470.462	87.38
470.681	102.38
470.901	79.38
471.12	87.38
471.339	88.38
471.558	91.38
471.777	84.38
471.997	85.38
472.216	140.38
472.435	168.38
472.654	108.38
472.873	88.38
473.092	92.38
473.311	77.38
473.53	80.38
473.749	73.38
473.968	83.38
474.187	93.38
474.406	93.38
474.625	85.38
474.844	63.38
475.063	71.38
475.282	92.38
475.501	84.38
475.72	72.38
475.939	73.38
476.158	86.38
476.377	91.38
476.596	91.38
476.814	91.38
477.033	87.38
477.252	81.38
477.471	82.38
477.69	81.38
477.908	77.38
478.127	75.38
478.346	78.38
478.564	80.38
478.783	91.38
479.002	90.38
479.22	83.38
479.439	110.38
479.658	108.38
479.876	87.38
480.095	84.38
480.313	82.38
480.532	86.38
480.751	96.38
480.969	124.38
481.188	274.38
481.406	190.38
481.624	106.38
481.843	65.38
482.061	83.38
482.28	98.38
482.498	90.38
482.717	84.38
482.935	79.38
483.153	72.38
483.372	90.38
483.59	94.38
483.808	87.38
484.027	95.38
484.245	97.38
484.463	94.38
484.681	105.38
484.9	90.38
485.118	77.38
485.336	94.38
485.554	104.38
485.772	77.38
485.99	109.38
486.209	101.38
486.427	102.38
486.645	93.38
486.863	111.38
487.081	86.38
487.299	84.38
487.517	85.38
487.735	106.38
487.953	92.38
488.171	81.38
488.389	91.38
488.607	97.38
488.825	89.38
489.043	101.38
489.261	74.38
489.479	78.38
489.696	91.38
489.914	94.38
490.132	89.38
490.35	80.38
490.568	84.38
490.786	87.38
491.003	87.38
491.221	81.38
491.439	94.38
491.657	93.38
491.874	87.38
492.092	79.38
492.31	94.38
492.527	86.38
492.745	81.38
492.963	85.38
493.18	80.38
493.398	97.38
493.615	103.38
493.833	90.38
494.05	86.38
494.268	98.38
494.485	86.38
494.703	73.38
494.92	79.38
495.138	89.38
495.355	94.38
495.573	92.38
495.79	91.38
496.008	79.38
496.225	88.38
496.442	82.38
496.66	87.38
496.877	87.38
497.094	79.38
497.312	87.38
497.529	85.38
497.746	80.38
497.963	86.38
498.181	100.38
498.398	91.38
498.615	95.38
498.832	101.38
499.049	89.38
499.267	76.38
499.484	85.38
499.701	85.38
499.918	83.38
500.135	87.38
500.352	87.38
500.569	70.38
500.786	80.38
501.003	92.38
501.22	90.38
501.437	93.38
501.654	90.38
501.871	104.38
502.088	99.38
502.305	84.38
502.522	78.38
502.739	93.38
502.956	96.38
503.172	96.38
503.389	90.38
503.606	105.38
503.823	81.38
504.04	93.38
504.256	88.38
504.473	76.38
504.69	72.38
504.907	82.38
505.123	92.38
505.34	88.38
505.557	80.38
505.773	74.38
505.99	76.38
506.207	74.38
506.423	87.38
506.64	87.38
506.856	89.38
507.073	73.38
507.289	81.38
507.506	79.38
507.722	98.38
507.939	113.38
508.155	89.38
508.372	94.38
508.588	84.38
508.805	89.38
509.021	101.38
509.238	94.38
509.454	99.38
509.67	108.38
509.887	98.38
510.103	128.38
510.319	208.38
510.536	787.38
510.752	2424.38
510.968	662.38
511.184	153.38
511.401	109.38
511.617	100.38
511.833	90.38
512.049	96.38
512.265	70.38
512.481	79.38
512.698	85.38
512.914	87.38
513.13	90.38
513.346	86.38
513.562	88.38
513.778	88.38
513.994	97.38
514.21	99.38
514.426	117.38
514.642	128.38
514.858	113.38
515.074	150.38
515.29	448.38
515.506	1450.38
515.721	524.38
515.937	142.38
516.153	96.38
516.369	86.38
516.585	93.38
516.801	86.38
517.016	95.38
