Data from Circ_1994_H10_HRD10591_00018.txt Node
Date: Wed Jan 03 11:40:34 EST 2024
User: Yrep
Spectrometer: HR+D1059
Trigger mode: 1
Integration Time (sec): 1.000000E-1
Scans to average: 1
Electric dark correction enabled: true
Nonlinearity correction enabled: false
Boxcar width: 0
XAxis mode: Wavelengths
Number of Pixels in Spectrum: 2048
>>>>>Begin Spectral Data<<<<<
223.165	-11.12
223.4	-11.12
223.635	-11.12
223.869	-28.12
224.104	-5.12
224.338	-28.12
224.573	-15.12
224.808	-2.12
225.042	-12.12
225.277	-9.12
225.511	-12.12
225.746	9.88
225.98	0.88
226.215	2.88
226.449	22.88
226.683	13.88
226.918	29.88
227.152	42.88
227.387	44.88
227.621	35.88
227.856	40.88
228.09	50.88
228.324	54.88
228.559	54.88
228.793	48.88
229.027	57.88
229.262	65.88
229.496	72.88
229.73	78.88
229.964	73.88
230.199	65.88
230.433	61.88
230.667	67.88
230.901	78.88
231.136	56.88
231.37	76.88
231.604	71.88
231.838	78.88
232.072	73.88
232.306	86.88
232.541	52.88
232.775	77.88
233.009	85.88
233.243	90.88
233.477	77.88
233.711	89.88
233.945	82.88
234.179	75.88
234.413	75.88
234.647	78.88
234.881	79.88
235.115	61.88
235.349	82.88
235.583	81.88
235.817	79.88
236.051	73.88
236.285	78.88
236.519	78.88
236.753	66.88
236.987	93.88
237.221	82.88
237.455	78.88
237.689	89.88
237.922	70.88
238.156	57.88
238.39	78.88
238.624	69.88
238.858	72.88
239.091	77.88
239.325	83.88
239.559	76.88
239.793	75.88
240.027	73.88
240.26	60.88
240.494	85.88
240.728	81.88
240.961	71.88
241.195	80.88
241.429	73.88
241.662	80.88
241.896	77.88
242.13	64.88
242.363	65.88
242.597	78.88
242.83	73.88
243.064	65.88
243.298	80.88
243.531	82.88
243.765	72.88
243.998	80.88
244.232	81.88
244.465	81.88
244.699	70.88
244.932	65.88
245.166	77.88
245.399	73.88
245.633	89.88
245.866	77.88
246.099	71.88
246.333	81.88
246.566	78.88
246.8	77.88
247.033	80.88
247.266	74.88
247.5	81.88
247.733	77.88
247.966	71.88
248.2	53.88
248.433	94.88
248.666	62.88
248.899	59.88
249.133	82.88
249.366	85.88
249.599	105.88
249.832	102.88
250.066	90.88
250.299	68.88
250.532	85.88
250.765	81.88
250.998	75.88
251.231	75.88
251.465	70.88
251.698	77.88
251.931	79.88
252.164	67.88
252.397	69.88
252.63	79.88
252.863	73.88
253.096	85.88
253.329	78.88
253.562	73.88
253.795	76.88
254.028	89.88
254.261	86.88
254.494	70.88
254.727	73.88
254.96	67.88
255.193	72.88
255.426	87.88
255.659	82.88
255.892	83.88
256.124	75.88
256.357	74.88
256.59	69.88
256.823	76.88
257.056	82.88
257.289	86.88
257.521	71.88
257.754	69.88
257.987	76.88
258.22	85.88
258.452	75.88
258.685	81.88
258.918	84.88
259.151	69.88
259.383	75.88
259.616	80.88
259.849	81.88
260.081	73.88
260.314	85.88
260.547	78.88
260.779	65.88
261.012	86.88
261.244	81.88
261.477	69.88
261.71	83.88
261.942	91.88
262.175	122.88
262.407	89.88
262.64	80.88
262.872	84.88
263.105	84.88
263.337	94.88
263.57	80.88
263.802	77.88
264.035	82.88
264.267	96.88
264.499	72.88
264.732	73.88
264.964	79.88
265.197	75.88
265.429	72.88
265.661	73.88
265.894	73.88
266.126	83.88
266.358	73.88
266.591	85.88
266.823	82.88
267.055	87.88
267.287	89.88
267.52	74.88
267.752	92.88
267.984	89.88
268.216	82.88
268.448	87.88
268.681	66.88
268.913	89.88
269.145	85.88
269.377	66.88
269.609	78.88
269.841	77.88
270.073	86.88
270.306	76.88
270.538	74.88
270.77	78.88
271.002	82.88
271.234	94.88
271.466	76.88
271.698	81.88
271.93	68.88
272.162	73.88
272.394	79.88
272.626	74.88
272.858	74.88
273.09	91.88
273.322	78.88
273.553	84.88
273.785	84.88
274.017	89.88
274.249	75.88
274.481	77.88
274.713	76.88
274.945	79.88
275.176	88.88
275.408	72.88
275.64	82.88
275.872	72.88
276.104	73.88
276.335	90.88
276.567	91.88
276.799	109.88
277.031	108.88
277.262	83.88
277.494	88.88
277.726	83.88
277.957	88.88
278.189	85.88
278.421	91.88
278.652	93.88
278.884	98.88
279.115	75.88
279.347	74.88
279.579	69.88
279.81	94.88
280.042	89.88
280.273	87.88
280.505	97.88
280.736	79.88
280.968	89.88
281.199	76.88
281.431	91.88
281.662	80.88
281.894	87.88
282.125	94.88
282.356	126.88
282.588	136.88
282.819	113.88
283.051	88.88
283.282	97.88
283.513	86.88
283.745	83.88
283.976	77.88
284.207	78.88
284.439	81.88
284.67	85.88
284.901	100.88
285.132	101.88
285.364	82.88
285.595	75.88
285.826	78.88
286.057	81.88
286.288	92.88
286.52	91.88
286.751	79.88
286.982	74.88
287.213	85.88
287.444	87.88
287.675	69.88
287.906	96.88
288.138	83.88
288.369	99.88
288.6	100.88
288.831	87.88
289.062	80.88
289.293	81.88
289.524	80.88
289.755	75.88
289.986	79.88
290.217	85.88
290.448	98.88
290.679	88.88
290.91	92.88
291.141	74.88
291.371	73.88
291.602	89.88
291.833	86.88
292.064	88.88
292.295	80.88
292.526	89.88
292.757	79.88
292.987	81.88
293.218	83.88
293.449	89.88
293.68	74.88
293.91	82.88
294.141	90.88
294.372	73.88
294.603	81.88
294.833	83.88
295.064	81.88
295.295	77.88
295.525	90.88
295.756	103.88
295.987	102.88
296.217	125.88
296.448	131.88
296.679	96.88
296.909	71.88
297.14	93.88
297.37	76.88
297.601	78.88
297.831	90.88
298.062	89.88
298.292	87.88
298.523	80.88
298.753	93.88
298.984	89.88
299.214	76.88
299.445	78.88
299.675	83.88
299.905	85.88
300.136	94.88
300.366	90.88
300.597	87.88
300.827	83.88
301.057	105.88
301.288	99.88
301.518	91.88
301.748	77.88
301.979	90.88
302.209	87.88
302.439	92.88
302.669	89.88
302.9	83.88
303.13	82.88
303.36	94.88
303.59	91.88
303.82	104.88
304.051	94.88
304.281	85.88
304.511	66.88
304.741	86.88
304.971	79.88
305.201	75.88
305.431	87.88
305.661	102.88
305.891	87.88
306.121	103.88
306.352	95.88
306.582	102.88
306.812	90.88
307.042	90.88
307.272	68.88
307.502	103.88
307.731	93.88
307.961	94.88
308.191	84.88
308.421	76.88
308.651	66.88
308.881	89.88
309.111	90.88
309.341	78.88
309.571	91.88
309.8	94.88
310.03	98.88
310.26	90.88
310.49	91.88
310.72	88.88
310.949	89.88
311.179	102.88
311.409	89.88
311.639	79.88
311.868	95.88
312.098	88.88
312.328	87.88
312.557	106.88
312.787	100.88
313.017	102.88
313.246	87.88
313.476	85.88
313.706	86.88
313.935	76.88
314.165	98.88
314.394	108.88
314.624	101.88
314.853	96.88
315.083	92.88
315.312	74.88
315.542	81.88
315.771	89.88
316.001	80.88
316.23	87.88
316.46	89.88
316.689	85.88
316.919	86.88
317.148	93.88
317.377	81.88
317.607	107.88
317.836	85.88
318.065	87.88
318.295	90.88
318.524	98.88
318.753	78.88
318.983	92.88
319.212	93.88
319.441	103.88
319.67	105.88
319.9	88.88
320.129	105.88
320.358	92.88
320.587	89.88
320.816	99.88
321.046	80.88
321.275	99.88
321.504	97.88
321.733	85.88
321.962	93.88
322.191	93.88
322.42	95.88
322.649	98.88
322.878	122.88
323.108	99.88
323.337	111.88
323.566	125.88
323.795	168.88
324.024	192.88
324.253	330.88
324.482	805.88
324.71	1645.88
324.939	2077.88
325.168	779.88
325.397	223.88
325.626	153.88
325.855	117.88
326.084	127.88
326.313	127.88
326.542	140.88
326.77	202.88
326.999	433.88
327.228	890.88
327.457	1641.88
327.686	1263.88
327.914	347.88
328.143	193.88
328.372	140.88
328.6	128.88
328.829	111.88
329.058	113.88
329.287	120.88
329.515	104.88
329.744	105.88
329.972	85.88
330.201	115.88
330.43	137.88
330.658	105.88
330.887	131.88
331.115	120.88
331.344	86.88
331.572	94.88
331.801	93.88
332.03	99.88
332.258	95.88
332.486	99.88
332.715	90.88
332.943	93.88
333.172	89.88
333.4	96.88
333.629	106.88
333.857	115.88
334.085	104.88
334.314	93.88
334.542	111.88
334.771	120.88
334.999	106.88
335.227	97.88
335.455	90.88
335.684	90.88
335.912	103.88
336.14	109.88
336.369	93.88
336.597	80.88
336.825	106.88
337.053	80.88
337.281	90.88
337.51	80.88
337.738	87.88
337.966	98.88
338.194	97.88
338.422	95.88
338.65	91.88
338.878	87.88
339.106	85.88
339.334	91.88
339.562	97.88
339.79	94.88
340.018	77.88
340.246	90.88
340.474	96.88
340.702	89.88
340.93	88.88
341.158	95.88
341.386	99.88
341.614	100.88
341.842	82.88
342.07	86.88
342.298	86.88
342.526	87.88
342.754	106.88
342.981	85.88
343.209	89.88
343.437	86.88
343.665	86.88
343.893	88.88
344.12	90.88
344.348	82.88
344.576	99.88
344.804	90.88
345.031	81.88
345.259	91.88
345.487	93.88
345.714	95.88
345.942	95.88
346.17	94.88
346.397	84.88
346.625	95.88
346.853	94.88
347.08	89.88
347.308	78.88
347.535	95.88
347.763	92.88
347.99	86.88
348.218	93.88
348.445	106.88
348.673	96.88
348.9	89.88
349.128	91.88
349.355	96.88
349.583	85.88
349.81	87.88
350.037	97.88
350.265	97.88
350.492	91.88
350.72	86.88
350.947	102.88
351.174	97.88
351.402	108.88
351.629	109.88
351.856	91.88
352.083	98.88
352.311	92.88
352.538	103.88
352.765	113.88
352.992	101.88
353.22	125.88
353.447	93.88
353.674	94.88
353.901	99.88
354.128	108.88
354.355	91.88
354.583	90.88
354.81	94.88
355.037	87.88
355.264	97.88
355.491	96.88
355.718	95.88
355.945	95.88
356.172	91.88
356.399	105.88
356.626	104.88
356.853	95.88
357.08	87.88
357.307	65.88
357.534	88.88
357.761	87.88
357.988	110.88
358.215	78.88
358.441	94.88
358.668	101.88
358.895	88.88
359.122	84.88
359.349	87.88
359.576	101.88
359.802	101.88
360.029	105.88
360.256	103.88
360.483	106.88
360.709	98.88
360.936	95.88
361.163	99.88
361.39	89.88
361.616	103.88
361.843	96.88
362.07	105.88
362.296	92.88
362.523	88.88
362.749	80.88
362.976	73.88
363.203	96.88
363.429	79.88
363.656	85.88
363.882	87.88
364.109	90.88
364.335	88.88
364.562	86.88
364.788	91.88
365.015	92.88
365.241	92.88
365.468	97.88
365.694	96.88
365.92	94.88
366.147	82.88
366.373	74.88
366.599	97.88
366.826	85.88
367.052	88.88
367.278	83.88
367.505	102.88
367.731	97.88
367.957	101.88
368.184	86.88
368.41	79.88
368.636	96.88
368.862	108.88
369.089	96.88
369.315	85.88
369.541	91.88
369.767	75.88
369.993	96.88
370.219	91.88
370.445	85.88
370.672	66.88
370.898	80.88
371.124	89.88
371.35	85.88
371.576	74.88
371.802	89.88
372.028	79.88
372.254	92.88
372.48	102.88
372.706	86.88
372.932	99.88
373.158	89.88
373.384	88.88
373.61	95.88
373.835	91.88
374.061	84.88
374.287	86.88
374.513	94.88
374.739	81.88
374.965	86.88
375.191	77.88
375.416	89.88
375.642	73.88
375.868	89.88
376.094	86.88
376.319	88.88
376.545	87.88
376.771	90.88
376.997	96.88
377.222	94.88
377.448	83.88
377.674	87.88
377.899	85.88
378.125	78.88
378.35	88.88
378.576	91.88
378.802	91.88
379.027	91.88
379.253	89.88
379.478	99.88
379.704	91.88
379.929	95.88
380.155	87.88
380.38	83.88
380.606	86.88
380.831	90.88
381.057	96.88
381.282	97.88
381.507	94.88
381.733	88.88
381.958	101.88
382.184	100.88
382.409	103.88
382.634	102.88
382.86	95.88
383.085	81.88
383.31	94.88
383.535	105.88
383.761	98.88
383.986	101.88
384.211	107.88
384.436	106.88
384.662	82.88
384.887	107.88
385.112	97.88
385.337	113.88
385.562	97.88
385.787	94.88
386.013	101.88
386.238	104.88
386.463	95.88
386.688	96.88
386.913	99.88
387.138	93.88
387.363	104.88
387.588	100.88
387.813	101.88
388.038	107.88
388.263	114.88
388.488	95.88
388.713	99.88
388.938	76.88
389.163	105.88
389.387	115.88
389.612	97.88
389.837	99.88
390.062	73.88
390.287	81.88
390.512	93.88
390.736	97.88
390.961	80.88
391.186	88.88
391.411	96.88
391.636	88.88
391.86	86.88
392.085	90.88
392.31	85.88
392.534	73.88
392.759	81.88
392.984	65.88
393.208	80.88
393.433	88.88
393.658	74.88
393.882	82.88
394.107	96.88
394.331	71.88
394.556	80.88
394.78	82.88
395.005	86.88
395.229	96.88
395.454	81.88
395.678	85.88
395.903	92.88
396.127	89.88
396.352	83.88
396.576	85.88
396.801	77.88
397.025	69.88
397.249	91.88
397.474	88.88
397.698	104.88
397.922	72.88
398.147	82.88
398.371	71.88
398.595	75.88
398.82	86.88
399.044	91.88
399.268	79.88
399.492	66.88
399.717	87.88
399.941	97.88
400.165	101.88
400.389	94.88
400.613	85.88
400.837	78.88
401.062	70.88
401.286	102.88
401.51	84.88
401.734	84.88
401.958	105.88
402.182	125.88
402.406	149.88
402.63	107.88
402.854	95.88
403.078	100.88
403.302	94.88
403.526	92.88
403.75	80.88
403.974	85.88
404.198	86.88
404.422	79.88
404.645	89.88
404.869	85.88
405.093	81.88
405.317	91.88
405.541	104.88
405.765	108.88
405.988	117.88
406.212	161.88
406.436	217.88
406.66	128.88
406.883	93.88
407.107	92.88
407.331	97.88
407.555	100.88
407.778	92.88
408.002	86.88
408.226	93.88
408.449	77.88
408.673	86.88
408.896	93.88
409.12	96.88
409.344	93.88
409.567	78.88
409.791	94.88
410.014	85.88
410.238	86.88
410.461	85.88
410.685	107.88
410.908	78.88
411.132	103.88
411.355	92.88
411.578	92.88
411.802	79.88
412.025	96.88
412.249	90.88
412.472	99.88
412.695	99.88
412.919	80.88
413.142	83.88
413.365	84.88
413.589	77.88
413.812	91.88
414.035	90.88
414.258	70.88
414.482	98.88
414.705	75.88
414.928	82.88
415.151	85.88
415.374	94.88
415.597	83.88
415.821	94.88
416.044	71.88
416.267	92.88
416.49	79.88
416.713	74.88
416.936	93.88
417.159	93.88
417.382	87.88
417.605	90.88
417.828	95.88
418.051	84.88
418.274	73.88
418.497	72.88
418.72	75.88
418.943	75.88
419.166	99.88
419.389	91.88
419.611	80.88
419.834	75.88
420.057	80.88
420.28	86.88
420.503	87.88
420.726	77.88
420.948	81.88
421.171	73.88
421.394	84.88
421.617	87.88
421.839	78.88
422.062	83.88
422.285	95.88
422.507	89.88
422.73	96.88
422.953	92.88
423.175	75.88
423.398	83.88
423.621	75.88
423.843	82.88
424.066	79.88
424.288	84.88
424.511	83.88
424.733	89.88
424.956	94.88
425.178	99.88
425.401	119.88
425.623	88.88
425.846	78.88
426.068	81.88
426.291	83.88
426.513	82.88
426.735	94.88
426.958	75.88
427.18	112.88
427.402	130.88
427.625	155.88
427.847	117.88
428.069	94.88
428.292	85.88
428.514	91.88
428.736	83.88
428.958	78.88
429.181	83.88
429.403	76.88
429.625	74.88
429.847	90.88
430.069	93.88
430.292	89.88
430.514	90.88
430.736	101.88
430.958	87.88
431.18	67.88
431.402	77.88
431.624	89.88
431.846	83.88
432.068	62.88
432.29	89.88
432.512	73.88
432.734	85.88
432.956	103.88
433.178	97.88
433.4	109.88
433.622	82.88
433.844	95.88
434.066	102.88
434.287	86.88
434.509	86.88
434.731	90.88
434.953	82.88
435.175	79.88
435.397	97.88
435.618	104.88
435.84	98.88
436.062	115.88
436.284	101.88
436.505	97.88
436.727	99.88
436.949	91.88
437.17	96.88
437.392	80.88
437.614	82.88
437.835	79.88
438.057	113.88
438.278	98.88
438.5	93.88
438.721	131.88
438.943	105.88
439.165	80.88
439.386	68.88
439.608	94.88
439.829	102.88
440.05	121.88
440.272	141.88
440.493	87.88
440.715	82.88
440.936	84.88
441.158	83.88
441.379	86.88
441.6	94.88
441.822	90.88
442.043	87.88
442.264	94.88
442.486	93.88
442.707	104.88
442.928	105.88
443.149	131.88
443.371	116.88
443.592	101.88
443.813	108.88
444.034	98.88
444.255	93.88
444.476	78.88
444.698	75.88
444.919	104.88
445.14	125.88
445.361	117.88
445.582	119.88
445.803	132.88
446.024	125.88
446.245	117.88
446.466	106.88
446.687	86.88
446.908	81.88
447.129	92.88
447.35	83.88
447.571	76.88
447.792	88.88
448.013	93.88
448.234	101.88
448.455	91.88
448.675	102.88
448.896	121.88
449.117	101.88
449.338	94.88
449.559	112.88
449.779	123.88
450	89.88
450.221	80.88
450.442	85.88
450.662	97.88
450.883	99.88
451.104	107.88
451.324	87.88
451.545	88.88
451.766	75.88
451.986	92.88
452.207	93.88
452.428	85.88
452.648	87.88
452.869	122.88
453.089	106.88
453.31	110.88
453.53	90.88
453.751	76.88
453.971	84.88
454.192	102.88
454.412	101.88
454.633	91.88
454.853	97.88
455.073	88.88
455.294	83.88
455.514	79.88
455.734	87.88
455.955	89.88
456.175	80.88
456.395	91.88
456.616	82.88
456.836	89.88
457.056	79.88
457.276	77.88
457.497	61.88
457.717	83.88
457.937	85.88
458.157	81.88
458.377	89.88
458.598	90.88
458.818	141.88
459.038	155.88
459.258	107.88
459.478	79.88
459.698	77.88
459.918	90.88
460.138	95.88
460.358	90.88
460.578	75.88
460.798	93.88
461.018	72.88
461.238	85.88
461.458	72.88
461.678	85.88
461.898	97.88
462.118	76.88
462.338	79.88
462.558	95.88
462.777	84.88
462.997	90.88
463.217	80.88
463.437	73.88
463.657	85.88
463.876	78.88
464.096	87.88
464.316	97.88
464.536	87.88
464.755	89.88
464.975	110.88
465.195	161.88
465.414	154.88
465.634	107.88
465.854	88.88
466.073	87.88
466.293	90.88
466.512	90.88
466.732	84.88
466.951	101.88
467.171	96.88
467.391	88.88
467.61	93.88
467.829	105.88
468.049	90.88
468.268	90.88
468.488	95.88
468.707	83.88
468.927	67.88
469.146	89.88
469.365	84.88
469.585	85.88
469.804	93.88
470.023	86.88
470.243	88.88
470.462	85.88
470.681	93.88
470.901	80.88
471.12	77.88
471.339	80.88
471.558	89.88
471.777	81.88
471.997	96.88
472.216	106.88
472.435	125.88
472.654	89.88
472.873	77.88
473.092	80.88
473.311	71.88
473.53	99.88
473.749	82.88
473.968	87.88
474.187	91.88
474.406	102.88
474.625	89.88
474.844	87.88
475.063	94.88
475.282	89.88
475.501	76.88
475.72	95.88
475.939	95.88
476.158	96.88
476.377	77.88
476.596	76.88
476.814	82.88
477.033	96.88
477.252	95.88
477.471	82.88
477.69	90.88
477.908	85.88
478.127	85.88
478.346	82.88
478.564	89.88
478.783	80.88
479.002	83.88
479.22	87.88
479.439	90.88
479.658	87.88
479.876	97.88
480.095	88.88
480.313	80.88
480.532	88.88
480.751	96.88
480.969	105.88
481.188	170.88
481.406	119.88
481.624	89.88
481.843	82.88
482.061	82.88
482.28	94.88
482.498	73.88
482.717	101.88
482.935	96.88
483.153	89.88
483.372	90.88
483.59	87.88
483.808	92.88
484.027	79.88
484.245	98.88
484.463	107.88
484.681	94.88
484.9	91.88
485.118	96.88
485.336	86.88
485.554	98.88
485.772	98.88
485.99	110.88
486.209	104.88
486.427	129.88
486.645	107.88
486.863	102.88
487.081	104.88
487.299	80.88
487.517	83.88
487.735	86.88
487.953	98.88
488.171	96.88
488.389	86.88
488.607	101.88
488.825	98.88
489.043	75.88
489.261	84.88
489.479	85.88
489.696	91.88
489.914	90.88
490.132	79.88
490.35	100.88
490.568	103.88
490.786	97.88
491.003	89.88
491.221	82.88
491.439	77.88
491.657	85.88
491.874	83.88
492.092	106.88
492.31	85.88
492.527	87.88
492.745	98.88
492.963	93.88
493.18	82.88
493.398	94.88
493.615	90.88
493.833	91.88
494.05	82.88
494.268	96.88
494.485	83.88
494.703	81.88
494.92	85.88
495.138	85.88
495.355	82.88
495.573	82.88
495.79	76.88
496.008	87.88
496.225	91.88
496.442	82.88
496.66	93.88
496.877	95.88
497.094	90.88
497.312	81.88
497.529	91.88
497.746	91.88
497.963	84.88
498.181	107.88
498.398	99.88
498.615	107.88
498.832	98.88
499.049	80.88
499.267	69.88
499.484	107.88
499.701	85.88
499.918	89.88
500.135	87.88
500.352	91.88
500.569	77.88
500.786	93.88
501.003	92.88
501.22	93.88
501.437	91.88
501.654	107.88
501.871	92.88
502.088	94.88
502.305	94.88
502.522	98.88
502.739	78.88
502.956	89.88
503.172	85.88
503.389	88.88
503.606	99.88
503.823	90.88
504.04	76.88
504.256	98.88
504.473	75.88
504.69	88.88
504.907	99.88
505.123	93.88
505.34	101.88
505.557	88.88
505.773	94.88
505.99	98.88
506.207	92.88
506.423	91.88
506.64	81.88
506.856	73.88
507.073	80.88
507.289	85.88
507.506	108.88
507.722	102.88
507.939	113.88
508.155	92.88
508.372	81.88
508.588	88.88
508.805	86.88
509.021	78.88
509.238	103.88
509.454	94.88
509.67	105.88
509.887	106.88
510.103	133.88
510.319	209.88
510.536	763.88
510.752	2322.88
510.968	639.88
511.184	148.88
511.401	121.88
511.617	97.88
511.833	80.88
512.049	106.88
512.265	101.88
512.481	81.88
512.698	87.88
512.914	74.88
513.13	97.88
513.346	87.88
513.562	91.88
513.778	101.88
513.994	103.88
514.21	101.88
514.426	109.88
514.642	131.88
514.858	113.88
515.074	159.88
515.29	439.88
515.506	1392.88
515.721	494.88
515.937	151.88
516.153	96.88
516.369	94.88
516.585	103.88
