Data from Circ_1994_H10_HRD10591_00074.txt Node
Date: Wed Jan 03 11:40:45 EST 2024
User: Yrep
Spectrometer: HR+D1059
Trigger mode: 1
Integration Time (sec): 1.000000E-1
Scans to average: 1
Electric dark correction enabled: true
Nonlinearity correction enabled: false
Boxcar width: 0
XAxis mode: Wavelengths
Number of Pixels in Spectrum: 2048
>>>>>Begin Spectral Data<<<<<
223.165	-9.94
223.4	-9.94
223.635	-9.94
223.869	-21.94
224.104	-10.94
224.338	-31.94
224.573	-9.94
224.808	-2.94
225.042	-13.94
225.277	-17.94
225.511	-0.94
225.746	-1.94
225.98	15.06
226.215	22.06
226.449	20.06
226.683	23.06
226.918	22.06
227.152	20.06
227.387	30.06
227.621	33.06
227.856	39.06
228.09	38.06
228.324	56.06
228.559	41.06
228.793	61.06
229.027	57.06
229.262	69.06
229.496	76.06
229.73	94.06
229.964	74.06
230.199	74.06
230.433	77.06
230.667	65.06
230.901	80.06
231.136	83.06
231.37	67.06
231.604	83.06
231.838	100.06
232.072	65.06
232.306	71.06
232.541	94.06
232.775	84.06
233.009	73.06
233.243	81.06
233.477	72.06
233.711	90.06
233.945	77.06
234.179	87.06
234.413	77.06
234.647	78.06
234.881	78.06
235.115	71.06
235.349	90.06
235.583	78.06
235.817	85.06
236.051	82.06
236.285	65.06
236.519	80.06
236.753	75.06
236.987	67.06
237.221	77.06
237.455	69.06
237.689	78.06
237.922	73.06
238.156	62.06
238.39	82.06
238.624	80.06
238.858	91.06
239.091	88.06
239.325	82.06
239.559	70.06
239.793	58.06
240.027	84.06
240.26	80.06
240.494	85.06
240.728	80.06
240.961	66.06
241.195	80.06
241.429	59.06
241.662	72.06
241.896	75.06
242.13	95.06
242.363	82.06
242.597	74.06
242.83	70.06
243.064	58.06
243.298	74.06
243.531	69.06
243.765	70.06
243.998	86.06
244.232	78.06
244.465	74.06
244.699	83.06
244.932	77.06
245.166	80.06
245.399	81.06
245.633	94.06
245.866	74.06
246.099	63.06
246.333	83.06
246.566	91.06
246.8	74.06
247.033	79.06
247.266	84.06
247.5	61.06
247.733	64.06
247.966	83.06
248.2	88.06
248.433	75.06
248.666	79.06
248.899	77.06
249.133	86.06
249.366	104.06
249.599	98.06
249.832	80.06
250.066	80.06
250.299	74.06
250.532	84.06
250.765	73.06
250.998	67.06
251.231	76.06
251.465	76.06
251.698	78.06
251.931	89.06
252.164	79.06
252.397	78.06
252.63	75.06
252.863	74.06
253.096	85.06
253.329	79.06
253.562	90.06
253.795	71.06
254.028	91.06
254.261	74.06
254.494	83.06
254.727	93.06
254.96	84.06
255.193	81.06
255.426	94.06
255.659	65.06
255.892	70.06
256.124	77.06
256.357	71.06
256.59	75.06
256.823	90.06
257.056	75.06
257.289	89.06
257.521	72.06
257.754	96.06
257.987	71.06
258.22	93.06
258.452	82.06
258.685	66.06
258.918	83.06
259.151	88.06
259.383	86.06
259.616	87.06
259.849	80.06
260.081	83.06
260.314	80.06
260.547	59.06
260.779	77.06
261.012	99.06
261.244	95.06
261.477	85.06
261.71	77.06
261.942	102.06
262.175	115.06
262.407	71.06
262.64	83.06
262.872	74.06
263.105	86.06
263.337	76.06
263.57	86.06
263.802	85.06
264.035	78.06
264.267	72.06
264.499	80.06
264.732	98.06
264.964	96.06
265.197	91.06
265.429	81.06
265.661	63.06
265.894	76.06
266.126	82.06
266.358	70.06
266.591	86.06
266.823	77.06
267.055	84.06
267.287	88.06
267.52	83.06
267.752	87.06
267.984	88.06
268.216	81.06
268.448	76.06
268.681	80.06
268.913	87.06
269.145	77.06
269.377	76.06
269.609	66.06
269.841	91.06
270.073	75.06
270.306	81.06
270.538	75.06
270.77	74.06
271.002	82.06
271.234	92.06
271.466	83.06
271.698	71.06
271.93	76.06
272.162	83.06
272.394	75.06
272.626	85.06
272.858	76.06
273.09	93.06
273.322	80.06
273.553	97.06
273.785	83.06
274.017	75.06
274.249	84.06
274.481	87.06
274.713	82.06
274.945	89.06
275.176	80.06
275.408	82.06
275.64	88.06
275.872	81.06
276.104	95.06
276.335	86.06
276.567	96.06
276.799	103.06
277.031	92.06
277.262	85.06
277.494	86.06
277.726	80.06
277.957	86.06
278.189	83.06
278.421	67.06
278.652	97.06
278.884	86.06
279.115	88.06
279.347	75.06
279.579	87.06
279.81	80.06
280.042	86.06
280.273	95.06
280.505	84.06
280.736	90.06
280.968	83.06
281.199	87.06
281.431	75.06
281.662	79.06
281.894	87.06
282.125	105.06
282.356	116.06
282.588	113.06
282.819	107.06
283.051	83.06
283.282	99.06
283.513	80.06
283.745	96.06
283.976	82.06
284.207	75.06
284.439	81.06
284.67	98.06
284.901	88.06
285.132	78.06
285.364	77.06
285.595	88.06
285.826	78.06
286.057	81.06
286.288	87.06
286.52	93.06
286.751	76.06
286.982	78.06
287.213	100.06
287.444	89.06
287.675	106.06
287.906	95.06
288.138	76.06
288.369	88.06
288.6	106.06
288.831	79.06
289.062	97.06
289.293	83.06
289.524	95.06
289.755	86.06
289.986	91.06
290.217	82.06
290.448	82.06
290.679	80.06
290.91	95.06
291.141	91.06
291.371	86.06
291.602	85.06
291.833	80.06
292.064	82.06
292.295	89.06
292.526	66.06
292.757	92.06
292.987	83.06
293.218	80.06
293.449	83.06
293.68	97.06
293.91	89.06
294.141	95.06
294.372	84.06
294.603	91.06
294.833	88.06
295.064	103.06
295.295	82.06
295.525	81.06
295.756	92.06
295.987	110.06
296.217	123.06
296.448	115.06
296.679	74.06
296.909	84.06
297.14	74.06
297.37	94.06
297.601	80.06
297.831	99.06
298.062	90.06
298.292	83.06
298.523	92.06
298.753	84.06
298.984	95.06
299.214	83.06
299.445	78.06
299.675	80.06
299.905	105.06
300.136	90.06
300.366	88.06
300.597	89.06
300.827	92.06
301.057	99.06
301.288	106.06
301.518	108.06
301.748	98.06
301.979	106.06
302.209	95.06
302.439	88.06
302.669	95.06
302.9	75.06
303.13	92.06
303.36	90.06
303.59	110.06
303.82	90.06
304.051	94.06
304.281	87.06
304.511	88.06
304.741	81.06
304.971	84.06
305.201	86.06
305.431	87.06
305.661	77.06
305.891	79.06
306.121	97.06
306.352	91.06
306.582	110.06
306.812	74.06
307.042	102.06
307.272	90.06
307.502	108.06
307.731	93.06
307.961	90.06
308.191	84.06
308.421	90.06
308.651	83.06
308.881	85.06
309.111	100.06
309.341	92.06
309.571	100.06
309.8	99.06
310.03	103.06
310.26	99.06
310.49	84.06
310.72	100.06
310.949	98.06
311.179	105.06
311.409	87.06
311.639	94.06
311.868	94.06
312.098	84.06
312.328	92.06
312.557	102.06
312.787	98.06
313.017	118.06
313.246	88.06
313.476	88.06
313.706	84.06
313.935	111.06
314.165	103.06
314.394	103.06
314.624	89.06
314.853	87.06
315.083	90.06
315.312	96.06
315.542	89.06
315.771	90.06
316.001	97.06
316.23	92.06
316.46	84.06
316.689	103.06
316.919	82.06
317.148	67.06
317.377	106.06
317.607	107.06
317.836	101.06
318.065	89.06
318.295	99.06
318.524	77.06
318.753	85.06
318.983	87.06
319.212	99.06
319.441	94.06
319.67	110.06
319.9	87.06
320.129	102.06
320.358	90.06
320.587	81.06
320.816	88.06
321.046	90.06
321.275	101.06
321.504	101.06
321.733	86.06
321.962	88.06
322.191	107.06
322.42	90.06
322.649	101.06
322.878	118.06
323.108	111.06
323.337	120.06
323.566	118.06
323.795	133.06
324.024	178.06
324.253	342.06
324.482	718.06
324.71	1490.06
324.939	1896.06
325.168	700.06
325.397	218.06
325.626	131.06
325.855	128.06
326.084	124.06
326.313	140.06
326.542	128.06
326.77	203.06
326.999	428.06
327.228	854.06
327.457	1522.06
327.686	1195.06
327.914	339.06
328.143	187.06
328.372	168.06
328.6	133.06
328.829	118.06
329.058	127.06
329.287	122.06
329.515	116.06
329.744	103.06
329.972	113.06
330.201	149.06
330.43	178.06
330.658	119.06
330.887	129.06
331.115	109.06
331.344	96.06
331.572	97.06
331.801	84.06
332.03	97.06
332.258	94.06
332.486	92.06
332.715	90.06
332.943	105.06
333.172	86.06
333.4	98.06
333.629	100.06
333.857	111.06
334.085	115.06
334.314	151.06
334.542	231.06
334.771	211.06
334.999	125.06
335.227	92.06
335.455	92.06
335.684	97.06
335.912	94.06
336.14	104.06
336.369	97.06
336.597	98.06
336.825	84.06
337.053	86.06
337.281	85.06
337.51	105.06
337.738	84.06
337.966	75.06
338.194	98.06
338.422	108.06
338.65	99.06
338.878	97.06
339.106	93.06
339.334	92.06
339.562	89.06
339.79	105.06
340.018	94.06
340.246	94.06
340.474	73.06
340.702	98.06
340.93	94.06
341.158	91.06
341.386	89.06
341.614	91.06
341.842	84.06
342.07	97.06
342.298	97.06
342.526	101.06
342.754	96.06
342.981	85.06
343.209	82.06
343.437	100.06
343.665	86.06
343.893	97.06
344.12	106.06
344.348	88.06
344.576	102.06
344.804	87.06
345.031	78.06
345.259	95.06
345.487	108.06
345.714	100.06
345.942	90.06
346.17	84.06
346.397	88.06
346.625	83.06
346.853	87.06
347.08	87.06
347.308	91.06
347.535	96.06
347.763	91.06
347.99	88.06
348.218	97.06
348.445	106.06
348.673	91.06
348.9	94.06
349.128	94.06
349.355	93.06
349.583	80.06
349.81	95.06
350.037	96.06
350.265	98.06
350.492	105.06
350.72	100.06
350.947	94.06
351.174	99.06
351.402	104.06
351.629	96.06
351.856	102.06
352.083	108.06
352.311	100.06
352.538	90.06
352.765	108.06
352.992	108.06
353.22	113.06
353.447	95.06
353.674	109.06
353.901	87.06
354.128	77.06
354.355	74.06
354.583	85.06
354.81	94.06
355.037	97.06
355.264	100.06
355.491	108.06
355.718	100.06
355.945	92.06
356.172	96.06
356.399	90.06
356.626	91.06
356.853	104.06
357.08	99.06
357.307	87.06
357.534	96.06
357.761	97.06
357.988	87.06
358.215	94.06
358.441	78.06
358.668	70.06
358.895	78.06
359.122	83.06
359.349	86.06
359.576	98.06
359.802	84.06
360.029	103.06
360.256	106.06
360.483	95.06
360.709	84.06
360.936	91.06
361.163	96.06
361.39	96.06
361.616	87.06
361.843	92.06
362.07	85.06
362.296	89.06
362.523	97.06
362.749	86.06
362.976	85.06
363.203	102.06
363.429	81.06
363.656	82.06
363.882	92.06
364.109	96.06
364.335	95.06
364.562	102.06
364.788	88.06
365.015	101.06
365.241	102.06
365.468	101.06
365.694	108.06
365.92	90.06
366.147	89.06
366.373	77.06
366.599	84.06
366.826	76.06
367.052	83.06
367.278	99.06
367.505	82.06
367.731	87.06
367.957	90.06
368.184	94.06
368.41	109.06
368.636	94.06
368.862	114.06
369.089	99.06
369.315	95.06
369.541	109.06
369.767	91.06
369.993	83.06
370.219	97.06
370.445	67.06
370.672	80.06
370.898	74.06
371.124	70.06
371.35	87.06
371.576	83.06
371.802	86.06
372.028	89.06
372.254	94.06
372.48	74.06
372.706	89.06
372.932	91.06
373.158	91.06
373.384	82.06
373.61	88.06
373.835	82.06
374.061	83.06
374.287	72.06
374.513	88.06
374.739	95.06
374.965	70.06
375.191	81.06
375.416	95.06
375.642	86.06
375.868	84.06
376.094	93.06
376.319	71.06
376.545	80.06
376.771	76.06
376.997	90.06
377.222	81.06
377.448	87.06
377.674	82.06
377.899	91.06
378.125	83.06
378.35	90.06
378.576	77.06
378.802	76.06
379.027	85.06
379.253	106.06
379.478	91.06
379.704	91.06
379.929	80.06
380.155	74.06
380.38	81.06
380.606	108.06
380.831	82.06
381.057	89.06
381.282	83.06
381.507	91.06
381.733	98.06
381.958	93.06
382.184	82.06
382.409	84.06
382.634	97.06
382.86	82.06
383.085	96.06
383.31	91.06
383.535	94.06
383.761	103.06
383.986	103.06
384.211	105.06
384.436	97.06
384.662	79.06
384.887	107.06
385.112	99.06
385.337	96.06
385.562	89.06
385.787	92.06
386.013	105.06
386.238	104.06
386.463	105.06
386.688	108.06
386.913	98.06
387.138	97.06
387.363	91.06
387.588	88.06
387.813	83.06
388.038	88.06
388.263	108.06
388.488	100.06
388.713	88.06
388.938	92.06
389.163	84.06
389.387	91.06
389.612	107.06
389.837	96.06
390.062	95.06
390.287	89.06
390.512	92.06
390.736	93.06
390.961	88.06
391.186	101.06
391.411	93.06
391.636	84.06
391.86	75.06
392.085	87.06
392.31	90.06
392.534	104.06
392.759	86.06
392.984	77.06
393.208	81.06
393.433	90.06
393.658	93.06
393.882	96.06
394.107	82.06
394.331	84.06
394.556	94.06
394.78	90.06
395.005	93.06
395.229	93.06
395.454	85.06
395.678	78.06
395.903	77.06
396.127	86.06
396.352	79.06
396.576	75.06
396.801	80.06
397.025	88.06
397.249	72.06
397.474	92.06
397.698	104.06
397.922	90.06
398.147	78.06
398.371	80.06
398.595	83.06
398.82	86.06
399.044	91.06
399.268	73.06
399.492	83.06
399.717	91.06
399.941	89.06
400.165	79.06
400.389	83.06
400.613	90.06
400.837	82.06
401.062	88.06
401.286	81.06
401.51	91.06
401.734	75.06
401.958	106.06
402.182	138.06
402.406	135.06
402.63	110.06
402.854	93.06
403.078	92.06
403.302	95.06
403.526	97.06
403.75	95.06
403.974	73.06
404.198	82.06
404.422	75.06
404.645	85.06
404.869	88.06
405.093	83.06
405.317	92.06
405.541	107.06
405.765	98.06
405.988	100.06
406.212	146.06
406.436	187.06
406.66	130.06
406.883	104.06
407.107	91.06
407.331	67.06
407.555	90.06
407.778	98.06
408.002	101.06
408.226	86.06
408.449	91.06
408.673	89.06
408.896	91.06
409.12	85.06
409.344	99.06
409.567	91.06
409.791	84.06
410.014	97.06
410.238	102.06
410.461	98.06
410.685	104.06
410.908	99.06
411.132	100.06
411.355	96.06
411.578	87.06
411.802	94.06
412.025	100.06
412.249	84.06
412.472	91.06
412.695	83.06
412.919	91.06
413.142	97.06
413.365	93.06
413.589	90.06
413.812	77.06
414.035	95.06
414.258	94.06
414.482	89.06
414.705	92.06
414.928	95.06
415.151	89.06
415.374	98.06
415.597	94.06
415.821	84.06
416.044	110.06
416.267	88.06
416.49	78.06
416.713	84.06
416.936	77.06
417.159	84.06
417.382	81.06
417.605	89.06
417.828	87.06
418.051	92.06
418.274	100.06
418.497	75.06
418.72	85.06
418.943	97.06
419.166	76.06
419.389	81.06
419.611	90.06
419.834	82.06
420.057	88.06
420.28	72.06
420.503	98.06
420.726	85.06
420.948	81.06
421.171	88.06
421.394	94.06
421.617	74.06
421.839	91.06
422.062	95.06
422.285	91.06
422.507	78.06
422.73	104.06
422.953	99.06
423.175	84.06
423.398	87.06
423.621	85.06
423.843	92.06
424.066	70.06
424.288	87.06
424.511	94.06
424.733	87.06
424.956	92.06
425.178	88.06
425.401	100.06
425.623	90.06
425.846	73.06
426.068	81.06
426.291	79.06
426.513	82.06
426.735	91.06
426.958	97.06
427.18	95.06
427.402	125.06
427.625	134.06
427.847	126.06
428.069	112.06
428.292	88.06
428.514	95.06
428.736	80.06
428.958	82.06
429.181	80.06
429.403	92.06
429.625	99.06
429.847	92.06
430.069	99.06
430.292	94.06
430.514	89.06
430.736	85.06
430.958	86.06
431.18	86.06
431.402	79.06
431.624	83.06
431.846	83.06
432.068	86.06
432.29	99.06
432.512	82.06
432.734	81.06
432.956	83.06
433.178	90.06
433.4	104.06
433.622	90.06
433.844	92.06
434.066	79.06
434.287	82.06
434.509	100.06
434.731	100.06
434.953	90.06
435.175	90.06
435.397	88.06
435.618	94.06
435.84	88.06
436.062	112.06
436.284	100.06
436.505	83.06
436.727	92.06
436.949	94.06
437.17	88.06
437.392	92.06
437.614	80.06
437.835	112.06
438.057	96.06
438.278	111.06
438.5	96.06
438.721	120.06
438.943	87.06
439.165	77.06
439.386	99.06
439.608	106.06
439.829	87.06
440.05	108.06
440.272	125.06
440.493	96.06
440.715	100.06
440.936	81.06
441.158	78.06
441.379	80.06
441.6	86.06
441.822	98.06
442.043	94.06
442.264	97.06
442.486	103.06
442.707	95.06
442.928	102.06
443.149	123.06
443.371	127.06
443.592	104.06
443.813	92.06
444.034	81.06
444.255	89.06
444.476	87.06
444.698	94.06
444.919	78.06
445.14	111.06
445.361	124.06
445.582	106.06
445.803	134.06
446.024	114.06
446.245	124.06
446.466	94.06
446.687	94.06
446.908	86.06
447.129	77.06
447.35	80.06
447.571	92.06
447.792	75.06
448.013	85.06
448.234	94.06
448.455	91.06
448.675	93.06
448.896	87.06
449.117	81.06
449.338	102.06
449.559	107.06
449.779	131.06
450	73.06
450.221	85.06
450.442	72.06
450.662	90.06
450.883	98.06
451.104	88.06
451.324	82.06
451.545	72.06
451.766	80.06
451.986	63.06
452.207	104.06
452.428	91.06
452.648	94.06
452.869	99.06
453.089	102.06
453.31	104.06
453.53	81.06
453.751	72.06
453.971	88.06
454.192	95.06
454.412	87.06
454.633	82.06
454.853	96.06
455.073	84.06
455.294	97.06
455.514	100.06
455.734	80.06
455.955	85.06
456.175	70.06
456.395	89.06
456.616	76.06
456.836	96.06
457.056	79.06
457.276	81.06
457.497	90.06
457.717	85.06
457.937	86.06
458.157	84.06
458.377	79.06
458.598	95.06
458.818	128.06
459.038	143.06
459.258	98.06
459.478	72.06
459.698	91.06
459.918	87.06
460.138	87.06
460.358	91.06
460.578	91.06
460.798	103.06
461.018	74.06
461.238	87.06
461.458	83.06
461.678	75.06
461.898	77.06
462.118	74.06
462.338	79.06
462.558	76.06
462.777	90.06
462.997	72.06
463.217	84.06
463.437	78.06
463.657	93.06
463.876	82.06
464.096	98.06
464.316	98.06
464.536	90.06
464.755	97.06
464.975	98.06
465.195	136.06
465.414	139.06
465.634	95.06
465.854	72.06
466.073	89.06
466.293	89.06
466.512	90.06
466.732	78.06
466.951	75.06
467.171	103.06
467.391	88.06
467.61	112.06
467.829	113.06
468.049	115.06
468.268	119.06
468.488	71.06
468.707	97.06
468.927	88.06
469.146	97.06
469.365	77.06
469.585	96.06
469.804	99.06
470.023	97.06
470.243	104.06
470.462	98.06
470.681	104.06
470.901	92.06
471.12	97.06
471.339	82.06
471.558	91.06
471.777	90.06
471.997	103.06
472.216	170.06
472.435	252.06
472.654	120.06
472.873	90.06
473.092	96.06
473.311	93.06
473.53	79.06
473.749	82.06
473.968	88.06
474.187	94.06
474.406	82.06
474.625	82.06
474.844	83.06
475.063	79.06
475.282	86.06
475.501	81.06
475.72	68.06
475.939	75.06
476.158	80.06
476.377	85.06
476.596	86.06
476.814	100.06
477.033	95.06
477.252	72.06
477.471	94.06
477.69	93.06
477.908	82.06
478.127	80.06
478.346	76.06
478.564	82.06
478.783	87.06
479.002	97.06
479.22	94.06
479.439	92.06
479.658	90.06
479.876	84.06
480.095	82.06
480.313	106.06
480.532	81.06
480.751	118.06
480.969	170.06
481.188	410.06
481.406	249.06
481.624	112.06
481.843	94.06
482.061	79.06
482.28	90.06
482.498	77.06
482.717	78.06
482.935	89.06
483.153	83.06
483.372	90.06
483.59	85.06
483.808	82.06
484.027	104.06
484.245	93.06
484.463	90.06
484.681	88.06
484.9	82.06
485.118	95.06
485.336	75.06
485.554	94.06
485.772	92.06
485.99	90.06
486.209	110.06
486.427	112.06
486.645	96.06
486.863	97.06
487.081	100.06
487.299	91.06
487.517	92.06
487.735	99.06
487.953	99.06
488.171	97.06
488.389	98.06
488.607	94.06
488.825	99.06
489.043	89.06
489.261	87.06
489.479	84.06
489.696	81.06
489.914	82.06
490.132	95.06
490.35	90.06
490.568	78.06
490.786	90.06
491.003	99.06
491.221	90.06
491.439	84.06
491.657	97.06
491.874	99.06
492.092	93.06
492.31	92.06
492.527	91.06
492.745	92.06
492.963	95.06
493.18	72.06
493.398	95.06
493.615	106.06
493.833	103.06
494.05	82.06
494.268	86.06
494.485	83.06
494.703	93.06
494.92	69.06
495.138	78.06
495.355	85.06
495.573	92.06
495.79	81.06
496.008	86.06
496.225	83.06
496.442	81.06
496.66	88.06
496.877	95.06
497.094	85.06
497.312	99.06
497.529	88.06
497.746	90.06
497.963	85.06
498.181	93.06
498.398	103.06
498.615	90.06
498.832	102.06
499.049	93.06
499.267	88.06
499.484	79.06
499.701	92.06
499.918	102.06
500.135	84.06
500.352	94.06
500.569	94.06
500.786	90.06
501.003	87.06
501.22	97.06
501.437	80.06
501.654	98.06
501.871	101.06
502.088	93.06
502.305	78.06
502.522	94.06
502.739	88.06
502.956	79.06
503.172	89.06
503.389	98.06
503.606	110.06
503.823	87.06
504.04	107.06
504.256	90.06
504.473	83.06
504.69	98.06
504.907	80.06
505.123	89.06
505.34	87.06
505.557	95.06
505.773	79.06
505.99	81.06
506.207	87.06
506.423	90.06
506.64	90.06
506.856	79.06
507.073	95.06
507.289	79.06
507.506	98.06
507.722	106.06
507.939	95.06
508.155	104.06
508.372	81.06
508.588	95.06
508.805	102.06
509.021	96.06
509.238	78.06
509.454	95.06
509.67	104.06
509.887	107.06
510.103	111.06
510.319	190.06
510.536	714.06
510.752	2182.06
510.968	606.06
511.184	138.06
511.401	104.06
511.617	105.06
511.833	72.06
512.049	77.06
512.265	102.06
512.481	99.06
512.698	92.06
512.914	84.06
513.13	94.06
513.346	94.06
513.562	93.06
513.778	95.06
513.994	99.06
514.21	92.06
514.426	104.06
514.642	114.06
514.858	104.06
515.074	149.06
515.29	400.06
515.506	1256.06
515.721	474.06
515.937	156.06
516.153	90.06
516.369	107.06
516.585	89.06
