Data from Circ_1994_H10_HRD10591_00082.txt Node
Date: Wed Jan 03 11:40:46 EST 2024
User: Yrep
Spectrometer: HR+D1059
Trigger mode: 1
Integration Time (sec): 1.000000E-1
Scans to average: 1
Electric dark correction enabled: true
Nonlinearity correction enabled: false
Boxcar width: 0
XAxis mode: Wavelengths
Number of Pixels in Spectrum: 2048
>>>>>Begin Spectral Data<<<<<
223.165	-3.38
223.4	-3.38
223.635	-3.38
223.869	-26.38
224.104	-25.38
224.338	-0.38
224.573	-9.38
224.808	-17.38
225.042	-9.38
225.277	-8.38
225.511	-11.38
225.746	14.62
225.98	12.62
226.215	7.62
226.449	10.62
226.683	26.62
226.918	14.62
227.152	24.62
227.387	36.62
227.621	41.62
227.856	57.62
228.09	59.62
228.324	57.62
228.559	61.62
228.793	50.62
229.027	67.62
229.262	68.62
229.496	86.62
229.73	81.62
229.964	78.62
230.199	64.62
230.433	79.62
230.667	96.62
230.901	80.62
231.136	78.62
231.37	83.62
231.604	83.62
231.838	80.62
232.072	78.62
232.306	98.62
232.541	79.62
232.775	88.62
233.009	73.62
233.243	71.62
233.477	77.62
233.711	78.62
233.945	73.62
234.179	95.62
234.413	94.62
234.647	93.62
234.881	92.62
235.115	81.62
235.349	88.62
235.583	82.62
235.817	67.62
236.051	85.62
236.285	73.62
236.519	80.62
236.753	69.62
236.987	84.62
237.221	96.62
237.455	95.62
237.689	76.62
237.922	89.62
238.156	91.62
238.39	92.62
238.624	82.62
238.858	81.62
239.091	87.62
239.325	86.62
239.559	71.62
239.793	85.62
240.027	88.62
240.26	78.62
240.494	78.62
240.728	86.62
240.961	79.62
241.195	90.62
241.429	69.62
241.662	86.62
241.896	81.62
242.13	87.62
242.363	98.62
242.597	82.62
242.83	84.62
243.064	88.62
243.298	71.62
243.531	64.62
243.765	87.62
243.998	88.62
244.232	89.62
244.465	94.62
244.699	83.62
244.932	76.62
245.166	78.62
245.399	92.62
245.633	98.62
245.866	68.62
246.099	71.62
246.333	89.62
246.566	90.62
246.8	87.62
247.033	92.62
247.266	77.62
247.5	95.62
247.733	92.62
247.966	92.62
248.2	89.62
248.433	73.62
248.666	88.62
248.899	90.62
249.133	92.62
249.366	94.62
249.599	95.62
249.832	107.62
250.066	90.62
250.299	86.62
250.532	86.62
250.765	89.62
250.998	76.62
251.231	81.62
251.465	71.62
251.698	82.62
251.931	86.62
252.164	93.62
252.397	89.62
252.63	88.62
252.863	69.62
253.096	85.62
253.329	77.62
253.562	93.62
253.795	75.62
254.028	97.62
254.261	87.62
254.494	74.62
254.727	90.62
254.96	92.62
255.193	96.62
255.426	81.62
255.659	84.62
255.892	79.62
256.124	88.62
256.357	89.62
256.59	92.62
256.823	88.62
257.056	92.62
257.289	82.62
257.521	84.62
257.754	81.62
257.987	84.62
258.22	97.62
258.452	82.62
258.685	94.62
258.918	80.62
259.151	83.62
259.383	94.62
259.616	67.62
259.849	86.62
260.081	92.62
260.314	95.62
260.547	80.62
260.779	97.62
261.012	90.62
261.244	84.62
261.477	84.62
261.71	98.62
261.942	123.62
262.175	122.62
262.407	94.62
262.64	99.62
262.872	80.62
263.105	88.62
263.337	100.62
263.57	90.62
263.802	78.62
264.035	84.62
264.267	80.62
264.499	82.62
264.732	88.62
264.964	90.62
265.197	104.62
265.429	78.62
265.661	109.62
265.894	93.62
266.126	101.62
266.358	95.62
266.591	97.62
266.823	86.62
267.055	87.62
267.287	93.62
267.52	78.62
267.752	72.62
267.984	78.62
268.216	76.62
268.448	79.62
268.681	99.62
268.913	80.62
269.145	88.62
269.377	91.62
269.609	81.62
269.841	96.62
270.073	86.62
270.306	86.62
270.538	88.62
270.77	92.62
271.002	89.62
271.234	90.62
271.466	83.62
271.698	74.62
271.93	80.62
272.162	82.62
272.394	87.62
272.626	86.62
272.858	96.62
273.09	111.62
273.322	89.62
273.553	77.62
273.785	85.62
274.017	78.62
274.249	96.62
274.481	85.62
274.713	88.62
274.945	89.62
275.176	86.62
275.408	91.62
275.64	90.62
275.872	94.62
276.104	88.62
276.335	87.62
276.567	104.62
276.799	117.62
277.031	108.62
277.262	98.62
277.494	98.62
277.726	89.62
277.957	88.62
278.189	99.62
278.421	96.62
278.652	86.62
278.884	82.62
279.115	88.62
279.347	77.62
279.579	92.62
279.81	92.62
280.042	94.62
280.273	107.62
280.505	90.62
280.736	85.62
280.968	92.62
281.199	78.62
281.431	82.62
281.662	100.62
281.894	95.62
282.125	100.62
282.356	114.62
282.588	140.62
282.819	117.62
283.051	92.62
283.282	98.62
283.513	94.62
283.745	84.62
283.976	91.62
284.207	92.62
284.439	89.62
284.67	82.62
284.901	82.62
285.132	97.62
285.364	89.62
285.595	89.62
285.826	92.62
286.057	84.62
286.288	89.62
286.52	95.62
286.751	100.62
286.982	81.62
287.213	95.62
287.444	95.62
287.675	86.62
287.906	95.62
288.138	89.62
288.369	94.62
288.6	96.62
288.831	105.62
289.062	105.62
289.293	81.62
289.524	82.62
289.755	103.62
289.986	108.62
290.217	93.62
290.448	97.62
290.679	92.62
290.91	91.62
291.141	90.62
291.371	97.62
291.602	76.62
291.833	86.62
292.064	92.62
292.295	84.62
292.526	83.62
292.757	89.62
292.987	101.62
293.218	98.62
293.449	87.62
293.68	83.62
293.91	93.62
294.141	83.62
294.372	113.62
294.603	105.62
294.833	94.62
295.064	102.62
295.295	92.62
295.525	115.62
295.756	118.62
295.987	128.62
296.217	143.62
296.448	123.62
296.679	90.62
296.909	92.62
297.14	104.62
297.37	84.62
297.601	109.62
297.831	96.62
298.062	94.62
298.292	101.62
298.523	100.62
298.753	87.62
298.984	83.62
299.214	75.62
299.445	98.62
299.675	92.62
299.905	82.62
300.136	95.62
300.366	91.62
300.597	81.62
300.827	100.62
301.057	97.62
301.288	106.62
301.518	98.62
301.748	102.62
301.979	106.62
302.209	81.62
302.439	104.62
302.669	89.62
302.9	98.62
303.13	96.62
303.36	94.62
303.59	99.62
303.82	98.62
304.051	81.62
304.281	84.62
304.511	87.62
304.741	92.62
304.971	97.62
305.201	106.62
305.431	98.62
305.661	81.62
305.891	96.62
306.121	94.62
306.352	105.62
306.582	110.62
306.812	97.62
307.042	105.62
307.272	105.62
307.502	119.62
307.731	105.62
307.961	102.62
308.191	89.62
308.421	104.62
308.651	96.62
308.881	90.62
309.111	104.62
309.341	97.62
309.571	110.62
309.8	98.62
310.03	110.62
310.26	109.62
310.49	116.62
310.72	110.62
310.949	93.62
311.179	90.62
311.409	92.62
311.639	105.62
311.868	93.62
312.098	95.62
312.328	102.62
312.557	100.62
312.787	102.62
313.017	101.62
313.246	108.62
313.476	89.62
313.706	92.62
313.935	107.62
314.165	107.62
314.394	96.62
314.624	97.62
314.853	86.62
315.083	92.62
315.312	90.62
315.542	97.62
315.771	103.62
316.001	97.62
316.23	73.62
316.46	87.62
316.689	106.62
316.919	112.62
317.148	94.62
317.377	106.62
317.607	108.62
317.836	90.62
318.065	74.62
318.295	103.62
318.524	104.62
318.753	88.62
318.983	112.62
319.212	106.62
319.441	110.62
319.67	111.62
319.9	94.62
320.129	112.62
320.358	102.62
320.587	107.62
320.816	100.62
321.046	89.62
321.275	110.62
321.504	95.62
321.733	105.62
321.962	117.62
322.191	104.62
322.42	100.62
322.649	96.62
322.878	115.62
323.108	120.62
323.337	136.62
323.566	119.62
323.795	151.62
324.024	184.62
324.253	367.62
324.482	785.62
324.71	1605.62
324.939	2104.62
325.168	758.62
325.397	230.62
325.626	146.62
325.855	121.62
326.084	125.62
326.313	129.62
326.542	161.62
326.77	212.62
326.999	443.62
327.228	878.62
327.457	1624.62
327.686	1257.62
327.914	360.62
328.143	193.62
328.372	178.62
328.6	146.62
328.829	127.62
329.058	138.62
329.287	146.62
329.515	109.62
329.744	114.62
329.972	120.62
330.201	175.62
330.43	194.62
330.658	152.62
330.887	152.62
331.115	128.62
331.344	114.62
331.572	98.62
331.801	106.62
332.03	110.62
332.258	90.62
332.486	100.62
332.715	91.62
332.943	106.62
333.172	108.62
333.4	94.62
333.629	100.62
333.857	123.62
334.085	132.62
334.314	182.62
334.542	247.62
334.771	221.62
334.999	127.62
335.227	104.62
335.455	96.62
335.684	117.62
335.912	113.62
336.14	113.62
336.369	105.62
336.597	106.62
336.825	107.62
337.053	105.62
337.281	114.62
337.51	108.62
337.738	103.62
337.966	92.62
338.194	83.62
338.422	84.62
338.65	99.62
338.878	99.62
339.106	97.62
339.334	93.62
339.562	98.62
339.79	96.62
340.018	96.62
340.246	84.62
340.474	101.62
340.702	106.62
340.93	102.62
341.158	101.62
341.386	103.62
341.614	114.62
341.842	88.62
342.07	78.62
342.298	93.62
342.526	100.62
342.754	94.62
342.981	95.62
343.209	82.62
343.437	95.62
343.665	92.62
343.893	95.62
344.12	97.62
344.348	98.62
344.576	93.62
344.804	95.62
345.031	98.62
345.259	106.62
345.487	103.62
345.714	116.62
345.942	104.62
346.17	98.62
346.397	87.62
346.625	102.62
346.853	88.62
347.08	88.62
347.308	105.62
347.535	100.62
347.763	94.62
347.99	97.62
348.218	102.62
348.445	82.62
348.673	91.62
348.9	86.62
349.128	102.62
349.355	98.62
349.583	103.62
349.81	97.62
350.037	102.62
350.265	102.62
350.492	87.62
350.72	104.62
350.947	104.62
351.174	98.62
351.402	109.62
351.629	100.62
351.856	92.62
352.083	109.62
352.311	111.62
352.538	99.62
352.765	104.62
352.992	114.62
353.22	121.62
353.447	99.62
353.674	102.62
353.901	113.62
354.128	101.62
354.355	105.62
354.583	101.62
354.81	95.62
355.037	113.62
355.264	101.62
355.491	105.62
355.718	87.62
355.945	96.62
356.172	104.62
356.399	105.62
356.626	106.62
356.853	89.62
357.08	87.62
357.307	105.62
357.534	93.62
357.761	98.62
357.988	100.62
358.215	101.62
358.441	95.62
358.668	101.62
358.895	89.62
359.122	89.62
359.349	92.62
359.576	96.62
359.802	105.62
360.029	105.62
360.256	117.62
360.483	98.62
360.709	93.62
360.936	102.62
361.163	84.62
361.39	95.62
361.616	108.62
361.843	99.62
362.07	94.62
362.296	105.62
362.523	99.62
362.749	91.62
362.976	102.62
363.203	105.62
363.429	89.62
363.656	97.62
363.882	106.62
364.109	94.62
364.335	100.62
364.562	103.62
364.788	100.62
365.015	97.62
365.241	98.62
365.468	101.62
365.694	103.62
365.92	103.62
366.147	85.62
366.373	94.62
366.599	101.62
366.826	90.62
367.052	114.62
367.278	92.62
367.505	82.62
367.731	94.62
367.957	83.62
368.184	90.62
368.41	86.62
368.636	122.62
368.862	126.62
369.089	101.62
369.315	96.62
369.541	84.62
369.767	110.62
369.993	93.62
370.219	82.62
370.445	94.62
370.672	105.62
370.898	108.62
371.124	86.62
371.35	88.62
371.576	94.62
371.802	104.62
372.028	88.62
372.254	94.62
372.48	84.62
372.706	93.62
372.932	94.62
373.158	86.62
373.384	100.62
373.61	94.62
373.835	95.62
374.061	99.62
374.287	89.62
374.513	107.62
374.739	78.62
374.965	94.62
375.191	90.62
375.416	97.62
375.642	99.62
375.868	88.62
376.094	88.62
376.319	85.62
376.545	89.62
376.771	87.62
376.997	81.62
377.222	91.62
377.448	94.62
377.674	104.62
377.899	108.62
378.125	86.62
378.35	91.62
378.576	92.62
378.802	70.62
379.027	88.62
379.253	93.62
379.478	107.62
379.704	93.62
379.929	99.62
380.155	103.62
380.38	96.62
380.606	92.62
380.831	97.62
381.057	108.62
381.282	85.62
381.507	95.62
381.733	92.62
381.958	93.62
382.184	89.62
382.409	102.62
382.634	104.62
382.86	97.62
383.085	107.62
383.31	98.62
383.535	92.62
383.761	95.62
383.986	103.62
384.211	107.62
384.436	87.62
384.662	101.62
384.887	89.62
385.112	103.62
385.337	104.62
385.562	126.62
385.787	102.62
386.013	104.62
386.238	100.62
386.463	109.62
386.688	100.62
386.913	103.62
387.138	110.62
387.363	106.62
387.588	104.62
387.813	121.62
388.038	111.62
388.263	97.62
388.488	103.62
388.713	100.62
388.938	101.62
389.163	89.62
389.387	87.62
389.612	86.62
389.837	96.62
390.062	106.62
390.287	85.62
390.512	88.62
390.736	73.62
390.961	94.62
391.186	89.62
391.411	98.62
391.636	92.62
391.86	95.62
392.085	87.62
392.31	99.62
392.534	90.62
392.759	89.62
392.984	88.62
393.208	89.62
393.433	91.62
393.658	101.62
393.882	88.62
394.107	87.62
394.331	79.62
394.556	104.62
394.78	90.62
395.005	101.62
395.229	98.62
395.454	96.62
395.678	84.62
395.903	87.62
396.127	85.62
396.352	78.62
396.576	97.62
396.801	95.62
397.025	96.62
397.249	90.62
397.474	111.62
397.698	100.62
397.922	97.62
398.147	95.62
398.371	83.62
398.595	88.62
398.82	70.62
399.044	89.62
399.268	80.62
399.492	89.62
399.717	112.62
399.941	88.62
400.165	91.62
400.389	84.62
400.613	98.62
400.837	110.62
401.062	87.62
401.286	102.62
401.51	95.62
401.734	96.62
401.958	101.62
402.182	114.62
402.406	156.62
402.63	103.62
402.854	92.62
403.078	95.62
403.302	85.62
403.526	87.62
403.75	100.62
403.974	99.62
404.198	98.62
404.422	83.62
404.645	90.62
404.869	103.62
405.093	94.62
405.317	93.62
405.541	100.62
405.765	96.62
405.988	105.62
406.212	154.62
406.436	216.62
406.66	127.62
406.883	98.62
407.107	87.62
407.331	94.62
407.555	85.62
407.778	111.62
408.002	96.62
408.226	86.62
408.449	86.62
408.673	86.62
408.896	100.62
409.12	100.62
409.344	91.62
409.567	92.62
409.791	98.62
410.014	102.62
410.238	98.62
410.461	91.62
410.685	104.62
410.908	106.62
411.132	113.62
411.355	98.62
411.578	97.62
411.802	98.62
412.025	87.62
412.249	87.62
412.472	98.62
412.695	106.62
412.919	84.62
413.142	99.62
413.365	93.62
413.589	97.62
413.812	99.62
414.035	92.62
414.258	99.62
414.482	81.62
414.705	87.62
414.928	96.62
415.151	98.62
415.374	90.62
415.597	72.62
415.821	86.62
416.044	87.62
416.267	99.62
416.49	95.62
416.713	92.62
416.936	84.62
417.159	94.62
417.382	93.62
417.605	95.62
417.828	100.62
418.051	97.62
418.274	96.62
418.497	77.62
418.72	92.62
418.943	94.62
419.166	84.62
419.389	94.62
419.611	82.62
419.834	88.62
420.057	99.62
420.28	97.62
420.503	92.62
420.726	95.62
420.948	101.62
421.171	88.62
421.394	105.62
421.617	85.62
421.839	101.62
422.062	92.62
422.285	92.62
422.507	97.62
422.73	124.62
422.953	92.62
423.175	92.62
423.398	91.62
423.621	90.62
423.843	96.62
424.066	83.62
424.288	82.62
424.511	94.62
424.733	88.62
424.956	105.62
425.178	107.62
425.401	106.62
425.623	100.62
425.846	95.62
426.068	105.62
426.291	85.62
426.513	91.62
426.735	94.62
426.958	97.62
427.18	111.62
427.402	132.62
427.625	161.62
427.847	152.62
428.069	118.62
428.292	95.62
428.514	87.62
428.736	96.62
428.958	84.62
429.181	89.62
429.403	94.62
429.625	90.62
429.847	95.62
430.069	112.62
430.292	113.62
430.514	110.62
430.736	100.62
430.958	81.62
431.18	79.62
431.402	78.62
431.624	74.62
431.846	79.62
432.068	92.62
432.29	87.62
432.512	74.62
432.734	93.62
432.956	94.62
433.178	103.62
433.4	87.62
433.622	93.62
433.844	96.62
434.066	95.62
434.287	100.62
434.509	99.62
434.731	84.62
434.953	88.62
435.175	89.62
435.397	95.62
435.618	103.62
435.84	92.62
436.062	122.62
436.284	122.62
436.505	99.62
436.727	112.62
436.949	94.62
437.17	91.62
437.392	93.62
437.614	89.62
437.835	114.62
438.057	114.62
438.278	104.62
438.5	96.62
438.721	119.62
438.943	101.62
439.165	88.62
439.386	100.62
439.608	103.62
439.829	107.62
440.05	116.62
440.272	144.62
440.493	99.62
440.715	88.62
440.936	96.62
441.158	92.62
441.379	88.62
441.6	88.62
441.822	85.62
442.043	95.62
442.264	106.62
442.486	112.62
442.707	114.62
442.928	109.62
443.149	135.62
443.371	120.62
443.592	122.62
443.813	118.62
444.034	119.62
444.255	98.62
444.476	77.62
444.698	81.62
444.919	90.62
445.14	143.62
445.361	137.62
445.582	110.62
445.803	142.62
446.024	144.62
446.245	145.62
446.466	101.62
446.687	82.62
446.908	87.62
447.129	88.62
447.35	93.62
447.571	99.62
447.792	95.62
448.013	110.62
448.234	105.62
448.455	114.62
448.675	98.62
448.896	106.62
449.117	103.62
449.338	116.62
449.559	121.62
449.779	123.62
450	93.62
450.221	83.62
450.442	81.62
450.662	105.62
450.883	106.62
451.104	106.62
451.324	99.62
451.545	93.62
451.766	110.62
451.986	93.62
452.207	93.62
452.428	97.62
452.648	101.62
452.869	111.62
453.089	113.62
453.31	128.62
453.53	114.62
453.751	104.62
453.971	101.62
454.192	113.62
454.412	97.62
454.633	86.62
454.853	84.62
455.073	96.62
455.294	85.62
455.514	109.62
455.734	110.62
455.955	95.62
456.175	95.62
456.395	94.62
456.616	85.62
456.836	72.62
457.056	100.62
457.276	101.62
457.497	99.62
457.717	85.62
457.937	86.62
458.157	80.62
458.377	92.62
458.598	114.62
458.818	147.62
459.038	170.62
459.258	112.62
459.478	87.62
459.698	91.62
459.918	102.62
460.138	104.62
460.358	79.62
460.578	91.62
460.798	89.62
461.018	82.62
461.238	105.62
461.458	94.62
461.678	88.62
461.898	95.62
462.118	79.62
462.338	93.62
462.558	78.62
462.777	84.62
462.997	95.62
463.217	92.62
463.437	84.62
463.657	87.62
463.876	100.62
464.096	95.62
464.316	96.62
464.536	110.62
464.755	94.62
464.975	93.62
465.195	167.62
465.414	160.62
465.634	94.62
465.854	80.62
466.073	97.62
466.293	90.62
466.512	98.62
466.732	96.62
466.951	95.62
467.171	105.62
467.391	101.62
467.61	104.62
467.829	98.62
468.049	111.62
468.268	147.62
468.488	103.62
468.707	93.62
468.927	98.62
469.146	86.62
469.365	95.62
469.585	91.62
469.804	86.62
470.023	101.62
470.243	99.62
470.462	108.62
470.681	112.62
470.901	99.62
471.12	80.62
471.339	92.62
471.558	87.62
471.777	94.62
471.997	109.62
472.216	173.62
472.435	286.62
472.654	123.62
472.873	94.62
473.092	93.62
473.311	97.62
473.53	82.62
473.749	100.62
473.968	93.62
474.187	104.62
474.406	105.62
474.625	83.62
474.844	82.62
475.063	89.62
475.282	73.62
475.501	80.62
475.72	84.62
475.939	89.62
476.158	89.62
476.377	97.62
476.596	96.62
476.814	95.62
477.033	84.62
477.252	93.62
477.471	93.62
477.69	95.62
477.908	101.62
478.127	93.62
478.346	94.62
478.564	79.62
478.783	104.62
479.002	102.62
479.22	94.62
479.439	95.62
479.658	115.62
479.876	95.62
480.095	102.62
480.313	98.62
480.532	94.62
480.751	112.62
480.969	190.62
481.188	484.62
481.406	296.62
481.624	108.62
481.843	101.62
482.061	104.62
482.28	75.62
482.498	96.62
482.717	102.62
482.935	101.62
483.153	95.62
483.372	85.62
483.59	94.62
483.808	96.62
484.027	104.62
484.245	96.62
484.463	102.62
484.681	100.62
484.9	102.62
485.118	95.62
485.336	93.62
485.554	91.62
485.772	120.62
485.99	107.62
486.209	106.62
486.427	106.62
486.645	108.62
486.863	110.62
487.081	92.62
487.299	92.62
487.517	100.62
487.735	92.62
487.953	106.62
488.171	111.62
488.389	106.62
488.607	102.62
488.825	109.62
489.043	90.62
489.261	87.62
489.479	91.62
489.696	94.62
489.914	94.62
490.132	90.62
490.35	87.62
490.568	97.62
490.786	79.62
491.003	81.62
491.221	93.62
491.439	97.62
491.657	102.62
491.874	88.62
492.092	94.62
492.31	92.62
492.527	80.62
492.745	100.62
492.963	90.62
493.18	80.62
493.398	92.62
493.615	102.62
493.833	100.62
494.05	85.62
494.268	92.62
494.485	103.62
494.703	93.62
494.92	101.62
495.138	84.62
495.355	101.62
495.573	82.62
495.79	101.62
496.008	96.62
496.225	87.62
496.442	104.62
496.66	92.62
496.877	85.62
497.094	89.62
497.312	97.62
497.529	81.62
497.746	96.62
497.963	92.62
498.181	83.62
498.398	99.62
498.615	112.62
498.832	109.62
499.049	95.62
499.267	101.62
499.484	104.62
499.701	86.62
499.918	107.62
500.135	88.62
500.352	100.62
500.569	90.62
500.786	111.62
501.003	98.62
501.22	101.62
501.437	99.62
501.654	84.62
501.871	120.62
502.088	107.62
502.305	103.62
502.522	102.62
502.739	94.62
502.956	88.62
503.172	94.62
503.389	89.62
503.606	119.62
503.823	101.62
504.04	101.62
504.256	86.62
504.473	112.62
504.69	85.62
504.907	105.62
505.123	95.62
505.34	89.62
505.557	105.62
505.773	98.62
505.99	94.62
506.207	88.62
506.423	93.62
506.64	100.62
506.856	94.62
507.073	93.62
507.289	93.62
507.506	99.62
507.722	113.62
507.939	113.62
508.155	110.62
508.372	117.62
508.588	92.62
508.805	106.62
509.021	98.62
509.238	110.62
509.454	91.62
509.67	112.62
509.887	114.62
510.103	130.62
510.319	202.62
510.536	740.62
510.752	2353.62
510.968	652.62
511.184	158.62
511.401	108.62
511.617	110.62
511.833	81.62
512.049	87.62
512.265	94.62
512.481	82.62
512.698	100.62
512.914	100.62
513.13	99.62
513.346	97.62
513.562	97.62
513.778	80.62
