Data from Circ_1994_H10_HRD10591_00031.txt Node
Date: Wed Jan 03 11:40:36 EST 2024
User: Yrep
Spectrometer: HR+D1059
Trigger mode: 1
Integration Time (sec): 1.000000E-1
Scans to average: 1
Electric dark correction enabled: true
Nonlinearity correction enabled: false
Boxcar width: 0
XAxis mode: Wavelengths
Number of Pixels in Spectrum: 2048
>>>>>Begin Spectral Data<<<<<
223.165	-23.31
223.4	-23.31
223.635	-23.31
223.869	-20.31
224.104	-17.31
224.338	-19.31
224.573	-8.31
224.808	-14.31
225.042	-2.31
225.277	-4.31
225.511	-4.31
225.746	8.69
225.98	11.69
226.215	17.69
226.449	15.69
226.683	18.69
226.918	22.69
227.152	18.69
227.387	22.69
227.621	25.69
227.856	51.69
228.09	43.69
228.324	53.69
228.559	48.69
228.793	63.69
229.027	57.69
229.262	52.69
229.496	76.69
229.73	74.69
229.964	75.69
230.199	62.69
230.433	69.69
230.667	70.69
230.901	79.69
231.136	71.69
231.37	86.69
231.604	74.69
231.838	70.69
232.072	70.69
232.306	72.69
232.541	77.69
232.775	80.69
233.009	82.69
233.243	81.69
233.477	77.69
233.711	90.69
233.945	61.69
234.179	82.69
234.413	68.69
234.647	62.69
234.881	74.69
235.115	67.69
235.349	74.69
235.583	93.69
235.817	65.69
236.051	67.69
236.285	77.69
236.519	55.69
236.753	61.69
236.987	70.69
237.221	79.69
237.455	65.69
237.689	72.69
237.922	78.69
238.156	82.69
238.39	76.69
238.624	75.69
238.858	80.69
239.091	78.69
239.325	79.69
239.559	75.69
239.793	78.69
240.027	77.69
240.26	55.69
240.494	82.69
240.728	61.69
240.961	74.69
241.195	78.69
241.429	85.69
241.662	88.69
241.896	68.69
242.13	75.69
242.363	75.69
242.597	71.69
242.83	69.69
243.064	71.69
243.298	72.69
243.531	80.69
243.765	82.69
243.998	66.69
244.232	89.69
244.465	78.69
244.699	70.69
244.932	74.69
245.166	85.69
245.399	83.69
245.633	80.69
245.866	67.69
246.099	92.69
246.333	76.69
246.566	65.69
246.8	82.69
247.033	75.69
247.266	78.69
247.5	75.69
247.733	87.69
247.966	73.69
248.2	76.69
248.433	68.69
248.666	70.69
248.899	67.69
249.133	73.69
249.366	93.69
249.599	80.69
249.832	90.69
250.066	88.69
250.299	57.69
250.532	93.69
250.765	76.69
250.998	70.69
251.231	74.69
251.465	66.69
251.698	72.69
251.931	81.69
252.164	91.69
252.397	85.69
252.63	76.69
252.863	65.69
253.096	88.69
253.329	92.69
253.562	83.69
253.795	89.69
254.028	87.69
254.261	80.69
254.494	73.69
254.727	99.69
254.96	74.69
255.193	84.69
255.426	80.69
255.659	83.69
255.892	79.69
256.124	87.69
256.357	78.69
256.59	82.69
256.823	58.69
257.056	68.69
257.289	84.69
257.521	81.69
257.754	83.69
257.987	68.69
258.22	90.69
258.452	86.69
258.685	68.69
258.918	76.69
259.151	72.69
259.383	76.69
259.616	82.69
259.849	83.69
260.081	71.69
260.314	81.69
260.547	88.69
260.779	75.69
261.012	79.69
261.244	79.69
261.477	96.69
261.71	94.69
261.942	107.69
262.175	108.69
262.407	91.69
262.64	89.69
262.872	89.69
263.105	90.69
263.337	83.69
263.57	71.69
263.802	87.69
264.035	89.69
264.267	87.69
264.499	80.69
264.732	84.69
264.964	81.69
265.197	76.69
265.429	91.69
265.661	75.69
265.894	80.69
266.126	77.69
266.358	61.69
266.591	81.69
266.823	74.69
267.055	85.69
267.287	86.69
267.52	76.69
267.752	87.69
267.984	82.69
268.216	70.69
268.448	78.69
268.681	82.69
268.913	85.69
269.145	79.69
269.377	87.69
269.609	73.69
269.841	86.69
270.073	82.69
270.306	76.69
270.538	71.69
270.77	82.69
271.002	86.69
271.234	83.69
271.466	80.69
271.698	72.69
271.93	81.69
272.162	90.69
272.394	83.69
272.626	74.69
272.858	68.69
273.09	76.69
273.322	89.69
273.553	79.69
273.785	87.69
274.017	92.69
274.249	71.69
274.481	87.69
274.713	76.69
274.945	66.69
275.176	71.69
275.408	89.69
275.64	79.69
275.872	87.69
276.104	86.69
276.335	89.69
276.567	82.69
276.799	94.69
277.031	76.69
277.262	81.69
277.494	82.69
277.726	68.69
277.957	90.69
278.189	90.69
278.421	92.69
278.652	82.69
278.884	83.69
279.115	88.69
279.347	85.69
279.579	86.69
279.81	77.69
280.042	83.69
280.273	89.69
280.505	75.69
280.736	86.69
280.968	86.69
281.199	92.69
281.431	80.69
281.662	83.69
281.894	82.69
282.125	89.69
282.356	104.69
282.588	119.69
282.819	86.69
283.051	82.69
283.282	83.69
283.513	84.69
283.745	87.69
283.976	88.69
284.207	103.69
284.439	91.69
284.67	78.69
284.901	84.69
285.132	88.69
285.364	95.69
285.595	65.69
285.826	86.69
286.057	96.69
286.288	99.69
286.52	92.69
286.751	76.69
286.982	71.69
287.213	82.69
287.444	89.69
287.675	86.69
287.906	92.69
288.138	88.69
288.369	89.69
288.6	88.69
288.831	91.69
289.062	74.69
289.293	97.69
289.524	88.69
289.755	82.69
289.986	83.69
290.217	89.69
290.448	88.69
290.679	77.69
290.91	81.69
291.141	79.69
291.371	81.69
291.602	89.69
291.833	87.69
292.064	88.69
292.295	80.69
292.526	90.69
292.757	81.69
292.987	92.69
293.218	77.69
293.449	82.69
293.68	87.69
293.91	87.69
294.141	91.69
294.372	87.69
294.603	82.69
294.833	92.69
295.064	89.69
295.295	81.69
295.525	80.69
295.756	99.69
295.987	108.69
296.217	137.69
296.448	117.69
296.679	86.69
296.909	87.69
297.14	93.69
297.37	105.69
297.601	96.69
297.831	84.69
298.062	77.69
298.292	95.69
298.523	88.69
298.753	83.69
298.984	82.69
299.214	83.69
299.445	91.69
299.675	94.69
299.905	91.69
300.136	87.69
300.366	87.69
300.597	90.69
300.827	89.69
301.057	91.69
301.288	88.69
301.518	108.69
301.748	88.69
301.979	87.69
302.209	78.69
302.439	86.69
302.669	90.69
302.9	88.69
303.13	84.69
303.36	85.69
303.59	99.69
303.82	95.69
304.051	90.69
304.281	86.69
304.511	80.69
304.741	92.69
304.971	68.69
305.201	70.69
305.431	80.69
305.661	86.69
305.891	92.69
306.121	98.69
306.352	89.69
306.582	96.69
306.812	82.69
307.042	97.69
307.272	87.69
307.502	94.69
307.731	79.69
307.961	93.69
308.191	70.69
308.421	92.69
308.651	91.69
308.881	79.69
309.111	95.69
309.341	89.69
309.571	102.69
309.8	78.69
310.03	87.69
310.26	95.69
310.49	100.69
310.72	90.69
310.949	95.69
311.179	99.69
311.409	104.69
311.639	96.69
311.868	86.69
312.098	94.69
312.328	84.69
312.557	80.69
312.787	93.69
313.017	94.69
313.246	100.69
313.476	82.69
313.706	84.69
313.935	95.69
314.165	105.69
314.394	99.69
314.624	107.69
314.853	86.69
315.083	92.69
315.312	85.69
315.542	80.69
315.771	107.69
316.001	74.69
316.23	87.69
316.46	85.69
316.689	94.69
316.919	91.69
317.148	78.69
317.377	102.69
317.607	95.69
317.836	99.69
318.065	99.69
318.295	88.69
318.524	90.69
318.753	81.69
318.983	82.69
319.212	107.69
319.441	108.69
319.67	93.69
319.9	93.69
320.129	85.69
320.358	89.69
320.587	79.69
320.816	108.69
321.046	107.69
321.275	90.69
321.504	82.69
321.733	107.69
321.962	96.69
322.191	82.69
322.42	115.69
322.649	97.69
322.878	111.69
323.108	108.69
323.337	103.69
323.566	127.69
323.795	136.69
324.024	168.69
324.253	317.69
324.482	692.69
324.71	1326.69
324.939	1691.69
325.168	639.69
325.397	199.69
325.626	120.69
325.855	113.69
326.084	118.69
326.313	134.69
326.542	150.69
326.77	198.69
326.999	378.69
327.228	739.69
327.457	1297.69
327.686	1052.69
327.914	316.69
328.143	183.69
328.372	131.69
328.6	112.69
328.829	100.69
329.058	115.69
329.287	108.69
329.515	86.69
329.744	94.69
329.972	103.69
330.201	112.69
330.43	124.69
330.658	111.69
330.887	108.69
331.115	123.69
331.344	93.69
331.572	94.69
331.801	95.69
332.03	99.69
332.258	92.69
332.486	105.69
332.715	89.69
332.943	96.69
333.172	96.69
333.4	100.69
333.629	99.69
333.857	114.69
334.085	111.69
334.314	116.69
334.542	131.69
334.771	127.69
334.999	106.69
335.227	111.69
335.455	86.69
335.684	103.69
335.912	97.69
336.14	105.69
336.369	91.69
336.597	98.69
336.825	81.69
337.053	87.69
337.281	71.69
337.51	81.69
337.738	95.69
337.966	95.69
338.194	89.69
338.422	96.69
338.65	88.69
338.878	85.69
339.106	86.69
339.334	102.69
339.562	105.69
339.79	90.69
340.018	86.69
340.246	77.69
340.474	87.69
340.702	89.69
340.93	86.69
341.158	95.69
341.386	91.69
341.614	97.69
341.842	83.69
342.07	99.69
342.298	86.69
342.526	106.69
342.754	79.69
342.981	89.69
343.209	92.69
343.437	87.69
343.665	79.69
343.893	81.69
344.12	98.69
344.348	82.69
344.576	84.69
344.804	99.69
345.031	84.69
345.259	91.69
345.487	84.69
345.714	100.69
345.942	96.69
346.17	91.69
346.397	84.69
346.625	89.69
346.853	86.69
347.08	80.69
347.308	79.69
347.535	83.69
347.763	95.69
347.99	106.69
348.218	87.69
348.445	98.69
348.673	95.69
348.9	89.69
349.128	96.69
349.355	92.69
349.583	92.69
349.81	103.69
350.037	98.69
350.265	90.69
350.492	94.69
350.72	86.69
350.947	107.69
351.174	112.69
351.402	105.69
351.629	94.69
351.856	108.69
352.083	98.69
352.311	107.69
352.538	123.69
352.765	116.69
352.992	118.69
353.22	110.69
353.447	107.69
353.674	96.69
353.901	92.69
354.128	88.69
354.355	107.69
354.583	97.69
354.81	99.69
355.037	83.69
355.264	77.69
355.491	105.69
355.718	91.69
355.945	103.69
356.172	87.69
356.399	92.69
356.626	93.69
356.853	91.69
357.08	84.69
357.307	86.69
357.534	94.69
357.761	92.69
357.988	85.69
358.215	100.69
358.441	107.69
358.668	89.69
358.895	89.69
359.122	90.69
359.349	65.69
359.576	83.69
359.802	102.69
360.029	102.69
360.256	91.69
360.483	97.69
360.709	77.69
360.936	97.69
361.163	88.69
361.39	90.69
361.616	89.69
361.843	81.69
362.07	97.69
362.296	94.69
362.523	87.69
362.749	84.69
362.976	78.69
363.203	88.69
363.429	94.69
363.656	86.69
363.882	96.69
364.109	90.69
364.335	87.69
364.562	88.69
364.788	88.69
365.015	86.69
365.241	98.69
365.468	98.69
365.694	100.69
365.92	94.69
366.147	79.69
366.373	82.69
366.599	90.69
366.826	88.69
367.052	88.69
367.278	86.69
367.505	93.69
367.731	87.69
367.957	96.69
368.184	89.69
368.41	105.69
368.636	106.69
368.862	110.69
369.089	88.69
369.315	87.69
369.541	80.69
369.767	84.69
369.993	75.69
370.219	88.69
370.445	87.69
370.672	94.69
370.898	92.69
371.124	80.69
371.35	91.69
371.576	94.69
371.802	86.69
372.028	78.69
372.254	97.69
372.48	74.69
372.706	90.69
372.932	90.69
373.158	80.69
373.384	88.69
373.61	99.69
373.835	80.69
374.061	88.69
374.287	86.69
374.513	93.69
374.739	89.69
374.965	87.69
375.191	82.69
375.416	93.69
375.642	96.69
375.868	90.69
376.094	84.69
376.319	85.69
376.545	95.69
376.771	100.69
376.997	90.69
377.222	102.69
377.448	92.69
377.674	94.69
377.899	106.69
378.125	76.69
378.35	90.69
378.576	97.69
378.802	90.69
379.027	91.69
379.253	82.69
379.478	86.69
379.704	83.69
379.929	101.69
380.155	95.69
380.38	94.69
380.606	92.69
380.831	83.69
381.057	92.69
381.282	95.69
381.507	99.69
381.733	102.69
381.958	99.69
382.184	111.69
382.409	101.69
382.634	94.69
382.86	97.69
383.085	93.69
383.31	105.69
383.535	89.69
383.761	94.69
383.986	92.69
384.211	95.69
384.436	87.69
384.662	94.69
384.887	85.69
385.112	98.69
385.337	89.69
385.562	109.69
385.787	98.69
386.013	94.69
386.238	102.69
386.463	112.69
386.688	115.69
386.913	78.69
387.138	105.69
387.363	105.69
387.588	96.69
387.813	101.69
388.038	107.69
388.263	107.69
388.488	111.69
388.713	103.69
388.938	90.69
389.163	86.69
389.387	87.69
389.612	101.69
389.837	95.69
390.062	89.69
390.287	91.69
390.512	95.69
390.736	89.69
390.961	72.69
391.186	98.69
391.411	92.69
391.636	93.69
391.86	74.69
392.085	91.69
392.31	76.69
392.534	74.69
392.759	93.69
392.984	75.69
393.208	84.69
393.433	85.69
393.658	86.69
393.882	84.69
394.107	94.69
394.331	83.69
394.556	86.69
394.78	94.69
395.005	87.69
395.229	70.69
395.454	69.69
395.678	84.69
395.903	76.69
396.127	95.69
396.352	79.69
396.576	75.69
396.801	84.69
397.025	84.69
397.249	78.69
397.474	98.69
397.698	87.69
397.922	78.69
398.147	75.69
398.371	90.69
398.595	85.69
398.82	76.69
399.044	81.69
399.268	90.69
399.492	98.69
399.717	89.69
399.941	88.69
400.165	84.69
400.389	96.69
400.613	87.69
400.837	88.69
401.062	100.69
401.286	83.69
401.51	78.69
401.734	81.69
401.958	94.69
402.182	127.69
402.406	157.69
402.63	105.69
402.854	71.69
403.078	88.69
403.302	97.69
403.526	92.69
403.75	76.69
403.974	82.69
404.198	77.69
404.422	77.69
404.645	67.69
404.869	78.69
405.093	96.69
405.317	81.69
405.541	98.69
405.765	87.69
405.988	111.69
406.212	154.69
406.436	201.69
406.66	125.69
406.883	83.69
407.107	97.69
407.331	91.69
407.555	95.69
407.778	93.69
408.002	96.69
408.226	101.69
408.449	77.69
408.673	73.69
408.896	92.69
409.12	95.69
409.344	87.69
409.567	97.69
409.791	95.69
410.014	101.69
410.238	96.69
410.461	67.69
410.685	86.69
410.908	110.69
411.132	101.69
411.355	81.69
411.578	97.69
411.802	99.69
412.025	96.69
412.249	87.69
412.472	91.69
412.695	97.69
412.919	84.69
413.142	98.69
413.365	94.69
413.589	82.69
413.812	87.69
414.035	88.69
414.258	90.69
414.482	86.69
414.705	99.69
414.928	99.69
415.151	97.69
415.374	85.69
415.597	73.69
415.821	83.69
416.044	82.69
416.267	75.69
416.49	87.69
416.713	96.69
416.936	82.69
417.159	103.69
417.382	81.69
417.605	94.69
417.828	87.69
418.051	80.69
418.274	89.69
418.497	81.69
418.72	86.69
418.943	87.69
419.166	82.69
419.389	83.69
419.611	72.69
419.834	77.69
420.057	80.69
420.28	87.69
420.503	76.69
420.726	83.69
420.948	88.69
421.171	94.69
421.394	95.69
421.617	97.69
421.839	81.69
422.062	80.69
422.285	88.69
422.507	97.69
422.73	91.69
422.953	91.69
423.175	89.69
423.398	88.69
423.621	84.69
423.843	88.69
424.066	76.69
424.288	88.69
424.511	83.69
424.733	93.69
424.956	91.69
425.178	86.69
425.401	83.69
425.623	94.69
425.846	89.69
426.068	94.69
426.291	78.69
426.513	90.69
426.735	82.69
426.958	84.69
427.18	91.69
427.402	111.69
427.625	147.69
427.847	101.69
428.069	115.69
428.292	82.69
428.514	84.69
428.736	89.69
428.958	92.69
429.181	84.69
429.403	88.69
429.625	84.69
429.847	84.69
430.069	108.69
430.292	93.69
430.514	89.69
430.736	77.69
430.958	96.69
431.18	77.69
431.402	90.69
431.624	82.69
431.846	78.69
432.068	93.69
432.29	78.69
432.512	106.69
432.734	105.69
432.956	97.69
433.178	73.69
433.4	97.69
433.622	79.69
433.844	91.69
434.066	86.69
434.287	80.69
434.509	83.69
434.731	88.69
434.953	82.69
435.175	87.69
435.397	80.69
435.618	86.69
435.84	95.69
436.062	97.69
436.284	97.69
436.505	100.69
436.727	101.69
436.949	89.69
437.17	72.69
437.392	74.69
437.614	86.69
437.835	90.69
438.057	93.69
438.278	101.69
438.5	101.69
438.721	111.69
438.943	94.69
439.165	87.69
439.386	81.69
439.608	80.69
439.829	88.69
440.05	112.69
440.272	119.69
440.493	90.69
440.715	95.69
440.936	86.69
441.158	85.69
441.379	77.69
441.6	82.69
441.822	90.69
442.043	85.69
442.264	93.69
442.486	87.69
442.707	79.69
442.928	93.69
443.149	126.69
443.371	110.69
443.592	99.69
443.813	97.69
444.034	93.69
444.255	87.69
444.476	87.69
444.698	85.69
444.919	86.69
445.14	129.69
445.361	109.69
445.582	94.69
445.803	112.69
446.024	115.69
446.245	119.69
446.466	100.69
446.687	89.69
446.908	83.69
447.129	83.69
447.35	76.69
447.571	79.69
447.792	80.69
448.013	91.69
448.234	102.69
448.455	95.69
448.675	115.69
448.896	103.69
449.117	94.69
449.338	85.69
449.559	111.69
449.779	97.69
450	83.69
450.221	93.69
450.442	92.69
450.662	96.69
450.883	105.69
451.104	106.69
451.324	91.69
451.545	80.69
451.766	78.69
451.986	74.69
452.207	92.69
452.428	93.69
452.648	91.69
452.869	95.69
453.089	105.69
453.31	97.69
453.53	81.69
453.751	80.69
453.971	90.69
454.192	97.69
454.412	96.69
454.633	82.69
454.853	92.69
455.073	71.69
455.294	86.69
455.514	91.69
455.734	84.69
455.955	91.69
456.175	85.69
456.395	72.69
456.616	90.69
456.836	87.69
457.056	87.69
457.276	90.69
457.497	77.69
457.717	95.69
457.937	89.69
458.157	99.69
458.377	83.69
458.598	94.69
458.818	116.69
459.038	144.69
459.258	104.69
459.478	90.69
459.698	78.69
459.918	93.69
460.138	78.69
460.358	86.69
460.578	87.69
460.798	83.69
461.018	85.69
461.238	86.69
461.458	90.69
461.678	85.69
461.898	74.69
462.118	85.69
462.338	83.69
462.558	78.69
462.777	70.69
462.997	91.69
463.217	90.69
463.437	81.69
463.657	84.69
463.876	91.69
464.096	86.69
464.316	94.69
464.536	78.69
464.755	99.69
464.975	100.69
465.195	150.69
465.414	126.69
465.634	80.69
465.854	79.69
466.073	76.69
466.293	81.69
466.512	63.69
466.732	81.69
466.951	84.69
467.171	91.69
467.391	91.69
467.61	101.69
467.829	74.69
468.049	103.69
468.268	99.69
468.488	90.69
468.707	83.69
468.927	85.69
469.146	76.69
469.365	78.69
469.585	91.69
469.804	81.69
470.023	83.69
470.243	90.69
470.462	107.69
470.681	97.69
470.901	82.69
471.12	93.69
471.339	83.69
471.558	83.69
471.777	78.69
471.997	68.69
472.216	111.69
472.435	161.69
472.654	91.69
472.873	83.69
473.092	83.69
473.311	78.69
473.53	81.69
473.749	75.69
473.968	78.69
474.187	99.69
474.406	86.69
474.625	88.69
474.844	81.69
475.063	83.69
475.282	95.69
475.501	82.69
475.72	86.69
475.939	85.69
476.158	79.69
476.377	84.69
476.596	87.69
476.814	85.69
477.033	88.69
477.252	89.69
477.471	100.69
477.69	106.69
477.908	86.69
478.127	96.69
478.346	95.69
478.564	88.69
478.783	90.69
479.002	94.69
479.22	93.69
479.439	90.69
479.658	99.69
479.876	91.69
480.095	92.69
480.313	94.69
480.532	86.69
480.751	91.69
480.969	130.69
481.188	214.69
481.406	158.69
481.624	92.69
481.843	94.69
482.061	91.69
482.28	89.69
482.498	95.69
482.717	90.69
482.935	98.69
483.153	88.69
483.372	72.69
483.59	84.69
483.808	78.69
484.027	89.69
484.245	90.69
484.463	103.69
484.681	107.69
484.9	94.69
485.118	93.69
485.336	97.69
485.554	80.69
485.772	97.69
485.99	100.69
486.209	100.69
486.427	96.69
486.645	110.69
486.863	98.69
487.081	99.69
487.299	86.69
487.517	90.69
487.735	81.69
487.953	79.69
488.171	81.69
488.389	104.69
488.607	106.69
488.825	87.69
489.043	107.69
489.261	82.69
489.479	94.69
489.696	92.69
489.914	86.69
490.132	94.69
490.35	85.69
490.568	83.69
490.786	85.69
491.003	86.69
491.221	79.69
491.439	97.69
491.657	91.69
491.874	91.69
492.092	85.69
492.31	93.69
492.527	80.69
492.745	94.69
492.963	98.69
493.18	87.69
493.398	74.69
493.615	99.69
493.833	94.69
494.05	90.69
494.268	103.69
494.485	93.69
494.703	87.69
494.92	76.69
495.138	97.69
495.355	97.69
495.573	92.69
495.79	92.69
496.008	95.69
496.225	94.69
496.442	83.69
496.66	97.69
496.877	92.69
497.094	90.69
497.312	89.69
497.529	93.69
497.746	90.69
497.963	100.69
498.181	93.69
498.398	92.69
498.615	95.69
498.832	94.69
499.049	82.69
499.267	94.69
499.484	85.69
499.701	85.69
499.918	91.69
500.135	89.69
500.352	88.69
500.569	99.69
500.786	93.69
501.003	84.69
501.22	79.69
501.437	90.69
501.654	95.69
501.871	105.69
502.088	94.69
502.305	92.69
502.522	79.69
502.739	86.69
502.956	90.69
503.172	76.69
503.389	97.69
503.606	96.69
503.823	94.69
504.04	84.69
504.256	89.69
504.473	91.69
504.69	97.69
504.907	100.69
505.123	79.69
505.34	84.69
505.557	76.69
505.773	90.69
505.99	89.69
506.207	83.69
506.423	90.69
506.64	82.69
506.856	91.69
507.073	80.69
507.289	90.69
507.506	90.69
507.722	102.69
507.939	114.69
508.155	83.69
508.372	89.69
508.588	87.69
508.805	99.69
509.021	92.69
509.238	83.69
509.454	96.69
509.67	99.69
509.887	116.69
510.103	128.69
510.319	222.69
510.536	715.69
510.752	2174.69
510.968	600.69
511.184	154.69
511.401	102.69
511.617	98.69
511.833	101.69
512.049	89.69
512.265	90.69
512.481	89.69
512.698	104.69
512.914	97.69
513.13	87.69
513.346	93.69
513.562	93.69
513.778	94.69
513.994	99.69
514.21	84.69
514.426	91.69
514.642	119.69
514.858	110.69
515.074	139.69
515.29	379.69
515.506	1238.69
515.721	449.69
515.937	131.69
516.153	99.69
516.369	78.69
516.585	83.69
516.801	86.69
517.016	91.69
517.232	97.69
