Data from Circ_1994_H10_HRD10591_00090.txt Node
Date: Wed Jan 03 11:40:48 EST 2024
User: Yrep
Spectrometer: HR+D1059
Trigger mode: 1
Integration Time (sec): 1.000000E-1
Scans to average: 1
Electric dark correction enabled: true
Nonlinearity correction enabled: false
Boxcar width: 0
XAxis mode: Wavelengths
Number of Pixels in Spectrum: 2048
>>>>>Begin Spectral Data<<<<<
223.165	-24.44
223.4	-24.44
223.635	-24.44
223.869	-5.44
224.104	-7.44
224.338	-16.44
224.573	-32.44
224.808	-11.44
225.042	-14.44
225.277	4.56
225.511	-6.44
225.746	-3.44
225.98	13.56
226.215	-2.44
226.449	19.56
226.683	18.56
226.918	29.56
227.152	38.56
227.387	29.56
227.621	49.56
227.856	54.56
228.09	58.56
228.324	43.56
228.559	56.56
228.793	62.56
229.027	66.56
229.262	70.56
229.496	84.56
229.73	85.56
229.964	89.56
230.199	60.56
230.433	80.56
230.667	88.56
230.901	86.56
231.136	75.56
231.37	89.56
231.604	90.56
231.838	79.56
232.072	74.56
232.306	93.56
232.541	83.56
232.775	78.56
233.009	81.56
233.243	96.56
233.477	73.56
233.711	80.56
233.945	74.56
234.179	76.56
234.413	72.56
234.647	87.56
234.881	75.56
235.115	74.56
235.349	76.56
235.583	94.56
235.817	81.56
236.051	91.56
236.285	89.56
236.519	82.56
236.753	82.56
236.987	75.56
237.221	84.56
237.455	88.56
237.689	71.56
237.922	70.56
238.156	66.56
238.39	68.56
238.624	74.56
238.858	77.56
239.091	80.56
239.325	83.56
239.559	76.56
239.793	82.56
240.027	63.56
240.26	69.56
240.494	67.56
240.728	75.56
240.961	75.56
241.195	77.56
241.429	63.56
241.662	84.56
241.896	83.56
242.13	73.56
242.363	62.56
242.597	70.56
242.83	70.56
243.064	77.56
243.298	81.56
243.531	100.56
243.765	82.56
243.998	71.56
244.232	75.56
244.465	81.56
244.699	95.56
244.932	76.56
245.166	77.56
245.399	79.56
245.633	81.56
245.866	76.56
246.099	83.56
246.333	68.56
246.566	88.56
246.8	86.56
247.033	94.56
247.266	96.56
247.5	77.56
247.733	89.56
247.966	75.56
248.2	83.56
248.433	68.56
248.666	74.56
248.899	69.56
249.133	92.56
249.366	101.56
249.599	97.56
249.832	89.56
250.066	69.56
250.299	83.56
250.532	71.56
250.765	74.56
250.998	91.56
251.231	80.56
251.465	81.56
251.698	94.56
251.931	75.56
252.164	86.56
252.397	83.56
252.63	88.56
252.863	71.56
253.096	97.56
253.329	89.56
253.562	84.56
253.795	77.56
254.028	81.56
254.261	71.56
254.494	95.56
254.727	92.56
254.96	61.56
255.193	69.56
255.426	84.56
255.659	74.56
255.892	86.56
256.124	74.56
256.357	86.56
256.59	93.56
256.823	69.56
257.056	92.56
257.289	81.56
257.521	78.56
257.754	83.56
257.987	73.56
258.22	82.56
258.452	89.56
258.685	80.56
258.918	83.56
259.151	91.56
259.383	84.56
259.616	79.56
259.849	85.56
260.081	87.56
260.314	102.56
260.547	95.56
260.779	91.56
261.012	82.56
261.244	90.56
261.477	88.56
261.71	92.56
261.942	109.56
262.175	111.56
262.407	100.56
262.64	75.56
262.872	77.56
263.105	87.56
263.337	77.56
263.57	82.56
263.802	77.56
264.035	86.56
264.267	76.56
264.499	86.56
264.732	90.56
264.964	75.56
265.197	82.56
265.429	81.56
265.661	88.56
265.894	86.56
266.126	78.56
266.358	97.56
266.591	90.56
266.823	63.56
267.055	83.56
267.287	79.56
267.52	89.56
267.752	81.56
267.984	87.56
268.216	88.56
268.448	83.56
268.681	86.56
268.913	70.56
269.145	100.56
269.377	83.56
269.609	82.56
269.841	80.56
270.073	84.56
270.306	104.56
270.538	79.56
270.77	89.56
271.002	75.56
271.234	85.56
271.466	94.56
271.698	73.56
271.93	77.56
272.162	85.56
272.394	85.56
272.626	89.56
272.858	98.56
273.09	88.56
273.322	90.56
273.553	81.56
273.785	82.56
274.017	85.56
274.249	67.56
274.481	90.56
274.713	87.56
274.945	94.56
275.176	74.56
275.408	78.56
275.64	81.56
275.872	97.56
276.104	99.56
276.335	98.56
276.567	95.56
276.799	98.56
277.031	112.56
277.262	97.56
277.494	89.56
277.726	101.56
277.957	81.56
278.189	91.56
278.421	75.56
278.652	85.56
278.884	99.56
279.115	82.56
279.347	94.56
279.579	89.56
279.81	90.56
280.042	101.56
280.273	97.56
280.505	91.56
280.736	86.56
280.968	68.56
281.199	98.56
281.431	92.56
281.662	76.56
281.894	76.56
282.125	98.56
282.356	117.56
282.588	128.56
282.819	112.56
283.051	100.56
283.282	77.56
283.513	86.56
283.745	89.56
283.976	86.56
284.207	82.56
284.439	93.56
284.67	78.56
284.901	77.56
285.132	88.56
285.364	89.56
285.595	84.56
285.826	89.56
286.057	89.56
286.288	96.56
286.52	81.56
286.751	87.56
286.982	76.56
287.213	91.56
287.444	95.56
287.675	96.56
287.906	77.56
288.138	94.56
288.369	97.56
288.6	99.56
288.831	92.56
289.062	95.56
289.293	96.56
289.524	95.56
289.755	82.56
289.986	93.56
290.217	87.56
290.448	83.56
290.679	97.56
290.91	83.56
291.141	84.56
291.371	96.56
291.602	98.56
291.833	86.56
292.064	89.56
292.295	83.56
292.526	94.56
292.757	87.56
292.987	90.56
293.218	79.56
293.449	88.56
293.68	95.56
293.91	97.56
294.141	103.56
294.372	84.56
294.603	94.56
294.833	76.56
295.064	86.56
295.295	89.56
295.525	100.56
295.756	107.56
295.987	129.56
296.217	139.56
296.448	118.56
296.679	101.56
296.909	85.56
297.14	98.56
297.37	94.56
297.601	91.56
297.831	89.56
298.062	92.56
298.292	79.56
298.523	85.56
298.753	91.56
298.984	93.56
299.214	92.56
299.445	101.56
299.675	105.56
299.905	91.56
300.136	85.56
300.366	97.56
300.597	94.56
300.827	96.56
301.057	107.56
301.288	111.56
301.518	88.56
301.748	93.56
301.979	93.56
302.209	92.56
302.439	98.56
302.669	88.56
302.9	90.56
303.13	81.56
303.36	91.56
303.59	97.56
303.82	106.56
304.051	98.56
304.281	89.56
304.511	94.56
304.741	98.56
304.971	88.56
305.201	92.56
305.431	75.56
305.661	99.56
305.891	86.56
306.121	99.56
306.352	97.56
306.582	108.56
306.812	104.56
307.042	112.56
307.272	109.56
307.502	105.56
307.731	98.56
307.961	102.56
308.191	90.56
308.421	105.56
308.651	99.56
308.881	77.56
309.111	87.56
309.341	90.56
309.571	97.56
309.8	114.56
310.03	99.56
310.26	89.56
310.49	85.56
310.72	102.56
310.949	102.56
311.179	97.56
311.409	91.56
311.639	98.56
311.868	93.56
312.098	97.56
312.328	104.56
312.557	109.56
312.787	103.56
313.017	95.56
313.246	95.56
313.476	98.56
313.706	80.56
313.935	86.56
314.165	96.56
314.394	91.56
314.624	102.56
314.853	87.56
315.083	92.56
315.312	91.56
315.542	95.56
315.771	111.56
316.001	93.56
316.23	93.56
316.46	90.56
316.689	95.56
316.919	101.56
317.148	96.56
317.377	76.56
317.607	100.56
317.836	94.56
318.065	92.56
318.295	91.56
318.524	101.56
318.753	87.56
318.983	84.56
319.212	114.56
319.441	98.56
319.67	109.56
319.9	83.56
320.129	91.56
320.358	100.56
320.587	94.56
320.816	102.56
321.046	94.56
321.275	106.56
321.504	90.56
321.733	103.56
321.962	103.56
322.191	113.56
322.42	113.56
322.649	99.56
322.878	103.56
323.108	93.56
323.337	120.56
323.566	127.56
323.795	156.56
324.024	200.56
324.253	350.56
324.482	732.56
324.71	1426.56
324.939	1902.56
325.168	715.56
325.397	232.56
325.626	145.56
325.855	126.56
326.084	114.56
326.313	127.56
326.542	143.56
326.77	203.56
326.999	422.56
327.228	810.56
327.457	1453.56
327.686	1164.56
327.914	331.56
328.143	214.56
328.372	187.56
328.6	126.56
328.829	115.56
329.058	125.56
329.287	115.56
329.515	110.56
329.744	118.56
329.972	141.56
330.201	183.56
330.43	201.56
330.658	158.56
330.887	150.56
331.115	130.56
331.344	108.56
331.572	90.56
331.801	102.56
332.03	98.56
332.258	94.56
332.486	93.56
332.715	92.56
332.943	99.56
333.172	98.56
333.4	105.56
333.629	102.56
333.857	114.56
334.085	127.56
334.314	177.56
334.542	258.56
334.771	247.56
334.999	133.56
335.227	94.56
335.455	79.56
335.684	100.56
335.912	102.56
336.14	92.56
336.369	107.56
336.597	102.56
336.825	98.56
337.053	84.56
337.281	82.56
337.51	94.56
337.738	96.56
337.966	78.56
338.194	91.56
338.422	97.56
338.65	101.56
338.878	83.56
339.106	81.56
339.334	100.56
339.562	88.56
339.79	82.56
340.018	86.56
340.246	95.56
340.474	103.56
340.702	97.56
340.93	93.56
341.158	94.56
341.386	91.56
341.614	103.56
341.842	83.56
342.07	82.56
342.298	96.56
342.526	87.56
342.754	86.56
342.981	84.56
343.209	78.56
343.437	115.56
343.665	85.56
343.893	100.56
344.12	84.56
344.348	87.56
344.576	104.56
344.804	102.56
345.031	100.56
345.259	110.56
345.487	99.56
345.714	96.56
345.942	93.56
346.17	109.56
346.397	85.56
346.625	105.56
346.853	98.56
347.08	97.56
347.308	83.56
347.535	108.56
347.763	108.56
347.99	93.56
348.218	110.56
348.445	114.56
348.673	105.56
348.9	104.56
349.128	90.56
349.355	82.56
349.583	91.56
349.81	93.56
350.037	86.56
350.265	98.56
350.492	89.56
350.72	95.56
350.947	97.56
351.174	111.56
351.402	113.56
351.629	94.56
351.856	92.56
352.083	99.56
352.311	93.56
352.538	103.56
352.765	97.56
352.992	114.56
353.22	114.56
353.447	87.56
353.674	91.56
353.901	94.56
354.128	101.56
354.355	86.56
354.583	92.56
354.81	100.56
355.037	92.56
355.264	85.56
355.491	98.56
355.718	86.56
355.945	86.56
356.172	96.56
356.399	86.56
356.626	88.56
356.853	82.56
357.08	98.56
357.307	83.56
357.534	85.56
357.761	90.56
357.988	97.56
358.215	93.56
358.441	93.56
358.668	106.56
358.895	83.56
359.122	95.56
359.349	85.56
359.576	74.56
359.802	98.56
360.029	113.56
360.256	106.56
360.483	100.56
360.709	95.56
360.936	89.56
361.163	89.56
361.39	104.56
361.616	85.56
361.843	91.56
362.07	94.56
362.296	91.56
362.523	100.56
362.749	98.56
362.976	103.56
363.203	100.56
363.429	89.56
363.656	93.56
363.882	93.56
364.109	76.56
364.335	98.56
364.562	90.56
364.788	90.56
365.015	101.56
365.241	100.56
365.468	103.56
365.694	102.56
365.92	99.56
366.147	107.56
366.373	94.56
366.599	91.56
366.826	94.56
367.052	99.56
367.278	73.56
367.505	85.56
367.731	86.56
367.957	93.56
368.184	92.56
368.41	104.56
368.636	113.56
368.862	115.56
369.089	95.56
369.315	109.56
369.541	101.56
369.767	105.56
369.993	92.56
370.219	89.56
370.445	98.56
370.672	96.56
370.898	79.56
371.124	87.56
371.35	92.56
371.576	91.56
371.802	92.56
372.028	86.56
372.254	90.56
372.48	78.56
372.706	78.56
372.932	85.56
373.158	77.56
373.384	110.56
373.61	94.56
373.835	92.56
374.061	91.56
374.287	93.56
374.513	81.56
374.739	77.56
374.965	92.56
375.191	86.56
375.416	82.56
375.642	93.56
375.868	96.56
376.094	102.56
376.319	83.56
376.545	96.56
376.771	96.56
376.997	96.56
377.222	87.56
377.448	87.56
377.674	94.56
377.899	95.56
378.125	88.56
378.35	89.56
378.576	82.56
378.802	81.56
379.027	89.56
379.253	100.56
379.478	99.56
379.704	101.56
379.929	112.56
380.155	93.56
380.38	106.56
380.606	91.56
380.831	90.56
381.057	111.56
381.282	93.56
381.507	96.56
381.733	89.56
381.958	78.56
382.184	106.56
382.409	96.56
382.634	107.56
382.86	106.56
383.085	92.56
383.31	105.56
383.535	96.56
383.761	85.56
383.986	102.56
384.211	93.56
384.436	88.56
384.662	100.56
384.887	94.56
385.112	93.56
385.337	91.56
385.562	111.56
385.787	101.56
386.013	99.56
386.238	114.56
386.463	87.56
386.688	120.56
386.913	83.56
387.138	89.56
387.363	101.56
387.588	90.56
387.813	87.56
388.038	86.56
388.263	113.56
388.488	111.56
388.713	102.56
388.938	107.56
389.163	100.56
389.387	85.56
389.612	102.56
389.837	86.56
390.062	86.56
390.287	109.56
390.512	79.56
390.736	89.56
390.961	93.56
391.186	100.56
391.411	92.56
391.636	83.56
391.86	92.56
392.085	89.56
392.31	70.56
392.534	86.56
392.759	83.56
392.984	74.56
393.208	94.56
393.433	95.56
393.658	79.56
393.882	77.56
394.107	104.56
394.331	86.56
394.556	98.56
394.78	75.56
395.005	88.56
395.229	102.56
395.454	105.56
395.678	85.56
395.903	70.56
396.127	83.56
396.352	89.56
396.576	98.56
396.801	84.56
397.025	91.56
397.249	97.56
397.474	102.56
397.698	102.56
397.922	89.56
398.147	93.56
398.371	89.56
398.595	85.56
398.82	89.56
399.044	95.56
399.268	89.56
399.492	86.56
399.717	85.56
399.941	85.56
400.165	95.56
400.389	81.56
400.613	89.56
400.837	84.56
401.062	94.56
401.286	81.56
401.51	83.56
401.734	111.56
401.958	94.56
402.182	114.56
402.406	161.56
402.63	123.56
402.854	100.56
403.078	89.56
403.302	70.56
403.526	83.56
403.75	89.56
403.974	83.56
404.198	88.56
404.422	76.56
404.645	78.56
404.869	101.56
405.093	113.56
405.317	104.56
405.541	93.56
405.765	103.56
405.988	109.56
406.212	152.56
406.436	205.56
406.66	142.56
406.883	99.56
407.107	75.56
407.331	90.56
407.555	105.56
407.778	92.56
408.002	91.56
408.226	98.56
408.449	103.56
408.673	91.56
408.896	87.56
409.12	114.56
409.344	83.56
409.567	83.56
409.791	112.56
410.014	94.56
410.238	85.56
410.461	98.56
410.685	107.56
410.908	94.56
411.132	93.56
411.355	92.56
411.578	97.56
411.802	87.56
412.025	100.56
412.249	103.56
412.472	95.56
412.695	92.56
412.919	83.56
413.142	86.56
413.365	83.56
413.589	95.56
413.812	83.56
414.035	89.56
414.258	94.56
414.482	92.56
414.705	98.56
414.928	104.56
415.151	91.56
415.374	96.56
415.597	103.56
415.821	87.56
416.044	100.56
416.267	86.56
416.49	86.56
416.713	93.56
416.936	90.56
417.159	89.56
417.382	100.56
417.605	99.56
417.828	84.56
418.051	84.56
418.274	83.56
418.497	84.56
418.72	96.56
418.943	78.56
419.166	104.56
419.389	85.56
419.611	90.56
419.834	96.56
420.057	104.56
420.28	84.56
420.503	85.56
420.726	78.56
420.948	97.56
421.171	92.56
421.394	89.56
421.617	94.56
421.839	93.56
422.062	91.56
422.285	93.56
422.507	84.56
422.73	93.56
422.953	83.56
423.175	100.56
423.398	92.56
423.621	95.56
423.843	89.56
424.066	84.56
424.288	99.56
424.511	83.56
424.733	93.56
424.956	98.56
425.178	104.56
425.401	113.56
425.623	103.56
425.846	93.56
426.068	89.56
426.291	106.56
426.513	97.56
426.735	93.56
426.958	93.56
427.18	103.56
427.402	122.56
427.625	158.56
427.847	128.56
428.069	109.56
428.292	104.56
428.514	81.56
428.736	90.56
428.958	90.56
429.181	76.56
429.403	99.56
429.625	83.56
429.847	86.56
430.069	91.56
430.292	88.56
430.514	89.56
430.736	85.56
430.958	69.56
431.18	70.56
431.402	84.56
431.624	89.56
431.846	85.56
432.068	77.56
432.29	87.56
432.512	88.56
432.734	88.56
432.956	103.56
433.178	118.56
433.4	108.56
433.622	94.56
433.844	90.56
434.066	93.56
434.287	96.56
434.509	95.56
434.731	93.56
434.953	89.56
435.175	98.56
435.397	93.56
435.618	101.56
435.84	95.56
436.062	111.56
436.284	100.56
436.505	95.56
436.727	99.56
436.949	91.56
437.17	91.56
437.392	91.56
437.614	98.56
437.835	108.56
438.057	113.56
438.278	112.56
438.5	111.56
438.721	112.56
438.943	94.56
439.165	99.56
439.386	97.56
439.608	93.56
439.829	95.56
440.05	115.56
440.272	129.56
440.493	107.56
440.715	100.56
440.936	83.56
441.158	97.56
441.379	89.56
441.6	87.56
441.822	86.56
442.043	103.56
442.264	98.56
442.486	99.56
442.707	87.56
442.928	94.56
443.149	120.56
443.371	122.56
443.592	100.56
443.813	114.56
444.034	98.56
444.255	82.56
444.476	84.56
444.698	77.56
444.919	81.56
445.14	130.56
445.361	131.56
445.582	111.56
445.803	117.56
446.024	138.56
446.245	118.56
446.466	101.56
446.687	90.56
446.908	82.56
447.129	71.56
447.35	93.56
447.571	88.56
447.792	94.56
448.013	105.56
448.234	91.56
448.455	105.56
448.675	107.56
448.896	102.56
449.117	90.56
449.338	123.56
449.559	126.56
449.779	119.56
450	96.56
450.221	91.56
450.442	86.56
450.662	98.56
450.883	107.56
451.104	114.56
451.324	110.56
451.545	76.56
451.766	87.56
451.986	89.56
452.207	92.56
452.428	92.56
452.648	97.56
452.869	107.56
453.089	109.56
453.31	110.56
453.53	84.56
453.751	83.56
453.971	113.56
454.192	105.56
454.412	101.56
454.633	95.56
454.853	86.56
455.073	99.56
455.294	95.56
455.514	92.56
455.734	96.56
455.955	77.56
456.175	85.56
456.395	81.56
456.616	91.56
456.836	85.56
457.056	75.56
457.276	86.56
457.497	79.56
457.717	91.56
457.937	93.56
458.157	77.56
458.377	94.56
458.598	109.56
458.818	151.56
459.038	155.56
459.258	105.56
459.478	89.56
459.698	82.56
459.918	95.56
460.138	91.56
460.358	92.56
460.578	92.56
460.798	98.56
461.018	92.56
461.238	84.56
461.458	78.56
461.678	70.56
461.898	90.56
462.118	89.56
462.338	92.56
462.558	93.56
462.777	99.56
462.997	85.56
463.217	98.56
463.437	101.56
463.657	92.56
463.876	100.56
464.096	92.56
464.316	97.56
464.536	95.56
464.755	87.56
464.975	100.56
465.195	153.56
465.414	147.56
465.634	92.56
465.854	101.56
466.073	81.56
466.293	83.56
466.512	84.56
466.732	94.56
466.951	86.56
467.171	95.56
467.391	113.56
467.61	110.56
467.829	103.56
468.049	136.56
468.268	135.56
468.488	96.56
468.707	79.56
468.927	91.56
469.146	96.56
469.365	84.56
469.585	84.56
469.804	90.56
470.023	89.56
470.243	92.56
470.462	99.56
470.681	123.56
470.901	94.56
471.12	88.56
471.339	89.56
471.558	92.56
471.777	93.56
471.997	111.56
472.216	202.56
472.435	322.56
472.654	132.56
472.873	91.56
473.092	93.56
473.311	88.56
473.53	92.56
473.749	95.56
473.968	98.56
474.187	99.56
474.406	87.56
474.625	83.56
474.844	89.56
475.063	89.56
475.282	86.56
475.501	85.56
475.72	92.56
475.939	79.56
476.158	93.56
476.377	79.56
476.596	86.56
476.814	94.56
477.033	86.56
477.252	85.56
477.471	98.56
477.69	86.56
477.908	90.56
478.127	88.56
478.346	94.56
478.564	99.56
478.783	81.56
479.002	107.56
479.22	102.56
479.439	98.56
479.658	94.56
479.876	86.56
480.095	82.56
480.313	98.56
480.532	115.56
480.751	117.56
480.969	192.56
481.188	523.56
481.406	315.56
481.624	112.56
481.843	107.56
482.061	83.56
482.28	100.56
482.498	99.56
482.717	89.56
482.935	90.56
483.153	92.56
483.372	95.56
483.59	77.56
483.808	85.56
484.027	83.56
484.245	91.56
484.463	97.56
484.681	100.56
484.9	94.56
485.118	95.56
485.336	91.56
485.554	100.56
485.772	103.56
485.99	92.56
486.209	122.56
486.427	111.56
486.645	102.56
486.863	116.56
487.081	103.56
487.299	95.56
487.517	115.56
487.735	97.56
487.953	86.56
488.171	94.56
488.389	86.56
488.607	103.56
488.825	93.56
489.043	83.56
489.261	81.56
489.479	106.56
489.696	92.56
489.914	86.56
490.132	82.56
490.35	96.56
490.568	93.56
490.786	94.56
491.003	94.56
491.221	96.56
491.439	83.56
491.657	100.56
491.874	102.56
492.092	108.56
492.31	83.56
492.527	79.56
492.745	81.56
492.963	86.56
493.18	96.56
493.398	95.56
493.615	105.56
493.833	105.56
494.05	95.56
494.268	100.56
494.485	97.56
494.703	89.56
494.92	98.56
495.138	97.56
495.355	102.56
495.573	95.56
495.79	77.56
496.008	85.56
496.225	84.56
496.442	101.56
496.66	105.56
496.877	94.56
497.094	93.56
497.312	92.56
497.529	99.56
497.746	97.56
497.963	95.56
498.181	93.56
498.398	90.56
498.615	101.56
498.832	101.56
499.049	94.56
499.267	86.56
499.484	76.56
499.701	96.56
499.918	103.56
500.135	83.56
500.352	94.56
500.569	82.56
500.786	95.56
501.003	83.56
501.22	99.56
501.437	99.56
501.654	95.56
501.871	101.56
502.088	102.56
502.305	95.56
502.522	102.56
502.739	90.56
502.956	82.56
503.172	95.56
503.389	101.56
503.606	110.56
503.823	106.56
504.04	91.56
504.256	105.56
504.473	101.56
504.69	98.56
504.907	90.56
505.123	100.56
505.34	89.56
505.557	87.56
505.773	95.56
505.99	86.56
506.207	81.56
506.423	98.56
506.64	89.56
506.856	109.56
507.073	99.56
507.289	91.56
507.506	95.56
507.722	99.56
507.939	101.56
508.155	83.56
508.372	100.56
508.588	93.56
508.805	88.56
509.021	96.56
509.238	101.56
509.454	97.56
509.67	96.56
509.887	111.56
510.103	122.56
510.319	208.56
510.536	742.56
510.752	2308.56
510.968	629.56
511.184	158.56
511.401	122.56
511.617	104.56
511.833	110.56
512.049	96.56
512.265	85.56
512.481	93.56
512.698	78.56
512.914	86.56
513.13	78.56
513.346	83.56
513.562	112.56
513.778	94.56
513.994	94.56
514.21	101.56
514.426	129.56
514.642	128.56
514.858	110.56
515.074	156.56
515.29	416.56
