Data from Circ_1994_H10_HRD10591_00087.txt Node
Date: Wed Jan 03 11:40:47 EST 2024
User: Yrep
Spectrometer: HR+D1059
Trigger mode: 1
Integration Time (sec): 1.000000E-1
Scans to average: 1
Electric dark correction enabled: true
Nonlinearity correction enabled: false
Boxcar width: 0
XAxis mode: Wavelengths
Number of Pixels in Spectrum: 2048
>>>>>Begin Spectral Data<<<<<
223.165	-14.5
223.4	-14.5
223.635	-14.5
223.869	-18.5
224.104	-23.5
224.338	-11.5
224.573	-15.5
224.808	-16.5
225.042	1.5
225.277	-0.5
225.511	5.5
225.746	-7.5
225.98	8.5
226.215	8.5
226.449	10.5
226.683	18.5
226.918	18.5
227.152	36.5
227.387	38.5
227.621	31.5
227.856	36.5
228.09	47.5
228.324	53.5
228.559	42.5
228.793	61.5
229.027	63.5
229.262	64.5
229.496	88.5
229.73	87.5
229.964	61.5
230.199	64.5
230.433	73.5
230.667	84.5
230.901	78.5
231.136	82.5
231.37	73.5
231.604	65.5
231.838	93.5
232.072	85.5
232.306	77.5
232.541	79.5
232.775	80.5
233.009	90.5
233.243	77.5
233.477	72.5
233.711	90.5
233.945	83.5
234.179	66.5
234.413	91.5
234.647	84.5
234.881	80.5
235.115	83.5
235.349	86.5
235.583	88.5
235.817	80.5
236.051	88.5
236.285	78.5
236.519	81.5
236.753	73.5
236.987	73.5
237.221	85.5
237.455	88.5
237.689	76.5
237.922	77.5
238.156	79.5
238.39	68.5
238.624	88.5
238.858	84.5
239.091	82.5
239.325	79.5
239.559	82.5
239.793	83.5
240.027	58.5
240.26	72.5
240.494	84.5
240.728	81.5
240.961	79.5
241.195	82.5
241.429	77.5
241.662	77.5
241.896	68.5
242.13	88.5
242.363	84.5
242.597	81.5
242.83	79.5
243.064	74.5
243.298	76.5
243.531	67.5
243.765	82.5
243.998	64.5
244.232	87.5
244.465	87.5
244.699	76.5
244.932	69.5
245.166	86.5
245.399	83.5
245.633	62.5
245.866	80.5
246.099	80.5
246.333	91.5
246.566	79.5
246.8	81.5
247.033	66.5
247.266	77.5
247.5	83.5
247.733	102.5
247.966	84.5
248.2	72.5
248.433	83.5
248.666	84.5
248.899	73.5
249.133	75.5
249.366	99.5
249.599	99.5
249.832	80.5
250.066	84.5
250.299	81.5
250.532	80.5
250.765	75.5
250.998	89.5
251.231	72.5
251.465	82.5
251.698	85.5
251.931	77.5
252.164	77.5
252.397	86.5
252.63	74.5
252.863	96.5
253.096	78.5
253.329	63.5
253.562	82.5
253.795	84.5
254.028	70.5
254.261	73.5
254.494	67.5
254.727	72.5
254.96	80.5
255.193	88.5
255.426	80.5
255.659	78.5
255.892	93.5
256.124	89.5
256.357	86.5
256.59	71.5
256.823	82.5
257.056	80.5
257.289	84.5
257.521	84.5
257.754	76.5
257.987	73.5
258.22	90.5
258.452	96.5
258.685	82.5
258.918	87.5
259.151	74.5
259.383	80.5
259.616	81.5
259.849	85.5
260.081	84.5
260.314	73.5
260.547	76.5
260.779	76.5
261.012	74.5
261.244	77.5
261.477	93.5
261.71	107.5
261.942	105.5
262.175	109.5
262.407	73.5
262.64	76.5
262.872	86.5
263.105	88.5
263.337	72.5
263.57	70.5
263.802	92.5
264.035	85.5
264.267	75.5
264.499	90.5
264.732	86.5
264.964	81.5
265.197	83.5
265.429	72.5
265.661	85.5
265.894	80.5
266.126	77.5
266.358	80.5
266.591	69.5
266.823	74.5
267.055	88.5
267.287	82.5
267.52	90.5
267.752	90.5
267.984	97.5
268.216	81.5
268.448	94.5
268.681	85.5
268.913	78.5
269.145	82.5
269.377	76.5
269.609	80.5
269.841	75.5
270.073	95.5
270.306	81.5
270.538	78.5
270.77	84.5
271.002	83.5
271.234	76.5
271.466	88.5
271.698	92.5
271.93	85.5
272.162	93.5
272.394	85.5
272.626	74.5
272.858	103.5
273.09	90.5
273.322	76.5
273.553	93.5
273.785	87.5
274.017	85.5
274.249	91.5
274.481	87.5
274.713	80.5
274.945	78.5
275.176	88.5
275.408	83.5
275.64	92.5
275.872	62.5
276.104	90.5
276.335	111.5
276.567	92.5
276.799	95.5
277.031	88.5
277.262	86.5
277.494	82.5
277.726	95.5
277.957	82.5
278.189	88.5
278.421	95.5
278.652	98.5
278.884	79.5
279.115	75.5
279.347	82.5
279.579	78.5
279.81	86.5
280.042	82.5
280.273	99.5
280.505	106.5
280.736	98.5
280.968	96.5
281.199	86.5
281.431	92.5
281.662	98.5
281.894	99.5
282.125	102.5
282.356	121.5
282.588	133.5
282.819	112.5
283.051	80.5
283.282	91.5
283.513	77.5
283.745	90.5
283.976	81.5
284.207	103.5
284.439	99.5
284.67	83.5
284.901	86.5
285.132	82.5
285.364	84.5
285.595	69.5
285.826	93.5
286.057	88.5
286.288	90.5
286.52	96.5
286.751	89.5
286.982	83.5
287.213	92.5
287.444	92.5
287.675	93.5
287.906	76.5
288.138	79.5
288.369	99.5
288.6	94.5
288.831	88.5
289.062	86.5
289.293	86.5
289.524	94.5
289.755	97.5
289.986	99.5
290.217	86.5
290.448	96.5
290.679	78.5
290.91	92.5
291.141	84.5
291.371	68.5
291.602	89.5
291.833	82.5
292.064	88.5
292.295	87.5
292.526	90.5
292.757	82.5
292.987	78.5
293.218	74.5
293.449	101.5
293.68	100.5
293.91	96.5
294.141	76.5
294.372	82.5
294.603	78.5
294.833	86.5
295.064	83.5
295.295	90.5
295.525	88.5
295.756	98.5
295.987	104.5
296.217	125.5
296.448	124.5
296.679	93.5
296.909	84.5
297.14	88.5
297.37	91.5
297.601	82.5
297.831	85.5
298.062	95.5
298.292	86.5
298.523	91.5
298.753	96.5
298.984	105.5
299.214	78.5
299.445	97.5
299.675	94.5
299.905	97.5
300.136	85.5
300.366	96.5
300.597	86.5
300.827	96.5
301.057	103.5
301.288	109.5
301.518	100.5
301.748	92.5
301.979	101.5
302.209	80.5
302.439	91.5
302.669	96.5
302.9	91.5
303.13	93.5
303.36	78.5
303.59	96.5
303.82	88.5
304.051	99.5
304.281	100.5
304.511	90.5
304.741	76.5
304.971	87.5
305.201	88.5
305.431	84.5
305.661	94.5
305.891	88.5
306.121	96.5
306.352	89.5
306.582	95.5
306.812	104.5
307.042	90.5
307.272	82.5
307.502	91.5
307.731	85.5
307.961	99.5
308.191	88.5
308.421	85.5
308.651	100.5
308.881	96.5
309.111	84.5
309.341	102.5
309.571	85.5
309.8	103.5
310.03	81.5
310.26	91.5
310.49	88.5
310.72	85.5
310.949	100.5
311.179	87.5
311.409	94.5
311.639	88.5
311.868	94.5
312.098	92.5
312.328	101.5
312.557	95.5
312.787	99.5
313.017	102.5
313.246	81.5
313.476	78.5
313.706	90.5
313.935	84.5
314.165	104.5
314.394	97.5
314.624	88.5
314.853	90.5
315.083	94.5
315.312	80.5
315.542	88.5
315.771	106.5
316.001	88.5
316.23	95.5
316.46	109.5
316.689	88.5
316.919	93.5
317.148	94.5
317.377	84.5
317.607	101.5
317.836	82.5
318.065	90.5
318.295	85.5
318.524	88.5
318.753	82.5
318.983	102.5
319.212	105.5
319.441	106.5
319.67	98.5
319.9	105.5
320.129	97.5
320.358	96.5
320.587	94.5
320.816	105.5
321.046	99.5
321.275	86.5
321.504	90.5
321.733	99.5
321.962	92.5
322.191	107.5
322.42	108.5
322.649	102.5
322.878	101.5
323.108	110.5
323.337	111.5
323.566	132.5
323.795	140.5
324.024	191.5
324.253	339.5
324.482	692.5
324.71	1408.5
324.939	1855.5
325.168	669.5
325.397	218.5
325.626	156.5
325.855	117.5
326.084	107.5
326.313	110.5
326.542	148.5
326.77	222.5
326.999	397.5
327.228	815.5
327.457	1438.5
327.686	1129.5
327.914	334.5
328.143	189.5
328.372	164.5
328.6	146.5
328.829	107.5
329.058	116.5
329.287	125.5
329.515	102.5
329.744	106.5
329.972	129.5
330.201	174.5
330.43	216.5
330.658	132.5
330.887	122.5
331.115	109.5
331.344	99.5
331.572	96.5
331.801	106.5
332.03	99.5
332.258	100.5
332.486	86.5
332.715	104.5
332.943	88.5
333.172	99.5
333.4	101.5
333.629	111.5
333.857	117.5
334.085	114.5
334.314	162.5
334.542	236.5
334.771	212.5
334.999	119.5
335.227	107.5
335.455	93.5
335.684	96.5
335.912	97.5
336.14	100.5
336.369	99.5
336.597	106.5
336.825	99.5
337.053	96.5
337.281	84.5
337.51	92.5
337.738	96.5
337.966	101.5
338.194	108.5
338.422	95.5
338.65	87.5
338.878	102.5
339.106	84.5
339.334	90.5
339.562	92.5
339.79	77.5
340.018	81.5
340.246	91.5
340.474	106.5
340.702	92.5
340.93	90.5
341.158	97.5
341.386	92.5
341.614	101.5
341.842	93.5
342.07	91.5
342.298	84.5
342.526	82.5
342.754	94.5
342.981	105.5
343.209	94.5
343.437	96.5
343.665	87.5
343.893	105.5
344.12	101.5
344.348	100.5
344.576	88.5
344.804	92.5
345.031	100.5
345.259	102.5
345.487	86.5
345.714	102.5
345.942	84.5
346.17	98.5
346.397	92.5
346.625	100.5
346.853	83.5
347.08	99.5
347.308	103.5
347.535	99.5
347.763	91.5
347.99	97.5
348.218	110.5
348.445	96.5
348.673	104.5
348.9	91.5
349.128	104.5
349.355	94.5
349.583	95.5
349.81	89.5
350.037	93.5
350.265	98.5
350.492	108.5
350.72	108.5
350.947	100.5
351.174	125.5
351.402	101.5
351.629	108.5
351.856	100.5
352.083	101.5
352.311	113.5
352.538	115.5
352.765	116.5
352.992	110.5
353.22	110.5
353.447	100.5
353.674	90.5
353.901	94.5
354.128	89.5
354.355	100.5
354.583	108.5
354.81	97.5
355.037	104.5
355.264	85.5
355.491	98.5
355.718	98.5
355.945	93.5
356.172	89.5
356.399	95.5
356.626	104.5
356.853	93.5
357.08	98.5
357.307	99.5
357.534	91.5
357.761	85.5
357.988	90.5
358.215	98.5
358.441	102.5
358.668	85.5
358.895	95.5
359.122	78.5
359.349	98.5
359.576	85.5
359.802	92.5
360.029	100.5
360.256	98.5
360.483	81.5
360.709	100.5
360.936	92.5
361.163	97.5
361.39	91.5
361.616	93.5
361.843	85.5
362.07	99.5
362.296	100.5
362.523	91.5
362.749	100.5
362.976	98.5
363.203	102.5
363.429	91.5
363.656	96.5
363.882	83.5
364.109	101.5
364.335	82.5
364.562	97.5
364.788	90.5
365.015	91.5
365.241	94.5
365.468	107.5
365.694	101.5
365.92	91.5
366.147	88.5
366.373	92.5
366.599	86.5
366.826	88.5
367.052	79.5
367.278	90.5
367.505	92.5
367.731	85.5
367.957	95.5
368.184	99.5
368.41	80.5
368.636	106.5
368.862	98.5
369.089	103.5
369.315	80.5
369.541	90.5
369.767	83.5
369.993	104.5
370.219	75.5
370.445	89.5
370.672	96.5
370.898	95.5
371.124	84.5
371.35	98.5
371.576	92.5
371.802	93.5
372.028	90.5
372.254	101.5
372.48	103.5
372.706	82.5
372.932	96.5
373.158	84.5
373.384	101.5
373.61	94.5
373.835	83.5
374.061	76.5
374.287	76.5
374.513	89.5
374.739	94.5
374.965	83.5
375.191	84.5
375.416	91.5
375.642	95.5
375.868	98.5
376.094	81.5
376.319	85.5
376.545	94.5
376.771	106.5
376.997	96.5
377.222	101.5
377.448	96.5
377.674	87.5
377.899	98.5
378.125	88.5
378.35	92.5
378.576	98.5
378.802	93.5
379.027	90.5
379.253	86.5
379.478	77.5
379.704	86.5
379.929	101.5
380.155	93.5
380.38	91.5
380.606	102.5
380.831	94.5
381.057	94.5
381.282	102.5
381.507	89.5
381.733	99.5
381.958	88.5
382.184	99.5
382.409	116.5
382.634	92.5
382.86	76.5
383.085	93.5
383.31	99.5
383.535	95.5
383.761	100.5
383.986	100.5
384.211	93.5
384.436	91.5
384.662	97.5
384.887	95.5
385.112	109.5
385.337	93.5
385.562	86.5
385.787	111.5
386.013	98.5
386.238	95.5
386.463	92.5
386.688	117.5
386.913	104.5
387.138	93.5
387.363	84.5
387.588	92.5
387.813	97.5
388.038	106.5
388.263	110.5
388.488	108.5
388.713	115.5
388.938	88.5
389.163	80.5
389.387	93.5
389.612	72.5
389.837	89.5
390.062	89.5
390.287	102.5
390.512	101.5
390.736	93.5
390.961	89.5
391.186	90.5
391.411	91.5
391.636	96.5
391.86	83.5
392.085	91.5
392.31	79.5
392.534	84.5
392.759	91.5
392.984	86.5
393.208	97.5
393.433	91.5
393.658	93.5
393.882	84.5
394.107	94.5
394.331	98.5
394.556	85.5
394.78	88.5
395.005	88.5
395.229	87.5
395.454	74.5
395.678	76.5
395.903	71.5
396.127	98.5
396.352	88.5
396.576	72.5
396.801	84.5
397.025	88.5
397.249	71.5
397.474	87.5
397.698	98.5
397.922	88.5
398.147	101.5
398.371	107.5
398.595	94.5
398.82	78.5
399.044	76.5
399.268	84.5
399.492	78.5
399.717	98.5
399.941	95.5
400.165	92.5
400.389	80.5
400.613	79.5
400.837	80.5
401.062	82.5
401.286	95.5
401.51	90.5
401.734	80.5
401.958	102.5
402.182	129.5
402.406	146.5
402.63	102.5
402.854	90.5
403.078	87.5
403.302	75.5
403.526	101.5
403.75	93.5
403.974	78.5
404.198	92.5
404.422	91.5
404.645	89.5
404.869	91.5
405.093	97.5
405.317	115.5
405.541	104.5
405.765	99.5
405.988	102.5
406.212	154.5
406.436	209.5
406.66	125.5
406.883	103.5
407.107	87.5
407.331	94.5
407.555	100.5
407.778	91.5
408.002	94.5
408.226	92.5
408.449	84.5
408.673	96.5
408.896	76.5
409.12	100.5
409.344	104.5
409.567	95.5
409.791	93.5
410.014	86.5
410.238	94.5
410.461	92.5
410.685	108.5
410.908	97.5
411.132	107.5
411.355	110.5
411.578	80.5
411.802	93.5
412.025	97.5
412.249	85.5
412.472	92.5
412.695	99.5
412.919	85.5
413.142	84.5
413.365	84.5
413.589	90.5
413.812	99.5
414.035	90.5
414.258	79.5
414.482	81.5
414.705	97.5
414.928	92.5
415.151	83.5
415.374	74.5
415.597	102.5
415.821	102.5
416.044	93.5
416.267	100.5
416.49	97.5
416.713	79.5
416.936	88.5
417.159	87.5
417.382	99.5
417.605	88.5
417.828	93.5
418.051	82.5
418.274	76.5
418.497	88.5
418.72	97.5
418.943	88.5
419.166	100.5
419.389	77.5
419.611	94.5
419.834	92.5
420.057	95.5
420.28	76.5
420.503	79.5
420.726	90.5
420.948	88.5
421.171	89.5
421.394	97.5
421.617	93.5
421.839	73.5
422.062	95.5
422.285	96.5
422.507	97.5
422.73	102.5
422.953	102.5
423.175	88.5
423.398	84.5
423.621	91.5
423.843	94.5
424.066	86.5
424.288	82.5
424.511	95.5
424.733	89.5
424.956	105.5
425.178	107.5
425.401	108.5
425.623	98.5
425.846	95.5
426.068	77.5
426.291	91.5
426.513	86.5
426.735	101.5
426.958	82.5
427.18	107.5
427.402	123.5
427.625	143.5
427.847	122.5
428.069	122.5
428.292	95.5
428.514	89.5
428.736	93.5
428.958	73.5
429.181	92.5
429.403	86.5
429.625	99.5
429.847	97.5
430.069	85.5
430.292	88.5
430.514	79.5
430.736	90.5
430.958	96.5
431.18	90.5
431.402	69.5
431.624	74.5
431.846	77.5
432.068	85.5
432.29	91.5
432.512	94.5
432.734	92.5
432.956	90.5
433.178	100.5
433.4	89.5
433.622	85.5
433.844	91.5
434.066	85.5
434.287	76.5
434.509	86.5
434.731	91.5
434.953	88.5
435.175	91.5
435.397	95.5
435.618	106.5
435.84	100.5
436.062	91.5
436.284	104.5
436.505	94.5
436.727	105.5
436.949	95.5
437.17	94.5
437.392	86.5
437.614	103.5
437.835	92.5
438.057	118.5
438.278	109.5
438.5	102.5
438.721	99.5
438.943	102.5
439.165	89.5
439.386	85.5
439.608	96.5
439.829	89.5
440.05	127.5
440.272	142.5
440.493	92.5
440.715	90.5
440.936	86.5
441.158	81.5
441.379	88.5
441.6	90.5
441.822	84.5
442.043	89.5
442.264	96.5
442.486	101.5
442.707	93.5
442.928	98.5
443.149	119.5
443.371	121.5
443.592	88.5
443.813	91.5
444.034	98.5
444.255	90.5
444.476	77.5
444.698	90.5
444.919	80.5
445.14	118.5
445.361	116.5
445.582	102.5
445.803	123.5
446.024	138.5
446.245	123.5
446.466	97.5
446.687	88.5
446.908	98.5
447.129	77.5
447.35	88.5
447.571	94.5
447.792	83.5
448.013	102.5
448.234	111.5
448.455	90.5
448.675	108.5
448.896	114.5
449.117	99.5
449.338	94.5
449.559	116.5
449.779	105.5
450	102.5
450.221	80.5
450.442	93.5
450.662	86.5
450.883	93.5
451.104	96.5
451.324	101.5
451.545	98.5
451.766	86.5
451.986	86.5
452.207	92.5
452.428	80.5
452.648	105.5
452.869	93.5
453.089	101.5
453.31	104.5
453.53	96.5
453.751	108.5
453.971	106.5
454.192	95.5
454.412	81.5
454.633	87.5
454.853	78.5
455.073	86.5
455.294	105.5
455.514	112.5
455.734	84.5
455.955	92.5
456.175	77.5
456.395	84.5
456.616	86.5
456.836	94.5
457.056	70.5
457.276	89.5
457.497	78.5
457.717	80.5
457.937	86.5
458.157	94.5
458.377	95.5
458.598	89.5
458.818	126.5
459.038	144.5
459.258	113.5
459.478	94.5
459.698	83.5
459.918	85.5
460.138	83.5
460.358	87.5
460.578	84.5
460.798	92.5
461.018	94.5
461.238	94.5
461.458	76.5
461.678	97.5
461.898	88.5
462.118	98.5
462.338	86.5
462.558	99.5
462.777	75.5
462.997	78.5
463.217	81.5
463.437	66.5
463.657	92.5
463.876	92.5
464.096	102.5
464.316	88.5
464.536	91.5
464.755	99.5
464.975	93.5
465.195	144.5
465.414	141.5
465.634	93.5
465.854	99.5
466.073	92.5
466.293	84.5
466.512	70.5
466.732	87.5
466.951	83.5
467.171	83.5
467.391	92.5
467.61	90.5
467.829	92.5
468.049	126.5
468.268	161.5
468.488	106.5
468.707	90.5
468.927	90.5
469.146	90.5
469.365	94.5
469.585	95.5
469.804	89.5
470.023	90.5
470.243	90.5
470.462	83.5
470.681	113.5
470.901	82.5
471.12	90.5
471.339	99.5
471.558	78.5
471.777	84.5
471.997	104.5
472.216	165.5
472.435	276.5
472.654	124.5
472.873	94.5
473.092	84.5
473.311	80.5
473.53	100.5
473.749	99.5
473.968	90.5
474.187	101.5
474.406	81.5
474.625	73.5
474.844	84.5
475.063	96.5
475.282	79.5
475.501	88.5
475.72	82.5
475.939	85.5
476.158	95.5
476.377	86.5
476.596	85.5
476.814	90.5
477.033	98.5
477.252	93.5
477.471	100.5
477.69	83.5
477.908	92.5
478.127	94.5
478.346	96.5
478.564	102.5
478.783	105.5
479.002	98.5
479.22	102.5
479.439	89.5
479.658	88.5
479.876	107.5
480.095	88.5
480.313	87.5
480.532	89.5
480.751	112.5
480.969	181.5
481.188	465.5
481.406	293.5
481.624	117.5
481.843	100.5
482.061	92.5
482.28	88.5
482.498	81.5
482.717	94.5
482.935	80.5
483.153	103.5
483.372	84.5
483.59	97.5
483.808	96.5
484.027	76.5
484.245	89.5
484.463	101.5
484.681	89.5
484.9	96.5
485.118	106.5
485.336	96.5
485.554	90.5
485.772	100.5
485.99	102.5
486.209	109.5
486.427	98.5
486.645	114.5
486.863	113.5
487.081	106.5
487.299	93.5
487.517	97.5
487.735	82.5
487.953	79.5
488.171	80.5
488.389	91.5
488.607	94.5
488.825	100.5
489.043	92.5
489.261	88.5
489.479	93.5
489.696	88.5
489.914	87.5
490.132	96.5
490.35	93.5
490.568	88.5
490.786	87.5
491.003	98.5
491.221	100.5
491.439	89.5
491.657	91.5
491.874	100.5
492.092	99.5
492.31	98.5
492.527	97.5
492.745	94.5
492.963	95.5
493.18	86.5
493.398	100.5
493.615	90.5
493.833	99.5
494.05	85.5
494.268	89.5
494.485	85.5
494.703	106.5
494.92	93.5
495.138	89.5
495.355	100.5
495.573	88.5
495.79	86.5
496.008	99.5
496.225	90.5
496.442	92.5
496.66	109.5
496.877	82.5
497.094	80.5
497.312	81.5
497.529	79.5
497.746	86.5
497.963	93.5
498.181	88.5
498.398	89.5
498.615	103.5
498.832	100.5
499.049	87.5
499.267	84.5
499.484	76.5
499.701	81.5
499.918	87.5
500.135	94.5
500.352	97.5
500.569	81.5
500.786	93.5
501.003	96.5
501.22	85.5
501.437	88.5
501.654	105.5
501.871	102.5
502.088	87.5
502.305	76.5
502.522	98.5
502.739	79.5
502.956	74.5
503.172	93.5
503.389	94.5
503.606	108.5
503.823	79.5
504.04	86.5
504.256	93.5
504.473	90.5
504.69	87.5
504.907	82.5
505.123	86.5
505.34	90.5
505.557	78.5
505.773	97.5
505.99	101.5
506.207	82.5
506.423	91.5
506.64	96.5
506.856	76.5
507.073	97.5
507.289	92.5
507.506	109.5
507.722	101.5
507.939	109.5
508.155	97.5
508.372	94.5
508.588	82.5
508.805	109.5
509.021	101.5
509.238	104.5
509.454	112.5
509.67	107.5
509.887	101.5
510.103	116.5
510.319	195.5
510.536	686.5
510.752	2149.5
510.968	609.5
511.184	140.5
511.401	112.5
511.617	96.5
511.833	91.5
512.049	90.5
512.265	79.5
512.481	94.5
512.698	93.5
512.914	88.5
513.13	83.5
513.346	98.5
513.562	96.5
513.778	98.5
513.994	94.5
514.21	98.5
514.426	117.5
514.642	123.5
514.858	110.5
515.074	163.5
515.29	392.5
515.506	1234.5
515.721	453.5
515.937	129.5
516.153	95.5
516.369	100.5
516.585	87.5
516.801	84.5
517.016	93.5
517.232	101.5
517.448	98.5
517.664	91.5
517.879	95.5
518.095	77.5
518.311	88.5
518.527	86.5
518.742	91.5
518.958	88.5
519.173	81.5
519.389	94.5
519.605	107.5
519.82	93.5
520.036	100.5
520.251	102.5
520.467	113.5
520.682	92.5
520.898	100.5
521.113	102.5
521.329	128.5
521.544	189.5
521.76	489.5
521.975	2004.5
522.19	1192.5
522.406	269.5
522.621	136.5
522.836	108.5
523.052	106.5
523.267	93.5
523.482	86.5
523.698	104.5
523.913	119.5
524.128	99.5
524.343	83.5
524.559	97.5
524.774	92.5
524.989	100.5
525.204	98.5
525.419	110.5
525.634	91.5
525.849	88.5
526.064	87.5
526.28	94.5
526.495	97.5
526.71	82.5
526.925	78.5
527.14	73.5
527.355	85.5
527.57	89.5
527.785	88.5
527.999	88.5
528.214	86.5
528.429	85.5
528.644	97.5
528.859	86.5
529.074	98.5
529.289	107.5
529.503	166.5
529.718	115.5
529.933	88.5
530.148	107.5
530.363	71.5
530.577	89.5
530.792	88.5
531.007	90.5
531.221	89.5
531.436	76.5
531.651	89.5
531.865	89.5
532.08	91.5
532.295	79.5
532.509	100.5
532.724	100.5
532.938	89.5
533.153	84.5
533.367	92.5
533.582	87.5
533.796	90.5
534.011	85.5
534.225	81.5
534.44	93.5
534.654	103.5
534.868	98.5
535.083	84.5
535.297	92.5
