Data from Circ_1994_H10_HRD10591_00007.txt Node
Date: Wed Jan 03 11:40:31 EST 2024
User: Yrep
Spectrometer: HR+D1059
Trigger mode: 1
Integration Time (sec): 1.000000E-1
Scans to average: 1
Electric dark correction enabled: true
Nonlinearity correction enabled: false
Boxcar width: 0
XAxis mode: Wavelengths
Number of Pixels in Spectrum: 2048
>>>>>Begin Spectral Data<<<<<
223.165	-13.88
223.4	-13.88
223.635	-13.88
223.869	-13.88
224.104	-10.88
224.338	-17.88
224.573	-24.88
224.808	-12.88
225.042	-9.88
225.277	-16.88
225.511	-0.88
225.746	8.12
225.98	10.12
226.215	15.12
226.449	19.12
226.683	25.12
226.918	11.12
227.152	33.12
227.387	37.12
227.621	45.12
227.856	47.12
228.09	44.12
228.324	55.12
228.559	36.12
228.793	54.12
229.027	71.12
229.262	79.12
229.496	70.12
229.73	91.12
229.964	76.12
230.199	98.12
230.433	83.12
230.667	87.12
230.901	78.12
231.136	83.12
231.37	88.12
231.604	83.12
231.838	80.12
232.072	83.12
232.306	80.12
232.541	82.12
232.775	94.12
233.009	84.12
233.243	76.12
233.477	78.12
233.711	84.12
233.945	81.12
234.179	84.12
234.413	80.12
234.647	67.12
234.881	78.12
235.115	84.12
235.349	81.12
235.583	72.12
235.817	77.12
236.051	81.12
236.285	90.12
236.519	81.12
236.753	83.12
236.987	75.12
237.221	94.12
237.455	95.12
237.689	78.12
237.922	81.12
238.156	78.12
238.39	84.12
238.624	74.12
238.858	90.12
239.091	79.12
239.325	82.12
239.559	91.12
239.793	86.12
240.027	84.12
240.26	81.12
240.494	81.12
240.728	76.12
240.961	83.12
241.195	70.12
241.429	76.12
241.662	74.12
241.896	69.12
242.13	85.12
242.363	79.12
242.597	94.12
242.83	75.12
243.064	85.12
243.298	82.12
243.531	83.12
243.765	77.12
243.998	78.12
244.232	81.12
244.465	96.12
244.699	83.12
244.932	77.12
245.166	91.12
245.399	81.12
245.633	75.12
245.866	84.12
246.099	87.12
246.333	93.12
246.566	83.12
246.8	74.12
247.033	75.12
247.266	86.12
247.5	72.12
247.733	77.12
247.966	98.12
248.2	78.12
248.433	78.12
248.666	89.12
248.899	93.12
249.133	81.12
249.366	87.12
249.599	88.12
249.832	77.12
250.066	78.12
250.299	95.12
250.532	86.12
250.765	88.12
250.998	93.12
251.231	78.12
251.465	87.12
251.698	92.12
251.931	76.12
252.164	82.12
252.397	84.12
252.63	78.12
252.863	76.12
253.096	81.12
253.329	76.12
253.562	77.12
253.795	75.12
254.028	76.12
254.261	77.12
254.494	86.12
254.727	74.12
254.96	87.12
255.193	88.12
255.426	99.12
255.659	107.12
255.892	86.12
256.124	85.12
256.357	79.12
256.59	102.12
256.823	88.12
257.056	74.12
257.289	85.12
257.521	66.12
257.754	76.12
257.987	78.12
258.22	83.12
258.452	75.12
258.685	82.12
258.918	93.12
259.151	86.12
259.383	88.12
259.616	78.12
259.849	90.12
260.081	90.12
260.314	92.12
260.547	76.12
260.779	78.12
261.012	102.12
261.244	80.12
261.477	107.12
261.71	95.12
261.942	105.12
262.175	86.12
262.407	86.12
262.64	88.12
262.872	96.12
263.105	79.12
263.337	86.12
263.57	83.12
263.802	84.12
264.035	78.12
264.267	77.12
264.499	70.12
264.732	82.12
264.964	80.12
265.197	99.12
265.429	106.12
265.661	82.12
265.894	93.12
266.126	91.12
266.358	76.12
266.591	91.12
266.823	85.12
267.055	89.12
267.287	77.12
267.52	79.12
267.752	101.12
267.984	85.12
268.216	67.12
268.448	81.12
268.681	80.12
268.913	75.12
269.145	87.12
269.377	91.12
269.609	73.12
269.841	90.12
270.073	89.12
270.306	82.12
270.538	94.12
270.77	83.12
271.002	85.12
271.234	91.12
271.466	92.12
271.698	94.12
271.93	89.12
272.162	75.12
272.394	92.12
272.626	81.12
272.858	82.12
273.09	79.12
273.322	82.12
273.553	78.12
273.785	97.12
274.017	88.12
274.249	86.12
274.481	74.12
274.713	91.12
274.945	88.12
275.176	95.12
275.408	88.12
275.64	78.12
275.872	99.12
276.104	86.12
276.335	98.12
276.567	100.12
276.799	94.12
277.031	95.12
277.262	79.12
277.494	82.12
277.726	89.12
277.957	78.12
278.189	88.12
278.421	70.12
278.652	74.12
278.884	80.12
279.115	81.12
279.347	80.12
279.579	82.12
279.81	84.12
280.042	72.12
280.273	83.12
280.505	92.12
280.736	85.12
280.968	81.12
281.199	102.12
281.431	98.12
281.662	86.12
281.894	83.12
282.125	86.12
282.356	98.12
282.588	139.12
282.819	97.12
283.051	102.12
283.282	99.12
283.513	102.12
283.745	89.12
283.976	78.12
284.207	84.12
284.439	92.12
284.67	104.12
284.901	90.12
285.132	93.12
285.364	102.12
285.595	79.12
285.826	82.12
286.057	86.12
286.288	97.12
286.52	89.12
286.751	85.12
286.982	84.12
287.213	77.12
287.444	86.12
287.675	94.12
287.906	104.12
288.138	101.12
288.369	89.12
288.6	79.12
288.831	105.12
289.062	88.12
289.293	82.12
289.524	90.12
289.755	104.12
289.986	74.12
290.217	84.12
290.448	92.12
290.679	85.12
290.91	76.12
291.141	99.12
291.371	76.12
291.602	79.12
291.833	87.12
292.064	86.12
292.295	86.12
292.526	84.12
292.757	88.12
292.987	86.12
293.218	86.12
293.449	86.12
293.68	95.12
293.91	99.12
294.141	99.12
294.372	86.12
294.603	81.12
294.833	79.12
295.064	90.12
295.295	98.12
295.525	91.12
295.756	91.12
295.987	112.12
296.217	121.12
296.448	109.12
296.679	103.12
296.909	82.12
297.14	83.12
297.37	105.12
297.601	82.12
297.831	83.12
298.062	96.12
298.292	92.12
298.523	94.12
298.753	97.12
298.984	98.12
299.214	93.12
299.445	89.12
299.675	93.12
299.905	99.12
300.136	95.12
300.366	98.12
300.597	70.12
300.827	102.12
301.057	82.12
301.288	110.12
301.518	86.12
301.748	102.12
301.979	102.12
302.209	76.12
302.439	82.12
302.669	86.12
302.9	85.12
303.13	83.12
303.36	83.12
303.59	99.12
303.82	105.12
304.051	92.12
304.281	106.12
304.511	87.12
304.741	84.12
304.971	87.12
305.201	91.12
305.431	88.12
305.661	83.12
305.891	98.12
306.121	95.12
306.352	106.12
306.582	108.12
306.812	83.12
307.042	98.12
307.272	93.12
307.502	96.12
307.731	92.12
307.961	99.12
308.191	74.12
308.421	80.12
308.651	85.12
308.881	100.12
309.111	100.12
309.341	90.12
309.571	89.12
309.8	88.12
310.03	107.12
310.26	106.12
310.49	109.12
310.72	91.12
310.949	114.12
311.179	112.12
311.409	78.12
311.639	94.12
311.868	82.12
312.098	98.12
312.328	103.12
312.557	95.12
312.787	108.12
313.017	89.12
313.246	78.12
313.476	94.12
313.706	81.12
313.935	102.12
314.165	101.12
314.394	100.12
314.624	75.12
314.853	97.12
315.083	87.12
315.312	96.12
315.542	89.12
315.771	101.12
316.001	94.12
316.23	80.12
316.46	93.12
316.689	89.12
316.919	102.12
317.148	98.12
317.377	96.12
317.607	77.12
317.836	96.12
318.065	98.12
318.295	103.12
318.524	97.12
318.753	85.12
318.983	85.12
319.212	110.12
319.441	110.12
319.67	101.12
319.9	99.12
320.129	84.12
320.358	100.12
320.587	87.12
320.816	84.12
321.046	99.12
321.275	107.12
321.504	93.12
321.733	94.12
321.962	101.12
322.191	98.12
322.42	106.12
322.649	103.12
322.878	98.12
323.108	110.12
323.337	109.12
323.566	128.12
323.795	141.12
324.024	174.12
324.253	314.12
324.482	665.12
324.71	1376.12
324.939	1792.12
325.168	663.12
325.397	218.12
325.626	133.12
325.855	119.12
326.084	117.12
326.313	125.12
326.542	133.12
326.77	218.12
326.999	384.12
327.228	767.12
327.457	1388.12
327.686	1073.12
327.914	291.12
328.143	173.12
328.372	119.12
328.6	119.12
328.829	104.12
329.058	129.12
329.287	110.12
329.515	92.12
329.744	88.12
329.972	98.12
330.201	118.12
330.43	107.12
330.658	113.12
330.887	133.12
331.115	115.12
331.344	95.12
331.572	114.12
331.801	99.12
332.03	105.12
332.258	95.12
332.486	96.12
332.715	85.12
332.943	99.12
333.172	110.12
333.4	103.12
333.629	109.12
333.857	117.12
334.085	102.12
334.314	105.12
334.542	112.12
334.771	105.12
334.999	111.12
335.227	107.12
335.455	97.12
335.684	89.12
335.912	105.12
336.14	95.12
336.369	102.12
336.597	107.12
336.825	87.12
337.053	113.12
337.281	107.12
337.51	99.12
337.738	91.12
337.966	99.12
338.194	88.12
338.422	97.12
338.65	95.12
338.878	84.12
339.106	98.12
339.334	102.12
339.562	102.12
339.79	98.12
340.018	98.12
340.246	99.12
340.474	84.12
340.702	81.12
340.93	93.12
341.158	86.12
341.386	111.12
341.614	115.12
341.842	111.12
342.07	90.12
342.298	88.12
342.526	91.12
342.754	93.12
342.981	90.12
343.209	86.12
343.437	101.12
343.665	90.12
343.893	101.12
344.12	104.12
344.348	85.12
344.576	98.12
344.804	99.12
345.031	103.12
345.259	91.12
345.487	95.12
345.714	98.12
345.942	94.12
346.17	96.12
346.397	92.12
346.625	83.12
346.853	95.12
347.08	92.12
347.308	101.12
347.535	106.12
347.763	92.12
347.99	106.12
348.218	103.12
348.445	104.12
348.673	104.12
348.9	90.12
349.128	92.12
349.355	92.12
349.583	107.12
349.81	85.12
350.037	91.12
350.265	81.12
350.492	93.12
350.72	79.12
350.947	99.12
351.174	119.12
351.402	118.12
351.629	103.12
351.856	112.12
352.083	99.12
352.311	107.12
352.538	115.12
352.765	108.12
352.992	108.12
353.22	114.12
353.447	96.12
353.674	94.12
353.901	95.12
354.128	107.12
354.355	99.12
354.583	90.12
354.81	84.12
355.037	100.12
355.264	108.12
355.491	97.12
355.718	94.12
355.945	95.12
356.172	100.12
356.399	99.12
356.626	107.12
356.853	91.12
357.08	103.12
357.307	97.12
357.534	92.12
357.761	92.12
357.988	102.12
358.215	104.12
358.441	92.12
358.668	94.12
358.895	99.12
359.122	97.12
359.349	87.12
359.576	92.12
359.802	106.12
360.029	100.12
360.256	94.12
360.483	84.12
360.709	92.12
360.936	89.12
361.163	100.12
361.39	91.12
361.616	87.12
361.843	97.12
362.07	104.12
362.296	104.12
362.523	107.12
362.749	88.12
362.976	93.12
363.203	96.12
363.429	88.12
363.656	95.12
363.882	82.12
364.109	79.12
364.335	81.12
364.562	82.12
364.788	93.12
365.015	86.12
365.241	91.12
365.468	100.12
365.694	91.12
365.92	111.12
366.147	90.12
366.373	84.12
366.599	88.12
366.826	84.12
367.052	92.12
367.278	86.12
367.505	99.12
367.731	95.12
367.957	93.12
368.184	98.12
368.41	96.12
368.636	100.12
368.862	112.12
369.089	102.12
369.315	88.12
369.541	93.12
369.767	96.12
369.993	83.12
370.219	103.12
370.445	84.12
370.672	88.12
370.898	89.12
371.124	84.12
371.35	79.12
371.576	79.12
371.802	95.12
372.028	99.12
372.254	100.12
372.48	95.12
372.706	88.12
372.932	78.12
373.158	95.12
373.384	102.12
373.61	85.12
373.835	86.12
374.061	84.12
374.287	86.12
374.513	93.12
374.739	94.12
374.965	104.12
375.191	87.12
375.416	83.12
375.642	84.12
375.868	96.12
376.094	93.12
376.319	92.12
376.545	103.12
376.771	90.12
376.997	83.12
377.222	88.12
377.448	96.12
377.674	80.12
377.899	102.12
378.125	93.12
378.35	97.12
378.576	94.12
378.802	90.12
379.027	98.12
379.253	103.12
379.478	84.12
379.704	98.12
379.929	106.12
380.155	110.12
380.38	90.12
380.606	99.12
380.831	97.12
381.057	95.12
381.282	111.12
381.507	103.12
381.733	107.12
381.958	85.12
382.184	77.12
382.409	101.12
382.634	113.12
382.86	98.12
383.085	122.12
383.31	96.12
383.535	101.12
383.761	98.12
383.986	101.12
384.211	99.12
384.436	103.12
384.662	100.12
384.887	89.12
385.112	97.12
385.337	86.12
385.562	108.12
385.787	97.12
386.013	110.12
386.238	127.12
386.463	103.12
386.688	106.12
386.913	100.12
387.138	93.12
387.363	102.12
387.588	97.12
387.813	94.12
388.038	125.12
388.263	104.12
388.488	107.12
388.713	89.12
388.938	92.12
389.163	90.12
389.387	96.12
389.612	100.12
389.837	92.12
390.062	91.12
390.287	94.12
390.512	92.12
390.736	84.12
390.961	86.12
391.186	86.12
391.411	97.12
391.636	113.12
391.86	85.12
392.085	95.12
392.31	87.12
392.534	92.12
392.759	100.12
392.984	87.12
393.208	109.12
393.433	107.12
393.658	92.12
393.882	94.12
394.107	96.12
394.331	96.12
394.556	74.12
394.78	102.12
395.005	107.12
395.229	90.12
395.454	86.12
395.678	85.12
395.903	92.12
396.127	94.12
396.352	82.12
396.576	84.12
396.801	83.12
397.025	81.12
397.249	94.12
397.474	83.12
397.698	95.12
397.922	90.12
398.147	79.12
398.371	87.12
398.595	82.12
398.82	86.12
399.044	93.12
399.268	91.12
399.492	93.12
399.717	101.12
399.941	95.12
400.165	102.12
400.389	87.12
400.613	77.12
400.837	83.12
401.062	89.12
401.286	83.12
401.51	75.12
401.734	69.12
401.958	98.12
402.182	124.12
402.406	140.12
402.63	99.12
402.854	102.12
403.078	96.12
403.302	88.12
403.526	92.12
403.75	86.12
403.974	85.12
404.198	70.12
404.422	81.12
404.645	89.12
404.869	103.12
405.093	91.12
405.317	93.12
405.541	93.12
405.765	94.12
405.988	104.12
406.212	142.12
406.436	186.12
406.66	141.12
406.883	96.12
407.107	94.12
407.331	100.12
407.555	99.12
407.778	95.12
408.002	101.12
408.226	87.12
408.449	88.12
408.673	95.12
408.896	95.12
409.12	79.12
409.344	108.12
409.567	80.12
409.791	88.12
410.014	101.12
410.238	99.12
410.461	95.12
410.685	86.12
410.908	109.12
411.132	106.12
411.355	106.12
411.578	98.12
411.802	88.12
412.025	94.12
412.249	102.12
412.472	81.12
412.695	94.12
412.919	88.12
413.142	83.12
413.365	96.12
413.589	83.12
413.812	86.12
414.035	89.12
414.258	98.12
414.482	101.12
414.705	84.12
414.928	73.12
415.151	98.12
415.374	97.12
415.597	92.12
415.821	92.12
416.044	110.12
416.267	85.12
416.49	91.12
416.713	90.12
416.936	91.12
417.159	92.12
417.382	93.12
417.605	102.12
417.828	95.12
418.051	86.12
418.274	84.12
418.497	94.12
418.72	94.12
418.943	80.12
419.166	84.12
419.389	91.12
419.611	87.12
419.834	101.12
420.057	91.12
420.28	79.12
420.503	84.12
420.726	77.12
420.948	93.12
421.171	100.12
421.394	99.12
421.617	90.12
421.839	87.12
422.062	92.12
422.285	95.12
422.507	100.12
422.73	98.12
422.953	87.12
423.175	84.12
423.398	101.12
423.621	92.12
423.843	96.12
424.066	88.12
424.288	78.12
424.511	91.12
424.733	90.12
424.956	123.12
425.178	95.12
425.401	110.12
425.623	107.12
425.846	94.12
426.068	91.12
426.291	97.12
426.513	95.12
426.735	105.12
426.958	84.12
427.18	93.12
427.402	120.12
427.625	154.12
427.847	115.12
428.069	97.12
428.292	90.12
428.514	79.12
428.736	86.12
428.958	80.12
429.181	87.12
429.403	87.12
429.625	88.12
429.847	104.12
430.069	93.12
430.292	96.12
430.514	83.12
430.736	87.12
430.958	91.12
431.18	74.12
431.402	68.12
431.624	85.12
431.846	79.12
432.068	80.12
432.29	91.12
432.512	112.12
432.734	88.12
432.956	87.12
433.178	110.12
433.4	100.12
433.622	86.12
433.844	99.12
434.066	108.12
434.287	89.12
434.509	102.12
434.731	90.12
434.953	84.12
435.175	83.12
435.397	95.12
435.618	93.12
435.84	107.12
436.062	118.12
436.284	115.12
436.505	91.12
436.727	94.12
436.949	96.12
437.17	94.12
437.392	86.12
437.614	104.12
437.835	102.12
438.057	106.12
438.278	107.12
438.5	105.12
438.721	110.12
438.943	113.12
439.165	72.12
439.386	90.12
439.608	87.12
439.829	101.12
440.05	118.12
440.272	126.12
440.493	94.12
440.715	93.12
440.936	75.12
441.158	102.12
441.379	83.12
441.6	86.12
441.822	94.12
442.043	98.12
442.264	105.12
442.486	87.12
442.707	96.12
442.928	91.12
443.149	118.12
443.371	113.12
443.592	106.12
443.813	111.12
444.034	101.12
444.255	82.12
444.476	103.12
444.698	95.12
444.919	87.12
445.14	122.12
445.361	114.12
445.582	116.12
445.803	114.12
446.024	130.12
446.245	126.12
446.466	98.12
446.687	102.12
446.908	81.12
447.129	92.12
447.35	84.12
447.571	94.12
447.792	101.12
448.013	92.12
448.234	99.12
448.455	101.12
448.675	94.12
448.896	91.12
449.117	108.12
449.338	101.12
449.559	124.12
449.779	114.12
450	95.12
450.221	77.12
450.442	90.12
450.662	92.12
450.883	104.12
451.104	85.12
451.324	90.12
451.545	94.12
451.766	76.12
451.986	78.12
452.207	97.12
452.428	85.12
452.648	101.12
452.869	112.12
453.089	99.12
453.31	105.12
453.53	94.12
453.751	95.12
453.971	94.12
454.192	91.12
454.412	89.12
454.633	102.12
454.853	85.12
455.073	90.12
455.294	84.12
455.514	99.12
455.734	96.12
455.955	100.12
456.175	96.12
456.395	102.12
456.616	98.12
456.836	85.12
457.056	95.12
457.276	87.12
457.497	81.12
457.717	85.12
457.937	96.12
458.157	97.12
458.377	89.12
458.598	104.12
458.818	124.12
459.038	129.12
459.258	108.12
459.478	101.12
459.698	89.12
459.918	80.12
460.138	82.12
460.358	78.12
460.578	91.12
460.798	95.12
461.018	92.12
461.238	97.12
461.458	110.12
461.678	87.12
461.898	85.12
462.118	87.12
462.338	77.12
462.558	86.12
462.777	88.12
462.997	94.12
463.217	97.12
463.437	92.12
463.657	90.12
463.876	95.12
464.096	85.12
464.316	98.12
464.536	93.12
464.755	84.12
464.975	110.12
465.195	138.12
465.414	157.12
465.634	95.12
465.854	94.12
466.073	91.12
466.293	85.12
466.512	96.12
466.732	96.12
466.951	93.12
467.171	98.12
467.391	111.12
467.61	96.12
467.829	97.12
468.049	92.12
468.268	85.12
468.488	79.12
468.707	93.12
468.927	82.12
469.146	83.12
469.365	87.12
469.585	98.12
469.804	91.12
470.023	83.12
470.243	105.12
470.462	103.12
470.681	100.12
470.901	95.12
471.12	81.12
471.339	88.12
471.558	82.12
471.777	86.12
471.997	97.12
472.216	95.12
472.435	113.12
472.654	84.12
472.873	83.12
473.092	91.12
473.311	98.12
473.53	71.12
473.749	90.12
473.968	90.12
474.187	91.12
474.406	95.12
474.625	94.12
474.844	86.12
475.063	92.12
475.282	93.12
475.501	87.12
475.72	94.12
475.939	90.12
476.158	82.12
476.377	80.12
476.596	96.12
476.814	84.12
477.033	91.12
477.252	91.12
477.471	91.12
477.69	91.12
477.908	88.12
478.127	90.12
478.346	90.12
478.564	83.12
478.783	96.12
479.002	81.12
479.22	95.12
479.439	94.12
479.658	84.12
479.876	88.12
480.095	71.12
480.313	80.12
480.532	91.12
480.751	89.12
480.969	107.12
481.188	133.12
481.406	107.12
481.624	97.12
481.843	90.12
482.061	94.12
482.28	76.12
482.498	80.12
482.717	91.12
482.935	74.12
483.153	96.12
483.372	93.12
483.59	92.12
483.808	96.12
484.027	95.12
484.245	92.12
484.463	104.12
484.681	108.12
484.9	93.12
485.118	91.12
485.336	85.12
485.554	93.12
485.772	101.12
485.99	110.12
486.209	103.12
486.427	87.12
486.645	107.12
486.863	113.12
487.081	86.12
487.299	98.12
487.517	94.12
487.735	82.12
487.953	102.12
488.171	97.12
488.389	97.12
488.607	103.12
488.825	82.12
489.043	93.12
489.261	85.12
489.479	87.12
489.696	91.12
489.914	92.12
490.132	90.12
490.35	104.12
490.568	107.12
490.786	94.12
491.003	70.12
491.221	85.12
491.439	74.12
491.657	80.12
491.874	80.12
492.092	96.12
492.31	109.12
492.527	102.12
492.745	80.12
492.963	90.12
493.18	94.12
493.398	97.12
493.615	113.12
493.833	87.12
494.05	90.12
494.268	85.12
494.485	96.12
494.703	91.12
494.92	97.12
495.138	89.12
495.355	88.12
495.573	93.12
495.79	93.12
496.008	91.12
496.225	83.12
496.442	105.12
496.66	99.12
496.877	91.12
497.094	116.12
497.312	86.12
497.529	96.12
497.746	84.12
497.963	87.12
498.181	98.12
498.398	94.12
498.615	112.12
498.832	100.12
499.049	102.12
499.267	91.12
499.484	87.12
499.701	83.12
499.918	91.12
500.135	94.12
500.352	95.12
500.569	101.12
500.786	82.12
501.003	93.12
501.22	96.12
501.437	98.12
501.654	96.12
501.871	110.12
502.088	89.12
502.305	83.12
502.522	98.12
502.739	89.12
502.956	82.12
503.172	88.12
503.389	95.12
503.606	116.12
503.823	98.12
504.04	100.12
504.256	98.12
504.473	102.12
504.69	85.12
504.907	88.12
505.123	101.12
505.34	103.12
505.557	86.12
505.773	90.12
505.99	91.12
506.207	83.12
506.423	102.12
506.64	87.12
506.856	83.12
507.073	84.12
507.289	99.12
507.506	93.12
507.722	110.12
507.939	113.12
508.155	88.12
508.372	98.12
508.588	93.12
508.805	82.12
509.021	84.12
509.238	115.12
509.454	87.12
509.67	104.12
509.887	88.12
510.103	126.12
510.319	189.12
510.536	664.12
510.752	2000.12
510.968	560.12
511.184	131.12
511.401	102.12
511.617	98.12
511.833	108.12
512.049	83.12
512.265	98.12
512.481	91.12
512.698	104.12
512.914	89.12
513.13	100.12
513.346	96.12
513.562	91.12
513.778	94.12
513.994	98.12
514.21	108.12
514.426	123.12
514.642	116.12
514.858	119.12
515.074	162.12
515.29	370.12
