Data from Circ_1994_H10_HRD10591_00009.txt Node
Date: Wed Jan 03 11:40:32 EST 2024
User: Yrep
Spectrometer: HR+D1059
Trigger mode: 1
Integration Time (sec): 1.000000E-1
Scans to average: 1
Electric dark correction enabled: true
Nonlinearity correction enabled: false
Boxcar width: 0
XAxis mode: Wavelengths
Number of Pixels in Spectrum: 2048
>>>>>Begin Spectral Data<<<<<
223.165	-9.12
223.4	-9.12
223.635	-9.12
223.869	-9.12
224.104	-36.12
224.338	-23.12
224.573	-12.12
224.808	-23.12
225.042	-7.12
225.277	-4.12
225.511	-0.12
225.746	0.88
225.98	-4.12
226.215	19.88
226.449	14.88
226.683	32.88
226.918	27.88
227.152	31.88
227.387	42.88
227.621	39.88
227.856	50.88
228.09	42.88
228.324	43.88
228.559	57.88
228.793	63.88
229.027	61.88
229.262	78.88
229.496	71.88
229.73	70.88
229.964	74.88
230.199	70.88
230.433	75.88
230.667	72.88
230.901	89.88
231.136	72.88
231.37	70.88
231.604	89.88
231.838	66.88
232.072	82.88
232.306	87.88
232.541	68.88
232.775	95.88
233.009	89.88
233.243	82.88
233.477	80.88
233.711	91.88
233.945	80.88
234.179	85.88
234.413	72.88
234.647	75.88
234.881	66.88
235.115	78.88
235.349	79.88
235.583	73.88
235.817	88.88
236.051	63.88
236.285	58.88
236.519	66.88
236.753	89.88
236.987	78.88
237.221	86.88
237.455	91.88
237.689	75.88
237.922	79.88
238.156	67.88
238.39	72.88
238.624	64.88
238.858	70.88
239.091	76.88
239.325	72.88
239.559	84.88
239.793	70.88
240.027	84.88
240.26	86.88
240.494	73.88
240.728	88.88
240.961	66.88
241.195	81.88
241.429	73.88
241.662	66.88
241.896	64.88
242.13	59.88
242.363	90.88
242.597	73.88
242.83	78.88
243.064	71.88
243.298	78.88
243.531	72.88
243.765	82.88
243.998	80.88
244.232	80.88
244.465	82.88
244.699	72.88
244.932	75.88
245.166	76.88
245.399	82.88
245.633	84.88
245.866	87.88
246.099	78.88
246.333	86.88
246.566	77.88
246.8	74.88
247.033	86.88
247.266	82.88
247.5	69.88
247.733	62.88
247.966	72.88
248.2	74.88
248.433	92.88
248.666	75.88
248.899	74.88
249.133	78.88
249.366	77.88
249.599	96.88
249.832	92.88
250.066	81.88
250.299	71.88
250.532	75.88
250.765	87.88
250.998	82.88
251.231	83.88
251.465	87.88
251.698	85.88
251.931	83.88
252.164	87.88
252.397	57.88
252.63	76.88
252.863	79.88
253.096	72.88
253.329	73.88
253.562	88.88
253.795	86.88
254.028	77.88
254.261	64.88
254.494	75.88
254.727	70.88
254.96	74.88
255.193	82.88
255.426	83.88
255.659	71.88
255.892	88.88
256.124	56.88
256.357	68.88
256.59	85.88
256.823	77.88
257.056	82.88
257.289	88.88
257.521	92.88
257.754	78.88
257.987	76.88
258.22	79.88
258.452	76.88
258.685	68.88
258.918	72.88
259.151	85.88
259.383	71.88
259.616	79.88
259.849	81.88
260.081	86.88
260.314	85.88
260.547	81.88
260.779	80.88
261.012	78.88
261.244	89.88
261.477	83.88
261.71	73.88
261.942	93.88
262.175	106.88
262.407	84.88
262.64	77.88
262.872	97.88
263.105	82.88
263.337	81.88
263.57	71.88
263.802	73.88
264.035	84.88
264.267	88.88
264.499	74.88
264.732	79.88
264.964	82.88
265.197	91.88
265.429	90.88
265.661	81.88
265.894	78.88
266.126	84.88
266.358	84.88
266.591	94.88
266.823	70.88
267.055	78.88
267.287	75.88
267.52	78.88
267.752	75.88
267.984	72.88
268.216	90.88
268.448	89.88
268.681	84.88
268.913	82.88
269.145	73.88
269.377	80.88
269.609	89.88
269.841	83.88
270.073	69.88
270.306	78.88
270.538	83.88
270.77	77.88
271.002	82.88
271.234	74.88
271.466	78.88
271.698	88.88
271.93	66.88
272.162	89.88
272.394	96.88
272.626	103.88
272.858	82.88
273.09	86.88
273.322	90.88
273.553	74.88
273.785	87.88
274.017	86.88
274.249	82.88
274.481	93.88
274.713	97.88
274.945	82.88
275.176	83.88
275.408	82.88
275.64	87.88
275.872	88.88
276.104	98.88
276.335	91.88
276.567	101.88
276.799	95.88
277.031	96.88
277.262	75.88
277.494	83.88
277.726	90.88
277.957	96.88
278.189	95.88
278.421	82.88
278.652	86.88
278.884	76.88
279.115	73.88
279.347	71.88
279.579	79.88
279.81	82.88
280.042	79.88
280.273	88.88
280.505	82.88
280.736	95.88
280.968	94.88
281.199	76.88
281.431	88.88
281.662	84.88
281.894	85.88
282.125	94.88
282.356	94.88
282.588	122.88
282.819	100.88
283.051	88.88
283.282	86.88
283.513	84.88
283.745	82.88
283.976	81.88
284.207	83.88
284.439	75.88
284.67	91.88
284.901	83.88
285.132	75.88
285.364	93.88
285.595	71.88
285.826	82.88
286.057	92.88
286.288	74.88
286.52	81.88
286.751	92.88
286.982	89.88
287.213	67.88
287.444	86.88
287.675	81.88
287.906	83.88
288.138	86.88
288.369	82.88
288.6	72.88
288.831	68.88
289.062	86.88
289.293	92.88
289.524	75.88
289.755	72.88
289.986	86.88
290.217	87.88
290.448	85.88
290.679	87.88
290.91	87.88
291.141	75.88
291.371	87.88
291.602	88.88
291.833	74.88
292.064	90.88
292.295	85.88
292.526	77.88
292.757	83.88
292.987	110.88
293.218	96.88
293.449	80.88
293.68	83.88
293.91	103.88
294.141	74.88
294.372	81.88
294.603	82.88
294.833	82.88
295.064	82.88
295.295	71.88
295.525	72.88
295.756	93.88
295.987	112.88
296.217	113.88
296.448	131.88
296.679	91.88
296.909	94.88
297.14	96.88
297.37	85.88
297.601	92.88
297.831	91.88
298.062	88.88
298.292	86.88
298.523	90.88
298.753	90.88
298.984	87.88
299.214	81.88
299.445	89.88
299.675	94.88
299.905	74.88
300.136	96.88
300.366	110.88
300.597	94.88
300.827	87.88
301.057	86.88
301.288	94.88
301.518	85.88
301.748	89.88
301.979	90.88
302.209	91.88
302.439	99.88
302.669	73.88
302.9	91.88
303.13	69.88
303.36	88.88
303.59	95.88
303.82	92.88
304.051	90.88
304.281	86.88
304.511	91.88
304.741	93.88
304.971	109.88
305.201	85.88
305.431	90.88
305.661	97.88
305.891	83.88
306.121	99.88
306.352	90.88
306.582	102.88
306.812	90.88
307.042	100.88
307.272	83.88
307.502	79.88
307.731	98.88
307.961	78.88
308.191	79.88
308.421	88.88
308.651	89.88
308.881	91.88
309.111	85.88
309.341	98.88
309.571	110.88
309.8	93.88
310.03	113.88
310.26	98.88
310.49	95.88
310.72	100.88
310.949	99.88
311.179	88.88
311.409	82.88
311.639	82.88
311.868	92.88
312.098	95.88
312.328	67.88
312.557	82.88
312.787	91.88
313.017	90.88
313.246	94.88
313.476	79.88
313.706	85.88
313.935	87.88
314.165	97.88
314.394	99.88
314.624	98.88
314.853	100.88
315.083	86.88
315.312	88.88
315.542	84.88
315.771	88.88
316.001	87.88
316.23	94.88
316.46	88.88
316.689	89.88
316.919	85.88
317.148	95.88
317.377	94.88
317.607	96.88
317.836	85.88
318.065	78.88
318.295	94.88
318.524	84.88
318.753	83.88
318.983	90.88
319.212	95.88
319.441	96.88
319.67	91.88
319.9	92.88
320.129	93.88
320.358	94.88
320.587	85.88
320.816	91.88
321.046	90.88
321.275	100.88
321.504	81.88
321.733	108.88
321.962	93.88
322.191	101.88
322.42	98.88
322.649	103.88
322.878	96.88
323.108	112.88
323.337	108.88
323.566	112.88
323.795	120.88
324.024	162.88
324.253	308.88
324.482	668.88
324.71	1307.88
324.939	1744.88
325.168	638.88
325.397	202.88
325.626	151.88
325.855	126.88
326.084	129.88
326.313	109.88
326.542	118.88
326.77	198.88
326.999	388.88
327.228	751.88
327.457	1339.88
327.686	1058.88
327.914	310.88
328.143	168.88
328.372	139.88
328.6	129.88
328.829	100.88
329.058	118.88
329.287	110.88
329.515	109.88
329.744	93.88
329.972	100.88
330.201	96.88
330.43	100.88
330.658	101.88
330.887	120.88
331.115	115.88
331.344	80.88
331.572	92.88
331.801	94.88
332.03	95.88
332.258	90.88
332.486	94.88
332.715	103.88
332.943	96.88
333.172	84.88
333.4	89.88
333.629	115.88
333.857	111.88
334.085	118.88
334.314	105.88
334.542	104.88
334.771	108.88
334.999	104.88
335.227	81.88
335.455	88.88
335.684	94.88
335.912	95.88
336.14	72.88
336.369	98.88
336.597	86.88
336.825	104.88
337.053	83.88
337.281	89.88
337.51	92.88
337.738	102.88
337.966	98.88
338.194	106.88
338.422	96.88
338.65	90.88
338.878	97.88
339.106	101.88
339.334	98.88
339.562	90.88
339.79	97.88
340.018	94.88
340.246	79.88
340.474	93.88
340.702	94.88
340.93	95.88
341.158	90.88
341.386	89.88
341.614	87.88
341.842	93.88
342.07	95.88
342.298	90.88
342.526	88.88
342.754	96.88
342.981	83.88
343.209	78.88
343.437	105.88
343.665	92.88
343.893	96.88
344.12	97.88
344.348	86.88
344.576	85.88
344.804	83.88
345.031	88.88
345.259	84.88
345.487	80.88
345.714	95.88
345.942	92.88
346.17	106.88
346.397	86.88
346.625	89.88
346.853	90.88
347.08	104.88
347.308	99.88
347.535	91.88
347.763	90.88
347.99	109.88
348.218	102.88
348.445	104.88
348.673	83.88
348.9	103.88
349.128	99.88
349.355	99.88
349.583	103.88
349.81	93.88
350.037	87.88
350.265	78.88
350.492	100.88
350.72	94.88
350.947	94.88
351.174	105.88
351.402	88.88
351.629	106.88
351.856	92.88
352.083	99.88
352.311	103.88
352.538	97.88
352.765	97.88
352.992	119.88
353.22	102.88
353.447	91.88
353.674	87.88
353.901	88.88
354.128	93.88
354.355	87.88
354.583	89.88
354.81	94.88
355.037	103.88
355.264	100.88
355.491	74.88
355.718	74.88
355.945	88.88
356.172	92.88
356.399	90.88
356.626	91.88
356.853	93.88
357.08	96.88
357.307	81.88
357.534	94.88
357.761	89.88
357.988	96.88
358.215	93.88
358.441	95.88
358.668	73.88
358.895	90.88
359.122	105.88
359.349	82.88
359.576	85.88
359.802	89.88
360.029	100.88
360.256	100.88
360.483	97.88
360.709	89.88
360.936	92.88
361.163	98.88
361.39	89.88
361.616	99.88
361.843	90.88
362.07	89.88
362.296	83.88
362.523	87.88
362.749	98.88
362.976	89.88
363.203	89.88
363.429	76.88
363.656	77.88
363.882	87.88
364.109	97.88
364.335	82.88
364.562	95.88
364.788	89.88
365.015	97.88
365.241	79.88
365.468	96.88
365.694	89.88
365.92	80.88
366.147	91.88
366.373	84.88
366.599	97.88
366.826	87.88
367.052	86.88
367.278	86.88
367.505	76.88
367.731	81.88
367.957	100.88
368.184	86.88
368.41	103.88
368.636	102.88
368.862	113.88
369.089	101.88
369.315	74.88
369.541	74.88
369.767	90.88
369.993	79.88
370.219	92.88
370.445	87.88
370.672	89.88
370.898	85.88
371.124	91.88
371.35	93.88
371.576	83.88
371.802	61.88
372.028	94.88
372.254	95.88
372.48	76.88
372.706	96.88
372.932	81.88
373.158	84.88
373.384	91.88
373.61	78.88
373.835	88.88
374.061	85.88
374.287	73.88
374.513	90.88
374.739	74.88
374.965	94.88
375.191	98.88
375.416	74.88
375.642	92.88
375.868	88.88
376.094	100.88
376.319	77.88
376.545	92.88
376.771	80.88
376.997	103.88
377.222	90.88
377.448	81.88
377.674	86.88
377.899	78.88
378.125	91.88
378.35	82.88
378.576	97.88
378.802	87.88
379.027	90.88
379.253	91.88
379.478	103.88
379.704	101.88
379.929	98.88
380.155	96.88
380.38	82.88
380.606	86.88
380.831	87.88
381.057	86.88
381.282	104.88
381.507	86.88
381.733	79.88
381.958	103.88
382.184	102.88
382.409	94.88
382.634	106.88
382.86	100.88
383.085	88.88
383.31	99.88
383.535	101.88
383.761	97.88
383.986	96.88
384.211	104.88
384.436	96.88
384.662	97.88
384.887	89.88
385.112	103.88
385.337	105.88
385.562	94.88
385.787	103.88
386.013	110.88
386.238	111.88
386.463	107.88
386.688	109.88
386.913	91.88
387.138	91.88
387.363	96.88
387.588	106.88
387.813	97.88
388.038	99.88
388.263	111.88
388.488	102.88
388.713	94.88
388.938	96.88
389.163	82.88
389.387	82.88
389.612	95.88
389.837	91.88
390.062	86.88
390.287	93.88
390.512	85.88
390.736	98.88
390.961	107.88
391.186	77.88
391.411	87.88
391.636	98.88
391.86	76.88
392.085	77.88
392.31	74.88
392.534	81.88
392.759	81.88
392.984	91.88
393.208	83.88
393.433	75.88
393.658	99.88
393.882	85.88
394.107	91.88
394.331	79.88
394.556	88.88
394.78	86.88
395.005	79.88
395.229	82.88
395.454	72.88
395.678	74.88
395.903	80.88
396.127	94.88
396.352	82.88
396.576	76.88
396.801	88.88
397.025	90.88
397.249	84.88
397.474	83.88
397.698	95.88
397.922	74.88
398.147	83.88
398.371	88.88
398.595	90.88
398.82	93.88
399.044	88.88
399.268	88.88
399.492	92.88
399.717	80.88
399.941	72.88
400.165	94.88
400.389	89.88
400.613	83.88
400.837	88.88
401.062	91.88
401.286	100.88
401.51	90.88
401.734	87.88
401.958	94.88
402.182	103.88
402.406	141.88
402.63	108.88
402.854	92.88
403.078	81.88
403.302	75.88
403.526	75.88
403.75	99.88
403.974	79.88
404.198	91.88
404.422	89.88
404.645	70.88
404.869	93.88
405.093	82.88
405.317	86.88
405.541	95.88
405.765	96.88
405.988	101.88
406.212	135.88
406.436	189.88
406.66	128.88
406.883	90.88
407.107	98.88
407.331	84.88
407.555	95.88
407.778	72.88
408.002	88.88
408.226	92.88
408.449	91.88
408.673	83.88
408.896	88.88
409.12	88.88
409.344	87.88
409.567	92.88
409.791	85.88
410.014	92.88
410.238	87.88
410.461	93.88
410.685	89.88
410.908	107.88
411.132	90.88
411.355	95.88
411.578	82.88
411.802	84.88
412.025	90.88
412.249	79.88
412.472	95.88
412.695	93.88
412.919	75.88
413.142	79.88
413.365	90.88
413.589	94.88
413.812	78.88
414.035	79.88
414.258	81.88
414.482	83.88
414.705	94.88
414.928	91.88
415.151	76.88
415.374	95.88
415.597	74.88
415.821	89.88
416.044	87.88
416.267	83.88
416.49	76.88
416.713	77.88
416.936	80.88
417.159	76.88
417.382	75.88
417.605	94.88
417.828	96.88
418.051	88.88
418.274	73.88
418.497	87.88
418.72	75.88
418.943	74.88
419.166	80.88
419.389	97.88
419.611	95.88
419.834	81.88
420.057	93.88
420.28	73.88
420.503	89.88
420.726	94.88
420.948	95.88
421.171	76.88
421.394	90.88
421.617	94.88
421.839	82.88
422.062	92.88
422.285	93.88
422.507	86.88
422.73	83.88
422.953	94.88
423.175	82.88
423.398	88.88
423.621	90.88
423.843	81.88
424.066	88.88
424.288	83.88
424.511	90.88
424.733	99.88
424.956	103.88
425.178	100.88
425.401	92.88
425.623	96.88
425.846	91.88
426.068	81.88
426.291	81.88
426.513	92.88
426.735	77.88
426.958	80.88
427.18	103.88
427.402	116.88
427.625	144.88
427.847	114.88
428.069	98.88
428.292	87.88
428.514	73.88
428.736	78.88
428.958	79.88
429.181	81.88
429.403	81.88
429.625	83.88
429.847	87.88
430.069	87.88
430.292	83.88
430.514	78.88
430.736	82.88
430.958	80.88
431.18	87.88
431.402	73.88
431.624	79.88
431.846	70.88
432.068	88.88
432.29	82.88
432.512	88.88
432.734	76.88
432.956	76.88
433.178	98.88
433.4	99.88
433.622	95.88
433.844	90.88
434.066	96.88
434.287	86.88
434.509	87.88
434.731	88.88
434.953	90.88
435.175	78.88
435.397	91.88
435.618	91.88
435.84	88.88
436.062	103.88
436.284	105.88
436.505	79.88
436.727	105.88
436.949	96.88
437.17	84.88
437.392	77.88
437.614	100.88
437.835	99.88
438.057	99.88
438.278	97.88
438.5	102.88
438.721	99.88
438.943	97.88
439.165	88.88
439.386	86.88
439.608	88.88
439.829	91.88
440.05	94.88
440.272	121.88
440.493	90.88
440.715	91.88
440.936	82.88
441.158	75.88
441.379	91.88
441.6	83.88
441.822	86.88
442.043	103.88
442.264	85.88
442.486	88.88
442.707	86.88
442.928	82.88
443.149	111.88
443.371	126.88
443.592	89.88
443.813	99.88
444.034	96.88
444.255	95.88
444.476	83.88
444.698	77.88
444.919	90.88
445.14	125.88
445.361	116.88
445.582	97.88
445.803	105.88
446.024	124.88
446.245	121.88
446.466	104.88
446.687	86.88
446.908	89.88
447.129	89.88
447.35	80.88
447.571	86.88
447.792	99.88
448.013	98.88
448.234	95.88
448.455	104.88
448.675	97.88
448.896	111.88
449.117	92.88
449.338	94.88
449.559	117.88
449.779	116.88
450	75.88
450.221	85.88
450.442	98.88
450.662	80.88
450.883	89.88
451.104	93.88
451.324	88.88
451.545	78.88
451.766	78.88
451.986	87.88
452.207	88.88
452.428	106.88
452.648	102.88
452.869	93.88
453.089	88.88
453.31	93.88
453.53	85.88
453.751	88.88
453.971	92.88
454.192	106.88
454.412	86.88
454.633	77.88
454.853	92.88
455.073	102.88
455.294	88.88
455.514	79.88
455.734	77.88
455.955	94.88
456.175	74.88
456.395	79.88
456.616	87.88
456.836	94.88
457.056	76.88
457.276	75.88
457.497	84.88
457.717	92.88
457.937	76.88
458.157	76.88
458.377	80.88
458.598	82.88
458.818	107.88
459.038	125.88
459.258	106.88
459.478	87.88
459.698	82.88
459.918	72.88
460.138	80.88
460.358	83.88
460.578	65.88
460.798	78.88
461.018	75.88
461.238	84.88
461.458	81.88
461.678	65.88
461.898	78.88
462.118	77.88
462.338	81.88
462.558	89.88
462.777	78.88
462.997	70.88
463.217	78.88
463.437	89.88
463.657	95.88
463.876	77.88
464.096	90.88
464.316	89.88
464.536	92.88
464.755	86.88
464.975	102.88
465.195	136.88
465.414	144.88
465.634	84.88
465.854	97.88
466.073	99.88
466.293	88.88
466.512	83.88
466.732	77.88
466.951	86.88
467.171	72.88
467.391	97.88
467.61	106.88
467.829	113.88
468.049	80.88
468.268	87.88
468.488	80.88
468.707	71.88
468.927	78.88
469.146	79.88
469.365	88.88
469.585	86.88
469.804	96.88
470.023	104.88
470.243	95.88
470.462	86.88
470.681	112.88
470.901	82.88
471.12	91.88
471.339	90.88
471.558	73.88
471.777	97.88
471.997	91.88
472.216	94.88
472.435	117.88
472.654	83.88
472.873	70.88
473.092	84.88
473.311	83.88
473.53	78.88
473.749	89.88
473.968	86.88
474.187	108.88
474.406	92.88
474.625	90.88
474.844	87.88
475.063	86.88
475.282	99.88
475.501	105.88
475.72	100.88
475.939	93.88
476.158	88.88
476.377	76.88
476.596	85.88
476.814	76.88
477.033	80.88
477.252	88.88
477.471	93.88
477.69	81.88
477.908	79.88
478.127	94.88
478.346	97.88
478.564	79.88
478.783	92.88
479.002	91.88
479.22	98.88
479.439	103.88
479.658	103.88
479.876	95.88
480.095	92.88
480.313	94.88
480.532	90.88
480.751	87.88
480.969	100.88
481.188	123.88
481.406	116.88
481.624	85.88
481.843	84.88
482.061	93.88
482.28	81.88
482.498	82.88
482.717	79.88
482.935	98.88
483.153	92.88
483.372	79.88
483.59	100.88
483.808	87.88
484.027	100.88
484.245	80.88
484.463	96.88
484.681	97.88
484.9	88.88
485.118	91.88
485.336	96.88
485.554	91.88
485.772	111.88
485.99	106.88
486.209	110.88
486.427	100.88
486.645	102.88
486.863	104.88
487.081	93.88
487.299	90.88
487.517	89.88
487.735	86.88
487.953	92.88
488.171	78.88
488.389	90.88
488.607	99.88
488.825	100.88
489.043	97.88
489.261	87.88
489.479	96.88
489.696	91.88
489.914	85.88
490.132	86.88
490.35	88.88
490.568	94.88
490.786	95.88
491.003	87.88
491.221	97.88
491.439	98.88
491.657	91.88
491.874	90.88
492.092	82.88
492.31	86.88
492.527	79.88
492.745	88.88
492.963	88.88
493.18	93.88
493.398	79.88
493.615	98.88
493.833	98.88
494.05	94.88
494.268	86.88
494.485	84.88
494.703	91.88
494.92	88.88
495.138	99.88
495.355	95.88
495.573	83.88
495.79	97.88
496.008	78.88
496.225	96.88
496.442	85.88
496.66	80.88
496.877	92.88
497.094	88.88
497.312	83.88
497.529	80.88
497.746	88.88
497.963	98.88
498.181	83.88
498.398	86.88
498.615	93.88
498.832	86.88
499.049	99.88
499.267	91.88
499.484	81.88
499.701	86.88
499.918	95.88
500.135	81.88
500.352	99.88
500.569	84.88
500.786	91.88
501.003	99.88
501.22	83.88
501.437	90.88
501.654	94.88
501.871	94.88
502.088	80.88
502.305	94.88
502.522	93.88
502.739	88.88
502.956	87.88
503.172	91.88
503.389	82.88
503.606	94.88
503.823	82.88
504.04	84.88
504.256	91.88
504.473	96.88
504.69	87.88
504.907	95.88
505.123	79.88
505.34	83.88
505.557	93.88
505.773	87.88
505.99	74.88
506.207	86.88
506.423	79.88
506.64	82.88
506.856	98.88
507.073	92.88
507.289	91.88
507.506	99.88
507.722	94.88
507.939	114.88
508.155	98.88
508.372	78.88
508.588	90.88
508.805	104.88
509.021	105.88
509.238	87.88
509.454	90.88
509.67	95.88
509.887	98.88
510.103	116.88
510.319	198.88
510.536	618.88
510.752	1968.88
510.968	544.88
511.184	137.88
511.401	104.88
511.617	105.88
511.833	91.88
512.049	87.88
512.265	92.88
512.481	86.88
512.698	90.88
512.914	106.88
513.13	88.88
513.346	91.88
513.562	93.88
513.778	79.88
513.994	82.88
514.21	109.88
514.426	112.88
514.642	109.88
514.858	116.88
515.074	130.88
515.29	356.88
515.506	1072.88
515.721	404.88
515.937	140.88
516.153	101.88
516.369	99.88
516.585	76.88
516.801	102.88
517.016	99.88
517.232	92.88
