Data from Coke_Can_Side_HRD10591_00007.txt Node
Date: Wed Nov 05 15:42:10 EST 2025
User: Yrep
Spectrometer: HR+D1059
Trigger mode: 1
Integration Time (sec): 1.000000E-1
Scans to average: 1
Electric dark correction enabled: true
Nonlinearity correction enabled: false
Boxcar width: 0
XAxis mode: Wavelengths
Number of Pixels in Spectrum: 2048
>>>>>Begin Spectral Data<<<<<
223.165	-12.94
223.4	-12.94
223.635	-12.94
223.869	-23.94
224.104	-20.94
224.338	-21.94
224.573	-20.94
224.808	-2.94
225.042	-9.94
225.277	-7.94
225.511	-1.94
225.746	10.06
225.98	12.06
226.215	16.06
226.449	7.06
226.683	9.06
226.918	28.06
227.152	41.06
227.387	33.06
227.621	38.06
227.856	44.06
228.09	41.06
228.324	66.06
228.559	46.06
228.793	65.06
229.027	66.06
229.262	56.06
229.496	57.06
229.73	68.06
229.964	80.06
230.199	67.06
230.433	78.06
230.667	73.06
230.901	73.06
231.136	61.06
231.37	79.06
231.604	77.06
231.838	82.06
232.072	81.06
232.306	84.06
232.541	83.06
232.775	75.06
233.009	78.06
233.243	82.06
233.477	76.06
233.711	85.06
233.945	97.06
234.179	89.06
234.413	79.06
234.647	80.06
234.881	71.06
235.115	69.06
235.349	85.06
235.583	83.06
235.817	82.06
236.051	85.06
236.285	52.06
236.519	74.06
236.753	70.06
236.987	77.06
237.221	70.06
237.455	89.06
237.689	90.06
237.922	84.06
238.156	90.06
238.39	76.06
238.624	66.06
238.858	78.06
239.091	77.06
239.325	72.06
239.559	66.06
239.793	84.06
240.027	68.06
240.26	77.06
240.494	73.06
240.728	74.06
240.961	89.06
241.195	84.06
241.429	66.06
241.662	61.06
241.896	83.06
242.13	66.06
242.363	79.06
242.597	79.06
242.83	72.06
243.064	79.06
243.298	78.06
243.531	62.06
243.765	74.06
243.998	69.06
244.232	84.06
244.465	66.06
244.699	85.06
244.932	76.06
245.166	73.06
245.399	70.06
245.633	79.06
245.866	66.06
246.099	54.06
246.333	80.06
246.566	75.06
246.8	69.06
247.033	67.06
247.266	92.06
247.5	73.06
247.733	64.06
247.966	81.06
248.2	62.06
248.433	87.06
248.666	86.06
248.899	77.06
249.133	69.06
249.366	88.06
249.599	70.06
249.832	69.06
250.066	73.06
250.299	74.06
250.532	92.06
250.765	77.06
250.998	72.06
251.231	78.06
251.465	84.06
251.698	75.06
251.931	77.06
252.164	71.06
252.397	81.06
252.63	77.06
252.863	78.06
253.096	69.06
253.329	91.06
253.562	80.06
253.795	70.06
254.028	78.06
254.261	59.06
254.494	77.06
254.727	75.06
254.96	82.06
255.193	86.06
255.426	86.06
255.659	66.06
255.892	77.06
256.124	73.06
256.357	85.06
256.59	69.06
256.823	80.06
257.056	91.06
257.289	68.06
257.521	70.06
257.754	78.06
257.987	72.06
258.22	86.06
258.452	77.06
258.685	67.06
258.918	77.06
259.151	75.06
259.383	73.06
259.616	74.06
259.849	71.06
260.081	89.06
260.314	78.06
260.547	63.06
260.779	82.06
261.012	73.06
261.244	72.06
261.477	85.06
261.71	84.06
261.942	73.06
262.175	89.06
262.407	69.06
262.64	74.06
262.872	91.06
263.105	67.06
263.337	86.06
263.57	86.06
263.802	79.06
264.035	67.06
264.267	69.06
264.499	81.06
264.732	86.06
264.964	91.06
265.197	80.06
265.429	77.06
265.661	82.06
265.894	85.06
266.126	81.06
266.358	75.06
266.591	85.06
266.823	83.06
267.055	79.06
267.287	86.06
267.52	81.06
267.752	87.06
267.984	97.06
268.216	74.06
268.448	83.06
268.681	93.06
268.913	72.06
269.145	89.06
269.377	86.06
269.609	70.06
269.841	82.06
270.073	64.06
270.306	72.06
270.538	68.06
270.77	68.06
271.002	82.06
271.234	100.06
271.466	73.06
271.698	86.06
271.93	85.06
272.162	84.06
272.394	87.06
272.626	82.06
272.858	94.06
273.09	83.06
273.322	91.06
273.553	71.06
273.785	81.06
274.017	94.06
274.249	103.06
274.481	77.06
274.713	73.06
274.945	77.06
275.176	78.06
275.408	79.06
275.64	75.06
275.872	73.06
276.104	78.06
276.335	75.06
276.567	73.06
276.799	73.06
277.031	89.06
277.262	93.06
277.494	85.06
277.726	79.06
277.957	78.06
278.189	87.06
278.421	75.06
278.652	87.06
278.884	83.06
279.115	71.06
279.347	86.06
279.579	92.06
279.81	87.06
280.042	88.06
280.273	82.06
280.505	86.06
280.736	85.06
280.968	97.06
281.199	81.06
281.431	79.06
281.662	89.06
281.894	84.06
282.125	77.06
282.356	91.06
282.588	93.06
282.819	79.06
283.051	73.06
283.282	85.06
283.513	66.06
283.745	83.06
283.976	73.06
284.207	82.06
284.439	93.06
284.67	89.06
284.901	76.06
285.132	83.06
285.364	87.06
285.595	90.06
285.826	82.06
286.057	92.06
286.288	85.06
286.52	84.06
286.751	84.06
286.982	80.06
287.213	85.06
287.444	90.06
287.675	61.06
287.906	79.06
288.138	78.06
288.369	87.06
288.6	76.06
288.831	88.06
289.062	74.06
289.293	91.06
289.524	88.06
289.755	81.06
289.986	98.06
290.217	80.06
290.448	69.06
290.679	94.06
290.91	79.06
291.141	86.06
291.371	89.06
291.602	80.06
291.833	81.06
292.064	86.06
292.295	91.06
292.526	80.06
292.757	82.06
292.987	85.06
293.218	85.06
293.449	94.06
293.68	87.06
293.91	77.06
294.141	69.06
294.372	80.06
294.603	78.06
294.833	94.06
295.064	81.06
295.295	74.06
295.525	78.06
295.756	76.06
295.987	86.06
296.217	69.06
296.448	104.06
296.679	91.06
296.909	80.06
297.14	77.06
297.37	84.06
297.601	93.06
297.831	75.06
298.062	70.06
298.292	84.06
298.523	89.06
298.753	87.06
298.984	83.06
299.214	88.06
299.445	83.06
299.675	87.06
299.905	76.06
300.136	74.06
300.366	85.06
300.597	82.06
300.827	80.06
301.057	86.06
301.288	71.06
301.518	69.06
301.748	87.06
301.979	90.06
302.209	81.06
302.439	76.06
302.669	68.06
302.9	84.06
303.13	83.06
303.36	90.06
303.59	96.06
303.82	76.06
304.051	86.06
304.281	82.06
304.511	99.06
304.741	87.06
304.971	90.06
305.201	91.06
305.431	95.06
305.661	80.06
305.891	82.06
306.121	84.06
306.352	84.06
306.582	92.06
306.812	86.06
307.042	79.06
307.272	89.06
307.502	86.06
307.731	87.06
307.961	86.06
308.191	88.06
308.421	88.06
308.651	84.06
308.881	90.06
309.111	96.06
309.341	106.06
309.571	84.06
309.8	76.06
310.03	82.06
310.26	74.06
310.49	92.06
310.72	92.06
310.949	82.06
311.179	86.06
311.409	68.06
311.639	93.06
311.868	93.06
312.098	90.06
312.328	94.06
312.557	96.06
312.787	102.06
313.017	75.06
313.246	89.06
313.476	80.06
313.706	71.06
313.935	71.06
314.165	83.06
314.394	77.06
314.624	77.06
314.853	85.06
315.083	60.06
315.312	83.06
315.542	85.06
315.771	74.06
316.001	93.06
316.23	90.06
316.46	86.06
316.689	91.06
316.919	76.06
317.148	92.06
317.377	97.06
317.607	78.06
317.836	87.06
318.065	81.06
318.295	87.06
318.524	90.06
318.753	86.06
318.983	79.06
319.212	77.06
319.441	83.06
319.67	80.06
319.9	84.06
320.129	74.06
320.358	96.06
320.587	89.06
320.816	82.06
321.046	82.06
321.275	77.06
321.504	103.06
321.733	80.06
321.962	84.06
322.191	72.06
322.42	96.06
322.649	87.06
322.878	81.06
323.108	87.06
323.337	69.06
323.566	73.06
323.795	74.06
324.024	88.06
324.253	94.06
324.482	81.06
324.71	98.06
324.939	79.06
325.168	81.06
325.397	71.06
325.626	89.06
325.855	78.06
326.084	75.06
326.313	87.06
326.542	87.06
326.77	78.06
326.999	84.06
327.228	83.06
327.457	74.06
327.686	81.06
327.914	82.06
328.143	100.06
328.372	89.06
328.6	87.06
328.829	72.06
329.058	79.06
329.287	83.06
329.515	75.06
329.744	90.06
329.972	83.06
330.201	87.06
330.43	79.06
330.658	77.06
330.887	69.06
331.115	86.06
331.344	83.06
331.572	78.06
331.801	93.06
332.03	90.06
332.258	78.06
332.486	85.06
332.715	77.06
332.943	78.06
333.172	94.06
333.4	69.06
333.629	70.06
333.857	90.06
334.085	89.06
334.314	82.06
334.542	99.06
334.771	95.06
334.999	89.06
335.227	89.06
335.455	99.06
335.684	72.06
335.912	77.06
336.14	95.06
336.369	90.06
336.597	81.06
336.825	81.06
337.053	77.06
337.281	91.06
337.51	89.06
337.738	78.06
337.966	78.06
338.194	86.06
338.422	80.06
338.65	106.06
338.878	104.06
339.106	84.06
339.334	92.06
339.562	85.06
339.79	71.06
340.018	74.06
340.246	80.06
340.474	102.06
340.702	89.06
340.93	81.06
341.158	80.06
341.386	86.06
341.614	83.06
341.842	78.06
342.07	84.06
342.298	90.06
342.526	89.06
342.754	83.06
342.981	76.06
343.209	69.06
343.437	113.06
343.665	87.06
343.893	74.06
344.12	79.06
344.348	74.06
344.576	87.06
344.804	92.06
345.031	71.06
345.259	98.06
345.487	85.06
345.714	77.06
345.942	69.06
346.17	88.06
346.397	69.06
346.625	101.06
346.853	92.06
347.08	91.06
347.308	85.06
347.535	92.06
347.763	84.06
347.99	79.06
348.218	84.06
348.445	79.06
348.673	73.06
348.9	71.06
349.128	94.06
349.355	81.06
349.583	102.06
349.81	87.06
350.037	67.06
350.265	93.06
350.492	84.06
350.72	82.06
350.947	70.06
351.174	83.06
351.402	90.06
351.629	84.06
351.856	73.06
352.083	86.06
352.311	91.06
352.538	74.06
352.765	81.06
352.992	89.06
353.22	84.06
353.447	92.06
353.674	87.06
353.901	90.06
354.128	92.06
354.355	79.06
354.583	94.06
354.81	89.06
355.037	84.06
355.264	93.06
355.491	86.06
355.718	85.06
355.945	83.06
356.172	78.06
356.399	93.06
356.626	83.06
356.853	93.06
357.08	87.06
357.307	80.06
357.534	84.06
357.761	84.06
357.988	88.06
358.215	82.06
358.441	76.06
358.668	78.06
358.895	75.06
359.122	87.06
359.349	84.06
359.576	82.06
359.802	84.06
360.029	94.06
360.256	78.06
360.483	99.06
360.709	84.06
360.936	93.06
361.163	77.06
361.39	77.06
361.616	93.06
361.843	71.06
362.07	77.06
362.296	90.06
362.523	83.06
362.749	83.06
362.976	94.06
363.203	85.06
363.429	76.06
363.656	79.06
363.882	77.06
364.109	87.06
364.335	86.06
364.562	76.06
364.788	73.06
365.015	91.06
365.241	84.06
365.468	70.06
365.694	90.06
365.92	79.06
366.147	80.06
366.373	87.06
366.599	90.06
366.826	80.06
367.052	87.06
367.278	90.06
367.505	85.06
367.731	82.06
367.957	75.06
368.184	91.06
368.41	84.06
368.636	85.06
368.862	77.06
369.089	89.06
369.315	78.06
369.541	88.06
369.767	77.06
369.993	101.06
370.219	76.06
370.445	83.06
370.672	89.06
370.898	82.06
371.124	83.06
371.35	78.06
371.576	78.06
371.802	98.06
372.028	82.06
372.254	75.06
372.48	82.06
372.706	79.06
372.932	93.06
373.158	82.06
373.384	100.06
373.61	77.06
373.835	82.06
374.061	80.06
374.287	90.06
374.513	77.06
374.739	83.06
374.965	73.06
375.191	81.06
375.416	81.06
375.642	81.06
375.868	86.06
376.094	69.06
376.319	82.06
376.545	75.06
376.771	80.06
376.997	97.06
377.222	86.06
377.448	81.06
377.674	75.06
377.899	90.06
378.125	71.06
378.35	85.06
378.576	87.06
378.802	85.06
379.027	74.06
379.253	95.06
379.478	83.06
379.704	81.06
379.929	92.06
380.155	89.06
380.38	75.06
380.606	85.06
380.831	73.06
381.057	87.06
381.282	79.06
381.507	74.06
381.733	90.06
381.958	86.06
382.184	91.06
382.409	87.06
382.634	73.06
382.86	87.06
383.085	89.06
383.31	87.06
383.535	73.06
383.761	75.06
383.986	83.06
384.211	87.06
384.436	85.06
384.662	78.06
384.887	93.06
385.112	91.06
385.337	67.06
385.562	85.06
385.787	73.06
386.013	71.06
386.238	79.06
386.463	83.06
386.688	97.06
386.913	90.06
387.138	77.06
387.363	78.06
387.588	83.06
387.813	82.06
388.038	79.06
388.263	93.06
388.488	86.06
388.713	91.06
388.938	84.06
389.163	92.06
389.387	93.06
389.612	90.06
389.837	73.06
390.062	84.06
390.287	86.06
390.512	79.06
390.736	74.06
390.961	69.06
391.186	77.06
391.411	86.06
391.636	98.06
391.86	85.06
392.085	78.06
392.31	79.06
392.534	80.06
392.759	79.06
392.984	90.06
393.208	80.06
393.433	90.06
393.658	71.06
393.882	92.06
394.107	105.06
394.331	131.06
394.556	156.06
394.78	107.06
395.005	89.06
395.229	90.06
395.454	84.06
395.678	95.06
395.903	123.06
396.127	160.06
396.352	165.06
396.576	87.06
396.801	71.06
397.025	88.06
397.249	80.06
397.474	87.06
397.698	78.06
397.922	68.06
398.147	67.06
398.371	76.06
398.595	79.06
398.82	80.06
399.044	75.06
399.268	73.06
399.492	94.06
399.717	72.06
399.941	93.06
400.165	83.06
400.389	82.06
400.613	88.06
400.837	84.06
401.062	84.06
401.286	79.06
401.51	80.06
401.734	91.06
401.958	80.06
402.182	79.06
402.406	94.06
402.63	72.06
402.854	76.06
403.078	95.06
403.302	92.06
403.526	93.06
403.75	82.06
403.974	87.06
404.198	87.06
404.422	79.06
404.645	85.06
404.869	85.06
405.093	76.06
405.317	72.06
405.541	83.06
405.765	77.06
405.988	78.06
406.212	92.06
406.436	89.06
406.66	83.06
406.883	73.06
407.107	82.06
407.331	81.06
407.555	86.06
407.778	75.06
408.002	75.06
408.226	73.06
408.449	85.06
408.673	78.06
408.896	77.06
409.12	78.06
409.344	72.06
409.567	89.06
409.791	71.06
410.014	69.06
410.238	79.06
410.461	84.06
410.685	87.06
410.908	84.06
411.132	76.06
411.355	82.06
411.578	81.06
411.802	91.06
412.025	90.06
412.249	76.06
412.472	79.06
412.695	78.06
412.919	85.06
413.142	104.06
413.365	83.06
413.589	83.06
413.812	84.06
414.035	83.06
414.258	79.06
414.482	74.06
414.705	92.06
414.928	92.06
415.151	87.06
415.374	93.06
415.597	74.06
415.821	78.06
416.044	93.06
416.267	83.06
416.49	87.06
416.713	85.06
416.936	76.06
417.159	69.06
417.382	75.06
417.605	84.06
417.828	100.06
418.051	80.06
418.274	83.06
418.497	79.06
418.72	79.06
418.943	79.06
419.166	78.06
419.389	80.06
419.611	79.06
419.834	83.06
420.057	85.06
420.28	85.06
420.503	70.06
420.726	80.06
420.948	85.06
421.171	81.06
421.394	88.06
421.617	79.06
421.839	82.06
422.062	87.06
422.285	94.06
422.507	82.06
422.73	76.06
422.953	71.06
423.175	71.06
423.398	86.06
423.621	94.06
423.843	90.06
424.066	73.06
424.288	77.06
424.511	71.06
424.733	68.06
424.956	78.06
425.178	98.06
425.401	79.06
425.623	82.06
425.846	83.06
426.068	92.06
426.291	78.06
426.513	83.06
426.735	87.06
426.958	93.06
427.18	83.06
427.402	90.06
427.625	92.06
427.847	71.06
428.069	76.06
428.292	93.06
428.514	84.06
428.736	93.06
428.958	80.06
429.181	84.06
429.403	72.06
429.625	83.06
429.847	88.06
430.069	78.06
430.292	81.06
430.514	77.06
430.736	85.06
430.958	83.06
431.18	81.06
431.402	77.06
431.624	80.06
431.846	76.06
432.068	79.06
432.29	90.06
432.512	97.06
432.734	77.06
432.956	83.06
433.178	85.06
433.4	83.06
433.622	81.06
433.844	78.06
434.066	89.06
434.287	75.06
434.509	77.06
434.731	77.06
434.953	79.06
435.175	93.06
435.397	80.06
435.618	67.06
435.84	93.06
436.062	77.06
436.284	80.06
436.505	80.06
436.727	72.06
436.949	73.06
437.17	70.06
437.392	93.06
437.614	85.06
437.835	82.06
438.057	83.06
438.278	78.06
438.5	82.06
438.721	82.06
438.943	79.06
439.165	91.06
439.386	78.06
439.608	98.06
439.829	78.06
440.05	91.06
440.272	76.06
440.493	87.06
440.715	83.06
440.936	87.06
441.158	88.06
441.379	73.06
441.6	85.06
441.822	78.06
442.043	99.06
442.264	81.06
442.486	58.06
442.707	75.06
442.928	93.06
443.149	79.06
443.371	71.06
443.592	81.06
443.813	92.06
444.034	78.06
444.255	82.06
444.476	75.06
444.698	91.06
444.919	67.06
445.14	155.06
445.361	111.06
445.582	76.06
445.803	75.06
446.024	84.06
446.245	78.06
446.466	75.06
446.687	95.06
446.908	69.06
447.129	73.06
447.35	88.06
447.571	77.06
447.792	93.06
448.013	64.06
448.234	82.06
448.455	76.06
448.675	75.06
448.896	75.06
449.117	94.06
449.338	87.06
449.559	92.06
449.779	86.06
450	86.06
450.221	88.06
450.442	76.06
450.662	83.06
450.883	73.06
451.104	80.06
451.324	79.06
451.545	79.06
451.766	93.06
451.986	84.06
452.207	87.06
452.428	88.06
452.648	85.06
452.869	77.06
453.089	75.06
453.31	83.06
453.53	85.06
453.751	82.06
453.971	89.06
454.192	75.06
454.412	75.06
454.633	84.06
454.853	99.06
455.073	65.06
455.294	85.06
455.514	87.06
455.734	83.06
455.955	78.06
456.175	73.06
456.395	81.06
456.616	83.06
456.836	70.06
457.056	79.06
457.276	88.06
457.497	70.06
457.717	93.06
457.937	83.06
458.157	82.06
458.377	80.06
458.598	85.06
458.818	68.06
459.038	92.06
459.258	89.06
459.478	92.06
459.698	70.06
459.918	74.06
460.138	74.06
460.358	80.06
460.578	91.06
460.798	88.06
461.018	76.06
461.238	77.06
461.458	84.06
461.678	80.06
461.898	88.06
462.118	79.06
462.338	77.06
462.558	89.06
462.777	86.06
462.997	82.06
463.217	79.06
463.437	83.06
463.657	97.06
463.876	73.06
464.096	75.06
464.316	83.06
464.536	69.06
464.755	77.06
464.975	77.06
465.195	77.06
465.414	91.06
465.634	82.06
465.854	83.06
466.073	85.06
466.293	91.06
466.512	71.06
466.732	81.06
466.951	84.06
467.171	98.06
467.391	85.06
467.61	78.06
467.829	91.06
468.049	75.06
468.268	99.06
468.488	62.06
468.707	83.06
468.927	88.06
469.146	83.06
469.365	77.06
469.585	84.06
469.804	92.06
470.023	79.06
470.243	91.06
470.462	83.06
470.681	92.06
470.901	84.06
471.12	97.06
471.339	87.06
471.558	96.06
471.777	90.06
471.997	75.06
472.216	86.06
472.435	89.06
472.654	72.06
472.873	91.06
473.092	65.06
473.311	87.06
473.53	99.06
473.749	86.06
473.968	85.06
474.187	85.06
474.406	83.06
474.625	77.06
474.844	90.06
475.063	91.06
475.282	85.06
475.501	78.06
475.72	86.06
475.939	78.06
476.158	75.06
476.377	78.06
476.596	87.06
476.814	81.06
477.033	75.06
477.252	82.06
477.471	77.06
477.69	75.06
477.908	94.06
478.127	86.06
478.346	90.06
478.564	88.06
478.783	77.06
479.002	70.06
479.22	79.06
479.439	84.06
479.658	83.06
479.876	86.06
480.095	87.06
480.313	71.06
480.532	77.06
480.751	78.06
480.969	86.06
481.188	84.06
481.406	88.06
481.624	102.06
481.843	80.06
482.061	74.06
482.28	62.06
482.498	69.06
482.717	74.06
482.935	85.06
483.153	100.06
483.372	94.06
483.59	83.06
483.808	86.06
484.027	85.06
484.245	86.06
484.463	84.06
484.681	94.06
484.9	77.06
485.118	91.06
485.336	91.06
485.554	86.06
485.772	93.06
485.99	88.06
486.209	80.06
486.427	85.06
486.645	81.06
486.863	78.06
487.081	93.06
487.299	86.06
487.517	89.06
487.735	92.06
487.953	102.06
488.171	82.06
488.389	84.06
488.607	83.06
488.825	71.06
489.043	75.06
489.261	86.06
489.479	93.06
489.696	95.06
489.914	86.06
490.132	74.06
490.35	93.06
490.568	77.06
490.786	86.06
491.003	83.06
491.221	92.06
491.439	90.06
491.657	90.06
491.874	97.06
492.092	98.06
492.31	89.06
492.527	84.06
492.745	82.06
492.963	86.06
493.18	89.06
493.398	85.06
493.615	91.06
493.833	85.06
494.05	76.06
494.268	81.06
494.485	80.06
494.703	91.06
494.92	80.06
495.138	80.06
495.355	86.06
495.573	88.06
495.79	76.06
496.008	77.06
496.225	84.06
496.442	92.06
496.66	89.06
496.877	90.06
497.094	101.06
497.312	76.06
497.529	83.06
497.746	79.06
497.963	62.06
498.181	71.06
498.398	83.06
498.615	83.06
498.832	86.06
499.049	73.06
499.267	82.06
499.484	79.06
499.701	84.06
499.918	90.06
500.135	86.06
500.352	78.06
500.569	80.06
500.786	92.06
501.003	91.06
501.22	92.06
501.437	79.06
501.654	83.06
501.871	67.06
502.088	85.06
502.305	67.06
502.522	85.06
502.739	91.06
502.956	71.06
503.172	80.06
503.389	84.06
503.606	94.06
503.823	78.06
504.04	89.06
504.256	101.06
504.473	80.06
504.69	84.06
504.907	82.06
505.123	102.06
505.34	78.06
505.557	63.06
505.773	70.06
505.99	79.06
506.207	92.06
506.423	76.06
506.64	75.06
506.856	99.06
507.073	71.06
507.289	85.06
507.506	93.06
507.722	76.06
507.939	87.06
508.155	95.06
508.372	91.06
508.588	88.06
508.805	92.06
509.021	94.06
509.238	82.06
509.454	78.06
509.67	75.06
509.887	82.06
510.103	89.06
510.319	95.06
510.536	84.06
510.752	92.06
510.968	82.06
511.184	81.06
511.401	89.06
511.617	87.06
511.833	94.06
512.049	87.06
512.265	80.06
512.481	91.06
512.698	92.06
512.914	80.06
513.13	78.06
513.346	73.06
513.562	92.06
513.778	92.06
513.994	74.06
514.21	77.06
514.426	87.06
514.642	70.06
514.858	101.06
515.074	89.06
515.29	83.06
515.506	79.06
515.721	81.06
515.937	89.06
516.153	85.06
516.369	85.06
516.585	63.06
516.801	87.06
517.016	73.06
517.232	83.06
517.448	94.06
517.664	95.06
517.879	76.06
518.095	93.06
518.311	80.06
518.527	85.06
518.742	87.06
518.958	74.06
519.173	83.06
519.389	92.06
519.605	87.06
519.82	78.06
