Data from Coke_Can_Side_HRD10591_00001.txt Node
Date: Wed Nov 05 15:42:07 EST 2025
User: Yrep
Spectrometer: HR+D1059
Trigger mode: 1
Integration Time (sec): 1.000000E-1
Scans to average: 1
Electric dark correction enabled: true
Nonlinearity correction enabled: false
Boxcar width: 0
XAxis mode: Wavelengths
Number of Pixels in Spectrum: 2048
>>>>>Begin Spectral Data<<<<<
223.165	-22.06
223.4	-22.06
223.635	-22.06
223.869	-13.06
224.104	-18.06
224.338	-29.06
224.573	-11.06
224.808	-11.06
225.042	-11.06
225.277	-1.06
225.511	-1.06
225.746	5.94
225.98	8.94
226.215	22.94
226.449	13.94
226.683	15.94
226.918	25.94
227.152	23.94
227.387	32.94
227.621	42.94
227.856	50.94
228.09	58.94
228.324	43.94
228.559	38.94
228.793	55.94
229.027	64.94
229.262	78.94
229.496	76.94
229.73	78.94
229.964	83.94
230.199	67.94
230.433	62.94
230.667	75.94
230.901	74.94
231.136	73.94
231.37	78.94
231.604	96.94
231.838	78.94
232.072	70.94
232.306	86.94
232.541	90.94
232.775	92.94
233.009	94.94
233.243	77.94
233.477	70.94
233.711	76.94
233.945	86.94
234.179	86.94
234.413	79.94
234.647	86.94
234.881	82.94
235.115	73.94
235.349	81.94
235.583	81.94
235.817	76.94
236.051	83.94
236.285	86.94
236.519	74.94
236.753	86.94
236.987	75.94
237.221	67.94
237.455	84.94
237.689	86.94
237.922	79.94
238.156	71.94
238.39	78.94
238.624	75.94
238.858	59.94
239.091	71.94
239.325	76.94
239.559	71.94
239.793	71.94
240.027	90.94
240.26	88.94
240.494	79.94
240.728	78.94
240.961	69.94
241.195	78.94
241.429	86.94
241.662	78.94
241.896	73.94
242.13	70.94
242.363	75.94
242.597	70.94
242.83	71.94
243.064	79.94
243.298	87.94
243.531	75.94
243.765	71.94
243.998	90.94
244.232	68.94
244.465	77.94
244.699	84.94
244.932	86.94
245.166	90.94
245.399	69.94
245.633	89.94
245.866	78.94
246.099	84.94
246.333	68.94
246.566	94.94
246.8	74.94
247.033	92.94
247.266	95.94
247.5	75.94
247.733	84.94
247.966	86.94
248.2	72.94
248.433	73.94
248.666	78.94
248.899	92.94
249.133	82.94
249.366	86.94
249.599	76.94
249.832	69.94
250.066	83.94
250.299	80.94
250.532	82.94
250.765	77.94
250.998	75.94
251.231	78.94
251.465	78.94
251.698	86.94
251.931	74.94
252.164	86.94
252.397	70.94
252.63	87.94
252.863	74.94
253.096	81.94
253.329	80.94
253.562	75.94
253.795	74.94
254.028	76.94
254.261	74.94
254.494	78.94
254.727	81.94
254.96	85.94
255.193	72.94
255.426	80.94
255.659	72.94
255.892	79.94
256.124	80.94
256.357	86.94
256.59	89.94
256.823	78.94
257.056	85.94
257.289	77.94
257.521	86.94
257.754	83.94
257.987	85.94
258.22	82.94
258.452	66.94
258.685	91.94
258.918	78.94
259.151	83.94
259.383	94.94
259.616	82.94
259.849	86.94
260.081	87.94
260.314	62.94
260.547	79.94
260.779	86.94
261.012	76.94
261.244	78.94
261.477	83.94
261.71	78.94
261.942	76.94
262.175	78.94
262.407	75.94
262.64	78.94
262.872	83.94
263.105	89.94
263.337	90.94
263.57	87.94
263.802	86.94
264.035	78.94
264.267	80.94
264.499	85.94
264.732	85.94
264.964	74.94
265.197	92.94
265.429	85.94
265.661	84.94
265.894	86.94
266.126	75.94
266.358	84.94
266.591	79.94
266.823	78.94
267.055	81.94
267.287	76.94
267.52	70.94
267.752	92.94
267.984	81.94
268.216	91.94
268.448	86.94
268.681	96.94
268.913	75.94
269.145	81.94
269.377	75.94
269.609	78.94
269.841	79.94
270.073	87.94
270.306	69.94
270.538	89.94
270.77	80.94
271.002	100.94
271.234	96.94
271.466	90.94
271.698	71.94
271.93	80.94
272.162	95.94
272.394	86.94
272.626	86.94
272.858	74.94
273.09	87.94
273.322	90.94
273.553	84.94
273.785	63.94
274.017	78.94
274.249	77.94
274.481	83.94
274.713	74.94
274.945	94.94
275.176	82.94
275.408	79.94
275.64	93.94
275.872	86.94
276.104	79.94
276.335	89.94
276.567	78.94
276.799	73.94
277.031	80.94
277.262	70.94
277.494	85.94
277.726	96.94
277.957	96.94
278.189	83.94
278.421	89.94
278.652	76.94
278.884	87.94
279.115	82.94
279.347	85.94
279.579	89.94
279.81	95.94
280.042	85.94
280.273	82.94
280.505	84.94
280.736	83.94
280.968	88.94
281.199	94.94
281.431	64.94
281.662	88.94
281.894	84.94
282.125	89.94
282.356	78.94
282.588	86.94
282.819	82.94
283.051	96.94
283.282	74.94
283.513	91.94
283.745	91.94
283.976	80.94
284.207	72.94
284.439	80.94
284.67	64.94
284.901	96.94
285.132	90.94
285.364	92.94
285.595	75.94
285.826	85.94
286.057	85.94
286.288	78.94
286.52	81.94
286.751	97.94
286.982	76.94
287.213	95.94
287.444	88.94
287.675	82.94
287.906	88.94
288.138	94.94
288.369	78.94
288.6	76.94
288.831	90.94
289.062	79.94
289.293	86.94
289.524	87.94
289.755	72.94
289.986	90.94
290.217	90.94
290.448	79.94
290.679	68.94
290.91	86.94
291.141	95.94
291.371	89.94
291.602	91.94
291.833	88.94
292.064	93.94
292.295	92.94
292.526	78.94
292.757	72.94
292.987	81.94
293.218	92.94
293.449	99.94
293.68	84.94
293.91	91.94
294.141	82.94
294.372	79.94
294.603	82.94
294.833	86.94
295.064	84.94
295.295	83.94
295.525	94.94
295.756	89.94
295.987	82.94
296.217	88.94
296.448	84.94
296.679	84.94
296.909	77.94
297.14	81.94
297.37	90.94
297.601	90.94
297.831	98.94
298.062	95.94
298.292	82.94
298.523	75.94
298.753	86.94
298.984	90.94
299.214	75.94
299.445	74.94
299.675	74.94
299.905	71.94
300.136	80.94
300.366	84.94
300.597	76.94
300.827	79.94
301.057	71.94
301.288	92.94
301.518	99.94
301.748	75.94
301.979	97.94
302.209	88.94
302.439	90.94
302.669	85.94
302.9	75.94
303.13	90.94
303.36	95.94
303.59	68.94
303.82	82.94
304.051	98.94
304.281	75.94
304.511	92.94
304.741	91.94
304.971	78.94
305.201	99.94
305.431	86.94
305.661	76.94
305.891	96.94
306.121	82.94
306.352	88.94
306.582	80.94
306.812	96.94
307.042	72.94
307.272	77.94
307.502	78.94
307.731	95.94
307.961	95.94
308.191	91.94
308.421	91.94
308.651	99.94
308.881	92.94
309.111	99.94
309.341	93.94
309.571	100.94
309.8	80.94
310.03	75.94
310.26	76.94
310.49	87.94
310.72	84.94
310.949	88.94
311.179	86.94
311.409	98.94
311.639	88.94
311.868	93.94
312.098	94.94
312.328	79.94
312.557	72.94
312.787	101.94
313.017	79.94
313.246	79.94
313.476	92.94
313.706	80.94
313.935	92.94
314.165	80.94
314.394	82.94
314.624	91.94
314.853	84.94
315.083	78.94
315.312	95.94
315.542	87.94
315.771	76.94
316.001	86.94
316.23	94.94
316.46	91.94
316.689	82.94
316.919	84.94
317.148	66.94
317.377	87.94
317.607	81.94
317.836	78.94
318.065	93.94
318.295	88.94
318.524	86.94
318.753	88.94
318.983	92.94
319.212	89.94
319.441	88.94
319.67	82.94
319.9	64.94
320.129	91.94
320.358	82.94
320.587	95.94
320.816	93.94
321.046	79.94
321.275	86.94
321.504	80.94
321.733	77.94
321.962	82.94
322.191	77.94
322.42	87.94
322.649	90.94
322.878	83.94
323.108	98.94
323.337	79.94
323.566	86.94
323.795	87.94
324.024	79.94
324.253	86.94
324.482	80.94
324.71	84.94
324.939	99.94
325.168	94.94
325.397	92.94
325.626	90.94
325.855	82.94
326.084	81.94
326.313	88.94
326.542	83.94
326.77	93.94
326.999	91.94
327.228	93.94
327.457	76.94
327.686	85.94
327.914	92.94
328.143	79.94
328.372	80.94
328.6	78.94
328.829	84.94
329.058	82.94
329.287	84.94
329.515	97.94
329.744	96.94
329.972	95.94
330.201	87.94
330.43	92.94
330.658	95.94
330.887	85.94
331.115	84.94
331.344	90.94
331.572	88.94
331.801	85.94
332.03	96.94
332.258	84.94
332.486	80.94
332.715	79.94
332.943	88.94
333.172	91.94
333.4	84.94
333.629	86.94
333.857	80.94
334.085	84.94
334.314	91.94
334.542	88.94
334.771	78.94
334.999	93.94
335.227	87.94
335.455	98.94
335.684	95.94
335.912	82.94
336.14	85.94
336.369	95.94
336.597	86.94
336.825	86.94
337.053	77.94
337.281	90.94
337.51	80.94
337.738	92.94
337.966	82.94
338.194	81.94
338.422	90.94
338.65	75.94
338.878	92.94
339.106	87.94
339.334	78.94
339.562	92.94
339.79	92.94
340.018	83.94
340.246	87.94
340.474	84.94
340.702	84.94
340.93	84.94
341.158	92.94
341.386	91.94
341.614	93.94
341.842	83.94
342.07	91.94
342.298	87.94
342.526	91.94
342.754	88.94
342.981	74.94
343.209	77.94
343.437	99.94
343.665	86.94
343.893	84.94
344.12	86.94
344.348	79.94
344.576	86.94
344.804	84.94
345.031	80.94
345.259	84.94
345.487	100.94
345.714	81.94
345.942	90.94
346.17	91.94
346.397	74.94
346.625	81.94
346.853	84.94
347.08	69.94
347.308	78.94
347.535	89.94
347.763	84.94
347.99	76.94
348.218	89.94
348.445	84.94
348.673	78.94
348.9	72.94
349.128	92.94
349.355	85.94
349.583	92.94
349.81	87.94
350.037	84.94
350.265	102.94
350.492	91.94
350.72	76.94
350.947	84.94
351.174	86.94
351.402	81.94
351.629	80.94
351.856	84.94
352.083	86.94
352.311	105.94
352.538	89.94
352.765	71.94
352.992	79.94
353.22	82.94
353.447	90.94
353.674	85.94
353.901	88.94
354.128	83.94
354.355	92.94
354.583	77.94
354.81	77.94
355.037	84.94
355.264	88.94
355.491	86.94
355.718	81.94
355.945	69.94
356.172	83.94
356.399	83.94
356.626	70.94
356.853	87.94
357.08	73.94
357.307	84.94
357.534	84.94
357.761	92.94
357.988	94.94
358.215	77.94
358.441	80.94
358.668	86.94
358.895	76.94
359.122	87.94
359.349	79.94
359.576	82.94
359.802	86.94
360.029	109.94
360.256	80.94
360.483	84.94
360.709	99.94
360.936	95.94
361.163	80.94
361.39	81.94
361.616	82.94
361.843	75.94
362.07	85.94
362.296	81.94
362.523	89.94
362.749	85.94
362.976	88.94
363.203	72.94
363.429	91.94
363.656	92.94
363.882	86.94
364.109	89.94
364.335	87.94
364.562	88.94
364.788	76.94
365.015	86.94
365.241	68.94
365.468	98.94
365.694	79.94
365.92	82.94
366.147	100.94
366.373	77.94
366.599	86.94
366.826	88.94
367.052	83.94
367.278	83.94
367.505	80.94
367.731	81.94
367.957	85.94
368.184	81.94
368.41	84.94
368.636	99.94
368.862	74.94
369.089	87.94
369.315	69.94
369.541	78.94
369.767	67.94
369.993	88.94
370.219	87.94
370.445	78.94
370.672	83.94
370.898	86.94
371.124	82.94
371.35	80.94
371.576	93.94
371.802	88.94
372.028	74.94
372.254	87.94
372.48	87.94
372.706	88.94
372.932	80.94
373.158	89.94
373.384	86.94
373.61	84.94
373.835	89.94
374.061	97.94
374.287	86.94
374.513	71.94
374.739	91.94
374.965	91.94
375.191	88.94
375.416	88.94
375.642	76.94
375.868	96.94
376.094	85.94
376.319	77.94
376.545	84.94
376.771	88.94
376.997	76.94
377.222	94.94
377.448	84.94
377.674	69.94
377.899	91.94
378.125	82.94
378.35	92.94
378.576	90.94
378.802	87.94
379.027	79.94
379.253	94.94
379.478	82.94
379.704	70.94
379.929	81.94
380.155	68.94
380.38	78.94
380.606	86.94
380.831	86.94
381.057	74.94
381.282	84.94
381.507	95.94
381.733	79.94
381.958	86.94
382.184	71.94
382.409	73.94
382.634	78.94
382.86	85.94
383.085	79.94
383.31	80.94
383.535	86.94
383.761	98.94
383.986	92.94
384.211	86.94
384.436	94.94
384.662	73.94
384.887	97.94
385.112	106.94
385.337	99.94
385.562	92.94
385.787	77.94
386.013	74.94
386.238	84.94
386.463	89.94
386.688	95.94
386.913	87.94
387.138	86.94
387.363	92.94
387.588	82.94
387.813	95.94
388.038	80.94
388.263	88.94
388.488	72.94
388.713	70.94
388.938	87.94
389.163	80.94
389.387	82.94
389.612	86.94
389.837	91.94
390.062	72.94
390.287	82.94
390.512	87.94
390.736	79.94
390.961	80.94
391.186	83.94
391.411	94.94
391.636	92.94
391.86	80.94
392.085	82.94
392.31	86.94
392.534	77.94
392.759	68.94
392.984	86.94
393.208	90.94
393.433	83.94
393.658	80.94
393.882	95.94
394.107	114.94
394.331	124.94
394.556	118.94
394.78	90.94
395.005	90.94
395.229	97.94
395.454	90.94
395.678	96.94
395.903	118.94
396.127	152.94
396.352	142.94
396.576	106.94
396.801	82.94
397.025	86.94
397.249	76.94
397.474	75.94
397.698	89.94
397.922	93.94
398.147	93.94
398.371	86.94
398.595	91.94
398.82	70.94
399.044	80.94
399.268	90.94
399.492	98.94
399.717	83.94
399.941	100.94
400.165	86.94
400.389	72.94
400.613	74.94
400.837	89.94
401.062	77.94
401.286	90.94
401.51	66.94
401.734	82.94
401.958	72.94
402.182	87.94
402.406	80.94
402.63	88.94
402.854	103.94
403.078	90.94
403.302	90.94
403.526	79.94
403.75	91.94
403.974	79.94
404.198	82.94
404.422	80.94
404.645	75.94
404.869	74.94
405.093	93.94
405.317	98.94
405.541	73.94
405.765	78.94
405.988	75.94
406.212	92.94
406.436	91.94
406.66	102.94
406.883	89.94
407.107	69.94
407.331	83.94
407.555	99.94
407.778	89.94
408.002	88.94
408.226	77.94
408.449	86.94
408.673	76.94
408.896	83.94
409.12	86.94
409.344	86.94
409.567	86.94
409.791	78.94
410.014	90.94
410.238	76.94
410.461	80.94
410.685	83.94
410.908	84.94
411.132	93.94
411.355	83.94
411.578	88.94
411.802	87.94
412.025	84.94
412.249	86.94
412.472	72.94
412.695	82.94
412.919	66.94
413.142	89.94
413.365	87.94
413.589	83.94
413.812	107.94
414.035	82.94
414.258	78.94
414.482	63.94
414.705	77.94
414.928	81.94
415.151	72.94
415.374	100.94
415.597	78.94
415.821	77.94
416.044	88.94
416.267	98.94
416.49	78.94
416.713	90.94
416.936	93.94
417.159	85.94
417.382	94.94
417.605	81.94
417.828	95.94
418.051	82.94
418.274	84.94
418.497	90.94
418.72	80.94
418.943	70.94
419.166	89.94
419.389	81.94
419.611	85.94
419.834	76.94
420.057	88.94
420.28	88.94
420.503	99.94
420.726	87.94
420.948	77.94
421.171	78.94
421.394	97.94
421.617	82.94
421.839	80.94
422.062	84.94
422.285	85.94
422.507	92.94
422.73	81.94
422.953	73.94
423.175	83.94
423.398	80.94
423.621	87.94
423.843	67.94
424.066	74.94
424.288	79.94
424.511	89.94
424.733	81.94
424.956	85.94
425.178	93.94
425.401	102.94
425.623	86.94
425.846	77.94
426.068	76.94
426.291	81.94
426.513	82.94
426.735	90.94
426.958	80.94
427.18	79.94
427.402	79.94
427.625	88.94
427.847	73.94
428.069	86.94
428.292	92.94
428.514	92.94
428.736	84.94
428.958	74.94
429.181	91.94
429.403	81.94
429.625	86.94
429.847	98.94
430.069	90.94
430.292	94.94
430.514	75.94
430.736	77.94
430.958	82.94
431.18	79.94
431.402	80.94
431.624	92.94
431.846	85.94
432.068	79.94
432.29	83.94
432.512	78.94
432.734	80.94
432.956	77.94
433.178	82.94
433.4	74.94
433.622	91.94
433.844	90.94
434.066	78.94
434.287	81.94
434.509	68.94
434.731	76.94
434.953	75.94
435.175	83.94
435.397	88.94
435.618	74.94
435.84	88.94
436.062	87.94
436.284	87.94
436.505	95.94
436.727	77.94
436.949	80.94
437.17	70.94
437.392	71.94
437.614	83.94
437.835	72.94
438.057	84.94
438.278	75.94
438.5	80.94
438.721	88.94
438.943	86.94
439.165	86.94
439.386	90.94
439.608	81.94
439.829	92.94
440.05	92.94
440.272	77.94
440.493	79.94
440.715	84.94
440.936	90.94
441.158	90.94
441.379	99.94
441.6	78.94
441.822	86.94
442.043	84.94
442.264	87.94
442.486	73.94
442.707	86.94
442.928	90.94
443.149	81.94
443.371	75.94
443.592	78.94
443.813	81.94
444.034	83.94
444.255	83.94
444.476	94.94
444.698	77.94
444.919	91.94
445.14	170.94
445.361	128.94
445.582	80.94
445.803	82.94
446.024	84.94
446.245	86.94
446.466	69.94
446.687	87.94
446.908	84.94
447.129	71.94
447.35	85.94
447.571	87.94
447.792	93.94
448.013	75.94
448.234	85.94
448.455	75.94
448.675	86.94
448.896	74.94
449.117	81.94
449.338	78.94
449.559	64.94
449.779	70.94
450	90.94
450.221	105.94
450.442	67.94
450.662	84.94
450.883	75.94
451.104	74.94
451.324	86.94
451.545	76.94
451.766	68.94
451.986	83.94
452.207	94.94
452.428	86.94
452.648	82.94
452.869	88.94
453.089	88.94
453.31	78.94
453.53	77.94
453.751	91.94
453.971	85.94
454.192	84.94
454.412	73.94
454.633	100.94
454.853	71.94
455.073	82.94
455.294	94.94
455.514	81.94
455.734	80.94
455.955	87.94
456.175	90.94
456.395	87.94
456.616	91.94
456.836	59.94
457.056	82.94
457.276	81.94
457.497	89.94
457.717	92.94
457.937	76.94
458.157	83.94
458.377	90.94
458.598	78.94
458.818	65.94
459.038	90.94
459.258	90.94
459.478	87.94
459.698	96.94
459.918	98.94
460.138	88.94
460.358	81.94
460.578	80.94
460.798	98.94
461.018	82.94
461.238	82.94
461.458	74.94
461.678	90.94
461.898	96.94
462.118	80.94
462.338	81.94
462.558	91.94
462.777	87.94
462.997	81.94
463.217	82.94
463.437	93.94
463.657	84.94
463.876	84.94
464.096	88.94
464.316	71.94
464.536	90.94
464.755	74.94
464.975	86.94
465.195	82.94
465.414	87.94
465.634	74.94
465.854	94.94
466.073	76.94
466.293	90.94
466.512	92.94
466.732	86.94
466.951	90.94
467.171	83.94
467.391	80.94
467.61	100.94
467.829	76.94
468.049	99.94
468.268	86.94
468.488	76.94
468.707	74.94
468.927	81.94
469.146	71.94
469.365	86.94
469.585	84.94
469.804	83.94
470.023	84.94
470.243	78.94
470.462	90.94
470.681	88.94
470.901	95.94
471.12	79.94
471.339	74.94
471.558	84.94
471.777	87.94
471.997	88.94
472.216	93.94
472.435	79.94
472.654	96.94
472.873	97.94
473.092	94.94
473.311	73.94
473.53	82.94
473.749	72.94
473.968	95.94
474.187	94.94
474.406	88.94
474.625	98.94
474.844	88.94
475.063	87.94
475.282	75.94
475.501	86.94
475.72	82.94
475.939	85.94
476.158	86.94
476.377	96.94
476.596	80.94
476.814	88.94
477.033	86.94
477.252	90.94
477.471	84.94
477.69	79.94
477.908	100.94
478.127	100.94
478.346	88.94
478.564	81.94
478.783	88.94
479.002	97.94
479.22	78.94
479.439	88.94
479.658	92.94
479.876	78.94
480.095	85.94
480.313	71.94
480.532	102.94
480.751	91.94
480.969	92.94
481.188	82.94
481.406	94.94
481.624	80.94
481.843	89.94
482.061	89.94
482.28	99.94
482.498	88.94
482.717	73.94
482.935	74.94
483.153	94.94
483.372	95.94
483.59	92.94
483.808	90.94
484.027	84.94
484.245	94.94
484.463	86.94
484.681	102.94
484.9	95.94
485.118	95.94
485.336	75.94
485.554	92.94
485.772	84.94
485.99	87.94
486.209	86.94
486.427	80.94
486.645	75.94
486.863	82.94
487.081	76.94
487.299	79.94
487.517	92.94
487.735	88.94
487.953	90.94
488.171	100.94
488.389	83.94
488.607	84.94
488.825	98.94
489.043	88.94
489.261	82.94
489.479	79.94
489.696	96.94
489.914	80.94
490.132	92.94
490.35	88.94
490.568	102.94
490.786	106.94
491.003	81.94
491.221	76.94
491.439	74.94
491.657	86.94
491.874	88.94
492.092	90.94
492.31	83.94
492.527	97.94
492.745	77.94
492.963	72.94
493.18	86.94
493.398	92.94
493.615	92.94
493.833	90.94
494.05	84.94
494.268	77.94
494.485	91.94
494.703	82.94
494.92	88.94
495.138	79.94
495.355	94.94
495.573	91.94
495.79	82.94
496.008	88.94
496.225	78.94
496.442	95.94
496.66	94.94
496.877	80.94
497.094	95.94
497.312	81.94
497.529	95.94
497.746	102.94
497.963	81.94
498.181	85.94
498.398	88.94
498.615	75.94
498.832	92.94
499.049	74.94
499.267	88.94
499.484	84.94
499.701	91.94
499.918	86.94
500.135	98.94
500.352	83.94
500.569	88.94
500.786	95.94
501.003	94.94
501.22	88.94
501.437	82.94
501.654	100.94
501.871	89.94
502.088	92.94
502.305	78.94
502.522	79.94
502.739	90.94
502.956	81.94
503.172	85.94
503.389	86.94
503.606	100.94
503.823	97.94
504.04	77.94
504.256	100.94
504.473	74.94
504.69	84.94
504.907	76.94
505.123	80.94
505.34	82.94
505.557	82.94
505.773	80.94
505.99	91.94
506.207	78.94
506.423	91.94
506.64	101.94
506.856	92.94
507.073	86.94
507.289	74.94
507.506	101.94
507.722	90.94
507.939	102.94
508.155	93.94
508.372	87.94
508.588	88.94
508.805	67.94
509.021	99.94
509.238	95.94
509.454	92.94
509.67	77.94
509.887	93.94
510.103	83.94
510.319	88.94
510.536	95.94
510.752	72.94
510.968	80.94
511.184	88.94
511.401	89.94
511.617	88.94
511.833	85.94
512.049	91.94
512.265	85.94
512.481	83.94
512.698	94.94
512.914	88.94
513.13	95.94
513.346	83.94
513.562	93.94
513.778	84.94
513.994	82.94
514.21	89.94
514.426	76.94
514.642	80.94
514.858	90.94
515.074	95.94
515.29	98.94
515.506	83.94
515.721	86.94
515.937	100.94
516.153	94.94
516.369	74.94
516.585	84.94
516.801	76.94
517.016	98.94
517.232	84.94
517.448	94.94
517.664	84.94
517.879	78.94
518.095	92.94
518.311	92.94
518.527	92.94
518.742	95.94
518.958	78.94
519.173	86.94
519.389	79.94
519.605	73.94
