Data from Coke_Can_Side_HRD10591_00016.txt Node
Date: Wed Nov 05 15:42:14 EST 2025
User: Yrep
Spectrometer: HR+D1059
Trigger mode: 1
Integration Time (sec): 1.000000E-1
Scans to average: 1
Electric dark correction enabled: true
Nonlinearity correction enabled: false
Boxcar width: 0
XAxis mode: Wavelengths
Number of Pixels in Spectrum: 2048
>>>>>Begin Spectral Data<<<<<
223.165	-21.81
223.4	-21.81
223.635	-21.81
223.869	-20.81
224.104	-19.81
224.338	-7.81
224.573	-10.81
224.808	-5.81
225.042	-6.81
225.277	-11.81
225.511	-2.81
225.746	0.19
225.98	2.19
226.215	5.19
226.449	14.19
226.683	26.19
226.918	23.19
227.152	37.19
227.387	36.19
227.621	51.19
227.856	36.19
228.09	37.19
228.324	43.19
228.559	48.19
228.793	62.19
229.027	55.19
229.262	60.19
229.496	63.19
229.73	71.19
229.964	79.19
230.199	74.19
230.433	68.19
230.667	64.19
230.901	78.19
231.136	85.19
231.37	84.19
231.604	87.19
231.838	79.19
232.072	79.19
232.306	82.19
232.541	75.19
232.775	79.19
233.009	70.19
233.243	81.19
233.477	95.19
233.711	91.19
233.945	90.19
234.179	69.19
234.413	69.19
234.647	71.19
234.881	83.19
235.115	87.19
235.349	71.19
235.583	68.19
235.817	79.19
236.051	73.19
236.285	72.19
236.519	76.19
236.753	77.19
236.987	79.19
237.221	74.19
237.455	92.19
237.689	65.19
237.922	81.19
238.156	65.19
238.39	55.19
238.624	74.19
238.858	61.19
239.091	77.19
239.325	74.19
239.559	64.19
239.793	83.19
240.027	93.19
240.26	89.19
240.494	73.19
240.728	80.19
240.961	74.19
241.195	72.19
241.429	73.19
241.662	73.19
241.896	64.19
242.13	82.19
242.363	82.19
242.597	67.19
242.83	65.19
243.064	74.19
243.298	56.19
243.531	80.19
243.765	72.19
243.998	68.19
244.232	87.19
244.465	76.19
244.699	76.19
244.932	98.19
245.166	63.19
245.399	77.19
245.633	71.19
245.866	74.19
246.099	79.19
246.333	63.19
246.566	77.19
246.8	85.19
247.033	75.19
247.266	68.19
247.5	78.19
247.733	76.19
247.966	80.19
248.2	81.19
248.433	92.19
248.666	71.19
248.899	75.19
249.133	82.19
249.366	74.19
249.599	78.19
249.832	81.19
250.066	78.19
250.299	67.19
250.532	73.19
250.765	78.19
250.998	67.19
251.231	85.19
251.465	83.19
251.698	77.19
251.931	88.19
252.164	87.19
252.397	67.19
252.63	79.19
252.863	74.19
253.096	85.19
253.329	82.19
253.562	75.19
253.795	85.19
254.028	70.19
254.261	71.19
254.494	76.19
254.727	84.19
254.96	83.19
255.193	84.19
255.426	78.19
255.659	77.19
255.892	78.19
256.124	77.19
256.357	90.19
256.59	91.19
256.823	80.19
257.056	74.19
257.289	83.19
257.521	81.19
257.754	60.19
257.987	88.19
258.22	90.19
258.452	76.19
258.685	72.19
258.918	69.19
259.151	69.19
259.383	81.19
259.616	74.19
259.849	74.19
260.081	74.19
260.314	67.19
260.547	85.19
260.779	76.19
261.012	73.19
261.244	80.19
261.477	79.19
261.71	80.19
261.942	80.19
262.175	86.19
262.407	64.19
262.64	87.19
262.872	85.19
263.105	93.19
263.337	81.19
263.57	93.19
263.802	81.19
264.035	71.19
264.267	75.19
264.499	79.19
264.732	91.19
264.964	80.19
265.197	85.19
265.429	77.19
265.661	82.19
265.894	87.19
266.126	93.19
266.358	82.19
266.591	86.19
266.823	91.19
267.055	83.19
267.287	82.19
267.52	86.19
267.752	88.19
267.984	88.19
268.216	92.19
268.448	77.19
268.681	82.19
268.913	91.19
269.145	96.19
269.377	87.19
269.609	80.19
269.841	89.19
270.073	90.19
270.306	67.19
270.538	85.19
270.77	92.19
271.002	80.19
271.234	77.19
271.466	86.19
271.698	71.19
271.93	91.19
272.162	88.19
272.394	86.19
272.626	87.19
272.858	74.19
273.09	89.19
273.322	99.19
273.553	88.19
273.785	72.19
274.017	82.19
274.249	77.19
274.481	79.19
274.713	79.19
274.945	91.19
275.176	83.19
275.408	88.19
275.64	85.19
275.872	76.19
276.104	80.19
276.335	93.19
276.567	73.19
276.799	86.19
277.031	87.19
277.262	87.19
277.494	81.19
277.726	74.19
277.957	77.19
278.189	72.19
278.421	79.19
278.652	80.19
278.884	76.19
279.115	87.19
279.347	87.19
279.579	86.19
279.81	81.19
280.042	87.19
280.273	95.19
280.505	82.19
280.736	81.19
280.968	87.19
281.199	75.19
281.431	74.19
281.662	75.19
281.894	100.19
282.125	79.19
282.356	72.19
282.588	75.19
282.819	77.19
283.051	92.19
283.282	85.19
283.513	77.19
283.745	78.19
283.976	81.19
284.207	88.19
284.439	98.19
284.67	69.19
284.901	79.19
285.132	81.19
285.364	108.19
285.595	83.19
285.826	79.19
286.057	72.19
286.288	80.19
286.52	91.19
286.751	80.19
286.982	80.19
287.213	73.19
287.444	88.19
287.675	81.19
287.906	95.19
288.138	76.19
288.369	74.19
288.6	84.19
288.831	74.19
289.062	72.19
289.293	77.19
289.524	79.19
289.755	85.19
289.986	87.19
290.217	76.19
290.448	86.19
290.679	81.19
290.91	88.19
291.141	85.19
291.371	95.19
291.602	76.19
291.833	93.19
292.064	85.19
292.295	86.19
292.526	90.19
292.757	74.19
292.987	91.19
293.218	75.19
293.449	82.19
293.68	77.19
293.91	88.19
294.141	89.19
294.372	86.19
294.603	87.19
294.833	82.19
295.064	95.19
295.295	82.19
295.525	83.19
295.756	87.19
295.987	78.19
296.217	76.19
296.448	95.19
296.679	89.19
296.909	91.19
297.14	87.19
297.37	80.19
297.601	78.19
297.831	77.19
298.062	87.19
298.292	92.19
298.523	87.19
298.753	93.19
298.984	74.19
299.214	72.19
299.445	71.19
299.675	93.19
299.905	85.19
300.136	89.19
300.366	86.19
300.597	80.19
300.827	91.19
301.057	87.19
301.288	95.19
301.518	78.19
301.748	83.19
301.979	88.19
302.209	73.19
302.439	71.19
302.669	76.19
302.9	84.19
303.13	91.19
303.36	73.19
303.59	85.19
303.82	97.19
304.051	76.19
304.281	77.19
304.511	80.19
304.741	70.19
304.971	85.19
305.201	86.19
305.431	88.19
305.661	87.19
305.891	80.19
306.121	85.19
306.352	70.19
306.582	92.19
306.812	74.19
307.042	80.19
307.272	82.19
307.502	80.19
307.731	91.19
307.961	88.19
308.191	96.19
308.421	103.19
308.651	87.19
308.881	86.19
309.111	96.19
309.341	104.19
309.571	105.19
309.8	84.19
310.03	78.19
310.26	84.19
310.49	87.19
310.72	80.19
310.949	80.19
311.179	74.19
311.409	72.19
311.639	88.19
311.868	90.19
312.098	96.19
312.328	87.19
312.557	79.19
312.787	91.19
313.017	103.19
313.246	89.19
313.476	86.19
313.706	87.19
313.935	83.19
314.165	85.19
314.394	97.19
314.624	72.19
314.853	77.19
315.083	86.19
315.312	85.19
315.542	89.19
315.771	65.19
316.001	85.19
316.23	83.19
316.46	96.19
316.689	86.19
316.919	78.19
317.148	67.19
317.377	92.19
317.607	99.19
317.836	85.19
318.065	78.19
318.295	93.19
318.524	74.19
318.753	77.19
318.983	74.19
319.212	99.19
319.441	81.19
319.67	73.19
319.9	94.19
320.129	75.19
320.358	82.19
320.587	84.19
320.816	71.19
321.046	81.19
321.275	75.19
321.504	72.19
321.733	103.19
321.962	94.19
322.191	79.19
322.42	84.19
322.649	97.19
322.878	83.19
323.108	81.19
323.337	83.19
323.566	78.19
323.795	80.19
324.024	83.19
324.253	90.19
324.482	79.19
324.71	79.19
324.939	84.19
325.168	91.19
325.397	88.19
325.626	92.19
325.855	91.19
326.084	81.19
326.313	86.19
326.542	85.19
326.77	85.19
326.999	95.19
327.228	82.19
327.457	89.19
327.686	95.19
327.914	87.19
328.143	83.19
328.372	85.19
328.6	82.19
328.829	84.19
329.058	88.19
329.287	89.19
329.515	92.19
329.744	84.19
329.972	91.19
330.201	78.19
330.43	94.19
330.658	83.19
330.887	91.19
331.115	89.19
331.344	83.19
331.572	94.19
331.801	85.19
332.03	61.19
332.258	80.19
332.486	71.19
332.715	81.19
332.943	97.19
333.172	89.19
333.4	76.19
333.629	75.19
333.857	87.19
334.085	90.19
334.314	75.19
334.542	79.19
334.771	76.19
334.999	79.19
335.227	95.19
335.455	84.19
335.684	94.19
335.912	91.19
336.14	88.19
336.369	93.19
336.597	71.19
336.825	82.19
337.053	82.19
337.281	86.19
337.51	80.19
337.738	84.19
337.966	84.19
338.194	70.19
338.422	74.19
338.65	81.19
338.878	86.19
339.106	100.19
339.334	97.19
339.562	88.19
339.79	80.19
340.018	80.19
340.246	85.19
340.474	80.19
340.702	102.19
340.93	87.19
341.158	73.19
341.386	69.19
341.614	81.19
341.842	82.19
342.07	85.19
342.298	87.19
342.526	84.19
342.754	93.19
342.981	77.19
343.209	89.19
343.437	99.19
343.665	89.19
343.893	70.19
344.12	80.19
344.348	87.19
344.576	76.19
344.804	79.19
345.031	87.19
345.259	76.19
345.487	87.19
345.714	80.19
345.942	71.19
346.17	80.19
346.397	82.19
346.625	91.19
346.853	92.19
347.08	84.19
347.308	85.19
347.535	86.19
347.763	71.19
347.99	107.19
348.218	98.19
348.445	82.19
348.673	95.19
348.9	87.19
349.128	79.19
349.355	83.19
349.583	81.19
349.81	71.19
350.037	93.19
350.265	81.19
350.492	75.19
350.72	75.19
350.947	94.19
351.174	84.19
351.402	69.19
351.629	61.19
351.856	87.19
352.083	85.19
352.311	86.19
352.538	81.19
352.765	77.19
352.992	78.19
353.22	81.19
353.447	89.19
353.674	95.19
353.901	90.19
354.128	89.19
354.355	81.19
354.583	87.19
354.81	93.19
355.037	73.19
355.264	88.19
355.491	80.19
355.718	96.19
355.945	86.19
356.172	95.19
356.399	92.19
356.626	81.19
356.853	95.19
357.08	84.19
357.307	86.19
357.534	81.19
357.761	81.19
357.988	72.19
358.215	72.19
358.441	74.19
358.668	73.19
358.895	79.19
359.122	87.19
359.349	86.19
359.576	79.19
359.802	86.19
360.029	87.19
360.256	87.19
360.483	77.19
360.709	84.19
360.936	97.19
361.163	85.19
361.39	79.19
361.616	85.19
361.843	76.19
362.07	89.19
362.296	81.19
362.523	78.19
362.749	87.19
362.976	71.19
363.203	88.19
363.429	69.19
363.656	92.19
363.882	93.19
364.109	102.19
364.335	85.19
364.562	89.19
364.788	92.19
365.015	87.19
365.241	73.19
365.468	83.19
365.694	81.19
365.92	88.19
366.147	70.19
366.373	79.19
366.599	91.19
366.826	87.19
367.052	91.19
367.278	83.19
367.505	75.19
367.731	78.19
367.957	89.19
368.184	81.19
368.41	76.19
368.636	89.19
368.862	84.19
369.089	73.19
369.315	80.19
369.541	84.19
369.767	75.19
369.993	82.19
370.219	80.19
370.445	93.19
370.672	76.19
370.898	77.19
371.124	77.19
371.35	89.19
371.576	76.19
371.802	92.19
372.028	88.19
372.254	88.19
372.48	85.19
372.706	96.19
372.932	75.19
373.158	87.19
373.384	86.19
373.61	80.19
373.835	88.19
374.061	79.19
374.287	81.19
374.513	88.19
374.739	79.19
374.965	81.19
375.191	86.19
375.416	90.19
375.642	82.19
375.868	80.19
376.094	99.19
376.319	73.19
376.545	89.19
376.771	85.19
376.997	72.19
377.222	84.19
377.448	91.19
377.674	81.19
377.899	83.19
378.125	81.19
378.35	93.19
378.576	92.19
378.802	59.19
379.027	78.19
379.253	93.19
379.478	82.19
379.704	77.19
379.929	89.19
380.155	86.19
380.38	85.19
380.606	83.19
380.831	82.19
381.057	99.19
381.282	67.19
381.507	86.19
381.733	97.19
381.958	97.19
382.184	87.19
382.409	91.19
382.634	92.19
382.86	80.19
383.085	86.19
383.31	78.19
383.535	77.19
383.761	91.19
383.986	91.19
384.211	73.19
384.436	76.19
384.662	90.19
384.887	79.19
385.112	91.19
385.337	80.19
385.562	81.19
385.787	87.19
386.013	78.19
386.238	77.19
386.463	94.19
386.688	97.19
386.913	89.19
387.138	86.19
387.363	97.19
387.588	74.19
387.813	76.19
388.038	84.19
388.263	87.19
388.488	79.19
388.713	92.19
388.938	67.19
389.163	94.19
389.387	75.19
389.612	87.19
389.837	93.19
390.062	88.19
390.287	87.19
390.512	84.19
390.736	85.19
390.961	84.19
391.186	75.19
391.411	68.19
391.636	77.19
391.86	95.19
392.085	71.19
392.31	81.19
392.534	91.19
392.759	87.19
392.984	75.19
393.208	107.19
393.433	89.19
393.658	96.19
393.882	105.19
394.107	123.19
394.331	136.19
394.556	143.19
394.78	100.19
395.005	77.19
395.229	80.19
395.454	101.19
395.678	105.19
395.903	125.19
396.127	144.19
396.352	143.19
396.576	110.19
396.801	95.19
397.025	76.19
397.249	88.19
397.474	89.19
397.698	77.19
397.922	88.19
398.147	88.19
398.371	88.19
398.595	72.19
398.82	80.19
399.044	85.19
399.268	80.19
399.492	85.19
399.717	89.19
399.941	80.19
400.165	78.19
400.389	80.19
400.613	80.19
400.837	76.19
401.062	99.19
401.286	87.19
401.51	88.19
401.734	75.19
401.958	88.19
402.182	85.19
402.406	84.19
402.63	85.19
402.854	81.19
403.078	90.19
403.302	89.19
403.526	78.19
403.75	79.19
403.974	81.19
404.198	97.19
404.422	91.19
404.645	63.19
404.869	82.19
405.093	87.19
405.317	94.19
405.541	84.19
405.765	94.19
405.988	89.19
406.212	69.19
406.436	78.19
406.66	89.19
406.883	81.19
407.107	83.19
407.331	72.19
407.555	87.19
407.778	90.19
408.002	84.19
408.226	95.19
408.449	85.19
408.673	78.19
408.896	80.19
409.12	69.19
409.344	92.19
409.567	99.19
409.791	93.19
410.014	81.19
410.238	93.19
410.461	81.19
410.685	93.19
410.908	81.19
411.132	92.19
411.355	87.19
411.578	91.19
411.802	82.19
412.025	86.19
412.249	89.19
412.472	85.19
412.695	76.19
412.919	81.19
413.142	72.19
413.365	81.19
413.589	73.19
413.812	78.19
414.035	75.19
414.258	81.19
414.482	92.19
414.705	85.19
414.928	76.19
415.151	77.19
415.374	96.19
415.597	77.19
415.821	94.19
416.044	89.19
416.267	79.19
416.49	88.19
416.713	71.19
416.936	91.19
417.159	92.19
417.382	92.19
417.605	66.19
417.828	80.19
418.051	88.19
418.274	83.19
418.497	69.19
418.72	81.19
418.943	76.19
419.166	85.19
419.389	80.19
419.611	81.19
419.834	87.19
420.057	77.19
420.28	76.19
420.503	69.19
420.726	85.19
420.948	88.19
421.171	86.19
421.394	87.19
421.617	94.19
421.839	87.19
422.062	90.19
422.285	86.19
422.507	94.19
422.73	78.19
422.953	90.19
423.175	75.19
423.398	85.19
423.621	82.19
423.843	87.19
424.066	86.19
424.288	86.19
424.511	80.19
424.733	89.19
424.956	87.19
425.178	78.19
425.401	77.19
425.623	81.19
425.846	68.19
426.068	77.19
426.291	88.19
426.513	97.19
426.735	87.19
426.958	86.19
427.18	82.19
427.402	78.19
427.625	65.19
427.847	72.19
428.069	99.19
428.292	73.19
428.514	81.19
428.736	91.19
428.958	76.19
429.181	88.19
429.403	82.19
429.625	78.19
429.847	78.19
430.069	86.19
430.292	86.19
430.514	77.19
430.736	66.19
430.958	87.19
431.18	75.19
431.402	79.19
431.624	83.19
431.846	85.19
432.068	81.19
432.29	83.19
432.512	97.19
432.734	82.19
432.956	88.19
433.178	74.19
433.4	79.19
433.622	86.19
433.844	79.19
434.066	96.19
434.287	84.19
434.509	81.19
434.731	80.19
434.953	98.19
435.175	92.19
435.397	81.19
435.618	81.19
435.84	84.19
436.062	94.19
436.284	88.19
436.505	81.19
436.727	80.19
436.949	84.19
437.17	88.19
437.392	75.19
437.614	91.19
437.835	90.19
438.057	91.19
438.278	84.19
438.5	87.19
438.721	76.19
438.943	83.19
439.165	81.19
439.386	99.19
439.608	78.19
439.829	77.19
440.05	88.19
440.272	71.19
440.493	69.19
440.715	85.19
440.936	74.19
441.158	86.19
441.379	102.19
441.6	71.19
441.822	81.19
442.043	78.19
442.264	77.19
442.486	88.19
442.707	91.19
442.928	88.19
443.149	79.19
443.371	69.19
443.592	77.19
443.813	79.19
444.034	85.19
444.255	86.19
444.476	76.19
444.698	66.19
444.919	77.19
445.14	163.19
445.361	127.19
445.582	87.19
445.803	92.19
446.024	84.19
446.245	85.19
446.466	87.19
446.687	94.19
446.908	86.19
447.129	82.19
447.35	86.19
447.571	68.19
447.792	81.19
448.013	77.19
448.234	92.19
448.455	75.19
448.675	72.19
448.896	82.19
449.117	81.19
449.338	78.19
449.559	83.19
449.779	81.19
450	69.19
450.221	95.19
450.442	77.19
450.662	91.19
450.883	75.19
451.104	78.19
451.324	78.19
451.545	85.19
451.766	89.19
451.986	74.19
452.207	79.19
452.428	83.19
452.648	86.19
452.869	76.19
453.089	82.19
453.31	74.19
453.53	83.19
453.751	75.19
453.971	75.19
454.192	85.19
454.412	70.19
454.633	85.19
454.853	88.19
455.073	80.19
455.294	77.19
455.514	74.19
455.734	72.19
455.955	94.19
456.175	80.19
456.395	82.19
456.616	68.19
456.836	102.19
457.056	89.19
457.276	71.19
457.497	89.19
457.717	80.19
457.937	85.19
458.157	85.19
458.377	82.19
458.598	92.19
458.818	87.19
459.038	72.19
459.258	67.19
459.478	82.19
459.698	85.19
459.918	90.19
460.138	79.19
460.358	89.19
460.578	89.19
460.798	85.19
461.018	90.19
461.238	87.19
461.458	95.19
461.678	81.19
461.898	93.19
462.118	79.19
462.338	80.19
462.558	88.19
462.777	78.19
462.997	86.19
463.217	83.19
463.437	85.19
463.657	78.19
463.876	68.19
464.096	73.19
464.316	89.19
464.536	83.19
464.755	75.19
464.975	67.19
465.195	92.19
465.414	75.19
465.634	93.19
465.854	84.19
466.073	78.19
466.293	89.19
466.512	90.19
466.732	87.19
466.951	89.19
467.171	81.19
467.391	101.19
467.61	95.19
467.829	90.19
468.049	86.19
468.268	87.19
468.488	89.19
468.707	73.19
468.927	71.19
469.146	84.19
469.365	67.19
469.585	82.19
469.804	82.19
470.023	84.19
470.243	75.19
470.462	93.19
470.681	99.19
470.901	87.19
471.12	82.19
471.339	82.19
471.558	86.19
471.777	94.19
471.997	83.19
472.216	79.19
472.435	82.19
472.654	81.19
472.873	87.19
473.092	73.19
473.311	81.19
473.53	95.19
473.749	85.19
473.968	80.19
474.187	83.19
474.406	87.19
474.625	76.19
474.844	82.19
475.063	83.19
475.282	72.19
475.501	89.19
475.72	85.19
475.939	93.19
476.158	95.19
476.377	77.19
476.596	80.19
476.814	83.19
477.033	89.19
477.252	78.19
477.471	87.19
477.69	77.19
477.908	101.19
478.127	92.19
478.346	79.19
478.564	85.19
478.783	87.19
479.002	85.19
479.22	76.19
479.439	101.19
479.658	80.19
479.876	70.19
480.095	75.19
480.313	91.19
480.532	80.19
480.751	87.19
480.969	92.19
481.188	94.19
481.406	79.19
481.624	81.19
481.843	88.19
482.061	82.19
482.28	79.19
482.498	82.19
482.717	81.19
482.935	89.19
483.153	82.19
483.372	79.19
483.59	92.19
483.808	89.19
484.027	80.19
484.245	81.19
484.463	99.19
484.681	83.19
484.9	103.19
485.118	90.19
485.336	91.19
485.554	73.19
485.772	99.19
485.99	89.19
486.209	77.19
486.427	97.19
486.645	78.19
486.863	82.19
487.081	91.19
487.299	96.19
487.517	85.19
487.735	83.19
487.953	100.19
488.171	92.19
488.389	84.19
488.607	80.19
488.825	83.19
489.043	91.19
489.261	96.19
489.479	78.19
489.696	85.19
489.914	81.19
490.132	80.19
490.35	86.19
490.568	89.19
490.786	84.19
491.003	76.19
491.221	84.19
491.439	95.19
491.657	98.19
491.874	89.19
492.092	85.19
492.31	84.19
492.527	96.19
492.745	95.19
492.963	83.19
493.18	93.19
493.398	100.19
493.615	89.19
493.833	87.19
494.05	86.19
494.268	86.19
494.485	84.19
494.703	88.19
494.92	77.19
495.138	83.19
495.355	81.19
495.573	87.19
495.79	90.19
496.008	92.19
496.225	85.19
496.442	78.19
496.66	96.19
496.877	81.19
497.094	85.19
497.312	75.19
497.529	98.19
497.746	74.19
497.963	82.19
498.181	76.19
498.398	85.19
498.615	91.19
498.832	84.19
499.049	81.19
499.267	87.19
499.484	81.19
499.701	56.19
499.918	79.19
500.135	79.19
500.352	74.19
500.569	87.19
500.786	91.19
501.003	73.19
501.22	89.19
501.437	91.19
501.654	85.19
501.871	77.19
502.088	75.19
502.305	78.19
502.522	77.19
502.739	80.19
502.956	88.19
503.172	87.19
503.389	87.19
503.606	87.19
503.823	80.19
504.04	79.19
504.256	81.19
504.473	87.19
504.69	79.19
504.907	76.19
505.123	93.19
505.34	79.19
505.557	87.19
505.773	84.19
505.99	81.19
506.207	77.19
506.423	75.19
506.64	75.19
506.856	89.19
507.073	88.19
507.289	93.19
507.506	96.19
507.722	79.19
507.939	71.19
508.155	92.19
508.372	78.19
508.588	83.19
508.805	81.19
509.021	91.19
509.238	89.19
509.454	73.19
509.67	85.19
509.887	75.19
510.103	95.19
510.319	93.19
510.536	91.19
510.752	80.19
510.968	91.19
511.184	101.19
511.401	72.19
511.617	83.19
511.833	77.19
512.049	86.19
512.265	81.19
512.481	84.19
512.698	85.19
512.914	93.19
513.13	96.19
513.346	78.19
513.562	84.19
513.778	79.19
513.994	87.19
514.21	83.19
514.426	88.19
514.642	82.19
514.858	78.19
515.074	67.19
515.29	74.19
515.506	89.19
515.721	88.19
515.937	85.19
516.153	78.19
516.369	85.19
516.585	80.19
516.801	78.19
517.016	94.19
517.232	68.19
517.448	74.19
517.664	89.19
517.879	73.19
518.095	93.19
518.311	97.19
518.527	90.19
518.742	91.19
518.958	82.19
519.173	75.19
519.389	88.19
519.605	92.19
519.82	88.19
