Data from Coke_Can_Side_HRD10591_00004.txt Node
Date: Wed Nov 05 15:42:08 EST 2025
User: Yrep
Spectrometer: HR+D1059
Trigger mode: 1
Integration Time (sec): 1.000000E-1
Scans to average: 1
Electric dark correction enabled: true
Nonlinearity correction enabled: false
Boxcar width: 0
XAxis mode: Wavelengths
Number of Pixels in Spectrum: 2048
>>>>>Begin Spectral Data<<<<<
223.165	-16.69
223.4	-16.69
223.635	-16.69
223.869	-22.69
224.104	-13.69
224.338	-19.69
224.573	-9.69
224.808	-8.69
225.042	-10.69
225.277	-12.69
225.511	4.31
225.746	-2.69
225.98	5.31
226.215	11.31
226.449	21.31
226.683	22.31
226.918	27.31
227.152	25.31
227.387	23.31
227.621	35.31
227.856	58.31
228.09	31.31
228.324	47.31
228.559	63.31
228.793	60.31
229.027	73.31
229.262	70.31
229.496	68.31
229.73	75.31
229.964	75.31
230.199	69.31
230.433	64.31
230.667	62.31
230.901	73.31
231.136	70.31
231.37	69.31
231.604	78.31
231.838	65.31
232.072	81.31
232.306	74.31
232.541	87.31
232.775	76.31
233.009	77.31
233.243	84.31
233.477	91.31
233.711	89.31
233.945	77.31
234.179	87.31
234.413	65.31
234.647	79.31
234.881	90.31
235.115	79.31
235.349	70.31
235.583	73.31
235.817	62.31
236.051	81.31
236.285	71.31
236.519	67.31
236.753	75.31
236.987	77.31
237.221	88.31
237.455	67.31
237.689	65.31
237.922	77.31
238.156	74.31
238.39	83.31
238.624	70.31
238.858	76.31
239.091	84.31
239.325	64.31
239.559	66.31
239.793	71.31
240.027	79.31
240.26	71.31
240.494	80.31
240.728	67.31
240.961	67.31
241.195	87.31
241.429	66.31
241.662	65.31
241.896	69.31
242.13	70.31
242.363	83.31
242.597	79.31
242.83	66.31
243.064	84.31
243.298	71.31
243.531	75.31
243.765	88.31
243.998	85.31
244.232	84.31
244.465	80.31
244.699	64.31
244.932	70.31
245.166	83.31
245.399	72.31
245.633	83.31
245.866	69.31
246.099	80.31
246.333	74.31
246.566	75.31
246.8	56.31
247.033	70.31
247.266	77.31
247.5	76.31
247.733	81.31
247.966	78.31
248.2	74.31
248.433	67.31
248.666	63.31
248.899	79.31
249.133	76.31
249.366	83.31
249.599	63.31
249.832	73.31
250.066	89.31
250.299	80.31
250.532	87.31
250.765	73.31
250.998	69.31
251.231	56.31
251.465	56.31
251.698	80.31
251.931	72.31
252.164	77.31
252.397	83.31
252.63	71.31
252.863	73.31
253.096	73.31
253.329	72.31
253.562	64.31
253.795	77.31
254.028	90.31
254.261	75.31
254.494	66.31
254.727	75.31
254.96	77.31
255.193	86.31
255.426	75.31
255.659	71.31
255.892	63.31
256.124	72.31
256.357	88.31
256.59	75.31
256.823	73.31
257.056	70.31
257.289	77.31
257.521	84.31
257.754	70.31
257.987	85.31
258.22	85.31
258.452	79.31
258.685	88.31
258.918	76.31
259.151	76.31
259.383	74.31
259.616	65.31
259.849	93.31
260.081	74.31
260.314	86.31
260.547	83.31
260.779	85.31
261.012	76.31
261.244	79.31
261.477	81.31
261.71	68.31
261.942	76.31
262.175	72.31
262.407	81.31
262.64	86.31
262.872	61.31
263.105	69.31
263.337	81.31
263.57	71.31
263.802	74.31
264.035	74.31
264.267	72.31
264.499	80.31
264.732	87.31
264.964	84.31
265.197	81.31
265.429	74.31
265.661	62.31
265.894	67.31
266.126	98.31
266.358	68.31
266.591	75.31
266.823	84.31
267.055	83.31
267.287	71.31
267.52	74.31
267.752	70.31
267.984	68.31
268.216	75.31
268.448	97.31
268.681	87.31
268.913	90.31
269.145	71.31
269.377	79.31
269.609	93.31
269.841	92.31
270.073	71.31
270.306	88.31
270.538	62.31
270.77	94.31
271.002	78.31
271.234	86.31
271.466	77.31
271.698	80.31
271.93	71.31
272.162	80.31
272.394	86.31
272.626	72.31
272.858	78.31
273.09	88.31
273.322	86.31
273.553	83.31
273.785	69.31
274.017	78.31
274.249	71.31
274.481	78.31
274.713	78.31
274.945	63.31
275.176	67.31
275.408	89.31
275.64	85.31
275.872	80.31
276.104	62.31
276.335	76.31
276.567	74.31
276.799	78.31
277.031	81.31
277.262	72.31
277.494	91.31
277.726	93.31
277.957	88.31
278.189	77.31
278.421	85.31
278.652	79.31
278.884	90.31
279.115	87.31
279.347	85.31
279.579	89.31
279.81	78.31
280.042	91.31
280.273	77.31
280.505	80.31
280.736	78.31
280.968	74.31
281.199	78.31
281.431	72.31
281.662	93.31
281.894	82.31
282.125	80.31
282.356	89.31
282.588	83.31
282.819	78.31
283.051	73.31
283.282	85.31
283.513	92.31
283.745	77.31
283.976	79.31
284.207	82.31
284.439	67.31
284.67	84.31
284.901	83.31
285.132	78.31
285.364	75.31
285.595	75.31
285.826	84.31
286.057	77.31
286.288	79.31
286.52	76.31
286.751	86.31
286.982	87.31
287.213	88.31
287.444	93.31
287.675	87.31
287.906	78.31
288.138	87.31
288.369	91.31
288.6	102.31
288.831	74.31
289.062	93.31
289.293	71.31
289.524	94.31
289.755	81.31
289.986	83.31
290.217	94.31
290.448	86.31
290.679	80.31
290.91	92.31
291.141	78.31
291.371	82.31
291.602	88.31
291.833	86.31
292.064	85.31
292.295	73.31
292.526	77.31
292.757	71.31
292.987	83.31
293.218	76.31
293.449	75.31
293.68	89.31
293.91	61.31
294.141	85.31
294.372	77.31
294.603	76.31
294.833	81.31
295.064	85.31
295.295	86.31
295.525	86.31
295.756	98.31
295.987	87.31
296.217	81.31
296.448	78.31
296.679	78.31
296.909	71.31
297.14	83.31
297.37	71.31
297.601	82.31
297.831	92.31
298.062	85.31
298.292	78.31
298.523	90.31
298.753	79.31
298.984	91.31
299.214	73.31
299.445	78.31
299.675	87.31
299.905	85.31
300.136	100.31
300.366	90.31
300.597	68.31
300.827	83.31
301.057	76.31
301.288	85.31
301.518	87.31
301.748	70.31
301.979	96.31
302.209	84.31
302.439	80.31
302.669	87.31
302.9	93.31
303.13	96.31
303.36	80.31
303.59	64.31
303.82	73.31
304.051	76.31
304.281	77.31
304.511	86.31
304.741	88.31
304.971	87.31
305.201	90.31
305.431	73.31
305.661	78.31
305.891	83.31
306.121	85.31
306.352	86.31
306.582	76.31
306.812	77.31
307.042	94.31
307.272	88.31
307.502	69.31
307.731	69.31
307.961	76.31
308.191	82.31
308.421	87.31
308.651	87.31
308.881	90.31
309.111	93.31
309.341	101.31
309.571	103.31
309.8	91.31
310.03	77.31
310.26	86.31
310.49	83.31
310.72	83.31
310.949	87.31
311.179	75.31
311.409	73.31
311.639	78.31
311.868	76.31
312.098	69.31
312.328	87.31
312.557	96.31
312.787	80.31
313.017	91.31
313.246	80.31
313.476	89.31
313.706	74.31
313.935	77.31
314.165	85.31
314.394	74.31
314.624	85.31
314.853	83.31
315.083	82.31
315.312	82.31
315.542	77.31
315.771	88.31
316.001	79.31
316.23	76.31
316.46	83.31
316.689	83.31
316.919	92.31
317.148	99.31
317.377	69.31
317.607	96.31
317.836	70.31
318.065	84.31
318.295	84.31
318.524	92.31
318.753	82.31
318.983	83.31
319.212	84.31
319.441	71.31
319.67	92.31
319.9	85.31
320.129	78.31
320.358	84.31
320.587	78.31
320.816	75.31
321.046	79.31
321.275	78.31
321.504	93.31
321.733	90.31
321.962	77.31
322.191	80.31
322.42	80.31
322.649	93.31
322.878	88.31
323.108	90.31
323.337	83.31
323.566	85.31
323.795	81.31
324.024	83.31
324.253	80.31
324.482	86.31
324.71	100.31
324.939	83.31
325.168	97.31
325.397	93.31
325.626	83.31
325.855	91.31
326.084	79.31
326.313	75.31
326.542	86.31
326.77	85.31
326.999	82.31
327.228	92.31
327.457	86.31
327.686	90.31
327.914	82.31
328.143	96.31
328.372	82.31
328.6	77.31
328.829	76.31
329.058	97.31
329.287	84.31
329.515	82.31
329.744	73.31
329.972	75.31
330.201	77.31
330.43	82.31
330.658	77.31
330.887	81.31
331.115	71.31
331.344	89.31
331.572	99.31
331.801	76.31
332.03	73.31
332.258	74.31
332.486	77.31
332.715	67.31
332.943	83.31
333.172	81.31
333.4	89.31
333.629	89.31
333.857	85.31
334.085	77.31
334.314	78.31
334.542	78.31
334.771	74.31
334.999	72.31
335.227	72.31
335.455	102.31
335.684	93.31
335.912	92.31
336.14	86.31
336.369	81.31
336.597	77.31
336.825	86.31
337.053	75.31
337.281	85.31
337.51	90.31
337.738	92.31
337.966	79.31
338.194	77.31
338.422	91.31
338.65	91.31
338.878	94.31
339.106	86.31
339.334	88.31
339.562	88.31
339.79	79.31
340.018	81.31
340.246	85.31
340.474	85.31
340.702	84.31
340.93	79.31
341.158	79.31
341.386	94.31
341.614	84.31
341.842	86.31
342.07	78.31
342.298	85.31
342.526	84.31
342.754	90.31
342.981	83.31
343.209	86.31
343.437	90.31
343.665	82.31
343.893	88.31
344.12	98.31
344.348	97.31
344.576	77.31
344.804	95.31
345.031	70.31
345.259	81.31
345.487	91.31
345.714	79.31
345.942	71.31
346.17	82.31
346.397	76.31
346.625	69.31
346.853	77.31
347.08	81.31
347.308	85.31
347.535	79.31
347.763	89.31
347.99	95.31
348.218	82.31
348.445	85.31
348.673	76.31
348.9	83.31
349.128	91.31
349.355	72.31
349.583	70.31
349.81	76.31
350.037	76.31
350.265	78.31
350.492	87.31
350.72	84.31
350.947	68.31
351.174	75.31
351.402	82.31
351.629	75.31
351.856	85.31
352.083	82.31
352.311	84.31
352.538	77.31
352.765	85.31
352.992	87.31
353.22	86.31
353.447	97.31
353.674	91.31
353.901	91.31
354.128	87.31
354.355	82.31
354.583	86.31
354.81	90.31
355.037	79.31
355.264	81.31
355.491	74.31
355.718	78.31
355.945	75.31
356.172	72.31
356.399	79.31
356.626	86.31
356.853	67.31
357.08	82.31
357.307	85.31
357.534	93.31
357.761	95.31
357.988	80.31
358.215	91.31
358.441	65.31
358.668	82.31
358.895	86.31
359.122	75.31
359.349	78.31
359.576	86.31
359.802	76.31
360.029	94.31
360.256	89.31
360.483	94.31
360.709	74.31
360.936	82.31
361.163	81.31
361.39	79.31
361.616	76.31
361.843	101.31
362.07	86.31
362.296	99.31
362.523	67.31
362.749	93.31
362.976	82.31
363.203	76.31
363.429	87.31
363.656	82.31
363.882	70.31
364.109	74.31
364.335	92.31
364.562	77.31
364.788	65.31
365.015	66.31
365.241	74.31
365.468	87.31
365.694	67.31
365.92	96.31
366.147	81.31
366.373	85.31
366.599	91.31
366.826	91.31
367.052	83.31
367.278	86.31
367.505	80.31
367.731	73.31
367.957	78.31
368.184	83.31
368.41	86.31
368.636	88.31
368.862	81.31
369.089	82.31
369.315	85.31
369.541	91.31
369.767	87.31
369.993	81.31
370.219	91.31
370.445	81.31
370.672	85.31
370.898	86.31
371.124	88.31
371.35	91.31
371.576	72.31
371.802	70.31
372.028	72.31
372.254	74.31
372.48	93.31
372.706	90.31
372.932	74.31
373.158	86.31
373.384	77.31
373.61	80.31
373.835	81.31
374.061	74.31
374.287	77.31
374.513	82.31
374.739	85.31
374.965	83.31
375.191	90.31
375.416	68.31
375.642	96.31
375.868	90.31
376.094	94.31
376.319	79.31
376.545	73.31
376.771	84.31
376.997	73.31
377.222	73.31
377.448	80.31
377.674	82.31
377.899	80.31
378.125	84.31
378.35	78.31
378.576	83.31
378.802	86.31
379.027	75.31
379.253	90.31
379.478	83.31
379.704	82.31
379.929	76.31
380.155	67.31
380.38	88.31
380.606	87.31
380.831	87.31
381.057	86.31
381.282	90.31
381.507	86.31
381.733	89.31
381.958	79.31
382.184	84.31
382.409	70.31
382.634	82.31
382.86	79.31
383.085	81.31
383.31	77.31
383.535	76.31
383.761	79.31
383.986	76.31
384.211	67.31
384.436	78.31
384.662	92.31
384.887	89.31
385.112	82.31
385.337	88.31
385.562	87.31
385.787	85.31
386.013	78.31
386.238	77.31
386.463	78.31
386.688	84.31
386.913	95.31
387.138	72.31
387.363	85.31
387.588	89.31
387.813	88.31
388.038	66.31
388.263	87.31
388.488	77.31
388.713	70.31
388.938	65.31
389.163	85.31
389.387	78.31
389.612	77.31
389.837	73.31
390.062	86.31
390.287	79.31
390.512	87.31
390.736	79.31
390.961	66.31
391.186	86.31
391.411	84.31
391.636	97.31
391.86	88.31
392.085	86.31
392.31	79.31
392.534	78.31
392.759	90.31
392.984	85.31
393.208	89.31
393.433	76.31
393.658	85.31
393.882	73.31
394.107	107.31
394.331	131.31
394.556	134.31
394.78	105.31
395.005	89.31
395.229	76.31
395.454	90.31
395.678	93.31
395.903	106.31
396.127	145.31
396.352	161.31
396.576	87.31
396.801	95.31
397.025	83.31
397.249	89.31
397.474	75.31
397.698	89.31
397.922	74.31
398.147	84.31
398.371	93.31
398.595	90.31
398.82	79.31
399.044	77.31
399.268	77.31
399.492	85.31
399.717	70.31
399.941	69.31
400.165	82.31
400.389	69.31
400.613	71.31
400.837	86.31
401.062	69.31
401.286	67.31
401.51	66.31
401.734	82.31
401.958	79.31
402.182	84.31
402.406	73.31
402.63	68.31
402.854	63.31
403.078	65.31
403.302	86.31
403.526	89.31
403.75	87.31
403.974	73.31
404.198	77.31
404.422	88.31
404.645	82.31
404.869	83.31
405.093	76.31
405.317	91.31
405.541	77.31
405.765	71.31
405.988	75.31
406.212	87.31
406.436	71.31
406.66	73.31
406.883	97.31
407.107	86.31
407.331	91.31
407.555	71.31
407.778	87.31
408.002	86.31
408.226	80.31
408.449	77.31
408.673	80.31
408.896	81.31
409.12	77.31
409.344	83.31
409.567	79.31
409.791	80.31
410.014	93.31
410.238	77.31
410.461	79.31
410.685	75.31
410.908	84.31
411.132	89.31
411.355	85.31
411.578	80.31
411.802	85.31
412.025	79.31
412.249	82.31
412.472	83.31
412.695	78.31
412.919	89.31
413.142	86.31
413.365	82.31
413.589	69.31
413.812	83.31
414.035	87.31
414.258	89.31
414.482	90.31
414.705	65.31
414.928	75.31
415.151	66.31
415.374	76.31
415.597	85.31
415.821	98.31
416.044	99.31
416.267	85.31
416.49	81.31
416.713	76.31
416.936	97.31
417.159	82.31
417.382	79.31
417.605	77.31
417.828	89.31
418.051	74.31
418.274	61.31
418.497	75.31
418.72	69.31
418.943	79.31
419.166	75.31
419.389	77.31
419.611	93.31
419.834	77.31
420.057	92.31
420.28	79.31
420.503	90.31
420.726	75.31
420.948	80.31
421.171	85.31
421.394	94.31
421.617	84.31
421.839	85.31
422.062	90.31
422.285	86.31
422.507	87.31
422.73	78.31
422.953	89.31
423.175	81.31
423.398	74.31
423.621	72.31
423.843	77.31
424.066	64.31
424.288	85.31
424.511	89.31
424.733	69.31
424.956	71.31
425.178	67.31
425.401	80.31
425.623	78.31
425.846	67.31
426.068	75.31
426.291	84.31
426.513	89.31
426.735	82.31
426.958	78.31
427.18	87.31
427.402	83.31
427.625	76.31
427.847	83.31
428.069	86.31
428.292	83.31
428.514	76.31
428.736	81.31
428.958	78.31
429.181	100.31
429.403	90.31
429.625	88.31
429.847	83.31
430.069	79.31
430.292	94.31
430.514	83.31
430.736	72.31
430.958	81.31
431.18	73.31
431.402	79.31
431.624	70.31
431.846	66.31
432.068	75.31
432.29	85.31
432.512	75.31
432.734	78.31
432.956	76.31
433.178	95.31
433.4	87.31
433.622	86.31
433.844	82.31
434.066	80.31
434.287	82.31
434.509	77.31
434.731	71.31
434.953	74.31
435.175	76.31
435.397	87.31
435.618	86.31
435.84	74.31
436.062	82.31
436.284	89.31
436.505	78.31
436.727	69.31
436.949	80.31
437.17	71.31
437.392	75.31
437.614	90.31
437.835	88.31
438.057	97.31
438.278	94.31
438.5	83.31
438.721	88.31
438.943	77.31
439.165	74.31
439.386	83.31
439.608	75.31
439.829	83.31
440.05	87.31
440.272	93.31
440.493	91.31
440.715	89.31
440.936	90.31
441.158	86.31
441.379	91.31
441.6	97.31
441.822	96.31
442.043	76.31
442.264	85.31
442.486	90.31
442.707	85.31
442.928	77.31
443.149	88.31
443.371	81.31
443.592	79.31
443.813	91.31
444.034	82.31
444.255	99.31
444.476	87.31
444.698	77.31
444.919	83.31
445.14	154.31
445.361	95.31
445.582	84.31
445.803	75.31
446.024	89.31
446.245	93.31
446.466	88.31
446.687	77.31
446.908	77.31
447.129	79.31
447.35	66.31
447.571	78.31
447.792	84.31
448.013	85.31
448.234	102.31
448.455	91.31
448.675	84.31
448.896	74.31
449.117	83.31
449.338	81.31
449.559	88.31
449.779	84.31
450	78.31
450.221	79.31
450.442	89.31
450.662	71.31
450.883	83.31
451.104	84.31
451.324	84.31
451.545	73.31
451.766	94.31
451.986	93.31
452.207	84.31
452.428	72.31
452.648	89.31
452.869	78.31
453.089	79.31
453.31	82.31
453.53	80.31
453.751	78.31
453.971	83.31
454.192	79.31
454.412	83.31
454.633	83.31
454.853	85.31
455.073	73.31
455.294	87.31
455.514	95.31
455.734	83.31
455.955	89.31
456.175	85.31
456.395	82.31
456.616	67.31
456.836	83.31
457.056	64.31
457.276	78.31
457.497	72.31
457.717	73.31
457.937	97.31
458.157	76.31
458.377	77.31
458.598	62.31
458.818	85.31
459.038	71.31
459.258	77.31
459.478	86.31
459.698	82.31
459.918	79.31
460.138	78.31
460.358	77.31
460.578	95.31
460.798	91.31
461.018	74.31
461.238	70.31
461.458	85.31
461.678	78.31
461.898	90.31
462.118	75.31
462.338	68.31
462.558	91.31
462.777	80.31
462.997	81.31
463.217	86.31
463.437	85.31
463.657	90.31
463.876	91.31
464.096	87.31
464.316	77.31
464.536	83.31
464.755	89.31
464.975	66.31
465.195	72.31
465.414	68.31
465.634	66.31
465.854	80.31
466.073	97.31
466.293	76.31
466.512	89.31
466.732	99.31
466.951	85.31
467.171	90.31
467.391	80.31
467.61	79.31
467.829	73.31
468.049	90.31
468.268	87.31
468.488	98.31
468.707	88.31
468.927	77.31
469.146	83.31
469.365	79.31
469.585	72.31
469.804	84.31
470.023	73.31
470.243	75.31
470.462	86.31
470.681	70.31
470.901	75.31
471.12	82.31
471.339	87.31
471.558	85.31
471.777	92.31
471.997	92.31
472.216	100.31
472.435	89.31
472.654	78.31
472.873	76.31
473.092	93.31
473.311	79.31
473.53	86.31
473.749	91.31
473.968	103.31
474.187	74.31
474.406	76.31
474.625	79.31
474.844	90.31
475.063	75.31
475.282	98.31
475.501	78.31
475.72	93.31
475.939	73.31
476.158	80.31
476.377	86.31
476.596	97.31
476.814	85.31
477.033	90.31
477.252	81.31
477.471	80.31
477.69	85.31
477.908	75.31
478.127	83.31
478.346	97.31
478.564	95.31
478.783	75.31
479.002	90.31
479.22	88.31
479.439	83.31
479.658	91.31
479.876	73.31
480.095	84.31
480.313	89.31
480.532	76.31
480.751	69.31
480.969	79.31
481.188	80.31
481.406	76.31
481.624	77.31
481.843	74.31
482.061	76.31
482.28	82.31
482.498	74.31
482.717	93.31
482.935	69.31
483.153	80.31
483.372	86.31
483.59	76.31
483.808	81.31
484.027	84.31
484.245	77.31
484.463	81.31
484.681	87.31
484.9	94.31
485.118	83.31
485.336	72.31
485.554	83.31
485.772	105.31
485.99	92.31
486.209	87.31
486.427	82.31
486.645	76.31
486.863	81.31
487.081	69.31
487.299	84.31
487.517	74.31
487.735	87.31
487.953	88.31
488.171	87.31
488.389	82.31
488.607	81.31
488.825	88.31
489.043	83.31
489.261	102.31
489.479	83.31
489.696	86.31
489.914	83.31
490.132	100.31
490.35	95.31
490.568	89.31
490.786	83.31
491.003	79.31
491.221	87.31
491.439	90.31
491.657	89.31
491.874	93.31
492.092	95.31
492.31	86.31
492.527	93.31
492.745	79.31
492.963	70.31
493.18	88.31
493.398	81.31
493.615	84.31
493.833	87.31
494.05	91.31
494.268	83.31
494.485	82.31
494.703	84.31
494.92	74.31
495.138	79.31
495.355	80.31
495.573	85.31
495.79	71.31
496.008	75.31
496.225	86.31
496.442	90.31
496.66	89.31
496.877	93.31
497.094	104.31
497.312	88.31
497.529	75.31
497.746	91.31
497.963	90.31
498.181	68.31
498.398	99.31
498.615	82.31
498.832	75.31
499.049	77.31
499.267	79.31
499.484	77.31
499.701	98.31
499.918	86.31
500.135	80.31
500.352	89.31
500.569	92.31
500.786	79.31
501.003	85.31
501.22	79.31
501.437	95.31
501.654	93.31
501.871	90.31
502.088	81.31
502.305	90.31
502.522	86.31
502.739	91.31
502.956	94.31
503.172	76.31
503.389	89.31
503.606	79.31
503.823	85.31
504.04	97.31
504.256	82.31
504.473	87.31
504.69	79.31
504.907	86.31
505.123	85.31
505.34	83.31
505.557	82.31
505.773	78.31
505.99	83.31
506.207	74.31
506.423	83.31
506.64	94.31
506.856	86.31
507.073	72.31
507.289	75.31
507.506	68.31
507.722	100.31
507.939	89.31
508.155	67.31
508.372	86.31
508.588	75.31
508.805	85.31
509.021	69.31
509.238	83.31
509.454	83.31
509.67	90.31
509.887	89.31
510.103	80.31
510.319	67.31
510.536	79.31
510.752	82.31
510.968	85.31
511.184	82.31
511.401	86.31
511.617	99.31
511.833	74.31
512.049	88.31
512.265	70.31
512.481	79.31
512.698	90.31
512.914	82.31
513.13	85.31
513.346	98.31
513.562	86.31
513.778	89.31
513.994	70.31
514.21	80.31
514.426	74.31
514.642	74.31
514.858	70.31
515.074	92.31
515.29	89.31
515.506	73.31
515.721	75.31
515.937	85.31
516.153	77.31
516.369	75.31
516.585	75.31
516.801	85.31
517.016	91.31
517.232	78.31
517.448	83.31
517.664	82.31
517.879	75.31
518.095	72.31
518.311	77.31
518.527	87.31
518.742	83.31
518.958	84.31
519.173	98.31
519.389	85.31
519.605	83.31
519.82	81.31
