Data from Coke_Can_Side_HRD10591_00010.txt Node
Date: Wed Nov 05 15:42:11 EST 2025
User: Yrep
Spectrometer: HR+D1059
Trigger mode: 1
Integration Time (sec): 1.000000E-1
Scans to average: 1
Electric dark correction enabled: true
Nonlinearity correction enabled: false
Boxcar width: 0
XAxis mode: Wavelengths
Number of Pixels in Spectrum: 2048
>>>>>Begin Spectral Data<<<<<
223.165	-21.12
223.4	-21.12
223.635	-21.12
223.869	-6.12
224.104	-17.12
224.338	-17.12
224.573	-38.12
224.808	-10.12
225.042	-2.12
225.277	-1.12
225.511	6.88
225.746	11.88
225.98	-12.12
226.215	6.88
226.449	18.88
226.683	29.88
226.918	22.88
227.152	27.88
227.387	22.88
227.621	50.88
227.856	54.88
228.09	50.88
228.324	56.88
228.559	66.88
228.793	68.88
229.027	63.88
229.262	61.88
229.496	76.88
229.73	62.88
229.964	58.88
230.199	64.88
230.433	74.88
230.667	84.88
230.901	63.88
231.136	75.88
231.37	80.88
231.604	85.88
231.838	91.88
232.072	71.88
232.306	88.88
232.541	78.88
232.775	91.88
233.009	81.88
233.243	67.88
233.477	87.88
233.711	82.88
233.945	83.88
234.179	81.88
234.413	85.88
234.647	73.88
234.881	85.88
235.115	69.88
235.349	85.88
235.583	89.88
235.817	74.88
236.051	73.88
236.285	81.88
236.519	72.88
236.753	91.88
236.987	78.88
237.221	81.88
237.455	77.88
237.689	96.88
237.922	77.88
238.156	92.88
238.39	85.88
238.624	74.88
238.858	85.88
239.091	79.88
239.325	74.88
239.559	73.88
239.793	80.88
240.027	88.88
240.26	75.88
240.494	75.88
240.728	64.88
240.961	73.88
241.195	79.88
241.429	92.88
241.662	77.88
241.896	76.88
242.13	74.88
242.363	78.88
242.597	74.88
242.83	71.88
243.064	85.88
243.298	82.88
243.531	81.88
243.765	70.88
243.998	80.88
244.232	78.88
244.465	82.88
244.699	74.88
244.932	91.88
245.166	92.88
245.399	85.88
245.633	70.88
245.866	63.88
246.099	91.88
246.333	66.88
246.566	84.88
246.8	85.88
247.033	68.88
247.266	82.88
247.5	70.88
247.733	67.88
247.966	76.88
248.2	83.88
248.433	80.88
248.666	91.88
248.899	63.88
249.133	78.88
249.366	74.88
249.599	77.88
249.832	95.88
250.066	86.88
250.299	82.88
250.532	70.88
250.765	81.88
250.998	81.88
251.231	82.88
251.465	83.88
251.698	77.88
251.931	80.88
252.164	76.88
252.397	76.88
252.63	89.88
252.863	84.88
253.096	75.88
253.329	96.88
253.562	78.88
253.795	93.88
254.028	85.88
254.261	79.88
254.494	78.88
254.727	63.88
254.96	75.88
255.193	81.88
255.426	77.88
255.659	74.88
255.892	73.88
256.124	63.88
256.357	85.88
256.59	78.88
256.823	81.88
257.056	73.88
257.289	77.88
257.521	72.88
257.754	91.88
257.987	80.88
258.22	93.88
258.452	89.88
258.685	78.88
258.918	88.88
259.151	80.88
259.383	83.88
259.616	85.88
259.849	76.88
260.081	75.88
260.314	90.88
260.547	76.88
260.779	77.88
261.012	92.88
261.244	84.88
261.477	97.88
261.71	80.88
261.942	89.88
262.175	81.88
262.407	83.88
262.64	84.88
262.872	84.88
263.105	91.88
263.337	88.88
263.57	95.88
263.802	77.88
264.035	94.88
264.267	81.88
264.499	86.88
264.732	99.88
264.964	81.88
265.197	81.88
265.429	92.88
265.661	97.88
265.894	93.88
266.126	84.88
266.358	65.88
266.591	90.88
266.823	91.88
267.055	96.88
267.287	87.88
267.52	85.88
267.752	69.88
267.984	80.88
268.216	82.88
268.448	79.88
268.681	90.88
268.913	86.88
269.145	74.88
269.377	83.88
269.609	90.88
269.841	105.88
270.073	87.88
270.306	90.88
270.538	75.88
270.77	79.88
271.002	99.88
271.234	89.88
271.466	79.88
271.698	79.88
271.93	82.88
272.162	79.88
272.394	75.88
272.626	62.88
272.858	89.88
273.09	78.88
273.322	74.88
273.553	99.88
273.785	95.88
274.017	95.88
274.249	82.88
274.481	82.88
274.713	69.88
274.945	79.88
275.176	87.88
275.408	77.88
275.64	93.88
275.872	91.88
276.104	89.88
276.335	80.88
276.567	96.88
276.799	82.88
277.031	76.88
277.262	91.88
277.494	90.88
277.726	91.88
277.957	88.88
278.189	96.88
278.421	82.88
278.652	87.88
278.884	78.88
279.115	97.88
279.347	78.88
279.579	105.88
279.81	89.88
280.042	82.88
280.273	77.88
280.505	81.88
280.736	74.88
280.968	77.88
281.199	96.88
281.431	79.88
281.662	85.88
281.894	96.88
282.125	82.88
282.356	94.88
282.588	88.88
282.819	80.88
283.051	73.88
283.282	75.88
283.513	78.88
283.745	87.88
283.976	92.88
284.207	83.88
284.439	75.88
284.67	87.88
284.901	74.88
285.132	77.88
285.364	87.88
285.595	92.88
285.826	79.88
286.057	90.88
286.288	99.88
286.52	85.88
286.751	76.88
286.982	73.88
287.213	86.88
287.444	85.88
287.675	89.88
287.906	80.88
288.138	78.88
288.369	87.88
288.6	86.88
288.831	87.88
289.062	84.88
289.293	79.88
289.524	70.88
289.755	90.88
289.986	98.88
290.217	94.88
290.448	80.88
290.679	80.88
290.91	107.88
291.141	89.88
291.371	89.88
291.602	90.88
291.833	79.88
292.064	87.88
292.295	74.88
292.526	79.88
292.757	85.88
292.987	77.88
293.218	75.88
293.449	79.88
293.68	79.88
293.91	74.88
294.141	103.88
294.372	93.88
294.603	71.88
294.833	76.88
295.064	77.88
295.295	73.88
295.525	87.88
295.756	80.88
295.987	81.88
296.217	93.88
296.448	93.88
296.679	90.88
296.909	82.88
297.14	83.88
297.37	85.88
297.601	75.88
297.831	77.88
298.062	90.88
298.292	86.88
298.523	93.88
298.753	79.88
298.984	71.88
299.214	99.88
299.445	94.88
299.675	79.88
299.905	72.88
300.136	79.88
300.366	82.88
300.597	75.88
300.827	77.88
301.057	84.88
301.288	89.88
301.518	86.88
301.748	83.88
301.979	103.88
302.209	77.88
302.439	79.88
302.669	94.88
302.9	91.88
303.13	91.88
303.36	82.88
303.59	88.88
303.82	97.88
304.051	80.88
304.281	87.88
304.511	87.88
304.741	95.88
304.971	77.88
305.201	104.88
305.431	103.88
305.661	95.88
305.891	80.88
306.121	88.88
306.352	87.88
306.582	87.88
306.812	92.88
307.042	79.88
307.272	97.88
307.502	93.88
307.731	90.88
307.961	92.88
308.191	92.88
308.421	93.88
308.651	85.88
308.881	96.88
309.111	99.88
309.341	117.88
309.571	97.88
309.8	93.88
310.03	82.88
310.26	78.88
310.49	83.88
310.72	79.88
310.949	81.88
311.179	88.88
311.409	89.88
311.639	85.88
311.868	88.88
312.098	81.88
312.328	80.88
312.557	86.88
312.787	80.88
313.017	86.88
313.246	73.88
313.476	97.88
313.706	83.88
313.935	85.88
314.165	86.88
314.394	75.88
314.624	75.88
314.853	93.88
315.083	88.88
315.312	88.88
315.542	72.88
315.771	81.88
316.001	95.88
316.23	94.88
316.46	86.88
316.689	86.88
316.919	91.88
317.148	93.88
317.377	85.88
317.607	81.88
317.836	87.88
318.065	100.88
318.295	91.88
318.524	94.88
318.753	93.88
318.983	97.88
319.212	85.88
319.441	102.88
319.67	92.88
319.9	84.88
320.129	71.88
320.358	92.88
320.587	94.88
320.816	83.88
321.046	90.88
321.275	94.88
321.504	92.88
321.733	83.88
321.962	91.88
322.191	94.88
322.42	89.88
322.649	95.88
322.878	79.88
323.108	83.88
323.337	79.88
323.566	79.88
323.795	85.88
324.024	99.88
324.253	70.88
324.482	86.88
324.71	97.88
324.939	85.88
325.168	93.88
325.397	80.88
325.626	88.88
325.855	92.88
326.084	106.88
326.313	77.88
326.542	79.88
326.77	91.88
326.999	71.88
327.228	81.88
327.457	101.88
327.686	86.88
327.914	82.88
328.143	80.88
328.372	80.88
328.6	70.88
328.829	96.88
329.058	99.88
329.287	75.88
329.515	98.88
329.744	80.88
329.972	89.88
330.201	95.88
330.43	82.88
330.658	79.88
330.887	77.88
331.115	86.88
331.344	94.88
331.572	94.88
331.801	83.88
332.03	91.88
332.258	75.88
332.486	88.88
332.715	73.88
332.943	89.88
333.172	77.88
333.4	85.88
333.629	87.88
333.857	87.88
334.085	88.88
334.314	95.88
334.542	93.88
334.771	95.88
334.999	86.88
335.227	82.88
335.455	77.88
335.684	74.88
335.912	84.88
336.14	93.88
336.369	83.88
336.597	92.88
336.825	96.88
337.053	87.88
337.281	91.88
337.51	75.88
337.738	88.88
337.966	89.88
338.194	95.88
338.422	84.88
338.65	87.88
338.878	89.88
339.106	75.88
339.334	76.88
339.562	91.88
339.79	92.88
340.018	79.88
340.246	88.88
340.474	93.88
340.702	87.88
340.93	89.88
341.158	91.88
341.386	83.88
341.614	75.88
341.842	89.88
342.07	88.88
342.298	103.88
342.526	85.88
342.754	80.88
342.981	85.88
343.209	82.88
343.437	98.88
343.665	84.88
343.893	81.88
344.12	82.88
344.348	93.88
344.576	79.88
344.804	77.88
345.031	85.88
345.259	68.88
345.487	78.88
345.714	89.88
345.942	80.88
346.17	87.88
346.397	74.88
346.625	92.88
346.853	89.88
347.08	96.88
347.308	88.88
347.535	79.88
347.763	75.88
347.99	76.88
348.218	88.88
348.445	78.88
348.673	80.88
348.9	80.88
349.128	82.88
349.355	76.88
349.583	88.88
349.81	80.88
350.037	85.88
350.265	97.88
350.492	80.88
350.72	81.88
350.947	84.88
351.174	92.88
351.402	80.88
351.629	83.88
351.856	79.88
352.083	96.88
352.311	95.88
352.538	75.88
352.765	80.88
352.992	104.88
353.22	89.88
353.447	81.88
353.674	73.88
353.901	85.88
354.128	81.88
354.355	83.88
354.583	68.88
354.81	92.88
355.037	87.88
355.264	81.88
355.491	83.88
355.718	80.88
355.945	91.88
356.172	87.88
356.399	93.88
356.626	80.88
356.853	91.88
357.08	72.88
357.307	95.88
357.534	91.88
357.761	74.88
357.988	77.88
358.215	90.88
358.441	91.88
358.668	72.88
358.895	93.88
359.122	90.88
359.349	81.88
359.576	89.88
359.802	76.88
360.029	65.88
360.256	79.88
360.483	89.88
360.709	76.88
360.936	80.88
361.163	88.88
361.39	88.88
361.616	87.88
361.843	79.88
362.07	101.88
362.296	91.88
362.523	79.88
362.749	81.88
362.976	94.88
363.203	88.88
363.429	89.88
363.656	81.88
363.882	92.88
364.109	91.88
364.335	92.88
364.562	91.88
364.788	88.88
365.015	75.88
365.241	93.88
365.468	100.88
365.694	107.88
365.92	86.88
366.147	79.88
366.373	85.88
366.599	81.88
366.826	89.88
367.052	95.88
367.278	80.88
367.505	88.88
367.731	86.88
367.957	87.88
368.184	71.88
368.41	81.88
368.636	85.88
368.862	88.88
369.089	85.88
369.315	79.88
369.541	94.88
369.767	87.88
369.993	91.88
370.219	84.88
370.445	74.88
370.672	88.88
370.898	104.88
371.124	89.88
371.35	70.88
371.576	74.88
371.802	65.88
372.028	102.88
372.254	99.88
372.48	81.88
372.706	68.88
372.932	67.88
373.158	85.88
373.384	93.88
373.61	98.88
373.835	88.88
374.061	76.88
374.287	76.88
374.513	85.88
374.739	81.88
374.965	72.88
375.191	86.88
375.416	85.88
375.642	95.88
375.868	74.88
376.094	89.88
376.319	75.88
376.545	79.88
376.771	82.88
376.997	93.88
377.222	90.88
377.448	92.88
377.674	87.88
377.899	83.88
378.125	101.88
378.35	82.88
378.576	85.88
378.802	89.88
379.027	92.88
379.253	75.88
379.478	93.88
379.704	90.88
379.929	73.88
380.155	76.88
380.38	87.88
380.606	80.88
380.831	82.88
381.057	79.88
381.282	89.88
381.507	90.88
381.733	102.88
381.958	93.88
382.184	89.88
382.409	89.88
382.634	79.88
382.86	94.88
383.085	92.88
383.31	89.88
383.535	102.88
383.761	87.88
383.986	76.88
384.211	80.88
384.436	89.88
384.662	95.88
384.887	99.88
385.112	99.88
385.337	86.88
385.562	84.88
385.787	77.88
386.013	90.88
386.238	95.88
386.463	97.88
386.688	102.88
386.913	85.88
387.138	92.88
387.363	87.88
387.588	77.88
387.813	79.88
388.038	81.88
388.263	81.88
388.488	91.88
388.713	79.88
388.938	83.88
389.163	81.88
389.387	90.88
389.612	85.88
389.837	86.88
390.062	86.88
390.287	98.88
390.512	87.88
390.736	78.88
390.961	79.88
391.186	64.88
391.411	88.88
391.636	87.88
391.86	75.88
392.085	76.88
392.31	78.88
392.534	81.88
392.759	85.88
392.984	87.88
393.208	81.88
393.433	91.88
393.658	76.88
393.882	99.88
394.107	104.88
394.331	124.88
394.556	132.88
394.78	96.88
395.005	97.88
395.229	86.88
395.454	87.88
395.678	91.88
395.903	111.88
396.127	163.88
396.352	149.88
396.576	113.88
396.801	94.88
397.025	77.88
397.249	89.88
397.474	95.88
397.698	84.88
397.922	98.88
398.147	77.88
398.371	89.88
398.595	91.88
398.82	76.88
399.044	93.88
399.268	86.88
399.492	97.88
399.717	92.88
399.941	95.88
400.165	83.88
400.389	75.88
400.613	91.88
400.837	87.88
401.062	81.88
401.286	76.88
401.51	88.88
401.734	87.88
401.958	96.88
402.182	89.88
402.406	84.88
402.63	94.88
402.854	100.88
403.078	76.88
403.302	85.88
403.526	78.88
403.75	86.88
403.974	85.88
404.198	86.88
404.422	91.88
404.645	91.88
404.869	94.88
405.093	69.88
405.317	92.88
405.541	88.88
405.765	75.88
405.988	78.88
406.212	101.88
406.436	77.88
406.66	90.88
406.883	81.88
407.107	83.88
407.331	85.88
407.555	73.88
407.778	85.88
408.002	78.88
408.226	83.88
408.449	99.88
408.673	92.88
408.896	83.88
409.12	76.88
409.344	92.88
409.567	65.88
409.791	88.88
410.014	88.88
410.238	89.88
410.461	91.88
410.685	79.88
410.908	83.88
411.132	93.88
411.355	84.88
411.578	85.88
411.802	77.88
412.025	83.88
412.249	89.88
412.472	87.88
412.695	81.88
412.919	80.88
413.142	81.88
413.365	79.88
413.589	94.88
413.812	91.88
414.035	73.88
414.258	89.88
414.482	82.88
414.705	82.88
414.928	94.88
415.151	89.88
415.374	75.88
415.597	77.88
415.821	77.88
416.044	99.88
416.267	87.88
416.49	85.88
416.713	88.88
416.936	81.88
417.159	90.88
417.382	87.88
417.605	71.88
417.828	90.88
418.051	89.88
418.274	77.88
418.497	77.88
418.72	79.88
418.943	89.88
419.166	77.88
419.389	76.88
419.611	82.88
419.834	80.88
420.057	95.88
420.28	85.88
420.503	95.88
420.726	81.88
420.948	96.88
421.171	88.88
421.394	85.88
421.617	98.88
421.839	82.88
422.062	80.88
422.285	93.88
422.507	91.88
422.73	87.88
422.953	78.88
423.175	69.88
423.398	91.88
423.621	92.88
423.843	84.88
424.066	73.88
424.288	75.88
424.511	101.88
424.733	87.88
424.956	91.88
425.178	72.88
425.401	69.88
425.623	78.88
425.846	73.88
426.068	82.88
426.291	95.88
426.513	72.88
426.735	75.88
426.958	81.88
427.18	97.88
427.402	89.88
427.625	89.88
427.847	84.88
428.069	81.88
428.292	85.88
428.514	88.88
428.736	82.88
428.958	82.88
429.181	74.88
429.403	73.88
429.625	75.88
429.847	99.88
430.069	92.88
430.292	97.88
430.514	78.88
430.736	83.88
430.958	85.88
431.18	100.88
431.402	73.88
431.624	90.88
431.846	88.88
432.068	93.88
432.29	99.88
432.512	86.88
432.734	82.88
432.956	82.88
433.178	88.88
433.4	91.88
433.622	83.88
433.844	87.88
434.066	79.88
434.287	77.88
434.509	96.88
434.731	87.88
434.953	83.88
435.175	83.88
435.397	88.88
435.618	85.88
435.84	60.88
436.062	75.88
436.284	81.88
436.505	89.88
436.727	91.88
436.949	81.88
437.17	73.88
437.392	77.88
437.614	73.88
437.835	89.88
438.057	91.88
438.278	77.88
438.5	94.88
438.721	97.88
438.943	100.88
439.165	99.88
439.386	87.88
439.608	92.88
439.829	89.88
440.05	83.88
440.272	90.88
440.493	94.88
440.715	89.88
440.936	91.88
441.158	85.88
441.379	89.88
441.6	88.88
441.822	76.88
442.043	86.88
442.264	85.88
442.486	68.88
442.707	80.88
442.928	92.88
443.149	83.88
443.371	78.88
443.592	85.88
443.813	88.88
444.034	79.88
444.255	87.88
444.476	83.88
444.698	75.88
444.919	93.88
445.14	150.88
445.361	119.88
445.582	85.88
445.803	74.88
446.024	79.88
446.245	83.88
446.466	87.88
446.687	80.88
446.908	78.88
447.129	95.88
447.35	97.88
447.571	83.88
447.792	81.88
448.013	89.88
448.234	84.88
448.455	83.88
448.675	78.88
448.896	89.88
449.117	86.88
449.338	80.88
449.559	83.88
449.779	78.88
450	93.88
450.221	85.88
450.442	90.88
450.662	80.88
450.883	85.88
451.104	79.88
451.324	71.88
451.545	88.88
451.766	81.88
451.986	81.88
452.207	102.88
452.428	99.88
452.648	87.88
452.869	78.88
453.089	83.88
453.31	88.88
453.53	89.88
453.751	93.88
453.971	79.88
454.192	80.88
454.412	81.88
454.633	72.88
454.853	81.88
455.073	77.88
455.294	101.88
455.514	87.88
455.734	75.88
455.955	67.88
456.175	87.88
456.395	84.88
456.616	82.88
456.836	89.88
457.056	72.88
457.276	78.88
457.497	78.88
457.717	83.88
457.937	82.88
458.157	78.88
458.377	74.88
458.598	91.88
458.818	93.88
459.038	95.88
459.258	83.88
459.478	85.88
459.698	85.88
459.918	90.88
460.138	96.88
460.358	71.88
460.578	78.88
460.798	78.88
461.018	81.88
461.238	85.88
461.458	84.88
461.678	98.88
461.898	83.88
462.118	79.88
462.338	71.88
462.558	67.88
462.777	79.88
462.997	89.88
463.217	75.88
463.437	76.88
463.657	87.88
463.876	85.88
464.096	71.88
464.316	93.88
464.536	99.88
464.755	97.88
464.975	93.88
465.195	90.88
465.414	88.88
465.634	87.88
465.854	89.88
466.073	89.88
466.293	97.88
466.512	81.88
466.732	77.88
466.951	83.88
467.171	74.88
467.391	80.88
467.61	82.88
467.829	79.88
468.049	89.88
468.268	96.88
468.488	98.88
468.707	87.88
468.927	92.88
469.146	93.88
469.365	89.88
469.585	95.88
469.804	82.88
470.023	93.88
470.243	84.88
470.462	86.88
470.681	85.88
470.901	90.88
471.12	92.88
471.339	80.88
471.558	80.88
471.777	90.88
471.997	71.88
472.216	84.88
472.435	74.88
472.654	77.88
472.873	79.88
473.092	86.88
473.311	95.88
473.53	89.88
473.749	89.88
473.968	78.88
474.187	91.88
474.406	71.88
474.625	95.88
474.844	75.88
475.063	91.88
475.282	80.88
475.501	85.88
475.72	89.88
475.939	96.88
476.158	89.88
476.377	75.88
476.596	66.88
476.814	92.88
477.033	81.88
477.252	100.88
477.471	80.88
477.69	105.88
477.908	81.88
478.127	95.88
478.346	85.88
478.564	87.88
478.783	91.88
479.002	85.88
479.22	81.88
479.439	87.88
479.658	85.88
479.876	79.88
480.095	76.88
480.313	88.88
480.532	78.88
480.751	71.88
480.969	79.88
481.188	83.88
481.406	85.88
481.624	74.88
481.843	79.88
482.061	76.88
482.28	95.88
482.498	82.88
482.717	83.88
482.935	95.88
483.153	81.88
483.372	82.88
483.59	91.88
483.808	90.88
484.027	90.88
484.245	85.88
484.463	103.88
484.681	92.88
484.9	87.88
485.118	100.88
485.336	96.88
485.554	81.88
485.772	86.88
485.99	88.88
486.209	79.88
486.427	87.88
486.645	89.88
486.863	89.88
487.081	88.88
487.299	102.88
487.517	85.88
487.735	78.88
487.953	85.88
488.171	87.88
488.389	69.88
488.607	91.88
488.825	96.88
489.043	90.88
489.261	101.88
489.479	70.88
489.696	87.88
489.914	80.88
490.132	89.88
490.35	91.88
490.568	90.88
490.786	81.88
491.003	87.88
491.221	81.88
491.439	73.88
491.657	80.88
491.874	100.88
492.092	87.88
492.31	89.88
492.527	102.88
492.745	85.88
492.963	92.88
493.18	91.88
493.398	84.88
493.615	91.88
493.833	99.88
494.05	81.88
494.268	83.88
494.485	87.88
494.703	96.88
494.92	94.88
495.138	79.88
495.355	90.88
495.573	77.88
495.79	93.88
496.008	92.88
496.225	88.88
496.442	99.88
496.66	99.88
496.877	88.88
497.094	97.88
497.312	103.88
497.529	84.88
497.746	90.88
497.963	87.88
498.181	90.88
498.398	89.88
498.615	93.88
498.832	78.88
499.049	92.88
499.267	69.88
499.484	82.88
499.701	95.88
499.918	100.88
500.135	85.88
500.352	85.88
500.569	87.88
500.786	96.88
501.003	90.88
501.22	83.88
501.437	86.88
501.654	90.88
501.871	87.88
502.088	99.88
502.305	87.88
502.522	85.88
502.739	83.88
502.956	74.88
503.172	83.88
503.389	97.88
503.606	87.88
503.823	89.88
504.04	81.88
504.256	89.88
504.473	81.88
504.69	93.88
504.907	82.88
505.123	91.88
505.34	101.88
505.557	98.88
505.773	91.88
505.99	75.88
506.207	87.88
506.423	77.88
506.64	89.88
506.856	83.88
507.073	78.88
507.289	90.88
507.506	92.88
507.722	76.88
507.939	76.88
508.155	87.88
508.372	81.88
508.588	87.88
508.805	102.88
509.021	89.88
509.238	81.88
509.454	83.88
509.67	77.88
509.887	91.88
510.103	92.88
510.319	92.88
510.536	89.88
510.752	94.88
510.968	96.88
511.184	82.88
511.401	91.88
511.617	91.88
511.833	84.88
512.049	83.88
512.265	85.88
512.481	91.88
512.698	100.88
512.914	85.88
513.13	81.88
513.346	91.88
513.562	103.88
513.778	89.88
513.994	70.88
514.21	92.88
514.426	92.88
514.642	92.88
514.858	88.88
515.074	78.88
515.29	103.88
515.506	73.88
515.721	105.88
515.937	95.88
516.153	95.88
516.369	86.88
516.585	95.88
516.801	78.88
517.016	86.88
517.232	87.88
517.448	88.88
517.664	79.88
517.879	73.88
518.095	87.88
518.311	85.88
518.527	92.88
518.742	86.88
518.958	75.88
519.173	75.88
519.389	78.88
