Data from Coke_Can_Side_HRD10591_00014.txt Node
Date: Wed Nov 05 15:42:13 EST 2025
User: Yrep
Spectrometer: HR+D1059
Trigger mode: 1
Integration Time (sec): 1.000000E-1
Scans to average: 1
Electric dark correction enabled: true
Nonlinearity correction enabled: false
Boxcar width: 0
XAxis mode: Wavelengths
Number of Pixels in Spectrum: 2048
>>>>>Begin Spectral Data<<<<<
223.165	-33.81
223.4	-33.81
223.635	-33.81
223.869	-19.81
224.104	-14.81
224.338	-14.81
224.573	-1.81
224.808	-5.81
225.042	3.19
225.277	-13.81
225.511	5.19
225.746	-9.81
225.98	-0.81
226.215	12.19
226.449	15.19
226.683	14.19
226.918	37.19
227.152	28.19
227.387	25.19
227.621	44.19
227.856	49.19
228.09	55.19
228.324	53.19
228.559	53.19
228.793	58.19
229.027	61.19
229.262	63.19
229.496	58.19
229.73	69.19
229.964	72.19
230.199	81.19
230.433	83.19
230.667	68.19
230.901	87.19
231.136	89.19
231.37	77.19
231.604	86.19
231.838	76.19
232.072	70.19
232.306	69.19
232.541	78.19
232.775	80.19
233.009	83.19
233.243	92.19
233.477	76.19
233.711	88.19
233.945	77.19
234.179	66.19
234.413	78.19
234.647	76.19
234.881	75.19
235.115	83.19
235.349	74.19
235.583	93.19
235.817	80.19
236.051	73.19
236.285	75.19
236.519	78.19
236.753	75.19
236.987	77.19
237.221	71.19
237.455	87.19
237.689	85.19
237.922	65.19
238.156	70.19
238.39	72.19
238.624	70.19
238.858	77.19
239.091	76.19
239.325	79.19
239.559	70.19
239.793	82.19
240.027	73.19
240.26	75.19
240.494	76.19
240.728	72.19
240.961	79.19
241.195	87.19
241.429	61.19
241.662	73.19
241.896	86.19
242.13	85.19
242.363	68.19
242.597	55.19
242.83	89.19
243.064	73.19
243.298	80.19
243.531	75.19
243.765	81.19
243.998	73.19
244.232	77.19
244.465	76.19
244.699	60.19
244.932	70.19
245.166	71.19
245.399	79.19
245.633	77.19
245.866	84.19
246.099	85.19
246.333	80.19
246.566	89.19
246.8	60.19
247.033	65.19
247.266	81.19
247.5	72.19
247.733	85.19
247.966	62.19
248.2	71.19
248.433	73.19
248.666	77.19
248.899	82.19
249.133	87.19
249.366	93.19
249.599	73.19
249.832	80.19
250.066	79.19
250.299	85.19
250.532	85.19
250.765	86.19
250.998	74.19
251.231	71.19
251.465	89.19
251.698	85.19
251.931	74.19
252.164	73.19
252.397	82.19
252.63	64.19
252.863	65.19
253.096	94.19
253.329	85.19
253.562	78.19
253.795	79.19
254.028	76.19
254.261	85.19
254.494	80.19
254.727	75.19
254.96	75.19
255.193	88.19
255.426	87.19
255.659	85.19
255.892	85.19
256.124	88.19
256.357	91.19
256.59	82.19
256.823	70.19
257.056	78.19
257.289	65.19
257.521	95.19
257.754	79.19
257.987	63.19
258.22	85.19
258.452	79.19
258.685	71.19
258.918	63.19
259.151	82.19
259.383	66.19
259.616	94.19
259.849	82.19
260.081	85.19
260.314	97.19
260.547	85.19
260.779	84.19
261.012	87.19
261.244	82.19
261.477	86.19
261.71	78.19
261.942	90.19
262.175	62.19
262.407	94.19
262.64	86.19
262.872	87.19
263.105	77.19
263.337	86.19
263.57	90.19
263.802	73.19
264.035	74.19
264.267	69.19
264.499	90.19
264.732	94.19
264.964	84.19
265.197	85.19
265.429	87.19
265.661	83.19
265.894	93.19
266.126	89.19
266.358	79.19
266.591	82.19
266.823	74.19
267.055	79.19
267.287	75.19
267.52	75.19
267.752	86.19
267.984	75.19
268.216	80.19
268.448	67.19
268.681	75.19
268.913	78.19
269.145	78.19
269.377	87.19
269.609	91.19
269.841	85.19
270.073	87.19
270.306	80.19
270.538	85.19
270.77	87.19
271.002	87.19
271.234	77.19
271.466	88.19
271.698	75.19
271.93	84.19
272.162	84.19
272.394	76.19
272.626	86.19
272.858	92.19
273.09	97.19
273.322	85.19
273.553	84.19
273.785	81.19
274.017	74.19
274.249	69.19
274.481	88.19
274.713	88.19
274.945	74.19
275.176	81.19
275.408	81.19
275.64	79.19
275.872	89.19
276.104	72.19
276.335	86.19
276.567	77.19
276.799	89.19
277.031	87.19
277.262	77.19
277.494	79.19
277.726	79.19
277.957	82.19
278.189	90.19
278.421	81.19
278.652	95.19
278.884	83.19
279.115	87.19
279.347	93.19
279.579	87.19
279.81	92.19
280.042	81.19
280.273	86.19
280.505	75.19
280.736	81.19
280.968	87.19
281.199	77.19
281.431	88.19
281.662	77.19
281.894	88.19
282.125	88.19
282.356	72.19
282.588	81.19
282.819	63.19
283.051	89.19
283.282	89.19
283.513	99.19
283.745	79.19
283.976	80.19
284.207	83.19
284.439	74.19
284.67	89.19
284.901	89.19
285.132	85.19
285.364	87.19
285.595	79.19
285.826	74.19
286.057	83.19
286.288	97.19
286.52	90.19
286.751	89.19
286.982	75.19
287.213	87.19
287.444	81.19
287.675	88.19
287.906	91.19
288.138	65.19
288.369	75.19
288.6	78.19
288.831	87.19
289.062	87.19
289.293	77.19
289.524	85.19
289.755	67.19
289.986	98.19
290.217	90.19
290.448	80.19
290.679	79.19
290.91	88.19
291.141	90.19
291.371	87.19
291.602	92.19
291.833	89.19
292.064	85.19
292.295	78.19
292.526	80.19
292.757	87.19
292.987	96.19
293.218	83.19
293.449	82.19
293.68	73.19
293.91	60.19
294.141	83.19
294.372	76.19
294.603	89.19
294.833	75.19
295.064	77.19
295.295	78.19
295.525	79.19
295.756	87.19
295.987	79.19
296.217	88.19
296.448	89.19
296.679	92.19
296.909	93.19
297.14	98.19
297.37	91.19
297.601	83.19
297.831	97.19
298.062	75.19
298.292	94.19
298.523	77.19
298.753	88.19
298.984	91.19
299.214	92.19
299.445	87.19
299.675	87.19
299.905	79.19
300.136	87.19
300.366	94.19
300.597	97.19
300.827	82.19
301.057	87.19
301.288	103.19
301.518	83.19
301.748	79.19
301.979	97.19
302.209	80.19
302.439	86.19
302.669	74.19
302.9	89.19
303.13	91.19
303.36	78.19
303.59	88.19
303.82	79.19
304.051	98.19
304.281	91.19
304.511	94.19
304.741	83.19
304.971	77.19
305.201	77.19
305.431	89.19
305.661	83.19
305.891	86.19
306.121	82.19
306.352	93.19
306.582	83.19
306.812	95.19
307.042	102.19
307.272	110.19
307.502	82.19
307.731	95.19
307.961	91.19
308.191	93.19
308.421	87.19
308.651	94.19
308.881	92.19
309.111	97.19
309.341	94.19
309.571	98.19
309.8	85.19
310.03	94.19
310.26	78.19
310.49	91.19
310.72	74.19
310.949	78.19
311.179	85.19
311.409	78.19
311.639	69.19
311.868	68.19
312.098	103.19
312.328	78.19
312.557	89.19
312.787	86.19
313.017	85.19
313.246	73.19
313.476	80.19
313.706	83.19
313.935	88.19
314.165	76.19
314.394	98.19
314.624	90.19
314.853	70.19
315.083	87.19
315.312	89.19
315.542	91.19
315.771	77.19
316.001	77.19
316.23	88.19
316.46	69.19
316.689	77.19
316.919	80.19
317.148	83.19
317.377	77.19
317.607	94.19
317.836	80.19
318.065	83.19
318.295	87.19
318.524	90.19
318.753	87.19
318.983	97.19
319.212	81.19
319.441	95.19
319.67	98.19
319.9	75.19
320.129	83.19
320.358	89.19
320.587	71.19
320.816	92.19
321.046	94.19
321.275	84.19
321.504	89.19
321.733	85.19
321.962	83.19
322.191	83.19
322.42	114.19
322.649	82.19
322.878	84.19
323.108	76.19
323.337	78.19
323.566	92.19
323.795	77.19
324.024	78.19
324.253	82.19
324.482	87.19
324.71	96.19
324.939	85.19
325.168	93.19
325.397	79.19
325.626	103.19
325.855	82.19
326.084	90.19
326.313	79.19
326.542	89.19
326.77	79.19
326.999	80.19
327.228	75.19
327.457	73.19
327.686	95.19
327.914	81.19
328.143	93.19
328.372	84.19
328.6	87.19
328.829	80.19
329.058	74.19
329.287	95.19
329.515	79.19
329.744	77.19
329.972	95.19
330.201	88.19
330.43	85.19
330.658	87.19
330.887	92.19
331.115	79.19
331.344	78.19
331.572	78.19
331.801	81.19
332.03	89.19
332.258	81.19
332.486	89.19
332.715	72.19
332.943	79.19
333.172	89.19
333.4	87.19
333.629	85.19
333.857	80.19
334.085	74.19
334.314	93.19
334.542	73.19
334.771	82.19
334.999	75.19
335.227	77.19
335.455	83.19
335.684	83.19
335.912	75.19
336.14	83.19
336.369	81.19
336.597	93.19
336.825	86.19
337.053	80.19
337.281	80.19
337.51	79.19
337.738	87.19
337.966	79.19
338.194	85.19
338.422	84.19
338.65	90.19
338.878	77.19
339.106	77.19
339.334	88.19
339.562	82.19
339.79	80.19
340.018	82.19
340.246	88.19
340.474	83.19
340.702	89.19
340.93	82.19
341.158	72.19
341.386	85.19
341.614	81.19
341.842	83.19
342.07	87.19
342.298	86.19
342.526	93.19
342.754	80.19
342.981	77.19
343.209	92.19
343.437	87.19
343.665	89.19
343.893	91.19
344.12	84.19
344.348	89.19
344.576	91.19
344.804	79.19
345.031	70.19
345.259	87.19
345.487	91.19
345.714	79.19
345.942	81.19
346.17	94.19
346.397	91.19
346.625	77.19
346.853	94.19
347.08	85.19
347.308	92.19
347.535	84.19
347.763	92.19
347.99	78.19
348.218	91.19
348.445	79.19
348.673	77.19
348.9	81.19
349.128	91.19
349.355	91.19
349.583	85.19
349.81	81.19
350.037	86.19
350.265	87.19
350.492	95.19
350.72	85.19
350.947	92.19
351.174	74.19
351.402	85.19
351.629	89.19
351.856	80.19
352.083	85.19
352.311	83.19
352.538	92.19
352.765	72.19
352.992	98.19
353.22	79.19
353.447	71.19
353.674	98.19
353.901	84.19
354.128	87.19
354.355	74.19
354.583	82.19
354.81	87.19
355.037	87.19
355.264	74.19
355.491	89.19
355.718	68.19
355.945	77.19
356.172	92.19
356.399	84.19
356.626	77.19
356.853	84.19
357.08	88.19
357.307	95.19
357.534	94.19
357.761	80.19
357.988	90.19
358.215	85.19
358.441	82.19
358.668	90.19
358.895	74.19
359.122	94.19
359.349	75.19
359.576	77.19
359.802	79.19
360.029	92.19
360.256	80.19
360.483	92.19
360.709	83.19
360.936	97.19
361.163	78.19
361.39	81.19
361.616	84.19
361.843	89.19
362.07	74.19
362.296	75.19
362.523	75.19
362.749	84.19
362.976	89.19
363.203	103.19
363.429	82.19
363.656	94.19
363.882	72.19
364.109	79.19
364.335	85.19
364.562	85.19
364.788	90.19
365.015	85.19
365.241	68.19
365.468	78.19
365.694	79.19
365.92	80.19
366.147	77.19
366.373	76.19
366.599	73.19
366.826	95.19
367.052	80.19
367.278	85.19
367.505	79.19
367.731	77.19
367.957	87.19
368.184	96.19
368.41	90.19
368.636	84.19
368.862	72.19
369.089	80.19
369.315	71.19
369.541	81.19
369.767	85.19
369.993	85.19
370.219	79.19
370.445	99.19
370.672	84.19
370.898	102.19
371.124	82.19
371.35	82.19
371.576	88.19
371.802	84.19
372.028	90.19
372.254	90.19
372.48	78.19
372.706	79.19
372.932	80.19
373.158	65.19
373.384	81.19
373.61	98.19
373.835	95.19
374.061	95.19
374.287	74.19
374.513	91.19
374.739	84.19
374.965	93.19
375.191	79.19
375.416	89.19
375.642	83.19
375.868	97.19
376.094	77.19
376.319	70.19
376.545	77.19
376.771	93.19
376.997	87.19
377.222	79.19
377.448	99.19
377.674	91.19
377.899	74.19
378.125	100.19
378.35	85.19
378.576	83.19
378.802	74.19
379.027	97.19
379.253	89.19
379.478	82.19
379.704	72.19
379.929	101.19
380.155	74.19
380.38	87.19
380.606	77.19
380.831	85.19
381.057	95.19
381.282	86.19
381.507	77.19
381.733	77.19
381.958	90.19
382.184	69.19
382.409	81.19
382.634	71.19
382.86	80.19
383.085	77.19
383.31	89.19
383.535	91.19
383.761	80.19
383.986	85.19
384.211	84.19
384.436	79.19
384.662	81.19
384.887	84.19
385.112	69.19
385.337	79.19
385.562	98.19
385.787	92.19
386.013	92.19
386.238	71.19
386.463	72.19
386.688	91.19
386.913	93.19
387.138	85.19
387.363	80.19
387.588	92.19
387.813	79.19
388.038	66.19
388.263	87.19
388.488	83.19
388.713	80.19
388.938	89.19
389.163	77.19
389.387	107.19
389.612	83.19
389.837	85.19
390.062	90.19
390.287	87.19
390.512	72.19
390.736	71.19
390.961	76.19
391.186	75.19
391.411	79.19
391.636	85.19
391.86	89.19
392.085	89.19
392.31	83.19
392.534	84.19
392.759	91.19
392.984	85.19
393.208	89.19
393.433	83.19
393.658	90.19
393.882	89.19
394.107	106.19
394.331	137.19
394.556	120.19
394.78	103.19
395.005	89.19
395.229	81.19
395.454	86.19
395.678	84.19
395.903	111.19
396.127	140.19
396.352	157.19
396.576	77.19
396.801	81.19
397.025	83.19
397.249	97.19
397.474	87.19
397.698	86.19
397.922	74.19
398.147	95.19
398.371	107.19
398.595	85.19
398.82	73.19
399.044	81.19
399.268	80.19
399.492	73.19
399.717	80.19
399.941	87.19
400.165	83.19
400.389	75.19
400.613	78.19
400.837	79.19
401.062	78.19
401.286	85.19
401.51	71.19
401.734	70.19
401.958	76.19
402.182	73.19
402.406	86.19
402.63	77.19
402.854	71.19
403.078	99.19
403.302	79.19
403.526	93.19
403.75	84.19
403.974	85.19
404.198	81.19
404.422	77.19
404.645	80.19
404.869	80.19
405.093	83.19
405.317	85.19
405.541	90.19
405.765	95.19
405.988	89.19
406.212	85.19
406.436	78.19
406.66	75.19
406.883	79.19
407.107	85.19
407.331	76.19
407.555	82.19
407.778	91.19
408.002	87.19
408.226	78.19
408.449	89.19
408.673	99.19
408.896	100.19
409.12	89.19
409.344	75.19
409.567	85.19
409.791	83.19
410.014	84.19
410.238	83.19
410.461	59.19
410.685	85.19
410.908	87.19
411.132	92.19
411.355	79.19
411.578	92.19
411.802	78.19
412.025	77.19
412.249	93.19
412.472	85.19
412.695	85.19
412.919	77.19
413.142	83.19
413.365	77.19
413.589	79.19
413.812	86.19
414.035	89.19
414.258	86.19
414.482	72.19
414.705	85.19
414.928	77.19
415.151	89.19
415.374	85.19
415.597	89.19
415.821	89.19
416.044	90.19
416.267	86.19
416.49	80.19
416.713	79.19
416.936	78.19
417.159	86.19
417.382	80.19
417.605	81.19
417.828	101.19
418.051	92.19
418.274	89.19
418.497	79.19
418.72	78.19
418.943	93.19
419.166	86.19
419.389	73.19
419.611	84.19
419.834	79.19
420.057	81.19
420.28	75.19
420.503	82.19
420.726	77.19
420.948	79.19
421.171	83.19
421.394	93.19
421.617	76.19
421.839	76.19
422.062	81.19
422.285	86.19
422.507	79.19
422.73	77.19
422.953	80.19
423.175	76.19
423.398	85.19
423.621	80.19
423.843	73.19
424.066	90.19
424.288	79.19
424.511	93.19
424.733	90.19
424.956	78.19
425.178	77.19
425.401	80.19
425.623	82.19
425.846	89.19
426.068	84.19
426.291	70.19
426.513	91.19
426.735	84.19
426.958	83.19
427.18	83.19
427.402	83.19
427.625	91.19
427.847	82.19
428.069	94.19
428.292	92.19
428.514	103.19
428.736	78.19
428.958	86.19
429.181	87.19
429.403	75.19
429.625	81.19
429.847	71.19
430.069	78.19
430.292	97.19
430.514	75.19
430.736	87.19
430.958	84.19
431.18	79.19
431.402	75.19
431.624	85.19
431.846	78.19
432.068	77.19
432.29	93.19
432.512	85.19
432.734	87.19
432.956	88.19
433.178	80.19
433.4	82.19
433.622	94.19
433.844	68.19
434.066	80.19
434.287	74.19
434.509	73.19
434.731	88.19
434.953	79.19
435.175	87.19
435.397	83.19
435.618	76.19
435.84	79.19
436.062	79.19
436.284	82.19
436.505	79.19
436.727	77.19
436.949	87.19
437.17	81.19
437.392	85.19
437.614	78.19
437.835	80.19
438.057	77.19
438.278	81.19
438.5	74.19
438.721	77.19
438.943	76.19
439.165	78.19
439.386	70.19
439.608	97.19
439.829	75.19
440.05	90.19
440.272	78.19
440.493	87.19
440.715	91.19
440.936	85.19
441.158	96.19
441.379	73.19
441.6	78.19
441.822	73.19
442.043	84.19
442.264	87.19
442.486	96.19
442.707	79.19
442.928	100.19
443.149	85.19
443.371	88.19
443.592	69.19
443.813	77.19
444.034	85.19
444.255	81.19
444.476	96.19
444.698	77.19
444.919	87.19
445.14	148.19
445.361	115.19
445.582	76.19
445.803	81.19
446.024	77.19
446.245	85.19
446.466	81.19
446.687	75.19
446.908	94.19
447.129	89.19
447.35	84.19
447.571	75.19
447.792	89.19
448.013	87.19
448.234	88.19
448.455	91.19
448.675	93.19
448.896	90.19
449.117	81.19
449.338	81.19
449.559	76.19
449.779	100.19
450	95.19
450.221	87.19
450.442	61.19
450.662	90.19
450.883	95.19
451.104	101.19
451.324	88.19
451.545	79.19
451.766	87.19
451.986	77.19
452.207	78.19
452.428	90.19
452.648	98.19
452.869	96.19
453.089	96.19
453.31	81.19
453.53	77.19
453.751	74.19
453.971	87.19
454.192	85.19
454.412	76.19
454.633	87.19
454.853	73.19
455.073	83.19
455.294	84.19
455.514	75.19
455.734	70.19
455.955	78.19
456.175	77.19
456.395	74.19
456.616	94.19
456.836	71.19
457.056	66.19
457.276	91.19
457.497	83.19
457.717	74.19
457.937	92.19
458.157	77.19
458.377	82.19
458.598	76.19
458.818	94.19
459.038	84.19
459.258	86.19
459.478	74.19
459.698	89.19
459.918	78.19
460.138	74.19
460.358	85.19
460.578	96.19
460.798	73.19
461.018	97.19
461.238	91.19
461.458	88.19
461.678	95.19
461.898	72.19
462.118	82.19
462.338	81.19
462.558	98.19
462.777	93.19
462.997	65.19
463.217	73.19
463.437	74.19
463.657	76.19
463.876	74.19
464.096	85.19
464.316	75.19
464.536	89.19
464.755	84.19
464.975	82.19
465.195	93.19
465.414	79.19
465.634	84.19
465.854	81.19
466.073	77.19
466.293	72.19
466.512	90.19
466.732	94.19
466.951	85.19
467.171	97.19
467.391	89.19
467.61	93.19
467.829	69.19
468.049	73.19
468.268	79.19
468.488	76.19
468.707	76.19
468.927	89.19
469.146	93.19
469.365	77.19
469.585	81.19
469.804	91.19
470.023	88.19
470.243	95.19
470.462	95.19
470.681	84.19
470.901	94.19
471.12	82.19
471.339	85.19
471.558	75.19
471.777	80.19
471.997	81.19
472.216	74.19
472.435	85.19
472.654	75.19
472.873	79.19
473.092	79.19
473.311	79.19
473.53	69.19
473.749	77.19
473.968	92.19
474.187	95.19
474.406	87.19
474.625	90.19
474.844	77.19
475.063	89.19
475.282	84.19
475.501	78.19
475.72	99.19
475.939	83.19
476.158	87.19
476.377	88.19
476.596	87.19
476.814	76.19
477.033	77.19
477.252	87.19
477.471	84.19
477.69	80.19
477.908	88.19
478.127	97.19
478.346	80.19
478.564	78.19
478.783	96.19
479.002	77.19
479.22	75.19
479.439	83.19
479.658	88.19
479.876	84.19
480.095	85.19
480.313	89.19
480.532	85.19
480.751	89.19
480.969	85.19
481.188	88.19
481.406	81.19
481.624	83.19
481.843	72.19
482.061	86.19
482.28	89.19
482.498	89.19
482.717	77.19
482.935	83.19
483.153	79.19
483.372	83.19
483.59	89.19
483.808	74.19
484.027	90.19
484.245	94.19
484.463	89.19
484.681	88.19
484.9	85.19
485.118	77.19
485.336	85.19
485.554	94.19
485.772	89.19
485.99	87.19
486.209	95.19
486.427	93.19
486.645	102.19
486.863	91.19
487.081	84.19
487.299	85.19
487.517	85.19
487.735	85.19
487.953	96.19
488.171	80.19
488.389	87.19
488.607	85.19
488.825	92.19
489.043	86.19
489.261	78.19
489.479	95.19
489.696	85.19
489.914	93.19
490.132	83.19
490.35	89.19
490.568	84.19
490.786	84.19
491.003	88.19
491.221	76.19
491.439	77.19
491.657	82.19
491.874	82.19
492.092	77.19
492.31	93.19
492.527	79.19
492.745	90.19
492.963	89.19
493.18	86.19
493.398	78.19
493.615	87.19
493.833	102.19
494.05	87.19
494.268	87.19
494.485	94.19
494.703	83.19
494.92	99.19
495.138	78.19
495.355	82.19
495.573	98.19
495.79	80.19
496.008	93.19
496.225	91.19
496.442	87.19
496.66	103.19
496.877	88.19
497.094	81.19
497.312	87.19
497.529	98.19
497.746	81.19
497.963	83.19
498.181	87.19
498.398	82.19
498.615	84.19
498.832	79.19
499.049	83.19
499.267	86.19
499.484	80.19
499.701	85.19
499.918	77.19
500.135	78.19
500.352	101.19
500.569	84.19
500.786	83.19
501.003	86.19
501.22	83.19
501.437	87.19
501.654	89.19
501.871	83.19
502.088	76.19
502.305	79.19
502.522	70.19
502.739	82.19
502.956	95.19
503.172	92.19
503.389	77.19
503.606	91.19
503.823	82.19
504.04	83.19
504.256	91.19
504.473	82.19
504.69	88.19
504.907	97.19
505.123	77.19
505.34	81.19
505.557	83.19
505.773	95.19
505.99	89.19
506.207	80.19
506.423	91.19
506.64	96.19
506.856	87.19
507.073	85.19
507.289	90.19
507.506	94.19
507.722	93.19
507.939	86.19
508.155	87.19
508.372	100.19
508.588	88.19
508.805	84.19
509.021	95.19
509.238	89.19
509.454	83.19
509.67	86.19
509.887	72.19
510.103	68.19
510.319	83.19
510.536	81.19
510.752	84.19
510.968	83.19
511.184	83.19
511.401	79.19
511.617	77.19
511.833	82.19
512.049	71.19
512.265	103.19
512.481	83.19
512.698	78.19
512.914	80.19
513.13	92.19
513.346	80.19
513.562	81.19
513.778	92.19
513.994	90.19
514.21	85.19
514.426	87.19
514.642	84.19
514.858	76.19
515.074	77.19
515.29	76.19
515.506	93.19
515.721	84.19
515.937	88.19
516.153	72.19
516.369	88.19
516.585	87.19
516.801	85.19
517.016	73.19
517.232	78.19
517.448	84.19
517.664	81.19
517.879	93.19
518.095	94.19
518.311	87.19
518.527	99.19
518.742	71.19
518.958	79.19
519.173	79.19
519.389	85.19
519.605	76.19
519.82	65.19
