Data from Coke_Can_Side_HRD10591_00002.txt Node
Date: Wed Nov 05 15:42:07 EST 2025
User: Yrep
Spectrometer: HR+D1059
Trigger mode: 1
Integration Time (sec): 1.000000E-1
Scans to average: 1
Electric dark correction enabled: true
Nonlinearity correction enabled: false
Boxcar width: 0
XAxis mode: Wavelengths
Number of Pixels in Spectrum: 2048
>>>>>Begin Spectral Data<<<<<
223.165	-13.62
223.4	-13.62
223.635	-13.62
223.869	-3.62
224.104	-20.62
224.338	-13.62
224.573	-17.62
224.808	-5.62
225.042	-6.62
225.277	-7.62
225.511	0.38
225.746	4.38
225.98	-4.62
226.215	6.38
226.449	16.38
226.683	10.38
226.918	26.38
227.152	29.38
227.387	33.38
227.621	33.38
227.856	40.38
228.09	29.38
228.324	62.38
228.559	44.38
228.793	65.38
229.027	51.38
229.262	60.38
229.496	69.38
229.73	65.38
229.964	72.38
230.199	59.38
230.433	86.38
230.667	76.38
230.901	66.38
231.136	81.38
231.37	65.38
231.604	72.38
231.838	77.38
232.072	92.38
232.306	76.38
232.541	90.38
232.775	97.38
233.009	75.38
233.243	70.38
233.477	84.38
233.711	87.38
233.945	71.38
234.179	64.38
234.413	94.38
234.647	72.38
234.881	62.38
235.115	81.38
235.349	86.38
235.583	68.38
235.817	78.38
236.051	74.38
236.285	69.38
236.519	89.38
236.753	70.38
236.987	80.38
237.221	75.38
237.455	90.38
237.689	86.38
237.922	84.38
238.156	82.38
238.39	91.38
238.624	78.38
238.858	73.38
239.091	72.38
239.325	74.38
239.559	77.38
239.793	80.38
240.027	78.38
240.26	67.38
240.494	85.38
240.728	82.38
240.961	70.38
241.195	87.38
241.429	76.38
241.662	68.38
241.896	75.38
242.13	87.38
242.363	82.38
242.597	70.38
242.83	78.38
243.064	80.38
243.298	79.38
243.531	76.38
243.765	74.38
243.998	78.38
244.232	63.38
244.465	73.38
244.699	70.38
244.932	75.38
245.166	74.38
245.399	88.38
245.633	76.38
245.866	77.38
246.099	76.38
246.333	80.38
246.566	74.38
246.8	72.38
247.033	82.38
247.266	75.38
247.5	86.38
247.733	69.38
247.966	78.38
248.2	72.38
248.433	85.38
248.666	69.38
248.899	83.38
249.133	69.38
249.366	88.38
249.599	69.38
249.832	68.38
250.066	81.38
250.299	58.38
250.532	72.38
250.765	87.38
250.998	82.38
251.231	84.38
251.465	84.38
251.698	71.38
251.931	80.38
252.164	78.38
252.397	74.38
252.63	85.38
252.863	70.38
253.096	74.38
253.329	84.38
253.562	76.38
253.795	74.38
254.028	65.38
254.261	84.38
254.494	74.38
254.727	84.38
254.96	78.38
255.193	76.38
255.426	82.38
255.659	72.38
255.892	85.38
256.124	85.38
256.357	76.38
256.59	84.38
256.823	83.38
257.056	86.38
257.289	94.38
257.521	87.38
257.754	70.38
257.987	71.38
258.22	85.38
258.452	72.38
258.685	87.38
258.918	76.38
259.151	78.38
259.383	86.38
259.616	80.38
259.849	78.38
260.081	76.38
260.314	90.38
260.547	98.38
260.779	67.38
261.012	78.38
261.244	80.38
261.477	79.38
261.71	87.38
261.942	88.38
262.175	67.38
262.407	82.38
262.64	84.38
262.872	84.38
263.105	81.38
263.337	66.38
263.57	86.38
263.802	84.38
264.035	86.38
264.267	94.38
264.499	96.38
264.732	74.38
264.964	78.38
265.197	77.38
265.429	81.38
265.661	80.38
265.894	77.38
266.126	85.38
266.358	84.38
266.591	79.38
266.823	65.38
267.055	74.38
267.287	77.38
267.52	77.38
267.752	88.38
267.984	81.38
268.216	62.38
268.448	86.38
268.681	76.38
268.913	95.38
269.145	90.38
269.377	72.38
269.609	92.38
269.841	79.38
270.073	76.38
270.306	68.38
270.538	79.38
270.77	94.38
271.002	86.38
271.234	73.38
271.466	74.38
271.698	81.38
271.93	82.38
272.162	91.38
272.394	76.38
272.626	78.38
272.858	84.38
273.09	70.38
273.322	76.38
273.553	83.38
273.785	79.38
274.017	81.38
274.249	88.38
274.481	74.38
274.713	74.38
274.945	83.38
275.176	72.38
275.408	86.38
275.64	84.38
275.872	93.38
276.104	78.38
276.335	91.38
276.567	71.38
276.799	85.38
277.031	81.38
277.262	79.38
277.494	84.38
277.726	77.38
277.957	82.38
278.189	77.38
278.421	76.38
278.652	81.38
278.884	89.38
279.115	90.38
279.347	78.38
279.579	100.38
279.81	96.38
280.042	91.38
280.273	93.38
280.505	87.38
280.736	96.38
280.968	92.38
281.199	79.38
281.431	72.38
281.662	70.38
281.894	75.38
282.125	76.38
282.356	70.38
282.588	83.38
282.819	86.38
283.051	81.38
283.282	78.38
283.513	60.38
283.745	74.38
283.976	85.38
284.207	94.38
284.439	81.38
284.67	88.38
284.901	76.38
285.132	72.38
285.364	83.38
285.595	92.38
285.826	96.38
286.057	80.38
286.288	85.38
286.52	88.38
286.751	104.38
286.982	84.38
287.213	97.38
287.444	86.38
287.675	79.38
287.906	92.38
288.138	71.38
288.369	75.38
288.6	87.38
288.831	82.38
289.062	77.38
289.293	82.38
289.524	85.38
289.755	87.38
289.986	88.38
290.217	84.38
290.448	71.38
290.679	68.38
290.91	91.38
291.141	79.38
291.371	81.38
291.602	78.38
291.833	76.38
292.064	72.38
292.295	77.38
292.526	79.38
292.757	81.38
292.987	76.38
293.218	73.38
293.449	93.38
293.68	89.38
293.91	76.38
294.141	72.38
294.372	90.38
294.603	85.38
294.833	81.38
295.064	85.38
295.295	90.38
295.525	75.38
295.756	83.38
295.987	84.38
296.217	82.38
296.448	84.38
296.679	79.38
296.909	84.38
297.14	88.38
297.37	89.38
297.601	83.38
297.831	99.38
298.062	79.38
298.292	81.38
298.523	80.38
298.753	66.38
298.984	93.38
299.214	82.38
299.445	82.38
299.675	97.38
299.905	92.38
300.136	79.38
300.366	85.38
300.597	88.38
300.827	88.38
301.057	82.38
301.288	77.38
301.518	71.38
301.748	75.38
301.979	84.38
302.209	76.38
302.439	97.38
302.669	81.38
302.9	80.38
303.13	71.38
303.36	78.38
303.59	105.38
303.82	92.38
304.051	73.38
304.281	78.38
304.511	72.38
304.741	99.38
304.971	82.38
305.201	82.38
305.431	84.38
305.661	76.38
305.891	93.38
306.121	86.38
306.352	78.38
306.582	86.38
306.812	94.38
307.042	85.38
307.272	90.38
307.502	90.38
307.731	97.38
307.961	96.38
308.191	86.38
308.421	93.38
308.651	88.38
308.881	85.38
309.111	85.38
309.341	96.38
309.571	106.38
309.8	90.38
310.03	86.38
310.26	77.38
310.49	73.38
310.72	74.38
310.949	75.38
311.179	63.38
311.409	81.38
311.639	92.38
311.868	93.38
312.098	95.38
312.328	92.38
312.557	86.38
312.787	78.38
313.017	82.38
313.246	73.38
313.476	91.38
313.706	84.38
313.935	87.38
314.165	93.38
314.394	99.38
314.624	81.38
314.853	84.38
315.083	76.38
315.312	87.38
315.542	86.38
315.771	89.38
316.001	70.38
316.23	86.38
316.46	80.38
316.689	83.38
316.919	81.38
317.148	74.38
317.377	84.38
317.607	91.38
317.836	85.38
318.065	82.38
318.295	94.38
318.524	73.38
318.753	75.38
318.983	80.38
319.212	72.38
319.441	82.38
319.67	67.38
319.9	82.38
320.129	78.38
320.358	88.38
320.587	90.38
320.816	94.38
321.046	97.38
321.275	91.38
321.504	72.38
321.733	90.38
321.962	85.38
322.191	69.38
322.42	92.38
322.649	82.38
322.878	90.38
323.108	84.38
323.337	62.38
323.566	85.38
323.795	88.38
324.024	89.38
324.253	89.38
324.482	78.38
324.71	76.38
324.939	86.38
325.168	84.38
325.397	75.38
325.626	84.38
325.855	86.38
326.084	86.38
326.313	75.38
326.542	86.38
326.77	81.38
326.999	84.38
327.228	73.38
327.457	72.38
327.686	84.38
327.914	86.38
328.143	80.38
328.372	82.38
328.6	95.38
328.829	97.38
329.058	93.38
329.287	77.38
329.515	84.38
329.744	87.38
329.972	80.38
330.201	88.38
330.43	86.38
330.658	80.38
330.887	83.38
331.115	80.38
331.344	96.38
331.572	77.38
331.801	88.38
332.03	88.38
332.258	88.38
332.486	86.38
332.715	88.38
332.943	90.38
333.172	82.38
333.4	80.38
333.629	94.38
333.857	78.38
334.085	86.38
334.314	84.38
334.542	96.38
334.771	96.38
334.999	84.38
335.227	98.38
335.455	87.38
335.684	79.38
335.912	81.38
336.14	78.38
336.369	91.38
336.597	82.38
336.825	84.38
337.053	71.38
337.281	96.38
337.51	93.38
337.738	84.38
337.966	78.38
338.194	87.38
338.422	72.38
338.65	80.38
338.878	78.38
339.106	84.38
339.334	84.38
339.562	81.38
339.79	85.38
340.018	90.38
340.246	62.38
340.474	73.38
340.702	82.38
340.93	78.38
341.158	75.38
341.386	96.38
341.614	84.38
341.842	92.38
342.07	84.38
342.298	88.38
342.526	87.38
342.754	85.38
342.981	90.38
343.209	76.38
343.437	90.38
343.665	94.38
343.893	93.38
344.12	84.38
344.348	83.38
344.576	79.38
344.804	86.38
345.031	76.38
345.259	80.38
345.487	72.38
345.714	88.38
345.942	80.38
346.17	80.38
346.397	82.38
346.625	79.38
346.853	91.38
347.08	85.38
347.308	90.38
347.535	85.38
347.763	85.38
347.99	82.38
348.218	81.38
348.445	73.38
348.673	72.38
348.9	77.38
349.128	85.38
349.355	82.38
349.583	88.38
349.81	86.38
350.037	83.38
350.265	88.38
350.492	81.38
350.72	80.38
350.947	79.38
351.174	87.38
351.402	78.38
351.629	86.38
351.856	79.38
352.083	97.38
352.311	86.38
352.538	90.38
352.765	71.38
352.992	82.38
353.22	82.38
353.447	82.38
353.674	95.38
353.901	88.38
354.128	92.38
354.355	94.38
354.583	75.38
354.81	83.38
355.037	96.38
355.264	91.38
355.491	93.38
355.718	86.38
355.945	82.38
356.172	84.38
356.399	94.38
356.626	67.38
356.853	82.38
357.08	87.38
357.307	89.38
357.534	79.38
357.761	89.38
357.988	92.38
358.215	72.38
358.441	83.38
358.668	82.38
358.895	77.38
359.122	90.38
359.349	106.38
359.576	79.38
359.802	88.38
360.029	86.38
360.256	76.38
360.483	68.38
360.709	90.38
360.936	99.38
361.163	92.38
361.39	83.38
361.616	84.38
361.843	76.38
362.07	78.38
362.296	71.38
362.523	83.38
362.749	76.38
362.976	75.38
363.203	90.38
363.429	93.38
363.656	79.38
363.882	83.38
364.109	90.38
364.335	81.38
364.562	90.38
364.788	73.38
365.015	83.38
365.241	90.38
365.468	99.38
365.694	74.38
365.92	90.38
366.147	80.38
366.373	93.38
366.599	84.38
366.826	74.38
367.052	64.38
367.278	75.38
367.505	82.38
367.731	91.38
367.957	74.38
368.184	78.38
368.41	84.38
368.636	77.38
368.862	80.38
369.089	82.38
369.315	78.38
369.541	72.38
369.767	92.38
369.993	82.38
370.219	73.38
370.445	96.38
370.672	78.38
370.898	78.38
371.124	84.38
371.35	78.38
371.576	84.38
371.802	74.38
372.028	80.38
372.254	87.38
372.48	85.38
372.706	82.38
372.932	84.38
373.158	91.38
373.384	96.38
373.61	78.38
373.835	96.38
374.061	88.38
374.287	100.38
374.513	84.38
374.739	79.38
374.965	92.38
375.191	68.38
375.416	79.38
375.642	68.38
375.868	68.38
376.094	69.38
376.319	83.38
376.545	90.38
376.771	88.38
376.997	86.38
377.222	91.38
377.448	93.38
377.674	82.38
377.899	97.38
378.125	91.38
378.35	88.38
378.576	83.38
378.802	82.38
379.027	92.38
379.253	86.38
379.478	76.38
379.704	75.38
379.929	67.38
380.155	75.38
380.38	83.38
380.606	72.38
380.831	63.38
381.057	99.38
381.282	85.38
381.507	88.38
381.733	83.38
381.958	92.38
382.184	83.38
382.409	82.38
382.634	93.38
382.86	82.38
383.085	89.38
383.31	96.38
383.535	94.38
383.761	100.38
383.986	91.38
384.211	90.38
384.436	76.38
384.662	88.38
384.887	88.38
385.112	78.38
385.337	85.38
385.562	79.38
385.787	78.38
386.013	90.38
386.238	88.38
386.463	74.38
386.688	88.38
386.913	77.38
387.138	72.38
387.363	96.38
387.588	71.38
387.813	78.38
388.038	91.38
388.263	85.38
388.488	80.38
388.713	98.38
388.938	81.38
389.163	89.38
389.387	74.38
389.612	76.38
389.837	78.38
390.062	84.38
390.287	75.38
390.512	76.38
390.736	83.38
390.961	89.38
391.186	82.38
391.411	84.38
391.636	90.38
391.86	77.38
392.085	78.38
392.31	64.38
392.534	74.38
392.759	98.38
392.984	90.38
393.208	98.38
393.433	77.38
393.658	90.38
393.882	86.38
394.107	81.38
394.331	117.38
394.556	147.38
394.78	93.38
395.005	100.38
395.229	76.38
395.454	84.38
395.678	97.38
395.903	105.38
396.127	147.38
396.352	153.38
396.576	102.38
396.801	106.38
397.025	87.38
397.249	98.38
397.474	85.38
397.698	64.38
397.922	90.38
398.147	88.38
398.371	84.38
398.595	78.38
398.82	84.38
399.044	78.38
399.268	90.38
399.492	88.38
399.717	76.38
399.941	93.38
400.165	79.38
400.389	87.38
400.613	92.38
400.837	88.38
401.062	93.38
401.286	76.38
401.51	92.38
401.734	83.38
401.958	77.38
402.182	66.38
402.406	84.38
402.63	85.38
402.854	90.38
403.078	70.38
403.302	88.38
403.526	93.38
403.75	78.38
403.974	77.38
404.198	85.38
404.422	82.38
404.645	86.38
404.869	86.38
405.093	85.38
405.317	75.38
405.541	93.38
405.765	72.38
405.988	81.38
406.212	84.38
406.436	106.38
406.66	82.38
406.883	84.38
407.107	84.38
407.331	89.38
407.555	72.38
407.778	84.38
408.002	88.38
408.226	88.38
408.449	85.38
408.673	74.38
408.896	80.38
409.12	84.38
409.344	84.38
409.567	76.38
409.791	71.38
410.014	84.38
410.238	82.38
410.461	73.38
410.685	70.38
410.908	77.38
411.132	76.38
411.355	89.38
411.578	84.38
411.802	86.38
412.025	92.38
412.249	76.38
412.472	63.38
412.695	68.38
412.919	88.38
413.142	100.38
413.365	82.38
413.589	84.38
413.812	66.38
414.035	92.38
414.258	85.38
414.482	72.38
414.705	74.38
414.928	83.38
415.151	86.38
415.374	84.38
415.597	84.38
415.821	80.38
416.044	78.38
416.267	80.38
416.49	79.38
416.713	69.38
416.936	90.38
417.159	85.38
417.382	91.38
417.605	85.38
417.828	79.38
418.051	100.38
418.274	77.38
418.497	77.38
418.72	82.38
418.943	85.38
419.166	88.38
419.389	84.38
419.611	80.38
419.834	86.38
420.057	84.38
420.28	84.38
420.503	75.38
420.726	85.38
420.948	96.38
421.171	82.38
421.394	76.38
421.617	74.38
421.839	81.38
422.062	99.38
422.285	93.38
422.507	88.38
422.73	86.38
422.953	99.38
423.175	87.38
423.398	67.38
423.621	78.38
423.843	77.38
424.066	82.38
424.288	74.38
424.511	74.38
424.733	96.38
424.956	88.38
425.178	74.38
425.401	75.38
425.623	94.38
425.846	77.38
426.068	83.38
426.291	71.38
426.513	90.38
426.735	69.38
426.958	86.38
427.18	74.38
427.402	81.38
427.625	92.38
427.847	83.38
428.069	97.38
428.292	80.38
428.514	87.38
428.736	69.38
428.958	71.38
429.181	92.38
429.403	90.38
429.625	74.38
429.847	85.38
430.069	78.38
430.292	78.38
430.514	91.38
430.736	69.38
430.958	85.38
431.18	89.38
431.402	87.38
431.624	68.38
431.846	78.38
432.068	83.38
432.29	69.38
432.512	65.38
432.734	85.38
432.956	84.38
433.178	75.38
433.4	84.38
433.622	86.38
433.844	76.38
434.066	76.38
434.287	72.38
434.509	68.38
434.731	77.38
434.953	72.38
435.175	60.38
435.397	92.38
435.618	82.38
435.84	70.38
436.062	76.38
436.284	86.38
436.505	78.38
436.727	77.38
436.949	88.38
437.17	85.38
437.392	90.38
437.614	89.38
437.835	95.38
438.057	78.38
438.278	60.38
438.5	78.38
438.721	78.38
438.943	72.38
439.165	92.38
439.386	86.38
439.608	83.38
439.829	86.38
440.05	87.38
440.272	74.38
440.493	69.38
440.715	76.38
440.936	85.38
441.158	91.38
441.379	73.38
441.6	86.38
441.822	66.38
442.043	76.38
442.264	79.38
442.486	84.38
442.707	79.38
442.928	73.38
443.149	84.38
443.371	72.38
443.592	85.38
443.813	77.38
444.034	69.38
444.255	92.38
444.476	84.38
444.698	82.38
444.919	75.38
445.14	173.38
445.361	120.38
445.582	90.38
445.803	83.38
446.024	97.38
446.245	82.38
446.466	78.38
446.687	83.38
446.908	72.38
447.129	76.38
447.35	94.38
447.571	81.38
447.792	85.38
448.013	81.38
448.234	74.38
448.455	71.38
448.675	83.38
448.896	88.38
449.117	85.38
449.338	79.38
449.559	77.38
449.779	88.38
450	88.38
450.221	78.38
450.442	79.38
450.662	80.38
450.883	75.38
451.104	98.38
451.324	88.38
451.545	75.38
451.766	86.38
451.986	72.38
452.207	78.38
452.428	87.38
452.648	93.38
452.869	80.38
453.089	72.38
453.31	77.38
453.53	78.38
453.751	80.38
453.971	84.38
454.192	74.38
454.412	72.38
454.633	82.38
454.853	86.38
455.073	87.38
455.294	85.38
455.514	82.38
455.734	93.38
455.955	87.38
456.175	68.38
456.395	73.38
456.616	89.38
456.836	91.38
457.056	86.38
457.276	92.38
457.497	77.38
457.717	78.38
457.937	93.38
458.157	86.38
458.377	79.38
458.598	97.38
458.818	84.38
459.038	84.38
459.258	76.38
459.478	101.38
459.698	82.38
459.918	80.38
460.138	97.38
460.358	80.38
460.578	81.38
460.798	82.38
461.018	74.38
461.238	69.38
461.458	81.38
461.678	68.38
461.898	85.38
462.118	76.38
462.338	84.38
462.558	83.38
462.777	84.38
462.997	85.38
463.217	81.38
463.437	76.38
463.657	82.38
463.876	75.38
464.096	64.38
464.316	95.38
464.536	78.38
464.755	84.38
464.975	88.38
465.195	91.38
465.414	72.38
465.634	84.38
465.854	89.38
466.073	80.38
466.293	88.38
466.512	76.38
466.732	72.38
466.951	90.38
467.171	90.38
467.391	77.38
467.61	74.38
467.829	82.38
468.049	79.38
468.268	81.38
468.488	96.38
468.707	89.38
468.927	98.38
469.146	86.38
469.365	91.38
469.585	78.38
469.804	89.38
470.023	78.38
470.243	93.38
470.462	84.38
470.681	87.38
470.901	85.38
471.12	80.38
471.339	100.38
471.558	92.38
471.777	91.38
471.997	68.38
472.216	104.38
472.435	84.38
472.654	74.38
472.873	100.38
473.092	97.38
473.311	81.38
473.53	89.38
473.749	74.38
473.968	82.38
474.187	77.38
474.406	67.38
474.625	90.38
474.844	88.38
475.063	88.38
475.282	70.38
475.501	77.38
475.72	91.38
475.939	81.38
476.158	74.38
476.377	91.38
476.596	80.38
476.814	84.38
477.033	70.38
477.252	86.38
477.471	82.38
477.69	91.38
477.908	89.38
478.127	77.38
478.346	78.38
478.564	83.38
478.783	85.38
479.002	77.38
479.22	74.38
479.439	72.38
479.658	82.38
479.876	72.38
480.095	90.38
480.313	93.38
480.532	84.38
480.751	84.38
480.969	86.38
481.188	83.38
481.406	82.38
481.624	82.38
481.843	85.38
482.061	91.38
482.28	72.38
482.498	84.38
482.717	82.38
482.935	69.38
483.153	72.38
483.372	82.38
483.59	72.38
483.808	92.38
484.027	90.38
484.245	77.38
484.463	94.38
484.681	88.38
484.9	89.38
485.118	96.38
485.336	101.38
485.554	90.38
485.772	78.38
485.99	104.38
486.209	90.38
486.427	95.38
486.645	89.38
486.863	85.38
487.081	90.38
487.299	91.38
487.517	82.38
487.735	100.38
487.953	101.38
488.171	87.38
488.389	92.38
488.607	80.38
488.825	77.38
489.043	78.38
489.261	78.38
489.479	92.38
489.696	78.38
489.914	93.38
490.132	92.38
490.35	87.38
490.568	84.38
490.786	89.38
491.003	88.38
491.221	84.38
491.439	78.38
491.657	88.38
491.874	91.38
492.092	76.38
492.31	86.38
492.527	93.38
492.745	86.38
492.963	80.38
493.18	96.38
493.398	88.38
493.615	93.38
493.833	87.38
494.05	64.38
494.268	79.38
494.485	84.38
494.703	84.38
494.92	85.38
495.138	89.38
495.355	74.38
495.573	88.38
495.79	91.38
496.008	83.38
496.225	87.38
496.442	95.38
496.66	90.38
496.877	91.38
497.094	96.38
497.312	89.38
497.529	91.38
497.746	89.38
497.963	82.38
498.181	91.38
498.398	86.38
498.615	87.38
498.832	93.38
499.049	92.38
499.267	88.38
499.484	74.38
499.701	90.38
499.918	82.38
500.135	88.38
500.352	85.38
500.569	75.38
500.786	85.38
501.003	80.38
501.22	87.38
501.437	86.38
501.654	80.38
501.871	62.38
502.088	71.38
502.305	78.38
502.522	73.38
502.739	78.38
502.956	85.38
503.172	86.38
503.389	76.38
503.606	87.38
503.823	94.38
504.04	88.38
504.256	85.38
504.473	77.38
504.69	74.38
504.907	91.38
505.123	90.38
505.34	95.38
505.557	88.38
505.773	92.38
505.99	89.38
506.207	87.38
506.423	91.38
506.64	73.38
506.856	85.38
507.073	80.38
507.289	79.38
507.506	77.38
507.722	92.38
507.939	74.38
508.155	76.38
508.372	81.38
508.588	76.38
508.805	76.38
509.021	81.38
509.238	90.38
509.454	84.38
509.67	97.38
509.887	78.38
510.103	84.38
510.319	72.38
510.536	73.38
510.752	95.38
510.968	88.38
511.184	84.38
511.401	75.38
511.617	74.38
511.833	93.38
512.049	84.38
512.265	83.38
512.481	91.38
512.698	84.38
512.914	91.38
513.13	92.38
513.346	76.38
513.562	79.38
513.778	93.38
513.994	80.38
514.21	79.38
514.426	90.38
514.642	97.38
514.858	77.38
515.074	81.38
515.29	76.38
515.506	82.38
515.721	86.38
515.937	87.38
516.153	88.38
516.369	89.38
516.585	83.38
516.801	86.38
517.016	97.38
517.232	84.38
517.448	86.38
517.664	84.38
517.879	84.38
518.095	86.38
518.311	100.38
518.527	95.38
518.742	87.38
518.958	90.38
519.173	86.38
519.389	89.38
519.605	93.38
519.82	87.38
