Data from Coke_Can_Side_HRD10591_00003.txt Node
Date: Wed Nov 05 15:42:08 EST 2025
User: Yrep
Spectrometer: HR+D1059
Trigger mode: 1
Integration Time (sec): 1.000000E-1
Scans to average: 1
Electric dark correction enabled: true
Nonlinearity correction enabled: false
Boxcar width: 0
XAxis mode: Wavelengths
Number of Pixels in Spectrum: 2048
>>>>>Begin Spectral Data<<<<<
223.165	-15.5
223.4	-15.5
223.635	-15.5
223.869	-12.5
224.104	-24.5
224.338	-10.5
224.573	-12.5
224.808	-11.5
225.042	-6.5
225.277	1.5
225.511	-8.5
225.746	-6.5
225.98	12.5
226.215	6.5
226.449	15.5
226.683	27.5
226.918	11.5
227.152	33.5
227.387	30.5
227.621	34.5
227.856	43.5
228.09	36.5
228.324	37.5
228.559	42.5
228.793	66.5
229.027	63.5
229.262	59.5
229.496	64.5
229.73	69.5
229.964	71.5
230.199	56.5
230.433	58.5
230.667	67.5
230.901	87.5
231.136	80.5
231.37	64.5
231.604	79.5
231.838	82.5
232.072	76.5
232.306	72.5
232.541	66.5
232.775	86.5
233.009	80.5
233.243	68.5
233.477	72.5
233.711	77.5
233.945	80.5
234.179	70.5
234.413	70.5
234.647	85.5
234.881	87.5
235.115	93.5
235.349	80.5
235.583	81.5
235.817	95.5
236.051	70.5
236.285	77.5
236.519	60.5
236.753	80.5
236.987	58.5
237.221	72.5
237.455	84.5
237.689	78.5
237.922	78.5
238.156	79.5
238.39	73.5
238.624	87.5
238.858	82.5
239.091	82.5
239.325	64.5
239.559	68.5
239.793	82.5
240.027	62.5
240.26	66.5
240.494	83.5
240.728	72.5
240.961	64.5
241.195	72.5
241.429	66.5
241.662	73.5
241.896	71.5
242.13	72.5
242.363	82.5
242.597	90.5
242.83	83.5
243.064	73.5
243.298	61.5
243.531	81.5
243.765	64.5
243.998	77.5
244.232	81.5
244.465	90.5
244.699	89.5
244.932	71.5
245.166	76.5
245.399	76.5
245.633	69.5
245.866	80.5
246.099	72.5
246.333	74.5
246.566	73.5
246.8	70.5
247.033	70.5
247.266	65.5
247.5	72.5
247.733	58.5
247.966	67.5
248.2	69.5
248.433	66.5
248.666	77.5
248.899	68.5
249.133	74.5
249.366	62.5
249.599	61.5
249.832	76.5
250.066	80.5
250.299	88.5
250.532	71.5
250.765	75.5
250.998	76.5
251.231	76.5
251.465	82.5
251.698	77.5
251.931	80.5
252.164	71.5
252.397	70.5
252.63	80.5
252.863	72.5
253.096	94.5
253.329	86.5
253.562	70.5
253.795	67.5
254.028	78.5
254.261	67.5
254.494	90.5
254.727	74.5
254.96	76.5
255.193	65.5
255.426	80.5
255.659	72.5
255.892	86.5
256.124	73.5
256.357	68.5
256.59	86.5
256.823	87.5
257.056	66.5
257.289	74.5
257.521	71.5
257.754	83.5
257.987	73.5
258.22	77.5
258.452	76.5
258.685	77.5
258.918	60.5
259.151	69.5
259.383	74.5
259.616	76.5
259.849	84.5
260.081	84.5
260.314	75.5
260.547	86.5
260.779	75.5
261.012	81.5
261.244	74.5
261.477	92.5
261.71	62.5
261.942	72.5
262.175	74.5
262.407	75.5
262.64	94.5
262.872	83.5
263.105	69.5
263.337	82.5
263.57	72.5
263.802	60.5
264.035	75.5
264.267	79.5
264.499	79.5
264.732	67.5
264.964	76.5
265.197	84.5
265.429	81.5
265.661	83.5
265.894	67.5
266.126	73.5
266.358	83.5
266.591	90.5
266.823	75.5
267.055	77.5
267.287	89.5
267.52	79.5
267.752	79.5
267.984	86.5
268.216	99.5
268.448	82.5
268.681	66.5
268.913	93.5
269.145	68.5
269.377	85.5
269.609	67.5
269.841	83.5
270.073	76.5
270.306	66.5
270.538	71.5
270.77	86.5
271.002	88.5
271.234	74.5
271.466	87.5
271.698	94.5
271.93	77.5
272.162	74.5
272.394	89.5
272.626	71.5
272.858	92.5
273.09	83.5
273.322	92.5
273.553	79.5
273.785	86.5
274.017	67.5
274.249	76.5
274.481	73.5
274.713	78.5
274.945	77.5
275.176	88.5
275.408	85.5
275.64	69.5
275.872	82.5
276.104	88.5
276.335	70.5
276.567	93.5
276.799	78.5
277.031	70.5
277.262	84.5
277.494	73.5
277.726	77.5
277.957	83.5
278.189	84.5
278.421	80.5
278.652	71.5
278.884	73.5
279.115	80.5
279.347	78.5
279.579	91.5
279.81	82.5
280.042	92.5
280.273	84.5
280.505	87.5
280.736	86.5
280.968	82.5
281.199	65.5
281.431	72.5
281.662	84.5
281.894	85.5
282.125	90.5
282.356	84.5
282.588	89.5
282.819	82.5
283.051	95.5
283.282	87.5
283.513	73.5
283.745	78.5
283.976	64.5
284.207	59.5
284.439	75.5
284.67	81.5
284.901	73.5
285.132	81.5
285.364	68.5
285.595	76.5
285.826	95.5
286.057	71.5
286.288	72.5
286.52	80.5
286.751	86.5
286.982	67.5
287.213	75.5
287.444	83.5
287.675	75.5
287.906	84.5
288.138	82.5
288.369	83.5
288.6	86.5
288.831	76.5
289.062	79.5
289.293	82.5
289.524	74.5
289.755	84.5
289.986	90.5
290.217	72.5
290.448	75.5
290.679	73.5
290.91	97.5
291.141	78.5
291.371	80.5
291.602	81.5
291.833	80.5
292.064	95.5
292.295	73.5
292.526	84.5
292.757	85.5
292.987	82.5
293.218	77.5
293.449	79.5
293.68	83.5
293.91	79.5
294.141	86.5
294.372	81.5
294.603	83.5
294.833	77.5
295.064	87.5
295.295	101.5
295.525	79.5
295.756	79.5
295.987	74.5
296.217	78.5
296.448	83.5
296.679	101.5
296.909	97.5
297.14	80.5
297.37	74.5
297.601	72.5
297.831	86.5
298.062	79.5
298.292	82.5
298.523	92.5
298.753	89.5
298.984	82.5
299.214	83.5
299.445	76.5
299.675	80.5
299.905	81.5
300.136	85.5
300.366	99.5
300.597	86.5
300.827	72.5
301.057	82.5
301.288	84.5
301.518	85.5
301.748	83.5
301.979	104.5
302.209	79.5
302.439	74.5
302.669	88.5
302.9	83.5
303.13	67.5
303.36	82.5
303.59	90.5
303.82	73.5
304.051	82.5
304.281	91.5
304.511	83.5
304.741	78.5
304.971	78.5
305.201	69.5
305.431	89.5
305.661	83.5
305.891	95.5
306.121	74.5
306.352	82.5
306.582	82.5
306.812	86.5
307.042	95.5
307.272	88.5
307.502	94.5
307.731	88.5
307.961	76.5
308.191	74.5
308.421	104.5
308.651	88.5
308.881	91.5
309.111	103.5
309.341	92.5
309.571	97.5
309.8	84.5
310.03	88.5
310.26	85.5
310.49	89.5
310.72	74.5
310.949	87.5
311.179	80.5
311.409	82.5
311.639	70.5
311.868	78.5
312.098	77.5
312.328	91.5
312.557	91.5
312.787	86.5
313.017	81.5
313.246	77.5
313.476	71.5
313.706	72.5
313.935	77.5
314.165	78.5
314.394	78.5
314.624	77.5
314.853	92.5
315.083	82.5
315.312	86.5
315.542	72.5
315.771	86.5
316.001	77.5
316.23	77.5
316.46	73.5
316.689	87.5
316.919	81.5
317.148	75.5
317.377	74.5
317.607	87.5
317.836	81.5
318.065	88.5
318.295	75.5
318.524	70.5
318.753	84.5
318.983	83.5
319.212	65.5
319.441	80.5
319.67	62.5
319.9	75.5
320.129	80.5
320.358	83.5
320.587	88.5
320.816	79.5
321.046	78.5
321.275	87.5
321.504	76.5
321.733	73.5
321.962	79.5
322.191	90.5
322.42	91.5
322.649	88.5
322.878	99.5
323.108	81.5
323.337	76.5
323.566	88.5
323.795	87.5
324.024	86.5
324.253	83.5
324.482	81.5
324.71	83.5
324.939	88.5
325.168	75.5
325.397	76.5
325.626	83.5
325.855	91.5
326.084	77.5
326.313	73.5
326.542	64.5
326.77	77.5
326.999	94.5
327.228	80.5
327.457	75.5
327.686	88.5
327.914	90.5
328.143	91.5
328.372	82.5
328.6	86.5
328.829	94.5
329.058	84.5
329.287	91.5
329.515	89.5
329.744	82.5
329.972	74.5
330.201	78.5
330.43	73.5
330.658	88.5
330.887	95.5
331.115	95.5
331.344	91.5
331.572	88.5
331.801	85.5
332.03	98.5
332.258	80.5
332.486	76.5
332.715	83.5
332.943	81.5
333.172	86.5
333.4	80.5
333.629	96.5
333.857	74.5
334.085	75.5
334.314	89.5
334.542	80.5
334.771	82.5
334.999	90.5
335.227	89.5
335.455	83.5
335.684	75.5
335.912	77.5
336.14	85.5
336.369	60.5
336.597	82.5
336.825	94.5
337.053	83.5
337.281	80.5
337.51	90.5
337.738	74.5
337.966	73.5
338.194	72.5
338.422	74.5
338.65	78.5
338.878	67.5
339.106	89.5
339.334	87.5
339.562	85.5
339.79	70.5
340.018	85.5
340.246	76.5
340.474	88.5
340.702	77.5
340.93	84.5
341.158	83.5
341.386	74.5
341.614	84.5
341.842	82.5
342.07	78.5
342.298	83.5
342.526	91.5
342.754	88.5
342.981	85.5
343.209	82.5
343.437	87.5
343.665	98.5
343.893	83.5
344.12	87.5
344.348	82.5
344.576	75.5
344.804	79.5
345.031	79.5
345.259	84.5
345.487	60.5
345.714	82.5
345.942	73.5
346.17	77.5
346.397	78.5
346.625	88.5
346.853	81.5
347.08	83.5
347.308	80.5
347.535	72.5
347.763	70.5
347.99	77.5
348.218	82.5
348.445	72.5
348.673	77.5
348.9	78.5
349.128	94.5
349.355	80.5
349.583	79.5
349.81	96.5
350.037	88.5
350.265	82.5
350.492	83.5
350.72	88.5
350.947	80.5
351.174	82.5
351.402	77.5
351.629	80.5
351.856	75.5
352.083	81.5
352.311	89.5
352.538	81.5
352.765	76.5
352.992	72.5
353.22	90.5
353.447	95.5
353.674	91.5
353.901	95.5
354.128	74.5
354.355	82.5
354.583	64.5
354.81	85.5
355.037	80.5
355.264	86.5
355.491	84.5
355.718	86.5
355.945	80.5
356.172	81.5
356.399	75.5
356.626	70.5
356.853	76.5
357.08	82.5
357.307	78.5
357.534	94.5
357.761	79.5
357.988	85.5
358.215	76.5
358.441	88.5
358.668	76.5
358.895	88.5
359.122	87.5
359.349	87.5
359.576	83.5
359.802	69.5
360.029	75.5
360.256	86.5
360.483	85.5
360.709	73.5
360.936	99.5
361.163	94.5
361.39	92.5
361.616	82.5
361.843	71.5
362.07	75.5
362.296	68.5
362.523	78.5
362.749	75.5
362.976	84.5
363.203	81.5
363.429	76.5
363.656	92.5
363.882	96.5
364.109	84.5
364.335	76.5
364.562	64.5
364.788	74.5
365.015	73.5
365.241	95.5
365.468	84.5
365.694	86.5
365.92	74.5
366.147	73.5
366.373	76.5
366.599	70.5
366.826	76.5
367.052	76.5
367.278	80.5
367.505	59.5
367.731	84.5
367.957	75.5
368.184	82.5
368.41	89.5
368.636	84.5
368.862	91.5
369.089	73.5
369.315	90.5
369.541	76.5
369.767	82.5
369.993	66.5
370.219	86.5
370.445	73.5
370.672	69.5
370.898	79.5
371.124	98.5
371.35	83.5
371.576	72.5
371.802	96.5
372.028	83.5
372.254	76.5
372.48	80.5
372.706	74.5
372.932	67.5
373.158	82.5
373.384	84.5
373.61	87.5
373.835	86.5
374.061	74.5
374.287	80.5
374.513	74.5
374.739	86.5
374.965	82.5
375.191	82.5
375.416	84.5
375.642	80.5
375.868	88.5
376.094	97.5
376.319	87.5
376.545	78.5
376.771	74.5
376.997	75.5
377.222	84.5
377.448	76.5
377.674	91.5
377.899	70.5
378.125	76.5
378.35	89.5
378.576	70.5
378.802	84.5
379.027	84.5
379.253	77.5
379.478	81.5
379.704	84.5
379.929	61.5
380.155	93.5
380.38	81.5
380.606	88.5
380.831	75.5
381.057	95.5
381.282	89.5
381.507	101.5
381.733	69.5
381.958	78.5
382.184	80.5
382.409	70.5
382.634	80.5
382.86	70.5
383.085	90.5
383.31	96.5
383.535	86.5
383.761	85.5
383.986	93.5
384.211	57.5
384.436	87.5
384.662	82.5
384.887	79.5
385.112	68.5
385.337	85.5
385.562	74.5
385.787	92.5
386.013	79.5
386.238	84.5
386.463	80.5
386.688	94.5
386.913	82.5
387.138	87.5
387.363	69.5
387.588	67.5
387.813	84.5
388.038	87.5
388.263	90.5
388.488	67.5
388.713	82.5
388.938	79.5
389.163	74.5
389.387	79.5
389.612	100.5
389.837	77.5
390.062	68.5
390.287	87.5
390.512	86.5
390.736	84.5
390.961	75.5
391.186	88.5
391.411	82.5
391.636	80.5
391.86	84.5
392.085	79.5
392.31	92.5
392.534	78.5
392.759	87.5
392.984	86.5
393.208	88.5
393.433	83.5
393.658	81.5
393.882	73.5
394.107	99.5
394.331	105.5
394.556	136.5
394.78	100.5
395.005	95.5
395.229	94.5
395.454	74.5
395.678	79.5
395.903	117.5
396.127	143.5
396.352	137.5
396.576	101.5
396.801	71.5
397.025	77.5
397.249	85.5
397.474	88.5
397.698	77.5
397.922	81.5
398.147	81.5
398.371	80.5
398.595	82.5
398.82	77.5
399.044	66.5
399.268	81.5
399.492	99.5
399.717	84.5
399.941	78.5
400.165	74.5
400.389	67.5
400.613	82.5
400.837	81.5
401.062	85.5
401.286	76.5
401.51	71.5
401.734	74.5
401.958	80.5
402.182	73.5
402.406	77.5
402.63	79.5
402.854	80.5
403.078	79.5
403.302	92.5
403.526	88.5
403.75	89.5
403.974	82.5
404.198	76.5
404.422	83.5
404.645	80.5
404.869	77.5
405.093	64.5
405.317	73.5
405.541	84.5
405.765	74.5
405.988	81.5
406.212	69.5
406.436	83.5
406.66	84.5
406.883	96.5
407.107	69.5
407.331	83.5
407.555	84.5
407.778	75.5
408.002	75.5
408.226	87.5
408.449	74.5
408.673	74.5
408.896	87.5
409.12	68.5
409.344	86.5
409.567	71.5
409.791	79.5
410.014	94.5
410.238	82.5
410.461	77.5
410.685	88.5
410.908	82.5
411.132	71.5
411.355	82.5
411.578	70.5
411.802	85.5
412.025	82.5
412.249	83.5
412.472	78.5
412.695	76.5
412.919	74.5
413.142	88.5
413.365	86.5
413.589	70.5
413.812	83.5
414.035	74.5
414.258	77.5
414.482	75.5
414.705	92.5
414.928	72.5
415.151	63.5
415.374	82.5
415.597	66.5
415.821	82.5
416.044	88.5
416.267	83.5
416.49	95.5
416.713	69.5
416.936	78.5
417.159	88.5
417.382	81.5
417.605	74.5
417.828	81.5
418.051	77.5
418.274	80.5
418.497	88.5
418.72	92.5
418.943	86.5
419.166	90.5
419.389	81.5
419.611	90.5
419.834	83.5
420.057	80.5
420.28	77.5
420.503	89.5
420.726	76.5
420.948	86.5
421.171	88.5
421.394	81.5
421.617	62.5
421.839	88.5
422.062	72.5
422.285	74.5
422.507	96.5
422.73	91.5
422.953	82.5
423.175	85.5
423.398	73.5
423.621	68.5
423.843	83.5
424.066	67.5
424.288	84.5
424.511	82.5
424.733	76.5
424.956	83.5
425.178	78.5
425.401	81.5
425.623	88.5
425.846	98.5
426.068	69.5
426.291	70.5
426.513	78.5
426.735	76.5
426.958	73.5
427.18	74.5
427.402	91.5
427.625	86.5
427.847	77.5
428.069	81.5
428.292	73.5
428.514	66.5
428.736	82.5
428.958	76.5
429.181	76.5
429.403	67.5
429.625	82.5
429.847	74.5
430.069	74.5
430.292	75.5
430.514	75.5
430.736	83.5
430.958	81.5
431.18	59.5
431.402	77.5
431.624	82.5
431.846	87.5
432.068	72.5
432.29	75.5
432.512	72.5
432.734	92.5
432.956	76.5
433.178	87.5
433.4	81.5
433.622	90.5
433.844	94.5
434.066	85.5
434.287	67.5
434.509	78.5
434.731	74.5
434.953	82.5
435.175	74.5
435.397	96.5
435.618	82.5
435.84	78.5
436.062	70.5
436.284	78.5
436.505	93.5
436.727	67.5
436.949	84.5
437.17	82.5
437.392	76.5
437.614	76.5
437.835	87.5
438.057	88.5
438.278	66.5
438.5	99.5
438.721	78.5
438.943	76.5
439.165	76.5
439.386	92.5
439.608	73.5
439.829	83.5
440.05	90.5
440.272	87.5
440.493	81.5
440.715	74.5
440.936	89.5
441.158	84.5
441.379	71.5
441.6	83.5
441.822	74.5
442.043	79.5
442.264	72.5
442.486	80.5
442.707	76.5
442.928	72.5
443.149	84.5
443.371	72.5
443.592	77.5
443.813	83.5
444.034	75.5
444.255	76.5
444.476	75.5
444.698	84.5
444.919	75.5
445.14	152.5
445.361	114.5
445.582	90.5
445.803	75.5
446.024	66.5
446.245	97.5
446.466	85.5
446.687	84.5
446.908	78.5
447.129	88.5
447.35	80.5
447.571	83.5
447.792	73.5
448.013	77.5
448.234	86.5
448.455	76.5
448.675	79.5
448.896	86.5
449.117	88.5
449.338	74.5
449.559	90.5
449.779	88.5
450	73.5
450.221	84.5
450.442	88.5
450.662	78.5
450.883	63.5
451.104	81.5
451.324	97.5
451.545	82.5
451.766	68.5
451.986	74.5
452.207	80.5
452.428	85.5
452.648	91.5
452.869	74.5
453.089	90.5
453.31	88.5
453.53	81.5
453.751	91.5
453.971	66.5
454.192	93.5
454.412	83.5
454.633	72.5
454.853	66.5
455.073	88.5
455.294	83.5
455.514	94.5
455.734	78.5
455.955	76.5
456.175	66.5
456.395	91.5
456.616	99.5
456.836	80.5
457.056	78.5
457.276	84.5
457.497	91.5
457.717	87.5
457.937	84.5
458.157	82.5
458.377	82.5
458.598	85.5
458.818	82.5
459.038	79.5
459.258	82.5
459.478	69.5
459.698	84.5
459.918	74.5
460.138	79.5
460.358	76.5
460.578	72.5
460.798	91.5
461.018	86.5
461.238	84.5
461.458	91.5
461.678	80.5
461.898	93.5
462.118	70.5
462.338	94.5
462.558	84.5
462.777	82.5
462.997	84.5
463.217	93.5
463.437	86.5
463.657	86.5
463.876	77.5
464.096	67.5
464.316	98.5
464.536	71.5
464.755	75.5
464.975	85.5
465.195	91.5
465.414	85.5
465.634	89.5
465.854	71.5
466.073	68.5
466.293	81.5
466.512	77.5
466.732	82.5
466.951	71.5
467.171	77.5
467.391	82.5
467.61	76.5
467.829	88.5
468.049	78.5
468.268	80.5
468.488	81.5
468.707	75.5
468.927	76.5
469.146	86.5
469.365	94.5
469.585	85.5
469.804	79.5
470.023	96.5
470.243	92.5
470.462	91.5
470.681	78.5
470.901	86.5
471.12	85.5
471.339	84.5
471.558	82.5
471.777	82.5
471.997	78.5
472.216	79.5
472.435	72.5
472.654	81.5
472.873	82.5
473.092	88.5
473.311	81.5
473.53	60.5
473.749	81.5
473.968	93.5
474.187	69.5
474.406	82.5
474.625	79.5
474.844	85.5
475.063	83.5
475.282	74.5
475.501	73.5
475.72	73.5
475.939	77.5
476.158	71.5
476.377	90.5
476.596	82.5
476.814	80.5
477.033	84.5
477.252	71.5
477.471	88.5
477.69	82.5
477.908	79.5
478.127	94.5
478.346	82.5
478.564	83.5
478.783	78.5
479.002	85.5
479.22	74.5
479.439	83.5
479.658	80.5
479.876	78.5
480.095	84.5
480.313	85.5
480.532	88.5
480.751	94.5
480.969	87.5
481.188	76.5
481.406	88.5
481.624	62.5
481.843	90.5
482.061	81.5
482.28	64.5
482.498	59.5
482.717	78.5
482.935	72.5
483.153	72.5
483.372	77.5
483.59	87.5
483.808	88.5
484.027	84.5
484.245	96.5
484.463	84.5
484.681	97.5
484.9	73.5
485.118	86.5
485.336	71.5
485.554	83.5
485.772	74.5
485.99	88.5
486.209	88.5
486.427	88.5
486.645	90.5
486.863	83.5
487.081	89.5
487.299	81.5
487.517	77.5
487.735	79.5
487.953	59.5
488.171	77.5
488.389	77.5
488.607	64.5
488.825	78.5
489.043	84.5
489.261	88.5
489.479	81.5
489.696	82.5
489.914	75.5
490.132	83.5
490.35	90.5
490.568	75.5
490.786	72.5
491.003	84.5
491.221	90.5
491.439	86.5
491.657	67.5
491.874	64.5
492.092	88.5
492.31	66.5
492.527	94.5
492.745	90.5
492.963	84.5
493.18	78.5
493.398	85.5
493.615	100.5
493.833	94.5
494.05	94.5
494.268	86.5
494.485	71.5
494.703	90.5
494.92	99.5
495.138	93.5
495.355	71.5
495.573	88.5
495.79	78.5
496.008	79.5
496.225	69.5
496.442	86.5
496.66	100.5
496.877	76.5
497.094	82.5
497.312	72.5
497.529	84.5
497.746	75.5
497.963	75.5
498.181	80.5
498.398	92.5
498.615	91.5
498.832	79.5
499.049	104.5
499.267	94.5
499.484	80.5
499.701	75.5
499.918	80.5
500.135	84.5
500.352	95.5
500.569	84.5
500.786	88.5
501.003	80.5
501.22	80.5
501.437	86.5
501.654	76.5
501.871	91.5
502.088	74.5
502.305	76.5
502.522	87.5
502.739	104.5
502.956	84.5
503.172	97.5
503.389	86.5
503.606	90.5
503.823	92.5
504.04	70.5
504.256	83.5
504.473	66.5
504.69	83.5
504.907	94.5
505.123	84.5
505.34	74.5
505.557	90.5
505.773	89.5
505.99	83.5
506.207	89.5
506.423	80.5
506.64	74.5
506.856	67.5
507.073	83.5
507.289	79.5
507.506	72.5
507.722	96.5
507.939	89.5
508.155	87.5
508.372	92.5
508.588	74.5
508.805	90.5
509.021	86.5
509.238	92.5
509.454	87.5
509.67	79.5
509.887	76.5
510.103	69.5
510.319	77.5
510.536	79.5
510.752	77.5
510.968	79.5
511.184	90.5
511.401	78.5
511.617	76.5
511.833	76.5
512.049	83.5
512.265	75.5
512.481	74.5
512.698	88.5
512.914	103.5
513.13	92.5
513.346	74.5
513.562	70.5
513.778	85.5
513.994	82.5
514.21	86.5
514.426	81.5
514.642	86.5
514.858	76.5
515.074	79.5
515.29	81.5
515.506	80.5
515.721	76.5
515.937	85.5
516.153	82.5
516.369	73.5
516.585	93.5
516.801	82.5
517.016	86.5
517.232	63.5
517.448	89.5
517.664	97.5
517.879	83.5
518.095	81.5
518.311	74.5
518.527	82.5
518.742	86.5
518.958	77.5
519.173	89.5
519.389	85.5
519.605	68.5
519.82	88.5
520.036	91.5
520.251	80.5
520.467	62.5
520.682	94.5
520.898	87.5
521.113	92.5
521.329	76.5
521.544	78.5
521.76	86.5
521.975	77.5
522.19	80.5
522.406	95.5
522.621	85.5
522.836	76.5
523.052	84.5
523.267	84.5
523.482	80.5
523.698	75.5
523.913	74.5
524.128	75.5
524.343	73.5
524.559	84.5
524.774	58.5
524.989	82.5
525.204	78.5
525.419	60.5
525.634	80.5
525.849	78.5
526.064	80.5
526.28	80.5
526.495	70.5
526.71	80.5
526.925	82.5
527.14	75.5
527.355	78.5
527.57	69.5
527.785	88.5
527.999	77.5
528.214	80.5
528.429	78.5
528.644	77.5
528.859	93.5
529.074	70.5
529.289	63.5
529.503	83.5
529.718	82.5
529.933	76.5
530.148	81.5
530.363	90.5
530.577	72.5
530.792	80.5
531.007	70.5
531.221	78.5
531.436	74.5
531.651	84.5
531.865	73.5
532.08	81.5
532.295	86.5
532.509	84.5
532.724	74.5
532.938	83.5
533.153	74.5
533.367	74.5
533.582	84.5
533.796	86.5
534.011	69.5
534.225	81.5
534.44	94.5
534.654	89.5
534.868	76.5
535.083	76.5
535.297	93.5
535.511	78.5
535.726	83.5
535.94	65.5
536.154	75.5
536.369	90.5
536.583	77.5
536.797	69.5
537.011	81.5
537.225	84.5
537.44	79.5
537.654	88.5
537.868	78.5
538.082	83.5
538.296	70.5
538.51	72.5
538.724	84.5
538.938	81.5
539.153	93.5
539.367	89.5
539.581	79.5
539.795	86.5
540.009	83.5
540.222	75.5
