Data from Coke_Can_Side_HRD10591_00019.txt Node
Date: Wed Nov 05 15:42:16 EST 2025
User: Yrep
Spectrometer: HR+D1059
Trigger mode: 1
Integration Time (sec): 1.000000E-1
Scans to average: 1
Electric dark correction enabled: true
Nonlinearity correction enabled: false
Boxcar width: 0
XAxis mode: Wavelengths
Number of Pixels in Spectrum: 2048
>>>>>Begin Spectral Data<<<<<
223.165	-13.62
223.4	-13.62
223.635	-13.62
223.869	-21.62
224.104	4.38
224.338	-27.62
224.573	-25.62
224.808	-6.62
225.042	-7.62
225.277	-5.62
225.511	-5.62
225.746	11.38
225.98	6.38
226.215	14.38
226.449	13.38
226.683	22.38
226.918	20.38
227.152	21.38
227.387	32.38
227.621	45.38
227.856	35.38
228.09	35.38
228.324	53.38
228.559	52.38
228.793	56.38
229.027	62.38
229.262	61.38
229.496	65.38
229.73	68.38
229.964	54.38
230.199	66.38
230.433	78.38
230.667	86.38
230.901	68.38
231.136	74.38
231.37	84.38
231.604	77.38
231.838	69.38
232.072	79.38
232.306	72.38
232.541	79.38
232.775	84.38
233.009	85.38
233.243	85.38
233.477	91.38
233.711	72.38
233.945	72.38
234.179	95.38
234.413	65.38
234.647	76.38
234.881	76.38
235.115	82.38
235.349	80.38
235.583	84.38
235.817	73.38
236.051	68.38
236.285	72.38
236.519	77.38
236.753	78.38
236.987	80.38
237.221	67.38
237.455	59.38
237.689	81.38
237.922	69.38
238.156	79.38
238.39	72.38
238.624	76.38
238.858	76.38
239.091	91.38
239.325	79.38
239.559	71.38
239.793	76.38
240.027	75.38
240.26	73.38
240.494	84.38
240.728	62.38
240.961	73.38
241.195	74.38
241.429	87.38
241.662	72.38
241.896	79.38
242.13	70.38
242.363	83.38
242.597	75.38
242.83	75.38
243.064	88.38
243.298	64.38
243.531	73.38
243.765	76.38
243.998	69.38
244.232	59.38
244.465	80.38
244.699	75.38
244.932	80.38
245.166	80.38
245.399	75.38
245.633	78.38
245.866	83.38
246.099	79.38
246.333	69.38
246.566	62.38
246.8	73.38
247.033	82.38
247.266	91.38
247.5	70.38
247.733	79.38
247.966	76.38
248.2	70.38
248.433	79.38
248.666	68.38
248.899	62.38
249.133	66.38
249.366	85.38
249.599	74.38
249.832	83.38
250.066	75.38
250.299	89.38
250.532	79.38
250.765	90.38
250.998	75.38
251.231	80.38
251.465	85.38
251.698	81.38
251.931	90.38
252.164	98.38
252.397	78.38
252.63	81.38
252.863	85.38
253.096	85.38
253.329	91.38
253.562	84.38
253.795	75.38
254.028	68.38
254.261	78.38
254.494	79.38
254.727	80.38
254.96	88.38
255.193	81.38
255.426	77.38
255.659	86.38
255.892	84.38
256.124	89.38
256.357	84.38
256.59	84.38
256.823	84.38
257.056	77.38
257.289	88.38
257.521	78.38
257.754	82.38
257.987	72.38
258.22	87.38
258.452	88.38
258.685	84.38
258.918	83.38
259.151	74.38
259.383	75.38
259.616	76.38
259.849	75.38
260.081	69.38
260.314	77.38
260.547	76.38
260.779	82.38
261.012	83.38
261.244	72.38
261.477	74.38
261.71	83.38
261.942	93.38
262.175	80.38
262.407	81.38
262.64	64.38
262.872	84.38
263.105	72.38
263.337	73.38
263.57	71.38
263.802	91.38
264.035	90.38
264.267	89.38
264.499	86.38
264.732	89.38
264.964	84.38
265.197	85.38
265.429	79.38
265.661	85.38
265.894	71.38
266.126	90.38
266.358	75.38
266.591	89.38
266.823	89.38
267.055	85.38
267.287	76.38
267.52	70.38
267.752	85.38
267.984	90.38
268.216	66.38
268.448	92.38
268.681	100.38
268.913	90.38
269.145	85.38
269.377	91.38
269.609	84.38
269.841	73.38
270.073	84.38
270.306	82.38
270.538	88.38
270.77	101.38
271.002	86.38
271.234	82.38
271.466	89.38
271.698	72.38
271.93	78.38
272.162	79.38
272.394	90.38
272.626	85.38
272.858	86.38
273.09	78.38
273.322	86.38
273.553	92.38
273.785	88.38
274.017	74.38
274.249	78.38
274.481	92.38
274.713	90.38
274.945	77.38
275.176	78.38
275.408	79.38
275.64	89.38
275.872	82.38
276.104	86.38
276.335	87.38
276.567	101.38
276.799	83.38
277.031	93.38
277.262	74.38
277.494	75.38
277.726	64.38
277.957	86.38
278.189	82.38
278.421	91.38
278.652	100.38
278.884	69.38
279.115	71.38
279.347	91.38
279.579	85.38
279.81	85.38
280.042	88.38
280.273	85.38
280.505	88.38
280.736	85.38
280.968	72.38
281.199	88.38
281.431	90.38
281.662	80.38
281.894	94.38
282.125	83.38
282.356	90.38
282.588	86.38
282.819	88.38
283.051	79.38
283.282	84.38
283.513	90.38
283.745	80.38
283.976	77.38
284.207	78.38
284.439	87.38
284.67	92.38
284.901	88.38
285.132	93.38
285.364	74.38
285.595	100.38
285.826	87.38
286.057	84.38
286.288	78.38
286.52	91.38
286.751	90.38
286.982	84.38
287.213	88.38
287.444	77.38
287.675	88.38
287.906	76.38
288.138	85.38
288.369	79.38
288.6	93.38
288.831	84.38
289.062	66.38
289.293	84.38
289.524	84.38
289.755	84.38
289.986	92.38
290.217	81.38
290.448	77.38
290.679	78.38
290.91	77.38
291.141	84.38
291.371	88.38
291.602	95.38
291.833	84.38
292.064	78.38
292.295	68.38
292.526	83.38
292.757	81.38
292.987	79.38
293.218	88.38
293.449	83.38
293.68	86.38
293.91	98.38
294.141	88.38
294.372	86.38
294.603	97.38
294.833	83.38
295.064	88.38
295.295	84.38
295.525	72.38
295.756	77.38
295.987	94.38
296.217	93.38
296.448	68.38
296.679	73.38
296.909	82.38
297.14	76.38
297.37	90.38
297.601	89.38
297.831	72.38
298.062	91.38
298.292	96.38
298.523	76.38
298.753	79.38
298.984	83.38
299.214	90.38
299.445	82.38
299.675	81.38
299.905	72.38
300.136	77.38
300.366	80.38
300.597	82.38
300.827	63.38
301.057	85.38
301.288	74.38
301.518	92.38
301.748	85.38
301.979	102.38
302.209	92.38
302.439	86.38
302.669	79.38
302.9	81.38
303.13	77.38
303.36	75.38
303.59	83.38
303.82	91.38
304.051	80.38
304.281	90.38
304.511	81.38
304.741	92.38
304.971	68.38
305.201	82.38
305.431	90.38
305.661	81.38
305.891	92.38
306.121	84.38
306.352	79.38
306.582	75.38
306.812	80.38
307.042	78.38
307.272	73.38
307.502	84.38
307.731	86.38
307.961	97.38
308.191	107.38
308.421	102.38
308.651	88.38
308.881	86.38
309.111	93.38
309.341	104.38
309.571	96.38
309.8	94.38
310.03	84.38
310.26	78.38
310.49	84.38
310.72	78.38
310.949	85.38
311.179	87.38
311.409	76.38
311.639	92.38
311.868	79.38
312.098	88.38
312.328	84.38
312.557	84.38
312.787	85.38
313.017	82.38
313.246	86.38
313.476	87.38
313.706	76.38
313.935	76.38
314.165	82.38
314.394	61.38
314.624	88.38
314.853	100.38
315.083	82.38
315.312	86.38
315.542	82.38
315.771	84.38
316.001	75.38
316.23	82.38
316.46	86.38
316.689	88.38
316.919	85.38
317.148	90.38
317.377	86.38
317.607	88.38
317.836	84.38
318.065	92.38
318.295	98.38
318.524	95.38
318.753	86.38
318.983	79.38
319.212	91.38
319.441	76.38
319.67	78.38
319.9	75.38
320.129	89.38
320.358	81.38
320.587	84.38
320.816	78.38
321.046	99.38
321.275	85.38
321.504	90.38
321.733	91.38
321.962	93.38
322.191	91.38
322.42	97.38
322.649	68.38
322.878	86.38
323.108	82.38
323.337	81.38
323.566	87.38
323.795	101.38
324.024	87.38
324.253	85.38
324.482	84.38
324.71	83.38
324.939	76.38
325.168	85.38
325.397	90.38
325.626	81.38
325.855	83.38
326.084	74.38
326.313	78.38
326.542	72.38
326.77	93.38
326.999	83.38
327.228	90.38
327.457	82.38
327.686	81.38
327.914	88.38
328.143	94.38
328.372	73.38
328.6	78.38
328.829	90.38
329.058	93.38
329.287	85.38
329.515	80.38
329.744	78.38
329.972	78.38
330.201	91.38
330.43	96.38
330.658	93.38
330.887	84.38
331.115	83.38
331.344	84.38
331.572	90.38
331.801	81.38
332.03	90.38
332.258	72.38
332.486	80.38
332.715	72.38
332.943	77.38
333.172	89.38
333.4	79.38
333.629	71.38
333.857	93.38
334.085	84.38
334.314	94.38
334.542	96.38
334.771	88.38
334.999	63.38
335.227	73.38
335.455	84.38
335.684	101.38
335.912	99.38
336.14	83.38
336.369	96.38
336.597	84.38
336.825	92.38
337.053	70.38
337.281	70.38
337.51	81.38
337.738	77.38
337.966	92.38
338.194	91.38
338.422	86.38
338.65	93.38
338.878	76.38
339.106	82.38
339.334	86.38
339.562	71.38
339.79	82.38
340.018	79.38
340.246	95.38
340.474	86.38
340.702	84.38
340.93	89.38
341.158	83.38
341.386	77.38
341.614	80.38
341.842	85.38
342.07	100.38
342.298	68.38
342.526	84.38
342.754	83.38
342.981	77.38
343.209	83.38
343.437	88.38
343.665	84.38
343.893	85.38
344.12	94.38
344.348	82.38
344.576	85.38
344.804	70.38
345.031	72.38
345.259	69.38
345.487	85.38
345.714	84.38
345.942	76.38
346.17	66.38
346.397	94.38
346.625	76.38
346.853	86.38
347.08	84.38
347.308	76.38
347.535	81.38
347.763	83.38
347.99	83.38
348.218	94.38
348.445	74.38
348.673	76.38
348.9	93.38
349.128	94.38
349.355	87.38
349.583	81.38
349.81	80.38
350.037	85.38
350.265	95.38
350.492	74.38
350.72	83.38
350.947	90.38
351.174	91.38
351.402	78.38
351.629	77.38
351.856	77.38
352.083	72.38
352.311	79.38
352.538	76.38
352.765	85.38
352.992	82.38
353.22	84.38
353.447	79.38
353.674	88.38
353.901	82.38
354.128	83.38
354.355	84.38
354.583	86.38
354.81	75.38
355.037	82.38
355.264	74.38
355.491	84.38
355.718	82.38
355.945	101.38
356.172	101.38
356.399	85.38
356.626	98.38
356.853	94.38
357.08	84.38
357.307	83.38
357.534	90.38
357.761	82.38
357.988	90.38
358.215	78.38
358.441	88.38
358.668	91.38
358.895	86.38
359.122	88.38
359.349	72.38
359.576	84.38
359.802	90.38
360.029	88.38
360.256	107.38
360.483	96.38
360.709	82.38
360.936	87.38
361.163	89.38
361.39	83.38
361.616	75.38
361.843	71.38
362.07	75.38
362.296	68.38
362.523	66.38
362.749	72.38
362.976	70.38
363.203	81.38
363.429	78.38
363.656	98.38
363.882	97.38
364.109	84.38
364.335	88.38
364.562	91.38
364.788	86.38
365.015	76.38
365.241	68.38
365.468	90.38
365.694	84.38
365.92	81.38
366.147	83.38
366.373	77.38
366.599	75.38
366.826	77.38
367.052	92.38
367.278	75.38
367.505	80.38
367.731	66.38
367.957	66.38
368.184	83.38
368.41	76.38
368.636	73.38
368.862	89.38
369.089	72.38
369.315	90.38
369.541	92.38
369.767	68.38
369.993	66.38
370.219	77.38
370.445	84.38
370.672	97.38
370.898	90.38
371.124	71.38
371.35	74.38
371.576	86.38
371.802	82.38
372.028	64.38
372.254	90.38
372.48	80.38
372.706	82.38
372.932	89.38
373.158	85.38
373.384	56.38
373.61	87.38
373.835	81.38
374.061	70.38
374.287	61.38
374.513	68.38
374.739	84.38
374.965	84.38
375.191	91.38
375.416	87.38
375.642	75.38
375.868	83.38
376.094	86.38
376.319	88.38
376.545	75.38
376.771	80.38
376.997	65.38
377.222	74.38
377.448	72.38
377.674	85.38
377.899	80.38
378.125	84.38
378.35	72.38
378.576	76.38
378.802	74.38
379.027	74.38
379.253	82.38
379.478	77.38
379.704	68.38
379.929	85.38
380.155	86.38
380.38	78.38
380.606	71.38
380.831	79.38
381.057	88.38
381.282	85.38
381.507	86.38
381.733	91.38
381.958	76.38
382.184	88.38
382.409	85.38
382.634	77.38
382.86	64.38
383.085	79.38
383.31	81.38
383.535	85.38
383.761	73.38
383.986	84.38
384.211	90.38
384.436	79.38
384.662	90.38
384.887	80.38
385.112	78.38
385.337	87.38
385.562	84.38
385.787	69.38
386.013	87.38
386.238	87.38
386.463	91.38
386.688	100.38
386.913	71.38
387.138	76.38
387.363	69.38
387.588	85.38
387.813	80.38
388.038	85.38
388.263	87.38
388.488	74.38
388.713	75.38
388.938	90.38
389.163	89.38
389.387	73.38
389.612	78.38
389.837	85.38
390.062	87.38
390.287	74.38
390.512	75.38
390.736	75.38
390.961	77.38
391.186	74.38
391.411	78.38
391.636	77.38
391.86	75.38
392.085	93.38
392.31	83.38
392.534	84.38
392.759	79.38
392.984	89.38
393.208	81.38
393.433	89.38
393.658	81.38
393.882	94.38
394.107	108.38
394.331	125.38
394.556	128.38
394.78	109.38
395.005	87.38
395.229	79.38
395.454	83.38
395.678	97.38
395.903	118.38
396.127	154.38
396.352	148.38
396.576	89.38
396.801	80.38
397.025	78.38
397.249	80.38
397.474	88.38
397.698	71.38
397.922	78.38
398.147	89.38
398.371	84.38
398.595	90.38
398.82	89.38
399.044	77.38
399.268	68.38
399.492	77.38
399.717	84.38
399.941	82.38
400.165	79.38
400.389	84.38
400.613	79.38
400.837	90.38
401.062	77.38
401.286	72.38
401.51	84.38
401.734	77.38
401.958	86.38
402.182	101.38
402.406	81.38
402.63	74.38
402.854	86.38
403.078	94.38
403.302	85.38
403.526	89.38
403.75	85.38
403.974	80.38
404.198	94.38
404.422	96.38
404.645	90.38
404.869	82.38
405.093	77.38
405.317	70.38
405.541	86.38
405.765	83.38
405.988	77.38
406.212	83.38
406.436	82.38
406.66	79.38
406.883	91.38
407.107	89.38
407.331	83.38
407.555	86.38
407.778	78.38
408.002	79.38
408.226	72.38
408.449	73.38
408.673	88.38
408.896	78.38
409.12	82.38
409.344	84.38
409.567	81.38
409.791	78.38
410.014	74.38
410.238	84.38
410.461	81.38
410.685	81.38
410.908	84.38
411.132	67.38
411.355	69.38
411.578	90.38
411.802	78.38
412.025	92.38
412.249	86.38
412.472	69.38
412.695	87.38
412.919	76.38
413.142	76.38
413.365	76.38
413.589	92.38
413.812	78.38
414.035	77.38
414.258	77.38
414.482	73.38
414.705	87.38
414.928	81.38
415.151	84.38
415.374	84.38
415.597	80.38
415.821	79.38
416.044	90.38
416.267	82.38
416.49	73.38
416.713	72.38
416.936	86.38
417.159	92.38
417.382	88.38
417.605	73.38
417.828	72.38
418.051	82.38
418.274	92.38
418.497	68.38
418.72	85.38
418.943	86.38
419.166	72.38
419.389	84.38
419.611	86.38
419.834	73.38
420.057	99.38
420.28	78.38
420.503	78.38
420.726	84.38
420.948	86.38
421.171	85.38
421.394	90.38
421.617	72.38
421.839	86.38
422.062	94.38
422.285	74.38
422.507	68.38
422.73	85.38
422.953	87.38
423.175	89.38
423.398	82.38
423.621	77.38
423.843	84.38
424.066	74.38
424.288	93.38
424.511	80.38
424.733	74.38
424.956	95.38
425.178	70.38
425.401	79.38
425.623	68.38
425.846	79.38
426.068	78.38
426.291	72.38
426.513	76.38
426.735	77.38
426.958	84.38
427.18	84.38
427.402	84.38
427.625	85.38
427.847	70.38
428.069	89.38
428.292	85.38
428.514	93.38
428.736	88.38
428.958	84.38
429.181	80.38
429.403	78.38
429.625	87.38
429.847	74.38
430.069	82.38
430.292	93.38
430.514	86.38
430.736	76.38
430.958	77.38
431.18	79.38
431.402	76.38
431.624	79.38
431.846	69.38
432.068	74.38
432.29	67.38
432.512	62.38
432.734	80.38
432.956	78.38
433.178	78.38
433.4	72.38
433.622	90.38
433.844	92.38
434.066	78.38
434.287	85.38
434.509	73.38
434.731	74.38
434.953	83.38
435.175	86.38
435.397	84.38
435.618	84.38
435.84	71.38
436.062	86.38
436.284	82.38
436.505	84.38
436.727	76.38
436.949	74.38
437.17	82.38
437.392	80.38
437.614	76.38
437.835	92.38
438.057	78.38
438.278	81.38
438.5	73.38
438.721	76.38
438.943	76.38
439.165	84.38
439.386	82.38
439.608	84.38
439.829	70.38
440.05	96.38
440.272	76.38
440.493	92.38
440.715	73.38
440.936	79.38
441.158	84.38
441.379	75.38
441.6	84.38
441.822	92.38
442.043	89.38
442.264	89.38
442.486	78.38
442.707	75.38
442.928	71.38
443.149	77.38
443.371	93.38
443.592	87.38
443.813	70.38
444.034	72.38
444.255	89.38
444.476	78.38
444.698	69.38
444.919	69.38
445.14	173.38
445.361	116.38
445.582	86.38
445.803	82.38
446.024	75.38
446.245	96.38
446.466	78.38
446.687	79.38
446.908	78.38
447.129	96.38
447.35	77.38
447.571	70.38
447.792	75.38
448.013	80.38
448.234	88.38
448.455	88.38
448.675	83.38
448.896	86.38
449.117	80.38
449.338	80.38
449.559	84.38
449.779	89.38
450	72.38
450.221	75.38
450.442	87.38
450.662	82.38
450.883	81.38
451.104	79.38
451.324	68.38
451.545	96.38
451.766	85.38
451.986	87.38
452.207	80.38
452.428	65.38
452.648	68.38
452.869	72.38
453.089	78.38
453.31	67.38
453.53	87.38
453.751	90.38
453.971	70.38
454.192	79.38
454.412	84.38
454.633	96.38
454.853	79.38
455.073	84.38
455.294	82.38
455.514	72.38
455.734	74.38
455.955	80.38
456.175	82.38
456.395	89.38
456.616	81.38
456.836	65.38
457.056	78.38
457.276	76.38
457.497	66.38
457.717	76.38
457.937	90.38
458.157	74.38
458.377	73.38
458.598	85.38
458.818	74.38
459.038	82.38
459.258	77.38
459.478	67.38
459.698	71.38
459.918	82.38
460.138	88.38
460.358	82.38
460.578	78.38
460.798	75.38
461.018	83.38
461.238	82.38
461.458	81.38
461.678	89.38
461.898	84.38
462.118	84.38
462.338	75.38
462.558	100.38
462.777	75.38
462.997	86.38
463.217	75.38
463.437	72.38
463.657	78.38
463.876	74.38
464.096	78.38
464.316	83.38
464.536	66.38
464.755	84.38
464.975	78.38
465.195	79.38
465.414	85.38
465.634	99.38
465.854	85.38
466.073	75.38
466.293	84.38
466.512	86.38
466.732	80.38
466.951	71.38
467.171	84.38
467.391	89.38
467.61	86.38
467.829	70.38
468.049	89.38
468.268	80.38
468.488	73.38
468.707	72.38
468.927	77.38
469.146	82.38
469.365	83.38
469.585	74.38
469.804	76.38
470.023	82.38
470.243	82.38
470.462	87.38
470.681	84.38
470.901	76.38
471.12	81.38
471.339	68.38
471.558	86.38
471.777	70.38
471.997	67.38
472.216	87.38
472.435	85.38
472.654	84.38
472.873	88.38
473.092	92.38
473.311	88.38
473.53	75.38
473.749	82.38
473.968	91.38
474.187	90.38
474.406	92.38
474.625	76.38
474.844	74.38
475.063	79.38
475.282	84.38
475.501	83.38
475.72	90.38
475.939	78.38
476.158	64.38
476.377	86.38
476.596	82.38
476.814	82.38
477.033	78.38
477.252	86.38
477.471	90.38
477.69	80.38
477.908	68.38
478.127	90.38
478.346	76.38
478.564	90.38
478.783	64.38
479.002	84.38
479.22	76.38
479.439	90.38
479.658	70.38
479.876	78.38
480.095	79.38
480.313	112.38
480.532	88.38
480.751	77.38
480.969	82.38
481.188	87.38
481.406	80.38
481.624	74.38
481.843	87.38
482.061	73.38
482.28	76.38
482.498	88.38
482.717	84.38
482.935	84.38
483.153	85.38
483.372	70.38
483.59	77.38
483.808	74.38
484.027	78.38
484.245	73.38
484.463	77.38
484.681	93.38
484.9	87.38
485.118	86.38
485.336	88.38
485.554	84.38
485.772	80.38
485.99	83.38
486.209	76.38
486.427	79.38
486.645	76.38
486.863	80.38
487.081	82.38
487.299	74.38
487.517	87.38
487.735	86.38
487.953	84.38
488.171	98.38
488.389	91.38
488.607	87.38
488.825	91.38
489.043	91.38
489.261	99.38
489.479	96.38
489.696	96.38
489.914	84.38
490.132	91.38
490.35	98.38
490.568	60.38
490.786	90.38
491.003	91.38
491.221	77.38
491.439	88.38
491.657	77.38
491.874	95.38
492.092	90.38
492.31	92.38
492.527	82.38
492.745	88.38
492.963	82.38
493.18	86.38
493.398	94.38
493.615	81.38
493.833	84.38
494.05	73.38
494.268	100.38
494.485	88.38
494.703	84.38
494.92	90.38
495.138	74.38
495.355	84.38
495.573	87.38
495.79	74.38
496.008	84.38
496.225	94.38
496.442	92.38
496.66	87.38
496.877	78.38
497.094	88.38
497.312	89.38
497.529	91.38
497.746	76.38
497.963	76.38
498.181	73.38
498.398	75.38
498.615	97.38
498.832	74.38
499.049	66.38
499.267	79.38
499.484	84.38
499.701	94.38
499.918	84.38
500.135	87.38
500.352	79.38
500.569	85.38
500.786	92.38
501.003	86.38
501.22	97.38
501.437	88.38
501.654	84.38
501.871	84.38
502.088	77.38
502.305	93.38
502.522	82.38
502.739	90.38
502.956	89.38
503.172	73.38
503.389	80.38
503.606	78.38
503.823	82.38
504.04	80.38
504.256	78.38
504.473	67.38
504.69	91.38
504.907	84.38
505.123	74.38
505.34	82.38
505.557	74.38
505.773	78.38
505.99	78.38
506.207	86.38
506.423	71.38
506.64	82.38
506.856	82.38
507.073	85.38
507.289	86.38
507.506	72.38
507.722	85.38
507.939	86.38
508.155	86.38
508.372	77.38
508.588	84.38
508.805	84.38
509.021	79.38
509.238	72.38
509.454	79.38
509.67	80.38
509.887	77.38
510.103	84.38
510.319	73.38
510.536	87.38
510.752	78.38
510.968	100.38
511.184	86.38
511.401	76.38
511.617	74.38
511.833	81.38
512.049	77.38
512.265	79.38
512.481	81.38
512.698	79.38
512.914	97.38
513.13	104.38
513.346	89.38
513.562	90.38
513.778	92.38
513.994	94.38
514.21	79.38
514.426	91.38
514.642	82.38
514.858	80.38
515.074	86.38
515.29	74.38
515.506	74.38
515.721	79.38
515.937	80.38
516.153	85.38
516.369	76.38
516.585	68.38
516.801	84.38
517.016	104.38
517.232	87.38
517.448	81.38
517.664	79.38
517.879	74.38
518.095	61.38
518.311	96.38
518.527	92.38
518.742	71.38
518.958	76.38
519.173	82.38
519.389	82.38
519.605	96.38
519.82	82.38
