Data from Coke_Can_Side_HRD10591_00011.txt Node
Date: Wed Nov 05 15:42:12 EST 2025
User: Yrep
Spectrometer: HR+D1059
Trigger mode: 1
Integration Time (sec): 1.000000E-1
Scans to average: 1
Electric dark correction enabled: true
Nonlinearity correction enabled: false
Boxcar width: 0
XAxis mode: Wavelengths
Number of Pixels in Spectrum: 2048
>>>>>Begin Spectral Data<<<<<
223.165	-5
223.4	-5
223.635	-5
223.869	-22
224.104	-17
224.338	-25
224.573	-9
224.808	-1
225.042	-10
225.277	-8
225.511	-4
225.746	-7
225.98	-2
226.215	9
226.449	20
226.683	17
226.918	32
227.152	32
227.387	49
227.621	32
227.856	32
228.09	34
228.324	62
228.559	60
228.793	52
229.027	58
229.262	56
229.496	65
229.73	70
229.964	66
230.199	66
230.433	80
230.667	75
230.901	74
231.136	74
231.37	70
231.604	74
231.838	88
232.072	74
232.306	74
232.541	81
232.775	80
233.009	80
233.243	69
233.477	70
233.711	91
233.945	80
234.179	81
234.413	82
234.647	72
234.881	81
235.115	72
235.349	83
235.583	89
235.817	74
236.051	60
236.285	93
236.519	76
236.753	69
236.987	75
237.221	80
237.455	91
237.689	75
237.922	75
238.156	65
238.39	86
238.624	76
238.858	83
239.091	74
239.325	68
239.559	88
239.793	83
240.027	75
240.26	74
240.494	85
240.728	74
240.961	68
241.195	73
241.429	66
241.662	84
241.896	66
242.13	62
242.363	75
242.597	79
242.83	76
243.064	83
243.298	75
243.531	68
243.765	65
243.998	87
244.232	74
244.465	66
244.699	57
244.932	75
245.166	86
245.399	89
245.633	65
245.866	73
246.099	67
246.333	86
246.566	78
246.8	77
247.033	79
247.266	58
247.5	75
247.733	73
247.966	81
248.2	67
248.433	72
248.666	74
248.899	82
249.133	80
249.366	86
249.599	75
249.832	69
250.066	73
250.299	72
250.532	73
250.765	67
250.998	98
251.231	76
251.465	72
251.698	85
251.931	70
252.164	60
252.397	67
252.63	77
252.863	86
253.096	86
253.329	59
253.562	62
253.795	85
254.028	84
254.261	80
254.494	66
254.727	80
254.96	77
255.193	73
255.426	73
255.659	87
255.892	74
256.124	80
256.357	83
256.59	77
256.823	80
257.056	83
257.289	76
257.521	80
257.754	84
257.987	79
258.22	82
258.452	69
258.685	83
258.918	83
259.151	84
259.383	76
259.616	86
259.849	79
260.081	83
260.314	89
260.547	86
260.779	77
261.012	74
261.244	68
261.477	75
261.71	70
261.942	85
262.175	94
262.407	80
262.64	85
262.872	73
263.105	89
263.337	90
263.57	66
263.802	89
264.035	82
264.267	86
264.499	86
264.732	94
264.964	90
265.197	92
265.429	81
265.661	79
265.894	77
266.126	82
266.358	84
266.591	72
266.823	85
267.055	78
267.287	70
267.52	84
267.752	83
267.984	84
268.216	68
268.448	76
268.681	90
268.913	84
269.145	80
269.377	72
269.609	88
269.841	77
270.073	82
270.306	83
270.538	97
270.77	77
271.002	71
271.234	72
271.466	75
271.698	75
271.93	81
272.162	70
272.394	84
272.626	88
272.858	91
273.09	71
273.322	77
273.553	91
273.785	82
274.017	70
274.249	90
274.481	96
274.713	82
274.945	99
275.176	75
275.408	72
275.64	66
275.872	74
276.104	82
276.335	88
276.567	80
276.799	76
277.031	81
277.262	68
277.494	87
277.726	83
277.957	77
278.189	82
278.421	89
278.652	86
278.884	72
279.115	78
279.347	67
279.579	78
279.81	74
280.042	87
280.273	97
280.505	82
280.736	87
280.968	95
281.199	79
281.431	87
281.662	77
281.894	81
282.125	72
282.356	80
282.588	79
282.819	97
283.051	78
283.282	89
283.513	77
283.745	63
283.976	65
284.207	85
284.439	91
284.67	85
284.901	83
285.132	89
285.364	96
285.595	88
285.826	70
286.057	80
286.288	85
286.52	77
286.751	87
286.982	89
287.213	84
287.444	90
287.675	82
287.906	70
288.138	82
288.369	88
288.6	78
288.831	79
289.062	82
289.293	80
289.524	72
289.755	98
289.986	76
290.217	78
290.448	70
290.679	82
290.91	79
291.141	77
291.371	83
291.602	90
291.833	81
292.064	77
292.295	78
292.526	71
292.757	85
292.987	93
293.218	81
293.449	76
293.68	73
293.91	87
294.141	82
294.372	86
294.603	89
294.833	84
295.064	88
295.295	89
295.525	72
295.756	85
295.987	87
296.217	80
296.448	80
296.679	95
296.909	100
297.14	85
297.37	72
297.601	74
297.831	89
298.062	92
298.292	67
298.523	78
298.753	80
298.984	74
299.214	92
299.445	80
299.675	83
299.905	82
300.136	77
300.366	85
300.597	87
300.827	89
301.057	65
301.288	62
301.518	84
301.748	82
301.979	101
302.209	78
302.439	71
302.669	85
302.9	69
303.13	87
303.36	82
303.59	83
303.82	77
304.051	78
304.281	77
304.511	86
304.741	86
304.971	95
305.201	75
305.431	85
305.661	76
305.891	67
306.121	76
306.352	88
306.582	94
306.812	90
307.042	68
307.272	79
307.502	83
307.731	89
307.961	90
308.191	100
308.421	82
308.651	86
308.881	98
309.111	96
309.341	102
309.571	98
309.8	80
310.03	79
310.26	87
310.49	88
310.72	93
310.949	74
311.179	60
311.409	70
311.639	73
311.868	94
312.098	90
312.328	84
312.557	80
312.787	86
313.017	86
313.246	86
313.476	70
313.706	93
313.935	83
314.165	92
314.394	90
314.624	83
314.853	91
315.083	80
315.312	74
315.542	61
315.771	94
316.001	84
316.23	74
316.46	74
316.689	79
316.919	100
317.148	89
317.377	86
317.607	88
317.836	83
318.065	80
318.295	83
318.524	82
318.753	75
318.983	74
319.212	83
319.441	71
319.67	80
319.9	82
320.129	79
320.358	74
320.587	78
320.816	75
321.046	82
321.275	72
321.504	72
321.733	84
321.962	86
322.191	73
322.42	82
322.649	78
322.878	80
323.108	93
323.337	84
323.566	74
323.795	75
324.024	73
324.253	79
324.482	97
324.71	75
324.939	97
325.168	86
325.397	82
325.626	75
325.855	84
326.084	80
326.313	63
326.542	76
326.77	95
326.999	90
327.228	88
327.457	83
327.686	82
327.914	75
328.143	80
328.372	90
328.6	78
328.829	71
329.058	86
329.287	98
329.515	88
329.744	85
329.972	75
330.201	73
330.43	86
330.658	81
330.887	82
331.115	83
331.344	81
331.572	88
331.801	79
332.03	90
332.258	76
332.486	78
332.715	83
332.943	75
333.172	80
333.4	76
333.629	87
333.857	77
334.085	84
334.314	68
334.542	69
334.771	74
334.999	82
335.227	61
335.455	79
335.684	79
335.912	77
336.14	95
336.369	74
336.597	82
336.825	77
337.053	80
337.281	70
337.51	75
337.738	76
337.966	75
338.194	81
338.422	87
338.65	82
338.878	69
339.106	92
339.334	76
339.562	79
339.79	74
340.018	86
340.246	95
340.474	85
340.702	89
340.93	90
341.158	89
341.386	84
341.614	71
341.842	86
342.07	69
342.298	78
342.526	94
342.754	86
342.981	92
343.209	67
343.437	91
343.665	89
343.893	84
344.12	88
344.348	78
344.576	85
344.804	76
345.031	84
345.259	79
345.487	75
345.714	75
345.942	87
346.17	74
346.397	85
346.625	60
346.853	77
347.08	68
347.308	78
347.535	79
347.763	94
347.99	82
348.218	74
348.445	77
348.673	96
348.9	102
349.128	88
349.355	67
349.583	79
349.81	79
350.037	70
350.265	78
350.492	85
350.72	82
350.947	74
351.174	86
351.402	93
351.629	78
351.856	80
352.083	85
352.311	74
352.538	90
352.765	87
352.992	85
353.22	91
353.447	84
353.674	87
353.901	90
354.128	75
354.355	83
354.583	84
354.81	89
355.037	85
355.264	87
355.491	84
355.718	85
355.945	80
356.172	67
356.399	74
356.626	76
356.853	83
357.08	93
357.307	78
357.534	72
357.761	90
357.988	79
358.215	89
358.441	84
358.668	77
358.895	92
359.122	76
359.349	85
359.576	68
359.802	72
360.029	85
360.256	78
360.483	79
360.709	87
360.936	86
361.163	93
361.39	72
361.616	75
361.843	82
362.07	80
362.296	80
362.523	76
362.749	70
362.976	74
363.203	79
363.429	76
363.656	82
363.882	85
364.109	78
364.335	83
364.562	88
364.788	97
365.015	76
365.241	86
365.468	64
365.694	78
365.92	80
366.147	70
366.373	76
366.599	90
366.826	77
367.052	76
367.278	95
367.505	82
367.731	83
367.957	79
368.184	79
368.41	69
368.636	84
368.862	88
369.089	72
369.315	86
369.541	76
369.767	85
369.993	89
370.219	91
370.445	79
370.672	76
370.898	84
371.124	74
371.35	81
371.576	84
371.802	67
372.028	92
372.254	84
372.48	70
372.706	87
372.932	82
373.158	80
373.384	87
373.61	84
373.835	82
374.061	93
374.287	78
374.513	79
374.739	95
374.965	92
375.191	84
375.416	83
375.642	78
375.868	71
376.094	68
376.319	85
376.545	86
376.771	86
376.997	95
377.222	84
377.448	76
377.674	86
377.899	69
378.125	88
378.35	85
378.576	92
378.802	82
379.027	88
379.253	80
379.478	78
379.704	85
379.929	78
380.155	86
380.38	86
380.606	80
380.831	94
381.057	87
381.282	87
381.507	90
381.733	80
381.958	77
382.184	88
382.409	95
382.634	84
382.86	85
383.085	69
383.31	73
383.535	79
383.761	67
383.986	80
384.211	88
384.436	86
384.662	74
384.887	92
385.112	77
385.337	90
385.562	63
385.787	78
386.013	86
386.238	76
386.463	87
386.688	94
386.913	90
387.138	66
387.363	84
387.588	98
387.813	80
388.038	81
388.263	82
388.488	84
388.713	79
388.938	86
389.163	90
389.387	74
389.612	80
389.837	71
390.062	83
390.287	75
390.512	82
390.736	71
390.961	78
391.186	79
391.411	84
391.636	81
391.86	78
392.085	84
392.31	96
392.534	88
392.759	78
392.984	86
393.208	91
393.433	93
393.658	86
393.882	74
394.107	94
394.331	130
394.556	118
394.78	88
395.005	104
395.229	83
395.454	84
395.678	92
395.903	110
396.127	152
396.352	147
396.576	94
396.801	74
397.025	92
397.249	87
397.474	74
397.698	84
397.922	77
398.147	72
398.371	82
398.595	84
398.82	74
399.044	75
399.268	78
399.492	88
399.717	81
399.941	79
400.165	72
400.389	84
400.613	66
400.837	96
401.062	59
401.286	78
401.51	84
401.734	67
401.958	62
402.182	64
402.406	87
402.63	76
402.854	86
403.078	86
403.302	79
403.526	75
403.75	69
403.974	72
404.198	74
404.422	95
404.645	82
404.869	81
405.093	76
405.317	61
405.541	80
405.765	74
405.988	68
406.212	82
406.436	72
406.66	82
406.883	80
407.107	75
407.331	72
407.555	77
407.778	70
408.002	66
408.226	92
408.449	84
408.673	90
408.896	87
409.12	97
409.344	91
409.567	74
409.791	71
410.014	87
410.238	71
410.461	65
410.685	80
410.908	90
411.132	82
411.355	78
411.578	74
411.802	56
412.025	66
412.249	82
412.472	77
412.695	82
412.919	78
413.142	75
413.365	78
413.589	82
413.812	84
414.035	76
414.258	81
414.482	76
414.705	65
414.928	81
415.151	85
415.374	78
415.597	88
415.821	88
416.044	80
416.267	98
416.49	68
416.713	82
416.936	80
417.159	95
417.382	94
417.605	89
417.828	84
418.051	85
418.274	91
418.497	88
418.72	90
418.943	75
419.166	76
419.389	69
419.611	81
419.834	78
420.057	90
420.28	92
420.503	86
420.726	71
420.948	83
421.171	81
421.394	72
421.617	86
421.839	71
422.062	75
422.285	75
422.507	70
422.73	90
422.953	91
423.175	83
423.398	88
423.621	82
423.843	81
424.066	81
424.288	82
424.511	75
424.733	82
424.956	82
425.178	78
425.401	96
425.623	80
425.846	82
426.068	66
426.291	78
426.513	73
426.735	84
426.958	80
427.18	75
427.402	76
427.625	80
427.847	74
428.069	68
428.292	79
428.514	81
428.736	75
428.958	78
429.181	77
429.403	75
429.625	66
429.847	86
430.069	79
430.292	88
430.514	77
430.736	87
430.958	84
431.18	89
431.402	76
431.624	80
431.846	75
432.068	72
432.29	91
432.512	73
432.734	63
432.956	64
433.178	75
433.4	69
433.622	78
433.844	90
434.066	84
434.287	96
434.509	77
434.731	76
434.953	76
435.175	67
435.397	75
435.618	76
435.84	84
436.062	79
436.284	76
436.505	58
436.727	68
436.949	75
437.17	78
437.392	79
437.614	88
437.835	87
438.057	80
438.278	70
438.5	79
438.721	77
438.943	82
439.165	93
439.386	79
439.608	90
439.829	84
440.05	84
440.272	72
440.493	79
440.715	77
440.936	87
441.158	94
441.379	91
441.6	82
441.822	84
442.043	91
442.264	89
442.486	86
442.707	80
442.928	95
443.149	80
443.371	87
443.592	83
443.813	77
444.034	88
444.255	90
444.476	70
444.698	66
444.919	86
445.14	165
445.361	122
445.582	83
445.803	73
446.024	84
446.245	92
446.466	99
446.687	75
446.908	83
447.129	84
447.35	90
447.571	89
447.792	91
448.013	67
448.234	93
448.455	77
448.675	80
448.896	82
449.117	68
449.338	89
449.559	81
449.779	86
450	76
450.221	84
450.442	67
450.662	75
450.883	75
451.104	66
451.324	80
451.545	75
451.766	94
451.986	83
452.207	80
452.428	88
452.648	82
452.869	85
453.089	69
453.31	74
453.53	97
453.751	89
453.971	88
454.192	64
454.412	78
454.633	76
454.853	78
455.073	71
455.294	80
455.514	73
455.734	94
455.955	97
456.175	71
456.395	78
456.616	70
456.836	74
457.056	67
457.276	80
457.497	72
457.717	76
457.937	83
458.157	87
458.377	83
458.598	92
458.818	81
459.038	79
459.258	67
459.478	86
459.698	80
459.918	74
460.138	74
460.358	73
460.578	80
460.798	77
461.018	75
461.238	83
461.458	99
461.678	67
461.898	72
462.118	83
462.338	80
462.558	82
462.777	72
462.997	76
463.217	79
463.437	86
463.657	86
463.876	92
464.096	77
464.316	84
464.536	70
464.755	68
464.975	78
465.195	73
465.414	65
465.634	75
465.854	90
466.073	72
466.293	80
466.512	83
466.732	67
466.951	72
467.171	88
467.391	85
467.61	77
467.829	80
468.049	83
468.268	77
468.488	80
468.707	81
468.927	72
469.146	100
469.365	88
469.585	76
469.804	75
470.023	78
470.243	85
470.462	77
470.681	90
470.901	79
471.12	75
471.339	91
471.558	84
471.777	79
471.997	82
472.216	82
472.435	76
472.654	75
472.873	88
473.092	85
473.311	80
473.53	87
473.749	88
473.968	81
474.187	82
474.406	82
474.625	70
474.844	76
475.063	76
475.282	77
475.501	80
475.72	82
475.939	75
476.158	77
476.377	63
476.596	88
476.814	86
477.033	69
477.252	80
477.471	81
477.69	76
477.908	67
478.127	95
478.346	91
478.564	66
478.783	90
479.002	83
479.22	81
479.439	97
479.658	86
479.876	77
480.095	83
480.313	76
480.532	78
480.751	68
480.969	84
481.188	84
481.406	90
481.624	86
481.843	79
482.061	87
482.28	81
482.498	80
482.717	102
482.935	84
483.153	91
483.372	76
483.59	80
483.808	72
484.027	84
484.245	79
484.463	85
484.681	84
484.9	88
485.118	84
485.336	85
485.554	81
485.772	92
485.99	86
486.209	85
486.427	71
486.645	74
486.863	102
487.081	88
487.299	86
487.517	85
487.735	87
487.953	62
488.171	90
488.389	90
488.607	84
488.825	83
489.043	71
489.261	94
489.479	91
489.696	86
489.914	83
490.132	78
490.35	77
490.568	69
490.786	85
491.003	75
491.221	101
491.439	87
491.657	66
491.874	86
492.092	88
492.31	89
492.527	91
492.745	76
492.963	107
493.18	82
493.398	92
493.615	84
493.833	77
494.05	92
494.268	87
494.485	79
494.703	82
494.92	95
495.138	78
495.355	82
495.573	83
495.79	75
496.008	80
496.225	92
496.442	88
496.66	76
496.877	97
497.094	84
497.312	72
497.529	99
497.746	84
497.963	80
498.181	82
498.398	83
498.615	82
498.832	79
499.049	91
499.267	82
499.484	98
499.701	89
499.918	92
500.135	74
500.352	81
500.569	86
500.786	89
501.003	69
501.22	81
501.437	84
501.654	95
501.871	93
502.088	68
502.305	90
502.522	84
502.739	75
502.956	91
503.172	73
503.389	82
503.606	84
503.823	92
504.04	82
504.256	96
504.473	90
504.69	90
504.907	77
505.123	84
505.34	74
505.557	74
505.773	71
505.99	86
506.207	98
506.423	76
506.64	74
506.856	80
507.073	77
507.289	86
507.506	83
507.722	69
507.939	80
508.155	72
508.372	87
508.588	82
508.805	94
509.021	100
509.238	80
509.454	84
509.67	66
509.887	83
510.103	72
510.319	72
510.536	76
510.752	88
510.968	78
511.184	93
511.401	75
511.617	84
511.833	88
512.049	74
512.265	75
512.481	88
512.698	82
512.914	83
513.13	84
513.346	95
513.562	91
513.778	85
513.994	94
514.21	91
514.426	78
514.642	88
514.858	78
515.074	89
515.29	103
515.506	87
515.721	87
515.937	94
516.153	72
516.369	78
516.585	82
516.801	72
517.016	89
517.232	87
517.448	86
517.664	83
517.879	78
518.095	82
518.311	86
518.527	97
518.742	72
518.958	82
519.173	82
519.389	84
519.605	90
519.82	80
520.036	68
520.251	79
520.467	74
520.682	67
520.898	76
521.113	77
521.329	82
521.544	82
521.76	79
521.975	86
522.19	81
522.406	86
522.621	88
522.836	79
523.052	72
523.267	81
523.482	85
523.698	80
523.913	82
524.128	84
524.343	95
524.559	75
524.774	87
524.989	96
525.204	102
525.419	76
525.634	78
525.849	72
526.064	78
526.28	84
526.495	90
526.71	92
526.925	89
527.14	64
527.355	76
527.57	83
527.785	65
527.999	76
528.214	88
528.429	87
528.644	85
528.859	87
529.074	86
529.289	76
529.503	78
529.718	82
529.933	67
530.148	74
530.363	72
530.577	86
530.792	81
531.007	78
531.221	94
531.436	90
531.651	78
531.865	92
532.08	79
532.295	82
532.509	71
532.724	75
532.938	78
533.153	65
533.367	73
533.582	89
533.796	92
534.011	75
534.225	87
534.44	80
534.654	100
534.868	75
535.083	91
535.297	91
535.511	70
535.726	74
535.94	71
536.154	80
536.369	82
536.583	70
536.797	90
537.011	82
537.225	82
537.44	83
537.654	82
537.868	77
538.082	87
538.296	74
538.51	69
538.724	87
538.938	99
539.153	84
539.367	77
539.581	90
539.795	89
540.009	79
540.222	81
540.436	84
540.65	77
540.864	89
541.078	86
541.292	82
541.506	80
541.72	82
541.934	99
542.147	68
542.361	83
542.575	88
542.789	76
543.002	82
543.216	94
543.43	96
543.644	81
543.857	90
544.071	91
544.285	84
544.498	86
544.712	81
544.925	87
545.139	84
545.352	95
545.566	90
545.779	76
545.993	92
546.206	76
546.42	92
546.633	86
546.847	90
547.06	94
547.274	81
547.487	77
547.7	83
547.914	84
548.127	73
548.34	70
548.554	78
548.767	80
548.98	85
549.193	84
549.407	82
549.62	63
549.833	83
550.046	83
550.259	87
550.473	84
550.686	94
550.899	78
551.112	87
551.325	70
551.538	91
551.751	80
551.964	73
552.177	64
552.39	93
552.603	90
552.816	104
553.029	91
553.242	71
553.455	93
553.667	76
553.88	76
554.093	90
554.306	95
554.519	91
554.732	82
554.944	68
555.157	69
555.37	95
555.583	97
555.795	97
556.008	88
556.221	89
556.433	76
556.646	73
556.859	79
557.071	65
557.284	84
557.496	74
557.709	86
557.921	91
558.134	92
558.346	89
558.559	94
558.771	98
558.984	82
559.196	84
559.409	81
559.621	86
559.833	77
560.046	94
560.258	83
560.47	89
560.683	76
560.895	68
561.107	90
561.32	82
561.532	88
561.744	76
561.956	74
562.168	76
562.381	91
562.593	100
562.805	87
563.017	79
563.229	100
563.441	90
563.653	87
563.865	74
564.077	88
564.289	70
564.501	96
564.713	84
564.925	79
565.137	81
565.349	90
565.561	99
565.773	85
565.985	78
566.197	83
566.408	96
566.62	71
566.832	90
567.044	87
567.255	76
567.467	80
567.679	92
567.891	99
568.102	84
568.314	67
568.526	82
568.737	94
568.949	80
569.161	80
569.372	86
569.584	76
569.795	82
570.007	83
570.218	89
570.43	79
570.641	88
570.853	86
571.064	86
571.276	81
571.487	82
571.698	83
571.91	98
572.121	76
572.333	85
572.544	97
572.755	90
572.966	76
573.178	82
573.389	80
573.6	77
573.811	76
574.023	82
574.234	78
574.445	99
574.656	79
574.867	83
575.078	79
575.289	84
575.501	87
575.712	75
575.923	75
576.134	81
576.345	83
576.556	74
576.767	86
576.978	97
577.188	78
577.399	69
577.61	94
577.821	70
578.032	80
578.243	80
578.454	75
578.665	82
578.875	82
579.086	77
579.297	73
579.508	87
579.718	70
579.929	86
580.14	75
580.35	89
580.561	88
580.772	80
580.982	84
581.193	74
581.403	89
581.614	85
581.825	82
582.035	93
582.246	74
582.456	84
582.667	94
582.877	76
583.087	73
583.298	82
583.508	74
583.719	68
583.929	79
584.139	82
584.35	79
584.56	91
584.77	65
584.981	60
585.191	90
585.401	87
585.611	84
585.821	86
586.032	80
586.242	89
586.452	86
586.662	85
586.872	71
587.082	87
587.292	82
587.502	82
587.713	83
587.923	82
588.133	70
588.343	82
588.553	78
588.762	84
588.972	99
589.182	89
589.392	89
589.602	71
589.812	80
590.022	75
590.232	91
590.441	79
590.651	81
