Data from Coke_Can_Side_HRD10591_00012.txt Node
Date: Wed Nov 05 15:42:12 EST 2025
User: Yrep
Spectrometer: HR+D1059
Trigger mode: 1
Integration Time (sec): 1.000000E-1
Scans to average: 1
Electric dark correction enabled: true
Nonlinearity correction enabled: false
Boxcar width: 0
XAxis mode: Wavelengths
Number of Pixels in Spectrum: 2048
>>>>>Begin Spectral Data<<<<<
223.165	-18.62
223.4	-18.62
223.635	-18.62
223.869	-22.62
224.104	-24.62
224.338	-9.62
224.573	-11.62
224.808	-18.62
225.042	-8.62
225.277	-0.62
225.511	-6.62
225.746	4.38
225.98	9.38
226.215	6.38
226.449	23.38
226.683	25.38
226.918	21.38
227.152	31.38
227.387	38.38
227.621	38.38
227.856	52.38
228.09	56.38
228.324	52.38
228.559	76.38
228.793	64.38
229.027	70.38
229.262	72.38
229.496	72.38
229.73	70.38
229.964	65.38
230.199	79.38
230.433	73.38
230.667	81.38
230.901	92.38
231.136	75.38
231.37	70.38
231.604	87.38
231.838	91.38
232.072	73.38
232.306	85.38
232.541	62.38
232.775	79.38
233.009	86.38
233.243	81.38
233.477	94.38
233.711	85.38
233.945	67.38
234.179	86.38
234.413	73.38
234.647	86.38
234.881	84.38
235.115	82.38
235.349	75.38
235.583	89.38
235.817	69.38
236.051	80.38
236.285	74.38
236.519	68.38
236.753	79.38
236.987	89.38
237.221	72.38
237.455	72.38
237.689	82.38
237.922	68.38
238.156	80.38
238.39	87.38
238.624	91.38
238.858	89.38
239.091	90.38
239.325	84.38
239.559	64.38
239.793	66.38
240.027	96.38
240.26	79.38
240.494	85.38
240.728	76.38
240.961	69.38
241.195	80.38
241.429	88.38
241.662	64.38
241.896	87.38
242.13	86.38
242.363	82.38
242.597	69.38
242.83	71.38
243.064	74.38
243.298	84.38
243.531	68.38
243.765	69.38
243.998	69.38
244.232	87.38
244.465	80.38
244.699	81.38
244.932	82.38
245.166	72.38
245.399	74.38
245.633	87.38
245.866	79.38
246.099	78.38
246.333	100.38
246.566	83.38
246.8	81.38
247.033	63.38
247.266	79.38
247.5	72.38
247.733	88.38
247.966	69.38
248.2	78.38
248.433	69.38
248.666	80.38
248.899	79.38
249.133	83.38
249.366	80.38
249.599	91.38
249.832	85.38
250.066	91.38
250.299	78.38
250.532	78.38
250.765	77.38
250.998	85.38
251.231	77.38
251.465	87.38
251.698	74.38
251.931	76.38
252.164	85.38
252.397	88.38
252.63	81.38
252.863	69.38
253.096	93.38
253.329	84.38
253.562	89.38
253.795	78.38
254.028	87.38
254.261	86.38
254.494	80.38
254.727	75.38
254.96	75.38
255.193	84.38
255.426	89.38
255.659	76.38
255.892	75.38
256.124	75.38
256.357	80.38
256.59	95.38
256.823	89.38
257.056	92.38
257.289	82.38
257.521	77.38
257.754	71.38
257.987	77.38
258.22	85.38
258.452	71.38
258.685	72.38
258.918	76.38
259.151	74.38
259.383	86.38
259.616	84.38
259.849	76.38
260.081	80.38
260.314	78.38
260.547	85.38
260.779	93.38
261.012	95.38
261.244	86.38
261.477	88.38
261.71	78.38
261.942	82.38
262.175	78.38
262.407	58.38
262.64	80.38
262.872	79.38
263.105	82.38
263.337	89.38
263.57	82.38
263.802	82.38
264.035	90.38
264.267	83.38
264.499	61.38
264.732	78.38
264.964	79.38
265.197	98.38
265.429	79.38
265.661	89.38
265.894	81.38
266.126	84.38
266.358	86.38
266.591	75.38
266.823	87.38
267.055	67.38
267.287	69.38
267.52	72.38
267.752	90.38
267.984	90.38
268.216	96.38
268.448	92.38
268.681	76.38
268.913	84.38
269.145	81.38
269.377	87.38
269.609	71.38
269.841	85.38
270.073	81.38
270.306	74.38
270.538	87.38
270.77	59.38
271.002	78.38
271.234	94.38
271.466	81.38
271.698	73.38
271.93	70.38
272.162	78.38
272.394	84.38
272.626	73.38
272.858	76.38
273.09	80.38
273.322	79.38
273.553	89.38
273.785	87.38
274.017	87.38
274.249	81.38
274.481	91.38
274.713	91.38
274.945	69.38
275.176	86.38
275.408	91.38
275.64	81.38
275.872	81.38
276.104	78.38
276.335	76.38
276.567	76.38
276.799	87.38
277.031	85.38
277.262	80.38
277.494	92.38
277.726	90.38
277.957	75.38
278.189	81.38
278.421	86.38
278.652	88.38
278.884	74.38
279.115	74.38
279.347	89.38
279.579	83.38
279.81	95.38
280.042	100.38
280.273	85.38
280.505	89.38
280.736	94.38
280.968	83.38
281.199	91.38
281.431	79.38
281.662	79.38
281.894	74.38
282.125	91.38
282.356	78.38
282.588	94.38
282.819	92.38
283.051	81.38
283.282	62.38
283.513	95.38
283.745	75.38
283.976	77.38
284.207	86.38
284.439	92.38
284.67	91.38
284.901	93.38
285.132	84.38
285.364	78.38
285.595	91.38
285.826	83.38
286.057	76.38
286.288	106.38
286.52	86.38
286.751	86.38
286.982	91.38
287.213	85.38
287.444	91.38
287.675	97.38
287.906	88.38
288.138	81.38
288.369	87.38
288.6	87.38
288.831	77.38
289.062	104.38
289.293	91.38
289.524	77.38
289.755	89.38
289.986	86.38
290.217	82.38
290.448	86.38
290.679	91.38
290.91	107.38
291.141	101.38
291.371	82.38
291.602	78.38
291.833	84.38
292.064	82.38
292.295	79.38
292.526	87.38
292.757	70.38
292.987	77.38
293.218	82.38
293.449	85.38
293.68	88.38
293.91	94.38
294.141	99.38
294.372	102.38
294.603	84.38
294.833	95.38
295.064	82.38
295.295	104.38
295.525	90.38
295.756	84.38
295.987	82.38
296.217	87.38
296.448	90.38
296.679	74.38
296.909	88.38
297.14	77.38
297.37	88.38
297.601	87.38
297.831	83.38
298.062	81.38
298.292	87.38
298.523	82.38
298.753	72.38
298.984	77.38
299.214	96.38
299.445	81.38
299.675	68.38
299.905	84.38
300.136	91.38
300.366	80.38
300.597	96.38
300.827	83.38
301.057	85.38
301.288	94.38
301.518	98.38
301.748	79.38
301.979	106.38
302.209	87.38
302.439	88.38
302.669	78.38
302.9	75.38
303.13	85.38
303.36	80.38
303.59	86.38
303.82	95.38
304.051	80.38
304.281	83.38
304.511	82.38
304.741	85.38
304.971	85.38
305.201	99.38
305.431	74.38
305.661	91.38
305.891	83.38
306.121	81.38
306.352	85.38
306.582	81.38
306.812	80.38
307.042	87.38
307.272	91.38
307.502	103.38
307.731	86.38
307.961	94.38
308.191	95.38
308.421	104.38
308.651	92.38
308.881	104.38
309.111	85.38
309.341	104.38
309.571	81.38
309.8	79.38
310.03	68.38
310.26	84.38
310.49	96.38
310.72	70.38
310.949	73.38
311.179	81.38
311.409	97.38
311.639	100.38
311.868	93.38
312.098	84.38
312.328	83.38
312.557	100.38
312.787	91.38
313.017	88.38
313.246	91.38
313.476	92.38
313.706	97.38
313.935	88.38
314.165	76.38
314.394	88.38
314.624	80.38
314.853	61.38
315.083	75.38
315.312	80.38
315.542	81.38
315.771	95.38
316.001	88.38
316.23	91.38
316.46	102.38
316.689	91.38
316.919	70.38
317.148	102.38
317.377	83.38
317.607	97.38
317.836	99.38
318.065	78.38
318.295	90.38
318.524	80.38
318.753	83.38
318.983	79.38
319.212	86.38
319.441	101.38
319.67	91.38
319.9	87.38
320.129	73.38
320.358	92.38
320.587	89.38
320.816	91.38
321.046	87.38
321.275	115.38
321.504	92.38
321.733	95.38
321.962	100.38
322.191	90.38
322.42	95.38
322.649	91.38
322.878	71.38
323.108	85.38
323.337	90.38
323.566	92.38
323.795	86.38
324.024	84.38
324.253	87.38
324.482	79.38
324.71	97.38
324.939	93.38
325.168	96.38
325.397	92.38
325.626	80.38
325.855	76.38
326.084	94.38
326.313	75.38
326.542	88.38
326.77	77.38
326.999	67.38
327.228	96.38
327.457	87.38
327.686	83.38
327.914	101.38
328.143	91.38
328.372	94.38
328.6	67.38
328.829	81.38
329.058	85.38
329.287	86.38
329.515	101.38
329.744	89.38
329.972	82.38
330.201	71.38
330.43	77.38
330.658	65.38
330.887	84.38
331.115	93.38
331.344	88.38
331.572	86.38
331.801	70.38
332.03	88.38
332.258	90.38
332.486	87.38
332.715	81.38
332.943	90.38
333.172	77.38
333.4	69.38
333.629	90.38
333.857	72.38
334.085	73.38
334.314	95.38
334.542	100.38
334.771	87.38
334.999	84.38
335.227	66.38
335.455	70.38
335.684	81.38
335.912	85.38
336.14	85.38
336.369	78.38
336.597	84.38
336.825	81.38
337.053	88.38
337.281	96.38
337.51	84.38
337.738	91.38
337.966	84.38
338.194	78.38
338.422	79.38
338.65	95.38
338.878	87.38
339.106	100.38
339.334	85.38
339.562	83.38
339.79	87.38
340.018	83.38
340.246	91.38
340.474	81.38
340.702	73.38
340.93	89.38
341.158	91.38
341.386	84.38
341.614	85.38
341.842	94.38
342.07	79.38
342.298	75.38
342.526	76.38
342.754	80.38
342.981	82.38
343.209	91.38
343.437	100.38
343.665	82.38
343.893	85.38
344.12	77.38
344.348	81.38
344.576	84.38
344.804	84.38
345.031	68.38
345.259	90.38
345.487	80.38
345.714	77.38
345.942	87.38
346.17	103.38
346.397	81.38
346.625	87.38
346.853	78.38
347.08	89.38
347.308	93.38
347.535	78.38
347.763	87.38
347.99	82.38
348.218	86.38
348.445	78.38
348.673	76.38
348.9	84.38
349.128	78.38
349.355	78.38
349.583	69.38
349.81	90.38
350.037	73.38
350.265	79.38
350.492	88.38
350.72	76.38
350.947	93.38
351.174	82.38
351.402	87.38
351.629	71.38
351.856	72.38
352.083	92.38
352.311	91.38
352.538	69.38
352.765	99.38
352.992	84.38
353.22	94.38
353.447	78.38
353.674	78.38
353.901	91.38
354.128	81.38
354.355	70.38
354.583	76.38
354.81	85.38
355.037	80.38
355.264	80.38
355.491	95.38
355.718	69.38
355.945	79.38
356.172	89.38
356.399	84.38
356.626	55.38
356.853	91.38
357.08	90.38
357.307	84.38
357.534	77.38
357.761	80.38
357.988	77.38
358.215	80.38
358.441	94.38
358.668	81.38
358.895	78.38
359.122	97.38
359.349	72.38
359.576	77.38
359.802	70.38
360.029	82.38
360.256	86.38
360.483	82.38
360.709	84.38
360.936	87.38
361.163	82.38
361.39	107.38
361.616	89.38
361.843	91.38
362.07	77.38
362.296	91.38
362.523	74.38
362.749	78.38
362.976	79.38
363.203	90.38
363.429	78.38
363.656	92.38
363.882	80.38
364.109	87.38
364.335	95.38
364.562	94.38
364.788	87.38
365.015	85.38
365.241	74.38
365.468	99.38
365.694	85.38
365.92	73.38
366.147	82.38
366.373	96.38
366.599	77.38
366.826	64.38
367.052	77.38
367.278	83.38
367.505	85.38
367.731	91.38
367.957	76.38
368.184	92.38
368.41	85.38
368.636	86.38
368.862	79.38
369.089	92.38
369.315	89.38
369.541	93.38
369.767	91.38
369.993	72.38
370.219	89.38
370.445	73.38
370.672	90.38
370.898	85.38
371.124	83.38
371.35	84.38
371.576	94.38
371.802	74.38
372.028	83.38
372.254	95.38
372.48	86.38
372.706	97.38
372.932	102.38
373.158	80.38
373.384	64.38
373.61	93.38
373.835	76.38
374.061	92.38
374.287	88.38
374.513	88.38
374.739	86.38
374.965	84.38
375.191	88.38
375.416	89.38
375.642	69.38
375.868	96.38
376.094	85.38
376.319	85.38
376.545	73.38
376.771	79.38
376.997	77.38
377.222	95.38
377.448	89.38
377.674	79.38
377.899	78.38
378.125	85.38
378.35	78.38
378.576	89.38
378.802	75.38
379.027	85.38
379.253	86.38
379.478	87.38
379.704	90.38
379.929	84.38
380.155	73.38
380.38	78.38
380.606	85.38
380.831	91.38
381.057	96.38
381.282	90.38
381.507	80.38
381.733	84.38
381.958	80.38
382.184	69.38
382.409	99.38
382.634	79.38
382.86	69.38
383.085	87.38
383.31	101.38
383.535	92.38
383.761	88.38
383.986	93.38
384.211	85.38
384.436	89.38
384.662	72.38
384.887	83.38
385.112	93.38
385.337	87.38
385.562	65.38
385.787	80.38
386.013	85.38
386.238	80.38
386.463	81.38
386.688	95.38
386.913	92.38
387.138	90.38
387.363	84.38
387.588	82.38
387.813	88.38
388.038	81.38
388.263	75.38
388.488	100.38
388.713	85.38
388.938	84.38
389.163	85.38
389.387	87.38
389.612	85.38
389.837	85.38
390.062	87.38
390.287	84.38
390.512	91.38
390.736	67.38
390.961	87.38
391.186	95.38
391.411	85.38
391.636	76.38
391.86	92.38
392.085	82.38
392.31	81.38
392.534	81.38
392.759	89.38
392.984	99.38
393.208	70.38
393.433	90.38
393.658	93.38
393.882	77.38
394.107	114.38
394.331	128.38
394.556	133.38
394.78	95.38
395.005	86.38
395.229	72.38
395.454	73.38
395.678	91.38
395.903	117.38
396.127	153.38
396.352	163.38
396.576	108.38
396.801	93.38
397.025	72.38
397.249	82.38
397.474	79.38
397.698	84.38
397.922	79.38
398.147	79.38
398.371	86.38
398.595	83.38
398.82	90.38
399.044	81.38
399.268	89.38
399.492	89.38
399.717	88.38
399.941	81.38
400.165	72.38
400.389	77.38
400.613	72.38
400.837	76.38
401.062	88.38
401.286	91.38
401.51	71.38
401.734	87.38
401.958	68.38
402.182	89.38
402.406	73.38
402.63	82.38
402.854	87.38
403.078	91.38
403.302	91.38
403.526	91.38
403.75	72.38
403.974	69.38
404.198	88.38
404.422	89.38
404.645	90.38
404.869	73.38
405.093	97.38
405.317	84.38
405.541	79.38
405.765	76.38
405.988	87.38
406.212	89.38
406.436	84.38
406.66	84.38
406.883	80.38
407.107	79.38
407.331	68.38
407.555	86.38
407.778	83.38
408.002	100.38
408.226	75.38
408.449	79.38
408.673	80.38
408.896	86.38
409.12	91.38
409.344	89.38
409.567	77.38
409.791	77.38
410.014	92.38
410.238	91.38
410.461	79.38
410.685	91.38
410.908	86.38
411.132	89.38
411.355	91.38
411.578	87.38
411.802	90.38
412.025	91.38
412.249	81.38
412.472	81.38
412.695	77.38
412.919	85.38
413.142	96.38
413.365	91.38
413.589	86.38
413.812	77.38
414.035	85.38
414.258	79.38
414.482	85.38
414.705	93.38
414.928	82.38
415.151	91.38
415.374	86.38
415.597	71.38
415.821	70.38
416.044	75.38
416.267	76.38
416.49	69.38
416.713	79.38
416.936	86.38
417.159	88.38
417.382	75.38
417.605	75.38
417.828	84.38
418.051	71.38
418.274	83.38
418.497	96.38
418.72	81.38
418.943	85.38
419.166	85.38
419.389	82.38
419.611	76.38
419.834	81.38
420.057	83.38
420.28	74.38
420.503	75.38
420.726	88.38
420.948	89.38
421.171	89.38
421.394	72.38
421.617	80.38
421.839	79.38
422.062	82.38
422.285	74.38
422.507	89.38
422.73	81.38
422.953	85.38
423.175	91.38
423.398	81.38
423.621	91.38
423.843	87.38
424.066	73.38
424.288	84.38
424.511	87.38
424.733	63.38
424.956	91.38
425.178	87.38
425.401	97.38
425.623	72.38
425.846	71.38
426.068	79.38
426.291	85.38
426.513	104.38
426.735	86.38
426.958	83.38
427.18	83.38
427.402	97.38
427.625	82.38
427.847	95.38
428.069	75.38
428.292	69.38
428.514	85.38
428.736	84.38
428.958	80.38
429.181	92.38
429.403	83.38
429.625	76.38
429.847	85.38
430.069	87.38
430.292	86.38
430.514	101.38
430.736	94.38
430.958	86.38
431.18	86.38
431.402	75.38
431.624	78.38
431.846	88.38
432.068	75.38
432.29	78.38
432.512	87.38
432.734	82.38
432.956	91.38
433.178	84.38
433.4	88.38
433.622	88.38
433.844	86.38
434.066	84.38
434.287	79.38
434.509	79.38
434.731	66.38
434.953	82.38
435.175	60.38
435.397	81.38
435.618	77.38
435.84	88.38
436.062	71.38
436.284	79.38
436.505	77.38
436.727	79.38
436.949	78.38
437.17	77.38
437.392	79.38
437.614	68.38
437.835	86.38
438.057	88.38
438.278	85.38
438.5	82.38
438.721	84.38
438.943	82.38
439.165	77.38
439.386	83.38
439.608	91.38
439.829	75.38
440.05	64.38
440.272	100.38
440.493	81.38
440.715	91.38
440.936	93.38
441.158	89.38
441.379	90.38
441.6	80.38
441.822	80.38
442.043	87.38
442.264	85.38
442.486	96.38
442.707	87.38
442.928	89.38
443.149	91.38
443.371	82.38
443.592	86.38
443.813	91.38
444.034	81.38
444.255	89.38
444.476	78.38
444.698	80.38
444.919	84.38
445.14	174.38
445.361	117.38
445.582	81.38
445.803	86.38
446.024	85.38
446.245	83.38
446.466	85.38
446.687	72.38
446.908	82.38
447.129	84.38
447.35	101.38
447.571	99.38
447.792	78.38
448.013	57.38
448.234	75.38
448.455	96.38
448.675	77.38
448.896	79.38
449.117	87.38
449.338	84.38
449.559	96.38
449.779	78.38
450	75.38
450.221	87.38
450.442	84.38
450.662	83.38
450.883	92.38
451.104	89.38
451.324	67.38
451.545	97.38
451.766	76.38
451.986	83.38
452.207	85.38
452.428	66.38
452.648	79.38
452.869	95.38
453.089	79.38
453.31	80.38
453.53	94.38
453.751	82.38
453.971	96.38
454.192	84.38
454.412	81.38
454.633	72.38
454.853	95.38
455.073	84.38
455.294	74.38
455.514	80.38
455.734	79.38
455.955	82.38
456.175	88.38
456.395	80.38
456.616	91.38
456.836	87.38
457.056	78.38
457.276	71.38
457.497	79.38
457.717	76.38
457.937	79.38
458.157	82.38
458.377	71.38
458.598	76.38
458.818	89.38
459.038	76.38
459.258	78.38
459.478	90.38
459.698	75.38
459.918	84.38
460.138	75.38
460.358	93.38
460.578	91.38
460.798	82.38
461.018	76.38
461.238	83.38
461.458	75.38
461.678	76.38
461.898	78.38
462.118	93.38
462.338	73.38
462.558	83.38
462.777	87.38
462.997	89.38
463.217	71.38
463.437	88.38
463.657	89.38
463.876	81.38
464.096	89.38
464.316	89.38
464.536	79.38
464.755	82.38
464.975	84.38
465.195	81.38
465.414	89.38
465.634	71.38
465.854	73.38
466.073	80.38
466.293	90.38
466.512	77.38
466.732	81.38
466.951	81.38
467.171	82.38
467.391	100.38
467.61	87.38
467.829	89.38
468.049	86.38
468.268	82.38
468.488	77.38
468.707	91.38
468.927	82.38
469.146	78.38
469.365	98.38
469.585	81.38
469.804	85.38
470.023	93.38
470.243	86.38
470.462	80.38
470.681	90.38
470.901	77.38
471.12	71.38
471.339	97.38
471.558	62.38
471.777	90.38
471.997	86.38
472.216	82.38
472.435	76.38
472.654	70.38
472.873	88.38
473.092	97.38
473.311	94.38
473.53	82.38
473.749	86.38
473.968	90.38
474.187	84.38
474.406	92.38
474.625	72.38
474.844	94.38
475.063	81.38
475.282	96.38
475.501	84.38
475.72	70.38
475.939	92.38
476.158	81.38
476.377	82.38
476.596	77.38
476.814	80.38
477.033	63.38
477.252	93.38
477.471	80.38
477.69	80.38
477.908	97.38
478.127	76.38
478.346	77.38
478.564	86.38
478.783	95.38
479.002	99.38
479.22	77.38
479.439	87.38
479.658	93.38
479.876	86.38
480.095	78.38
480.313	90.38
480.532	82.38
480.751	99.38
480.969	77.38
481.188	88.38
481.406	73.38
481.624	78.38
481.843	82.38
482.061	64.38
482.28	73.38
482.498	85.38
482.717	73.38
482.935	80.38
483.153	75.38
483.372	75.38
483.59	87.38
483.808	84.38
484.027	80.38
484.245	95.38
484.463	82.38
484.681	78.38
484.9	74.38
485.118	91.38
485.336	76.38
485.554	75.38
485.772	95.38
485.99	80.38
486.209	80.38
486.427	87.38
486.645	80.38
486.863	87.38
487.081	79.38
487.299	80.38
487.517	90.38
487.735	99.38
487.953	85.38
488.171	92.38
488.389	80.38
488.607	91.38
488.825	87.38
489.043	81.38
489.261	97.38
489.479	87.38
489.696	96.38
489.914	74.38
490.132	86.38
490.35	79.38
490.568	83.38
490.786	89.38
491.003	89.38
491.221	94.38
491.439	97.38
491.657	76.38
491.874	87.38
492.092	98.38
492.31	84.38
492.527	74.38
492.745	97.38
492.963	89.38
493.18	94.38
493.398	89.38
493.615	100.38
493.833	85.38
494.05	86.38
494.268	93.38
494.485	89.38
494.703	87.38
494.92	87.38
495.138	79.38
495.355	93.38
495.573	85.38
495.79	93.38
496.008	92.38
496.225	85.38
496.442	96.38
496.66	90.38
496.877	104.38
497.094	82.38
497.312	91.38
497.529	96.38
497.746	91.38
497.963	87.38
498.181	86.38
498.398	78.38
498.615	91.38
498.832	89.38
499.049	98.38
499.267	101.38
499.484	87.38
499.701	88.38
499.918	104.38
500.135	88.38
500.352	86.38
500.569	89.38
500.786	91.38
501.003	77.38
501.22	86.38
501.437	87.38
501.654	88.38
501.871	79.38
502.088	85.38
502.305	84.38
502.522	83.38
502.739	80.38
502.956	82.38
503.172	97.38
503.389	82.38
503.606	76.38
503.823	81.38
504.04	80.38
504.256	96.38
504.473	82.38
504.69	91.38
504.907	88.38
505.123	92.38
505.34	88.38
505.557	87.38
505.773	82.38
505.99	75.38
506.207	70.38
506.423	77.38
506.64	73.38
506.856	69.38
507.073	88.38
507.289	83.38
507.506	88.38
507.722	89.38
507.939	79.38
508.155	92.38
508.372	86.38
508.588	75.38
508.805	97.38
509.021	83.38
509.238	87.38
509.454	75.38
509.67	96.38
509.887	86.38
510.103	82.38
510.319	77.38
510.536	81.38
510.752	79.38
510.968	86.38
511.184	79.38
511.401	79.38
511.617	95.38
511.833	78.38
512.049	75.38
512.265	81.38
512.481	89.38
512.698	89.38
512.914	89.38
513.13	76.38
513.346	91.38
513.562	82.38
513.778	93.38
513.994	79.38
514.21	71.38
514.426	79.38
514.642	87.38
514.858	93.38
515.074	85.38
515.29	89.38
515.506	77.38
515.721	93.38
515.937	75.38
516.153	95.38
516.369	73.38
516.585	79.38
516.801	76.38
517.016	83.38
517.232	91.38
517.448	89.38
517.664	90.38
517.879	85.38
518.095	91.38
518.311	95.38
518.527	81.38
518.742	99.38
518.958	73.38
519.173	86.38
519.389	78.38
519.605	87.38
