Data from Coke_Can_Side_HRD10591_00018.txt Node
Date: Wed Nov 05 15:42:15 EST 2025
User: Yrep
Spectrometer: HR+D1059
Trigger mode: 1
Integration Time (sec): 1.000000E-1
Scans to average: 1
Electric dark correction enabled: true
Nonlinearity correction enabled: false
Boxcar width: 0
XAxis mode: Wavelengths
Number of Pixels in Spectrum: 2048
>>>>>Begin Spectral Data<<<<<
223.165	-13.25
223.4	-13.25
223.635	-13.25
223.869	-24.25
224.104	-11.25
224.338	-31.25
224.573	-5.25
224.808	-7.25
225.042	-18.25
225.277	8.75
225.511	-1.25
225.746	1.75
225.98	1.75
226.215	13.75
226.449	8.75
226.683	20.75
226.918	19.75
227.152	36.75
227.387	35.75
227.621	33.75
227.856	53.75
228.09	43.75
228.324	50.75
228.559	64.75
228.793	49.75
229.027	47.75
229.262	62.75
229.496	66.75
229.73	72.75
229.964	69.75
230.199	62.75
230.433	71.75
230.667	79.75
230.901	64.75
231.136	77.75
231.37	62.75
231.604	69.75
231.838	80.75
232.072	89.75
232.306	78.75
232.541	90.75
232.775	78.75
233.009	61.75
233.243	96.75
233.477	85.75
233.711	84.75
233.945	83.75
234.179	89.75
234.413	88.75
234.647	71.75
234.881	83.75
235.115	71.75
235.349	88.75
235.583	72.75
235.817	78.75
236.051	84.75
236.285	84.75
236.519	73.75
236.753	75.75
236.987	58.75
237.221	78.75
237.455	89.75
237.689	76.75
237.922	84.75
238.156	106.75
238.39	83.75
238.624	68.75
238.858	82.75
239.091	64.75
239.325	65.75
239.559	81.75
239.793	75.75
240.027	80.75
240.26	72.75
240.494	76.75
240.728	84.75
240.961	88.75
241.195	68.75
241.429	80.75
241.662	69.75
241.896	68.75
242.13	75.75
242.363	78.75
242.597	91.75
242.83	80.75
243.064	79.75
243.298	67.75
243.531	74.75
243.765	62.75
243.998	65.75
244.232	78.75
244.465	73.75
244.699	76.75
244.932	79.75
245.166	74.75
245.399	61.75
245.633	76.75
245.866	75.75
246.099	84.75
246.333	84.75
246.566	82.75
246.8	66.75
247.033	76.75
247.266	82.75
247.5	78.75
247.733	77.75
247.966	84.75
248.2	79.75
248.433	64.75
248.666	85.75
248.899	72.75
249.133	82.75
249.366	73.75
249.599	63.75
249.832	78.75
250.066	77.75
250.299	87.75
250.532	74.75
250.765	80.75
250.998	67.75
251.231	76.75
251.465	80.75
251.698	86.75
251.931	82.75
252.164	59.75
252.397	80.75
252.63	83.75
252.863	85.75
253.096	87.75
253.329	82.75
253.562	87.75
253.795	84.75
254.028	86.75
254.261	93.75
254.494	74.75
254.727	70.75
254.96	96.75
255.193	72.75
255.426	74.75
255.659	76.75
255.892	68.75
256.124	73.75
256.357	66.75
256.59	84.75
256.823	71.75
257.056	79.75
257.289	83.75
257.521	82.75
257.754	79.75
257.987	67.75
258.22	89.75
258.452	78.75
258.685	90.75
258.918	80.75
259.151	85.75
259.383	77.75
259.616	64.75
259.849	64.75
260.081	79.75
260.314	66.75
260.547	95.75
260.779	74.75
261.012	89.75
261.244	83.75
261.477	80.75
261.71	77.75
261.942	84.75
262.175	76.75
262.407	82.75
262.64	84.75
262.872	85.75
263.105	91.75
263.337	78.75
263.57	70.75
263.802	82.75
264.035	85.75
264.267	84.75
264.499	74.75
264.732	79.75
264.964	90.75
265.197	78.75
265.429	83.75
265.661	84.75
265.894	71.75
266.126	80.75
266.358	64.75
266.591	82.75
266.823	92.75
267.055	69.75
267.287	82.75
267.52	86.75
267.752	85.75
267.984	85.75
268.216	89.75
268.448	82.75
268.681	70.75
268.913	79.75
269.145	84.75
269.377	82.75
269.609	80.75
269.841	75.75
270.073	101.75
270.306	69.75
270.538	80.75
270.77	84.75
271.002	72.75
271.234	72.75
271.466	81.75
271.698	79.75
271.93	70.75
272.162	86.75
272.394	83.75
272.626	78.75
272.858	80.75
273.09	90.75
273.322	74.75
273.553	76.75
273.785	89.75
274.017	77.75
274.249	77.75
274.481	74.75
274.713	84.75
274.945	85.75
275.176	86.75
275.408	92.75
275.64	73.75
275.872	82.75
276.104	78.75
276.335	80.75
276.567	90.75
276.799	89.75
277.031	89.75
277.262	76.75
277.494	76.75
277.726	80.75
277.957	76.75
278.189	79.75
278.421	90.75
278.652	76.75
278.884	68.75
279.115	72.75
279.347	88.75
279.579	93.75
279.81	93.75
280.042	76.75
280.273	77.75
280.505	82.75
280.736	92.75
280.968	81.75
281.199	88.75
281.431	79.75
281.662	87.75
281.894	87.75
282.125	93.75
282.356	82.75
282.588	72.75
282.819	100.75
283.051	82.75
283.282	76.75
283.513	84.75
283.745	91.75
283.976	97.75
284.207	84.75
284.439	78.75
284.67	65.75
284.901	88.75
285.132	74.75
285.364	84.75
285.595	84.75
285.826	89.75
286.057	83.75
286.288	93.75
286.52	91.75
286.751	92.75
286.982	72.75
287.213	93.75
287.444	87.75
287.675	80.75
287.906	81.75
288.138	74.75
288.369	78.75
288.6	83.75
288.831	78.75
289.062	91.75
289.293	80.75
289.524	75.75
289.755	74.75
289.986	84.75
290.217	84.75
290.448	77.75
290.679	82.75
290.91	92.75
291.141	76.75
291.371	84.75
291.602	85.75
291.833	78.75
292.064	77.75
292.295	98.75
292.526	72.75
292.757	80.75
292.987	90.75
293.218	71.75
293.449	80.75
293.68	89.75
293.91	81.75
294.141	90.75
294.372	83.75
294.603	82.75
294.833	78.75
295.064	83.75
295.295	68.75
295.525	93.75
295.756	70.75
295.987	82.75
296.217	84.75
296.448	74.75
296.679	77.75
296.909	93.75
297.14	75.75
297.37	96.75
297.601	73.75
297.831	71.75
298.062	84.75
298.292	84.75
298.523	79.75
298.753	65.75
298.984	80.75
299.214	84.75
299.445	85.75
299.675	71.75
299.905	88.75
300.136	73.75
300.366	67.75
300.597	92.75
300.827	74.75
301.057	97.75
301.288	92.75
301.518	92.75
301.748	74.75
301.979	84.75
302.209	89.75
302.439	80.75
302.669	83.75
302.9	73.75
303.13	75.75
303.36	83.75
303.59	92.75
303.82	100.75
304.051	71.75
304.281	75.75
304.511	79.75
304.741	79.75
304.971	77.75
305.201	94.75
305.431	83.75
305.661	88.75
305.891	89.75
306.121	75.75
306.352	88.75
306.582	91.75
306.812	64.75
307.042	84.75
307.272	73.75
307.502	82.75
307.731	87.75
307.961	84.75
308.191	89.75
308.421	94.75
308.651	97.75
308.881	90.75
309.111	99.75
309.341	102.75
309.571	106.75
309.8	88.75
310.03	84.75
310.26	95.75
310.49	76.75
310.72	86.75
310.949	76.75
311.179	82.75
311.409	99.75
311.639	88.75
311.868	84.75
312.098	72.75
312.328	72.75
312.557	83.75
312.787	88.75
313.017	79.75
313.246	84.75
313.476	84.75
313.706	85.75
313.935	88.75
314.165	77.75
314.394	72.75
314.624	82.75
314.853	91.75
315.083	90.75
315.312	83.75
315.542	93.75
315.771	82.75
316.001	86.75
316.23	89.75
316.46	87.75
316.689	82.75
316.919	69.75
317.148	77.75
317.377	85.75
317.607	80.75
317.836	88.75
318.065	77.75
318.295	76.75
318.524	71.75
318.753	86.75
318.983	93.75
319.212	86.75
319.441	86.75
319.67	81.75
319.9	87.75
320.129	75.75
320.358	86.75
320.587	77.75
320.816	86.75
321.046	88.75
321.275	78.75
321.504	83.75
321.733	84.75
321.962	81.75
322.191	94.75
322.42	87.75
322.649	78.75
322.878	76.75
323.108	83.75
323.337	77.75
323.566	86.75
323.795	78.75
324.024	86.75
324.253	91.75
324.482	92.75
324.71	84.75
324.939	92.75
325.168	86.75
325.397	77.75
325.626	93.75
325.855	66.75
326.084	100.75
326.313	84.75
326.542	96.75
326.77	88.75
326.999	103.75
327.228	105.75
327.457	85.75
327.686	72.75
327.914	92.75
328.143	82.75
328.372	76.75
328.6	79.75
328.829	78.75
329.058	84.75
329.287	77.75
329.515	70.75
329.744	74.75
329.972	80.75
330.201	83.75
330.43	87.75
330.658	83.75
330.887	90.75
331.115	96.75
331.344	79.75
331.572	67.75
331.801	88.75
332.03	86.75
332.258	91.75
332.486	80.75
332.715	103.75
332.943	85.75
333.172	86.75
333.4	75.75
333.629	73.75
333.857	76.75
334.085	76.75
334.314	89.75
334.542	86.75
334.771	87.75
334.999	82.75
335.227	88.75
335.455	98.75
335.684	97.75
335.912	80.75
336.14	82.75
336.369	92.75
336.597	94.75
336.825	84.75
337.053	89.75
337.281	88.75
337.51	73.75
337.738	68.75
337.966	74.75
338.194	64.75
338.422	88.75
338.65	86.75
338.878	88.75
339.106	70.75
339.334	93.75
339.562	90.75
339.79	68.75
340.018	84.75
340.246	76.75
340.474	70.75
340.702	91.75
340.93	71.75
341.158	91.75
341.386	93.75
341.614	105.75
341.842	81.75
342.07	72.75
342.298	82.75
342.526	84.75
342.754	86.75
342.981	97.75
343.209	78.75
343.437	94.75
343.665	86.75
343.893	82.75
344.12	85.75
344.348	75.75
344.576	73.75
344.804	89.75
345.031	84.75
345.259	92.75
345.487	78.75
345.714	64.75
345.942	83.75
346.17	84.75
346.397	102.75
346.625	76.75
346.853	87.75
347.08	82.75
347.308	91.75
347.535	78.75
347.763	78.75
347.99	75.75
348.218	82.75
348.445	102.75
348.673	89.75
348.9	88.75
349.128	97.75
349.355	76.75
349.583	80.75
349.81	85.75
350.037	79.75
350.265	90.75
350.492	77.75
350.72	61.75
350.947	90.75
351.174	88.75
351.402	84.75
351.629	70.75
351.856	78.75
352.083	93.75
352.311	78.75
352.538	82.75
352.765	82.75
352.992	65.75
353.22	77.75
353.447	87.75
353.674	89.75
353.901	81.75
354.128	73.75
354.355	70.75
354.583	82.75
354.81	90.75
355.037	92.75
355.264	83.75
355.491	86.75
355.718	86.75
355.945	88.75
356.172	79.75
356.399	86.75
356.626	76.75
356.853	83.75
357.08	92.75
357.307	91.75
357.534	82.75
357.761	90.75
357.988	80.75
358.215	82.75
358.441	85.75
358.668	66.75
358.895	80.75
359.122	85.75
359.349	77.75
359.576	78.75
359.802	79.75
360.029	84.75
360.256	91.75
360.483	86.75
360.709	66.75
360.936	83.75
361.163	87.75
361.39	84.75
361.616	77.75
361.843	75.75
362.07	81.75
362.296	84.75
362.523	79.75
362.749	89.75
362.976	87.75
363.203	87.75
363.429	85.75
363.656	82.75
363.882	83.75
364.109	78.75
364.335	85.75
364.562	72.75
364.788	85.75
365.015	84.75
365.241	80.75
365.468	90.75
365.694	84.75
365.92	86.75
366.147	73.75
366.373	88.75
366.599	92.75
366.826	84.75
367.052	79.75
367.278	79.75
367.505	85.75
367.731	93.75
367.957	96.75
368.184	86.75
368.41	75.75
368.636	88.75
368.862	79.75
369.089	74.75
369.315	90.75
369.541	97.75
369.767	78.75
369.993	82.75
370.219	77.75
370.445	89.75
370.672	89.75
370.898	88.75
371.124	88.75
371.35	83.75
371.576	92.75
371.802	71.75
372.028	76.75
372.254	86.75
372.48	80.75
372.706	70.75
372.932	71.75
373.158	74.75
373.384	88.75
373.61	78.75
373.835	78.75
374.061	72.75
374.287	83.75
374.513	85.75
374.739	75.75
374.965	73.75
375.191	78.75
375.416	75.75
375.642	90.75
375.868	80.75
376.094	91.75
376.319	88.75
376.545	68.75
376.771	70.75
376.997	88.75
377.222	63.75
377.448	81.75
377.674	93.75
377.899	85.75
378.125	83.75
378.35	68.75
378.576	84.75
378.802	73.75
379.027	88.75
379.253	81.75
379.478	70.75
379.704	76.75
379.929	74.75
380.155	86.75
380.38	97.75
380.606	78.75
380.831	81.75
381.057	78.75
381.282	76.75
381.507	86.75
381.733	92.75
381.958	92.75
382.184	79.75
382.409	83.75
382.634	87.75
382.86	77.75
383.085	79.75
383.31	80.75
383.535	94.75
383.761	84.75
383.986	88.75
384.211	83.75
384.436	84.75
384.662	85.75
384.887	80.75
385.112	81.75
385.337	74.75
385.562	80.75
385.787	94.75
386.013	92.75
386.238	77.75
386.463	74.75
386.688	89.75
386.913	86.75
387.138	78.75
387.363	80.75
387.588	90.75
387.813	83.75
388.038	84.75
388.263	95.75
388.488	88.75
388.713	93.75
388.938	90.75
389.163	82.75
389.387	85.75
389.612	72.75
389.837	70.75
390.062	80.75
390.287	74.75
390.512	76.75
390.736	88.75
390.961	86.75
391.186	70.75
391.411	84.75
391.636	83.75
391.86	89.75
392.085	66.75
392.31	76.75
392.534	96.75
392.759	85.75
392.984	80.75
393.208	79.75
393.433	78.75
393.658	82.75
393.882	85.75
394.107	94.75
394.331	133.75
394.556	133.75
394.78	101.75
395.005	79.75
395.229	69.75
395.454	85.75
395.678	91.75
395.903	126.75
396.127	147.75
396.352	150.75
396.576	96.75
396.801	88.75
397.025	89.75
397.249	85.75
397.474	70.75
397.698	78.75
397.922	91.75
398.147	97.75
398.371	84.75
398.595	82.75
398.82	87.75
399.044	90.75
399.268	75.75
399.492	86.75
399.717	74.75
399.941	73.75
400.165	76.75
400.389	84.75
400.613	91.75
400.837	96.75
401.062	88.75
401.286	90.75
401.51	93.75
401.734	63.75
401.958	92.75
402.182	68.75
402.406	66.75
402.63	89.75
402.854	89.75
403.078	72.75
403.302	86.75
403.526	95.75
403.75	76.75
403.974	75.75
404.198	85.75
404.422	75.75
404.645	85.75
404.869	88.75
405.093	89.75
405.317	85.75
405.541	77.75
405.765	77.75
405.988	74.75
406.212	90.75
406.436	84.75
406.66	75.75
406.883	88.75
407.107	78.75
407.331	86.75
407.555	79.75
407.778	86.75
408.002	74.75
408.226	64.75
408.449	70.75
408.673	80.75
408.896	98.75
409.12	87.75
409.344	80.75
409.567	77.75
409.791	86.75
410.014	80.75
410.238	97.75
410.461	74.75
410.685	72.75
410.908	89.75
411.132	77.75
411.355	85.75
411.578	78.75
411.802	88.75
412.025	86.75
412.249	76.75
412.472	77.75
412.695	84.75
412.919	70.75
413.142	79.75
413.365	80.75
413.589	89.75
413.812	77.75
414.035	92.75
414.258	91.75
414.482	89.75
414.705	83.75
414.928	93.75
415.151	80.75
415.374	76.75
415.597	97.75
415.821	78.75
416.044	73.75
416.267	73.75
416.49	78.75
416.713	83.75
416.936	87.75
417.159	92.75
417.382	86.75
417.605	76.75
417.828	76.75
418.051	91.75
418.274	79.75
418.497	92.75
418.72	80.75
418.943	76.75
419.166	80.75
419.389	82.75
419.611	77.75
419.834	86.75
420.057	88.75
420.28	80.75
420.503	91.75
420.726	83.75
420.948	78.75
421.171	83.75
421.394	82.75
421.617	84.75
421.839	78.75
422.062	64.75
422.285	94.75
422.507	82.75
422.73	81.75
422.953	87.75
423.175	78.75
423.398	71.75
423.621	78.75
423.843	71.75
424.066	83.75
424.288	76.75
424.511	90.75
424.733	72.75
424.956	99.75
425.178	77.75
425.401	89.75
425.623	90.75
425.846	84.75
426.068	77.75
426.291	82.75
426.513	71.75
426.735	94.75
426.958	88.75
427.18	89.75
427.402	82.75
427.625	79.75
427.847	78.75
428.069	80.75
428.292	87.75
428.514	78.75
428.736	87.75
428.958	84.75
429.181	83.75
429.403	79.75
429.625	59.75
429.847	72.75
430.069	84.75
430.292	82.75
430.514	81.75
430.736	92.75
430.958	88.75
431.18	83.75
431.402	90.75
431.624	84.75
431.846	81.75
432.068	81.75
432.29	76.75
432.512	75.75
432.734	80.75
432.956	76.75
433.178	69.75
433.4	75.75
433.622	93.75
433.844	83.75
434.066	91.75
434.287	86.75
434.509	76.75
434.731	83.75
434.953	85.75
435.175	92.75
435.397	89.75
435.618	86.75
435.84	76.75
436.062	90.75
436.284	96.75
436.505	72.75
436.727	71.75
436.949	80.75
437.17	82.75
437.392	79.75
437.614	67.75
437.835	78.75
438.057	79.75
438.278	74.75
438.5	91.75
438.721	84.75
438.943	94.75
439.165	85.75
439.386	81.75
439.608	88.75
439.829	89.75
440.05	92.75
440.272	77.75
440.493	87.75
440.715	87.75
440.936	90.75
441.158	85.75
441.379	81.75
441.6	89.75
441.822	80.75
442.043	77.75
442.264	72.75
442.486	80.75
442.707	81.75
442.928	76.75
443.149	84.75
443.371	89.75
443.592	89.75
443.813	84.75
444.034	88.75
444.255	96.75
444.476	76.75
444.698	82.75
444.919	87.75
445.14	156.75
445.361	119.75
445.582	93.75
445.803	88.75
446.024	89.75
446.245	78.75
446.466	83.75
446.687	83.75
446.908	83.75
447.129	75.75
447.35	100.75
447.571	71.75
447.792	80.75
448.013	79.75
448.234	83.75
448.455	72.75
448.675	100.75
448.896	88.75
449.117	88.75
449.338	93.75
449.559	90.75
449.779	72.75
450	76.75
450.221	87.75
450.442	80.75
450.662	76.75
450.883	79.75
451.104	86.75
451.324	86.75
451.545	73.75
451.766	84.75
451.986	80.75
452.207	85.75
452.428	89.75
452.648	91.75
452.869	83.75
453.089	86.75
453.31	79.75
453.53	92.75
453.751	85.75
453.971	86.75
454.192	77.75
454.412	69.75
454.633	84.75
454.853	72.75
455.073	68.75
455.294	87.75
455.514	85.75
455.734	80.75
455.955	77.75
456.175	78.75
456.395	69.75
456.616	86.75
456.836	91.75
457.056	73.75
457.276	70.75
457.497	74.75
457.717	97.75
457.937	88.75
458.157	68.75
458.377	85.75
458.598	73.75
458.818	76.75
459.038	83.75
459.258	80.75
459.478	79.75
459.698	89.75
459.918	87.75
460.138	84.75
460.358	88.75
460.578	84.75
460.798	78.75
461.018	82.75
461.238	78.75
461.458	88.75
461.678	81.75
461.898	76.75
462.118	82.75
462.338	93.75
462.558	86.75
462.777	79.75
462.997	84.75
463.217	78.75
463.437	79.75
463.657	78.75
463.876	79.75
464.096	88.75
464.316	78.75
464.536	74.75
464.755	71.75
464.975	75.75
465.195	69.75
465.414	87.75
465.634	82.75
465.854	86.75
466.073	83.75
466.293	76.75
466.512	81.75
466.732	90.75
466.951	77.75
467.171	83.75
467.391	87.75
467.61	84.75
467.829	73.75
468.049	66.75
468.268	89.75
468.488	88.75
468.707	78.75
468.927	71.75
469.146	83.75
469.365	85.75
469.585	93.75
469.804	83.75
470.023	79.75
470.243	79.75
470.462	81.75
470.681	73.75
470.901	94.75
471.12	78.75
471.339	91.75
471.558	78.75
471.777	72.75
471.997	74.75
472.216	92.75
472.435	71.75
472.654	80.75
472.873	101.75
473.092	79.75
473.311	96.75
473.53	104.75
473.749	95.75
473.968	70.75
474.187	93.75
474.406	70.75
474.625	86.75
474.844	90.75
475.063	73.75
475.282	72.75
475.501	94.75
475.72	89.75
475.939	68.75
476.158	72.75
476.377	80.75
476.596	81.75
476.814	75.75
477.033	85.75
477.252	78.75
477.471	87.75
477.69	84.75
477.908	86.75
478.127	76.75
478.346	71.75
478.564	97.75
478.783	80.75
479.002	77.75
479.22	77.75
479.439	91.75
479.658	79.75
479.876	84.75
480.095	75.75
480.313	89.75
480.532	73.75
480.751	78.75
480.969	91.75
481.188	97.75
481.406	96.75
481.624	84.75
481.843	77.75
482.061	76.75
482.28	62.75
482.498	73.75
482.717	85.75
482.935	79.75
483.153	91.75
483.372	92.75
483.59	86.75
483.808	73.75
484.027	96.75
484.245	77.75
484.463	75.75
484.681	91.75
484.9	100.75
485.118	91.75
485.336	82.75
485.554	85.75
485.772	77.75
485.99	80.75
486.209	65.75
486.427	72.75
486.645	79.75
486.863	93.75
487.081	79.75
487.299	92.75
487.517	78.75
487.735	83.75
487.953	92.75
488.171	91.75
488.389	85.75
488.607	82.75
488.825	93.75
489.043	96.75
489.261	100.75
489.479	75.75
489.696	91.75
489.914	76.75
490.132	92.75
490.35	84.75
490.568	76.75
490.786	83.75
491.003	64.75
491.221	84.75
491.439	95.75
491.657	92.75
491.874	79.75
492.092	78.75
492.31	92.75
492.527	94.75
492.745	88.75
492.963	84.75
493.18	98.75
493.398	79.75
493.615	88.75
493.833	95.75
494.05	98.75
494.268	89.75
494.485	86.75
494.703	73.75
494.92	73.75
495.138	83.75
495.355	94.75
495.573	80.75
495.79	88.75
496.008	84.75
496.225	89.75
496.442	77.75
496.66	86.75
496.877	85.75
497.094	68.75
497.312	77.75
497.529	94.75
497.746	92.75
497.963	68.75
498.181	92.75
498.398	87.75
498.615	82.75
498.832	92.75
499.049	89.75
499.267	94.75
499.484	98.75
499.701	61.75
499.918	79.75
500.135	93.75
500.352	84.75
500.569	85.75
500.786	79.75
501.003	78.75
501.22	73.75
501.437	90.75
501.654	91.75
501.871	85.75
502.088	86.75
502.305	71.75
502.522	84.75
502.739	86.75
502.956	81.75
503.172	90.75
503.389	80.75
503.606	82.75
503.823	85.75
504.04	76.75
504.256	86.75
504.473	79.75
504.69	77.75
504.907	94.75
505.123	71.75
505.34	86.75
505.557	88.75
505.773	86.75
505.99	82.75
506.207	88.75
506.423	78.75
506.64	92.75
506.856	86.75
507.073	93.75
507.289	86.75
507.506	95.75
507.722	80.75
507.939	66.75
508.155	76.75
508.372	86.75
508.588	94.75
508.805	75.75
509.021	84.75
509.238	88.75
509.454	88.75
509.67	77.75
509.887	86.75
510.103	85.75
510.319	81.75
510.536	90.75
510.752	88.75
510.968	75.75
511.184	80.75
511.401	87.75
511.617	79.75
511.833	73.75
512.049	85.75
512.265	94.75
512.481	85.75
512.698	70.75
512.914	76.75
513.13	88.75
513.346	90.75
513.562	86.75
513.778	84.75
513.994	77.75
514.21	74.75
514.426	75.75
514.642	90.75
514.858	80.75
515.074	84.75
515.29	96.75
515.506	78.75
515.721	89.75
515.937	96.75
516.153	72.75
516.369	86.75
516.585	85.75
516.801	76.75
517.016	84.75
517.232	84.75
517.448	92.75
517.664	91.75
517.879	86.75
518.095	83.75
518.311	87.75
518.527	96.75
518.742	87.75
518.958	91.75
519.173	65.75
519.389	77.75
519.605	83.75
519.82	86.75
