Data from Coke_Can_Side_HRD10591_00013.txt Node
Date: Wed Nov 05 15:42:13 EST 2025
User: Yrep
Spectrometer: HR+D1059
Trigger mode: 1
Integration Time (sec): 1.000000E-1
Scans to average: 1
Electric dark correction enabled: true
Nonlinearity correction enabled: false
Boxcar width: 0
XAxis mode: Wavelengths
Number of Pixels in Spectrum: 2048
>>>>>Begin Spectral Data<<<<<
223.165	-10.81
223.4	-10.81
223.635	-10.81
223.869	-15.81
224.104	-19.81
224.338	-17.81
224.573	-21.81
224.808	-8.81
225.042	-4.81
225.277	6.19
225.511	1.19
225.746	-8.81
225.98	4.19
226.215	9.19
226.449	-0.81
226.683	19.19
226.918	26.19
227.152	43.19
227.387	39.19
227.621	43.19
227.856	39.19
228.09	45.19
228.324	63.19
228.559	67.19
228.793	59.19
229.027	57.19
229.262	68.19
229.496	81.19
229.73	67.19
229.964	86.19
230.199	55.19
230.433	75.19
230.667	76.19
230.901	66.19
231.136	74.19
231.37	83.19
231.604	94.19
231.838	83.19
232.072	74.19
232.306	97.19
232.541	81.19
232.775	79.19
233.009	86.19
233.243	86.19
233.477	92.19
233.711	79.19
233.945	95.19
234.179	85.19
234.413	96.19
234.647	77.19
234.881	87.19
235.115	91.19
235.349	93.19
235.583	87.19
235.817	83.19
236.051	87.19
236.285	83.19
236.519	75.19
236.753	94.19
236.987	84.19
237.221	77.19
237.455	78.19
237.689	81.19
237.922	69.19
238.156	80.19
238.39	99.19
238.624	75.19
238.858	76.19
239.091	88.19
239.325	86.19
239.559	78.19
239.793	73.19
240.027	87.19
240.26	91.19
240.494	81.19
240.728	67.19
240.961	79.19
241.195	77.19
241.429	79.19
241.662	81.19
241.896	74.19
242.13	75.19
242.363	90.19
242.597	97.19
242.83	82.19
243.064	67.19
243.298	74.19
243.531	73.19
243.765	86.19
243.998	83.19
244.232	72.19
244.465	80.19
244.699	81.19
244.932	86.19
245.166	75.19
245.399	81.19
245.633	54.19
245.866	72.19
246.099	84.19
246.333	80.19
246.566	80.19
246.8	88.19
247.033	83.19
247.266	91.19
247.5	89.19
247.733	68.19
247.966	87.19
248.2	79.19
248.433	85.19
248.666	80.19
248.899	79.19
249.133	71.19
249.366	88.19
249.599	69.19
249.832	78.19
250.066	98.19
250.299	76.19
250.532	87.19
250.765	67.19
250.998	80.19
251.231	86.19
251.465	99.19
251.698	76.19
251.931	83.19
252.164	73.19
252.397	81.19
252.63	78.19
252.863	86.19
253.096	93.19
253.329	86.19
253.562	77.19
253.795	89.19
254.028	99.19
254.261	83.19
254.494	80.19
254.727	80.19
254.96	86.19
255.193	73.19
255.426	83.19
255.659	89.19
255.892	98.19
256.124	87.19
256.357	88.19
256.59	75.19
256.823	93.19
257.056	97.19
257.289	87.19
257.521	75.19
257.754	75.19
257.987	76.19
258.22	96.19
258.452	79.19
258.685	93.19
258.918	75.19
259.151	90.19
259.383	84.19
259.616	98.19
259.849	75.19
260.081	90.19
260.314	90.19
260.547	83.19
260.779	86.19
261.012	92.19
261.244	94.19
261.477	87.19
261.71	78.19
261.942	74.19
262.175	76.19
262.407	90.19
262.64	86.19
262.872	76.19
263.105	85.19
263.337	85.19
263.57	87.19
263.802	79.19
264.035	88.19
264.267	93.19
264.499	95.19
264.732	78.19
264.964	92.19
265.197	97.19
265.429	83.19
265.661	93.19
265.894	90.19
266.126	93.19
266.358	82.19
266.591	90.19
266.823	81.19
267.055	69.19
267.287	89.19
267.52	83.19
267.752	89.19
267.984	75.19
268.216	81.19
268.448	82.19
268.681	77.19
268.913	86.19
269.145	79.19
269.377	91.19
269.609	80.19
269.841	85.19
270.073	84.19
270.306	95.19
270.538	80.19
270.77	82.19
271.002	77.19
271.234	81.19
271.466	77.19
271.698	92.19
271.93	95.19
272.162	79.19
272.394	84.19
272.626	84.19
272.858	97.19
273.09	79.19
273.322	77.19
273.553	90.19
273.785	79.19
274.017	91.19
274.249	85.19
274.481	84.19
274.713	90.19
274.945	94.19
275.176	83.19
275.408	76.19
275.64	80.19
275.872	75.19
276.104	88.19
276.335	82.19
276.567	87.19
276.799	91.19
277.031	93.19
277.262	94.19
277.494	79.19
277.726	79.19
277.957	91.19
278.189	93.19
278.421	81.19
278.652	95.19
278.884	84.19
279.115	76.19
279.347	93.19
279.579	86.19
279.81	89.19
280.042	78.19
280.273	89.19
280.505	91.19
280.736	95.19
280.968	79.19
281.199	71.19
281.431	78.19
281.662	76.19
281.894	93.19
282.125	74.19
282.356	95.19
282.588	80.19
282.819	83.19
283.051	83.19
283.282	83.19
283.513	88.19
283.745	82.19
283.976	99.19
284.207	82.19
284.439	87.19
284.67	87.19
284.901	90.19
285.132	101.19
285.364	86.19
285.595	95.19
285.826	69.19
286.057	75.19
286.288	80.19
286.52	84.19
286.751	69.19
286.982	80.19
287.213	77.19
287.444	84.19
287.675	77.19
287.906	74.19
288.138	79.19
288.369	84.19
288.6	81.19
288.831	95.19
289.062	87.19
289.293	78.19
289.524	87.19
289.755	82.19
289.986	95.19
290.217	81.19
290.448	74.19
290.679	71.19
290.91	92.19
291.141	89.19
291.371	87.19
291.602	80.19
291.833	81.19
292.064	76.19
292.295	96.19
292.526	89.19
292.757	85.19
292.987	84.19
293.218	102.19
293.449	94.19
293.68	100.19
293.91	80.19
294.141	92.19
294.372	89.19
294.603	88.19
294.833	92.19
295.064	90.19
295.295	103.19
295.525	88.19
295.756	106.19
295.987	89.19
296.217	89.19
296.448	87.19
296.679	98.19
296.909	89.19
297.14	93.19
297.37	97.19
297.601	99.19
297.831	92.19
298.062	83.19
298.292	72.19
298.523	98.19
298.753	81.19
298.984	89.19
299.214	99.19
299.445	95.19
299.675	88.19
299.905	96.19
300.136	77.19
300.366	93.19
300.597	98.19
300.827	76.19
301.057	83.19
301.288	97.19
301.518	91.19
301.748	104.19
301.979	89.19
302.209	95.19
302.439	82.19
302.669	79.19
302.9	89.19
303.13	87.19
303.36	90.19
303.59	86.19
303.82	82.19
304.051	88.19
304.281	97.19
304.511	88.19
304.741	81.19
304.971	81.19
305.201	89.19
305.431	106.19
305.661	91.19
305.891	89.19
306.121	89.19
306.352	101.19
306.582	83.19
306.812	90.19
307.042	94.19
307.272	89.19
307.502	79.19
307.731	75.19
307.961	94.19
308.191	92.19
308.421	104.19
308.651	100.19
308.881	92.19
309.111	98.19
309.341	114.19
309.571	119.19
309.8	95.19
310.03	87.19
310.26	90.19
310.49	97.19
310.72	86.19
310.949	83.19
311.179	85.19
311.409	84.19
311.639	81.19
311.868	82.19
312.098	88.19
312.328	95.19
312.557	81.19
312.787	73.19
313.017	97.19
313.246	94.19
313.476	76.19
313.706	83.19
313.935	86.19
314.165	77.19
314.394	88.19
314.624	98.19
314.853	83.19
315.083	103.19
315.312	102.19
315.542	88.19
315.771	86.19
316.001	77.19
316.23	73.19
316.46	80.19
316.689	91.19
316.919	88.19
317.148	97.19
317.377	81.19
317.607	94.19
317.836	81.19
318.065	86.19
318.295	100.19
318.524	87.19
318.753	85.19
318.983	92.19
319.212	105.19
319.441	72.19
319.67	85.19
319.9	77.19
320.129	81.19
320.358	98.19
320.587	84.19
320.816	95.19
321.046	82.19
321.275	97.19
321.504	78.19
321.733	87.19
321.962	84.19
322.191	92.19
322.42	90.19
322.649	115.19
322.878	83.19
323.108	97.19
323.337	77.19
323.566	76.19
323.795	95.19
324.024	86.19
324.253	84.19
324.482	90.19
324.71	98.19
324.939	92.19
325.168	79.19
325.397	93.19
325.626	75.19
325.855	94.19
326.084	78.19
326.313	73.19
326.542	93.19
326.77	90.19
326.999	88.19
327.228	96.19
327.457	99.19
327.686	81.19
327.914	97.19
328.143	96.19
328.372	85.19
328.6	81.19
328.829	96.19
329.058	101.19
329.287	94.19
329.515	90.19
329.744	74.19
329.972	81.19
330.201	80.19
330.43	80.19
330.658	80.19
330.887	84.19
331.115	96.19
331.344	79.19
331.572	88.19
331.801	97.19
332.03	81.19
332.258	86.19
332.486	84.19
332.715	95.19
332.943	100.19
333.172	91.19
333.4	80.19
333.629	85.19
333.857	61.19
334.085	73.19
334.314	88.19
334.542	93.19
334.771	82.19
334.999	83.19
335.227	85.19
335.455	87.19
335.684	89.19
335.912	85.19
336.14	86.19
336.369	91.19
336.597	84.19
336.825	88.19
337.053	90.19
337.281	97.19
337.51	66.19
337.738	83.19
337.966	89.19
338.194	97.19
338.422	97.19
338.65	82.19
338.878	93.19
339.106	81.19
339.334	83.19
339.562	81.19
339.79	86.19
340.018	89.19
340.246	96.19
340.474	99.19
340.702	85.19
340.93	78.19
341.158	94.19
341.386	91.19
341.614	70.19
341.842	94.19
342.07	75.19
342.298	86.19
342.526	75.19
342.754	95.19
342.981	87.19
343.209	105.19
343.437	95.19
343.665	89.19
343.893	82.19
344.12	89.19
344.348	93.19
344.576	85.19
344.804	87.19
345.031	87.19
345.259	81.19
345.487	92.19
345.714	94.19
345.942	97.19
346.17	81.19
346.397	71.19
346.625	80.19
346.853	89.19
347.08	87.19
347.308	94.19
347.535	90.19
347.763	82.19
347.99	89.19
348.218	78.19
348.445	88.19
348.673	71.19
348.9	96.19
349.128	99.19
349.355	95.19
349.583	94.19
349.81	73.19
350.037	77.19
350.265	78.19
350.492	77.19
350.72	99.19
350.947	88.19
351.174	82.19
351.402	88.19
351.629	89.19
351.856	90.19
352.083	83.19
352.311	107.19
352.538	77.19
352.765	81.19
352.992	78.19
353.22	82.19
353.447	76.19
353.674	93.19
353.901	93.19
354.128	90.19
354.355	74.19
354.583	82.19
354.81	95.19
355.037	87.19
355.264	74.19
355.491	79.19
355.718	101.19
355.945	84.19
356.172	73.19
356.399	93.19
356.626	86.19
356.853	91.19
357.08	92.19
357.307	92.19
357.534	88.19
357.761	76.19
357.988	90.19
358.215	84.19
358.441	73.19
358.668	86.19
358.895	91.19
359.122	81.19
359.349	91.19
359.576	101.19
359.802	84.19
360.029	72.19
360.256	87.19
360.483	87.19
360.709	93.19
360.936	93.19
361.163	91.19
361.39	93.19
361.616	80.19
361.843	78.19
362.07	83.19
362.296	93.19
362.523	89.19
362.749	91.19
362.976	78.19
363.203	89.19
363.429	73.19
363.656	93.19
363.882	91.19
364.109	104.19
364.335	84.19
364.562	79.19
364.788	100.19
365.015	99.19
365.241	83.19
365.468	86.19
365.694	76.19
365.92	101.19
366.147	82.19
366.373	81.19
366.599	73.19
366.826	80.19
367.052	79.19
367.278	85.19
367.505	77.19
367.731	99.19
367.957	87.19
368.184	83.19
368.41	94.19
368.636	79.19
368.862	95.19
369.089	88.19
369.315	87.19
369.541	84.19
369.767	93.19
369.993	90.19
370.219	86.19
370.445	91.19
370.672	95.19
370.898	76.19
371.124	78.19
371.35	87.19
371.576	84.19
371.802	90.19
372.028	87.19
372.254	94.19
372.48	87.19
372.706	75.19
372.932	105.19
373.158	93.19
373.384	74.19
373.61	80.19
373.835	89.19
374.061	85.19
374.287	87.19
374.513	92.19
374.739	88.19
374.965	90.19
375.191	86.19
375.416	83.19
375.642	73.19
375.868	90.19
376.094	87.19
376.319	74.19
376.545	91.19
376.771	87.19
376.997	95.19
377.222	81.19
377.448	85.19
377.674	63.19
377.899	87.19
378.125	96.19
378.35	87.19
378.576	92.19
378.802	93.19
379.027	83.19
379.253	87.19
379.478	92.19
379.704	84.19
379.929	92.19
380.155	77.19
380.38	98.19
380.606	91.19
380.831	92.19
381.057	93.19
381.282	67.19
381.507	87.19
381.733	94.19
381.958	71.19
382.184	90.19
382.409	95.19
382.634	90.19
382.86	74.19
383.085	80.19
383.31	102.19
383.535	77.19
383.761	90.19
383.986	92.19
384.211	81.19
384.436	83.19
384.662	100.19
384.887	74.19
385.112	86.19
385.337	79.19
385.562	83.19
385.787	82.19
386.013	88.19
386.238	85.19
386.463	82.19
386.688	108.19
386.913	90.19
387.138	100.19
387.363	92.19
387.588	88.19
387.813	85.19
388.038	82.19
388.263	93.19
388.488	90.19
388.713	80.19
388.938	96.19
389.163	93.19
389.387	78.19
389.612	89.19
389.837	83.19
390.062	82.19
390.287	88.19
390.512	91.19
390.736	84.19
390.961	71.19
391.186	82.19
391.411	90.19
391.636	88.19
391.86	95.19
392.085	89.19
392.31	88.19
392.534	87.19
392.759	98.19
392.984	89.19
393.208	88.19
393.433	76.19
393.658	96.19
393.882	80.19
394.107	117.19
394.331	141.19
394.556	145.19
394.78	89.19
395.005	97.19
395.229	94.19
395.454	83.19
395.678	102.19
395.903	120.19
396.127	161.19
396.352	171.19
396.576	102.19
396.801	97.19
397.025	77.19
397.249	82.19
397.474	87.19
397.698	83.19
397.922	79.19
398.147	79.19
398.371	81.19
398.595	83.19
398.82	75.19
399.044	84.19
399.268	80.19
399.492	75.19
399.717	91.19
399.941	93.19
400.165	81.19
400.389	87.19
400.613	93.19
400.837	76.19
401.062	90.19
401.286	87.19
401.51	78.19
401.734	84.19
401.958	94.19
402.182	93.19
402.406	84.19
402.63	73.19
402.854	83.19
403.078	94.19
403.302	100.19
403.526	88.19
403.75	94.19
403.974	91.19
404.198	95.19
404.422	94.19
404.645	78.19
404.869	87.19
405.093	90.19
405.317	81.19
405.541	79.19
405.765	75.19
405.988	85.19
406.212	77.19
406.436	92.19
406.66	91.19
406.883	85.19
407.107	73.19
407.331	94.19
407.555	87.19
407.778	88.19
408.002	83.19
408.226	80.19
408.449	80.19
408.673	89.19
408.896	86.19
409.12	81.19
409.344	77.19
409.567	78.19
409.791	80.19
410.014	89.19
410.238	92.19
410.461	85.19
410.685	74.19
410.908	77.19
411.132	78.19
411.355	79.19
411.578	93.19
411.802	83.19
412.025	65.19
412.249	76.19
412.472	84.19
412.695	85.19
412.919	79.19
413.142	79.19
413.365	81.19
413.589	75.19
413.812	88.19
414.035	71.19
414.258	86.19
414.482	83.19
414.705	78.19
414.928	85.19
415.151	82.19
415.374	75.19
415.597	88.19
415.821	84.19
416.044	66.19
416.267	79.19
416.49	75.19
416.713	83.19
416.936	89.19
417.159	80.19
417.382	77.19
417.605	86.19
417.828	81.19
418.051	73.19
418.274	84.19
418.497	93.19
418.72	91.19
418.943	83.19
419.166	88.19
419.389	79.19
419.611	94.19
419.834	87.19
420.057	69.19
420.28	84.19
420.503	79.19
420.726	77.19
420.948	92.19
421.171	92.19
421.394	81.19
421.617	85.19
421.839	87.19
422.062	92.19
422.285	90.19
422.507	89.19
422.73	92.19
422.953	95.19
423.175	96.19
423.398	94.19
423.621	98.19
423.843	84.19
424.066	85.19
424.288	95.19
424.511	89.19
424.733	87.19
424.956	74.19
425.178	88.19
425.401	91.19
425.623	89.19
425.846	87.19
426.068	90.19
426.291	81.19
426.513	99.19
426.735	105.19
426.958	95.19
427.18	92.19
427.402	74.19
427.625	87.19
427.847	66.19
428.069	82.19
428.292	73.19
428.514	87.19
428.736	85.19
428.958	103.19
429.181	81.19
429.403	84.19
429.625	89.19
429.847	89.19
430.069	64.19
430.292	82.19
430.514	84.19
430.736	79.19
430.958	92.19
431.18	75.19
431.402	88.19
431.624	89.19
431.846	81.19
432.068	78.19
432.29	95.19
432.512	80.19
432.734	85.19
432.956	75.19
433.178	96.19
433.4	87.19
433.622	88.19
433.844	95.19
434.066	82.19
434.287	81.19
434.509	94.19
434.731	81.19
434.953	85.19
435.175	102.19
435.397	72.19
435.618	88.19
435.84	75.19
436.062	91.19
436.284	79.19
436.505	89.19
436.727	87.19
436.949	83.19
437.17	104.19
437.392	71.19
437.614	94.19
437.835	74.19
438.057	76.19
438.278	86.19
438.5	91.19
438.721	82.19
438.943	82.19
439.165	94.19
439.386	84.19
439.608	88.19
439.829	85.19
440.05	87.19
440.272	88.19
440.493	77.19
440.715	90.19
440.936	81.19
441.158	74.19
441.379	79.19
441.6	81.19
441.822	73.19
442.043	81.19
442.264	89.19
442.486	91.19
442.707	90.19
442.928	99.19
443.149	90.19
443.371	75.19
443.592	92.19
443.813	88.19
444.034	86.19
444.255	66.19
444.476	89.19
444.698	75.19
444.919	85.19
445.14	154.19
445.361	123.19
445.582	97.19
445.803	86.19
446.024	78.19
446.245	90.19
446.466	83.19
446.687	79.19
446.908	84.19
447.129	87.19
447.35	79.19
447.571	93.19
447.792	82.19
448.013	94.19
448.234	72.19
448.455	83.19
448.675	83.19
448.896	87.19
449.117	91.19
449.338	87.19
449.559	67.19
449.779	78.19
450	97.19
450.221	95.19
450.442	87.19
450.662	93.19
450.883	79.19
451.104	94.19
451.324	88.19
451.545	96.19
451.766	94.19
451.986	90.19
452.207	94.19
452.428	79.19
452.648	73.19
452.869	91.19
453.089	78.19
453.31	85.19
453.53	84.19
453.751	90.19
453.971	91.19
454.192	86.19
454.412	84.19
454.633	80.19
454.853	83.19
455.073	78.19
455.294	82.19
455.514	90.19
455.734	87.19
455.955	81.19
456.175	85.19
456.395	78.19
456.616	81.19
456.836	87.19
457.056	90.19
457.276	78.19
457.497	84.19
457.717	93.19
457.937	70.19
458.157	95.19
458.377	77.19
458.598	81.19
458.818	88.19
459.038	91.19
459.258	81.19
459.478	78.19
459.698	88.19
459.918	95.19
460.138	84.19
460.358	79.19
460.578	90.19
460.798	98.19
461.018	79.19
461.238	81.19
461.458	82.19
461.678	79.19
461.898	88.19
462.118	89.19
462.338	84.19
462.558	86.19
462.777	89.19
462.997	85.19
463.217	82.19
463.437	99.19
463.657	81.19
463.876	82.19
464.096	79.19
464.316	72.19
464.536	81.19
464.755	81.19
464.975	78.19
465.195	87.19
465.414	104.19
465.634	82.19
465.854	89.19
466.073	84.19
466.293	90.19
466.512	84.19
466.732	91.19
466.951	90.19
467.171	100.19
467.391	67.19
467.61	78.19
467.829	95.19
468.049	89.19
468.268	84.19
468.488	83.19
468.707	83.19
468.927	79.19
469.146	93.19
469.365	79.19
469.585	92.19
469.804	87.19
470.023	87.19
470.243	93.19
470.462	93.19
470.681	90.19
470.901	87.19
471.12	100.19
471.339	88.19
471.558	76.19
471.777	71.19
471.997	89.19
472.216	74.19
472.435	74.19
472.654	73.19
472.873	86.19
473.092	100.19
473.311	87.19
473.53	87.19
473.749	82.19
473.968	69.19
474.187	87.19
474.406	82.19
474.625	91.19
474.844	71.19
475.063	72.19
475.282	98.19
475.501	83.19
475.72	84.19
475.939	99.19
476.158	101.19
476.377	91.19
476.596	82.19
476.814	99.19
477.033	76.19
477.252	103.19
477.471	78.19
477.69	78.19
477.908	84.19
478.127	94.19
478.346	92.19
478.564	93.19
478.783	91.19
479.002	79.19
479.22	82.19
479.439	94.19
479.658	90.19
479.876	84.19
480.095	98.19
480.313	92.19
480.532	97.19
480.751	80.19
480.969	84.19
481.188	84.19
481.406	92.19
481.624	91.19
481.843	65.19
482.061	81.19
482.28	92.19
482.498	85.19
482.717	90.19
482.935	77.19
483.153	81.19
483.372	111.19
483.59	79.19
483.808	93.19
484.027	94.19
484.245	93.19
484.463	85.19
484.681	83.19
484.9	98.19
485.118	94.19
485.336	94.19
485.554	79.19
485.772	89.19
485.99	68.19
486.209	89.19
486.427	87.19
486.645	94.19
486.863	85.19
487.081	94.19
487.299	91.19
487.517	91.19
487.735	88.19
487.953	104.19
488.171	90.19
488.389	96.19
488.607	83.19
488.825	86.19
489.043	78.19
489.261	89.19
489.479	91.19
489.696	87.19
489.914	93.19
490.132	98.19
490.35	98.19
490.568	76.19
490.786	77.19
491.003	84.19
491.221	90.19
491.439	79.19
491.657	93.19
491.874	87.19
492.092	94.19
492.31	93.19
492.527	99.19
492.745	101.19
492.963	88.19
493.18	83.19
493.398	93.19
493.615	105.19
493.833	95.19
494.05	93.19
494.268	92.19
494.485	94.19
494.703	90.19
494.92	88.19
495.138	86.19
495.355	83.19
495.573	84.19
495.79	97.19
496.008	100.19
496.225	88.19
496.442	100.19
496.66	95.19
496.877	93.19
497.094	89.19
497.312	95.19
497.529	85.19
497.746	88.19
497.963	84.19
498.181	92.19
498.398	89.19
498.615	95.19
498.832	97.19
499.049	102.19
499.267	95.19
499.484	84.19
499.701	85.19
499.918	79.19
500.135	71.19
500.352	102.19
500.569	91.19
500.786	84.19
501.003	78.19
501.22	80.19
501.437	73.19
501.654	86.19
501.871	95.19
502.088	86.19
502.305	90.19
502.522	85.19
502.739	90.19
502.956	89.19
503.172	97.19
503.389	84.19
503.606	83.19
503.823	91.19
504.04	88.19
504.256	93.19
504.473	90.19
504.69	80.19
504.907	83.19
505.123	87.19
505.34	81.19
505.557	71.19
505.773	86.19
505.99	91.19
506.207	94.19
506.423	94.19
506.64	80.19
506.856	78.19
507.073	81.19
507.289	84.19
507.506	93.19
507.722	90.19
507.939	79.19
508.155	93.19
508.372	89.19
508.588	81.19
508.805	73.19
509.021	94.19
509.238	78.19
509.454	81.19
509.67	86.19
509.887	97.19
510.103	84.19
510.319	88.19
510.536	77.19
510.752	89.19
510.968	83.19
511.184	83.19
511.401	88.19
511.617	84.19
511.833	87.19
512.049	79.19
512.265	83.19
512.481	91.19
512.698	100.19
512.914	93.19
513.13	86.19
513.346	95.19
513.562	98.19
513.778	96.19
513.994	82.19
514.21	87.19
514.426	98.19
514.642	104.19
514.858	91.19
515.074	92.19
515.29	94.19
515.506	87.19
515.721	84.19
515.937	105.19
516.153	87.19
516.369	81.19
516.585	85.19
516.801	83.19
517.016	83.19
517.232	88.19
517.448	87.19
517.664	83.19
517.879	85.19
518.095	87.19
518.311	84.19
518.527	92.19
518.742	94.19
518.958	85.19
519.173	87.19
519.389	106.19
