Data from Coke_Can_Side_HRD10591_00009.txt Node
Date: Wed Nov 05 15:42:11 EST 2025
User: Yrep
Spectrometer: HR+D1059
Trigger mode: 1
Integration Time (sec): 1.000000E-1
Scans to average: 1
Electric dark correction enabled: true
Nonlinearity correction enabled: false
Boxcar width: 0
XAxis mode: Wavelengths
Number of Pixels in Spectrum: 2048
>>>>>Begin Spectral Data<<<<<
223.165	-17.75
223.4	-17.75
223.635	-17.75
223.869	-22.75
224.104	-24.75
224.338	-12.75
224.573	-12.75
224.808	-25.75
225.042	-12.75
225.277	-5.75
225.511	9.25
225.746	1.25
225.98	-7.75
226.215	7.25
226.449	20.25
226.683	15.25
226.918	42.25
227.152	47.25
227.387	22.25
227.621	30.25
227.856	46.25
228.09	46.25
228.324	60.25
228.559	61.25
228.793	76.25
229.027	66.25
229.262	64.25
229.496	52.25
229.73	73.25
229.964	81.25
230.199	74.25
230.433	68.25
230.667	76.25
230.901	71.25
231.136	66.25
231.37	80.25
231.604	68.25
231.838	74.25
232.072	83.25
232.306	77.25
232.541	80.25
232.775	72.25
233.009	62.25
233.243	76.25
233.477	88.25
233.711	73.25
233.945	82.25
234.179	87.25
234.413	87.25
234.647	92.25
234.881	74.25
235.115	79.25
235.349	81.25
235.583	79.25
235.817	85.25
236.051	76.25
236.285	72.25
236.519	75.25
236.753	70.25
236.987	81.25
237.221	79.25
237.455	83.25
237.689	91.25
237.922	66.25
238.156	73.25
238.39	81.25
238.624	76.25
238.858	70.25
239.091	87.25
239.325	72.25
239.559	81.25
239.793	75.25
240.027	81.25
240.26	71.25
240.494	87.25
240.728	79.25
240.961	81.25
241.195	86.25
241.429	76.25
241.662	86.25
241.896	78.25
242.13	77.25
242.363	72.25
242.597	60.25
242.83	73.25
243.064	80.25
243.298	69.25
243.531	85.25
243.765	73.25
243.998	76.25
244.232	83.25
244.465	71.25
244.699	79.25
244.932	74.25
245.166	75.25
245.399	84.25
245.633	75.25
245.866	76.25
246.099	77.25
246.333	70.25
246.566	81.25
246.8	61.25
247.033	67.25
247.266	73.25
247.5	89.25
247.733	77.25
247.966	79.25
248.2	80.25
248.433	71.25
248.666	84.25
248.899	74.25
249.133	69.25
249.366	91.25
249.599	74.25
249.832	66.25
250.066	76.25
250.299	64.25
250.532	72.25
250.765	85.25
250.998	64.25
251.231	96.25
251.465	78.25
251.698	81.25
251.931	66.25
252.164	84.25
252.397	75.25
252.63	73.25
252.863	77.25
253.096	82.25
253.329	87.25
253.562	83.25
253.795	80.25
254.028	71.25
254.261	86.25
254.494	81.25
254.727	72.25
254.96	94.25
255.193	92.25
255.426	81.25
255.659	81.25
255.892	72.25
256.124	78.25
256.357	92.25
256.59	93.25
256.823	88.25
257.056	80.25
257.289	85.25
257.521	83.25
257.754	76.25
257.987	83.25
258.22	90.25
258.452	85.25
258.685	87.25
258.918	73.25
259.151	68.25
259.383	75.25
259.616	78.25
259.849	88.25
260.081	74.25
260.314	81.25
260.547	74.25
260.779	84.25
261.012	81.25
261.244	93.25
261.477	96.25
261.71	75.25
261.942	75.25
262.175	76.25
262.407	71.25
262.64	85.25
262.872	85.25
263.105	103.25
263.337	81.25
263.57	81.25
263.802	89.25
264.035	72.25
264.267	82.25
264.499	85.25
264.732	81.25
264.964	78.25
265.197	88.25
265.429	89.25
265.661	98.25
265.894	80.25
266.126	83.25
266.358	85.25
266.591	76.25
266.823	74.25
267.055	80.25
267.287	82.25
267.52	81.25
267.752	75.25
267.984	64.25
268.216	75.25
268.448	87.25
268.681	77.25
268.913	79.25
269.145	71.25
269.377	77.25
269.609	82.25
269.841	77.25
270.073	79.25
270.306	73.25
270.538	71.25
270.77	71.25
271.002	81.25
271.234	102.25
271.466	78.25
271.698	74.25
271.93	79.25
272.162	72.25
272.394	91.25
272.626	87.25
272.858	89.25
273.09	72.25
273.322	72.25
273.553	79.25
273.785	94.25
274.017	67.25
274.249	64.25
274.481	82.25
274.713	81.25
274.945	75.25
275.176	79.25
275.408	99.25
275.64	96.25
275.872	78.25
276.104	81.25
276.335	80.25
276.567	90.25
276.799	81.25
277.031	91.25
277.262	88.25
277.494	74.25
277.726	84.25
277.957	86.25
278.189	99.25
278.421	79.25
278.652	75.25
278.884	92.25
279.115	86.25
279.347	93.25
279.579	94.25
279.81	87.25
280.042	91.25
280.273	92.25
280.505	85.25
280.736	91.25
280.968	74.25
281.199	79.25
281.431	72.25
281.662	85.25
281.894	88.25
282.125	85.25
282.356	93.25
282.588	84.25
282.819	63.25
283.051	73.25
283.282	72.25
283.513	79.25
283.745	85.25
283.976	80.25
284.207	99.25
284.439	78.25
284.67	84.25
284.901	96.25
285.132	79.25
285.364	75.25
285.595	93.25
285.826	92.25
286.057	77.25
286.288	83.25
286.52	68.25
286.751	73.25
286.982	75.25
287.213	69.25
287.444	79.25
287.675	80.25
287.906	81.25
288.138	93.25
288.369	79.25
288.6	83.25
288.831	71.25
289.062	80.25
289.293	99.25
289.524	85.25
289.755	80.25
289.986	82.25
290.217	85.25
290.448	85.25
290.679	85.25
290.91	94.25
291.141	73.25
291.371	89.25
291.602	75.25
291.833	75.25
292.064	77.25
292.295	77.25
292.526	86.25
292.757	94.25
292.987	91.25
293.218	80.25
293.449	83.25
293.68	87.25
293.91	72.25
294.141	95.25
294.372	95.25
294.603	86.25
294.833	81.25
295.064	93.25
295.295	80.25
295.525	77.25
295.756	85.25
295.987	85.25
296.217	79.25
296.448	80.25
296.679	80.25
296.909	85.25
297.14	79.25
297.37	80.25
297.601	80.25
297.831	88.25
298.062	94.25
298.292	93.25
298.523	86.25
298.753	84.25
298.984	95.25
299.214	79.25
299.445	79.25
299.675	94.25
299.905	99.25
300.136	88.25
300.366	86.25
300.597	79.25
300.827	81.25
301.057	96.25
301.288	96.25
301.518	79.25
301.748	80.25
301.979	89.25
302.209	101.25
302.439	83.25
302.669	84.25
302.9	87.25
303.13	92.25
303.36	86.25
303.59	91.25
303.82	75.25
304.051	92.25
304.281	96.25
304.511	78.25
304.741	90.25
304.971	80.25
305.201	77.25
305.431	87.25
305.661	87.25
305.891	80.25
306.121	83.25
306.352	92.25
306.582	89.25
306.812	77.25
307.042	84.25
307.272	91.25
307.502	87.25
307.731	94.25
307.961	100.25
308.191	89.25
308.421	104.25
308.651	99.25
308.881	88.25
309.111	108.25
309.341	106.25
309.571	108.25
309.8	81.25
310.03	96.25
310.26	84.25
310.49	99.25
310.72	92.25
310.949	78.25
311.179	73.25
311.409	90.25
311.639	83.25
311.868	79.25
312.098	75.25
312.328	89.25
312.557	89.25
312.787	93.25
313.017	91.25
313.246	94.25
313.476	111.25
313.706	94.25
313.935	97.25
314.165	81.25
314.394	93.25
314.624	81.25
314.853	95.25
315.083	87.25
315.312	72.25
315.542	87.25
315.771	87.25
316.001	79.25
316.23	83.25
316.46	93.25
316.689	82.25
316.919	80.25
317.148	86.25
317.377	90.25
317.607	97.25
317.836	92.25
318.065	87.25
318.295	95.25
318.524	85.25
318.753	87.25
318.983	80.25
319.212	80.25
319.441	94.25
319.67	89.25
319.9	89.25
320.129	71.25
320.358	89.25
320.587	91.25
320.816	89.25
321.046	102.25
321.275	95.25
321.504	81.25
321.733	96.25
321.962	80.25
322.191	85.25
322.42	89.25
322.649	76.25
322.878	77.25
323.108	74.25
323.337	88.25
323.566	92.25
323.795	96.25
324.024	97.25
324.253	84.25
324.482	91.25
324.71	96.25
324.939	86.25
325.168	72.25
325.397	69.25
325.626	84.25
325.855	82.25
326.084	86.25
326.313	81.25
326.542	83.25
326.77	80.25
326.999	77.25
327.228	93.25
327.457	83.25
327.686	79.25
327.914	90.25
328.143	90.25
328.372	82.25
328.6	95.25
328.829	83.25
329.058	75.25
329.287	97.25
329.515	87.25
329.744	84.25
329.972	99.25
330.201	98.25
330.43	88.25
330.658	79.25
330.887	67.25
331.115	79.25
331.344	87.25
331.572	85.25
331.801	82.25
332.03	78.25
332.258	85.25
332.486	84.25
332.715	87.25
332.943	83.25
333.172	91.25
333.4	87.25
333.629	95.25
333.857	92.25
334.085	99.25
334.314	78.25
334.542	85.25
334.771	83.25
334.999	84.25
335.227	76.25
335.455	72.25
335.684	90.25
335.912	101.25
336.14	69.25
336.369	79.25
336.597	99.25
336.825	80.25
337.053	78.25
337.281	82.25
337.51	82.25
337.738	88.25
337.966	96.25
338.194	82.25
338.422	73.25
338.65	85.25
338.878	84.25
339.106	80.25
339.334	95.25
339.562	69.25
339.79	88.25
340.018	89.25
340.246	70.25
340.474	79.25
340.702	92.25
340.93	93.25
341.158	85.25
341.386	80.25
341.614	85.25
341.842	81.25
342.07	93.25
342.298	102.25
342.526	86.25
342.754	86.25
342.981	81.25
343.209	89.25
343.437	79.25
343.665	71.25
343.893	73.25
344.12	90.25
344.348	81.25
344.576	87.25
344.804	83.25
345.031	86.25
345.259	74.25
345.487	88.25
345.714	92.25
345.942	91.25
346.17	85.25
346.397	77.25
346.625	93.25
346.853	92.25
347.08	94.25
347.308	92.25
347.535	94.25
347.763	70.25
347.99	88.25
348.218	79.25
348.445	92.25
348.673	82.25
348.9	93.25
349.128	88.25
349.355	86.25
349.583	94.25
349.81	88.25
350.037	82.25
350.265	82.25
350.492	86.25
350.72	102.25
350.947	78.25
351.174	74.25
351.402	88.25
351.629	95.25
351.856	98.25
352.083	79.25
352.311	81.25
352.538	66.25
352.765	85.25
352.992	99.25
353.22	90.25
353.447	90.25
353.674	89.25
353.901	73.25
354.128	88.25
354.355	88.25
354.583	82.25
354.81	84.25
355.037	97.25
355.264	85.25
355.491	91.25
355.718	87.25
355.945	79.25
356.172	79.25
356.399	77.25
356.626	86.25
356.853	96.25
357.08	92.25
357.307	93.25
357.534	83.25
357.761	80.25
357.988	89.25
358.215	73.25
358.441	87.25
358.668	90.25
358.895	96.25
359.122	88.25
359.349	81.25
359.576	82.25
359.802	83.25
360.029	81.25
360.256	92.25
360.483	77.25
360.709	68.25
360.936	85.25
361.163	74.25
361.39	80.25
361.616	65.25
361.843	87.25
362.07	93.25
362.296	87.25
362.523	91.25
362.749	97.25
362.976	81.25
363.203	90.25
363.429	86.25
363.656	114.25
363.882	80.25
364.109	65.25
364.335	90.25
364.562	87.25
364.788	88.25
365.015	95.25
365.241	80.25
365.468	92.25
365.694	87.25
365.92	89.25
366.147	76.25
366.373	64.25
366.599	83.25
366.826	101.25
367.052	77.25
367.278	85.25
367.505	85.25
367.731	87.25
367.957	92.25
368.184	85.25
368.41	90.25
368.636	77.25
368.862	91.25
369.089	84.25
369.315	90.25
369.541	89.25
369.767	85.25
369.993	79.25
370.219	69.25
370.445	92.25
370.672	85.25
370.898	86.25
371.124	92.25
371.35	83.25
371.576	79.25
371.802	87.25
372.028	86.25
372.254	85.25
372.48	85.25
372.706	80.25
372.932	84.25
373.158	84.25
373.384	94.25
373.61	91.25
373.835	90.25
374.061	81.25
374.287	89.25
374.513	81.25
374.739	82.25
374.965	79.25
375.191	79.25
375.416	82.25
375.642	77.25
375.868	91.25
376.094	85.25
376.319	81.25
376.545	78.25
376.771	83.25
376.997	76.25
377.222	98.25
377.448	81.25
377.674	73.25
377.899	85.25
378.125	96.25
378.35	86.25
378.576	83.25
378.802	78.25
379.027	87.25
379.253	91.25
379.478	82.25
379.704	86.25
379.929	81.25
380.155	91.25
380.38	76.25
380.606	96.25
380.831	99.25
381.057	102.25
381.282	93.25
381.507	90.25
381.733	80.25
381.958	91.25
382.184	88.25
382.409	87.25
382.634	75.25
382.86	82.25
383.085	91.25
383.31	77.25
383.535	85.25
383.761	90.25
383.986	79.25
384.211	85.25
384.436	87.25
384.662	88.25
384.887	80.25
385.112	89.25
385.337	76.25
385.562	91.25
385.787	97.25
386.013	81.25
386.238	77.25
386.463	88.25
386.688	97.25
386.913	79.25
387.138	88.25
387.363	77.25
387.588	85.25
387.813	82.25
388.038	84.25
388.263	79.25
388.488	71.25
388.713	81.25
388.938	89.25
389.163	87.25
389.387	88.25
389.612	71.25
389.837	87.25
390.062	91.25
390.287	86.25
390.512	80.25
390.736	87.25
390.961	85.25
391.186	86.25
391.411	80.25
391.636	70.25
391.86	78.25
392.085	90.25
392.31	93.25
392.534	82.25
392.759	91.25
392.984	82.25
393.208	87.25
393.433	78.25
393.658	94.25
393.882	97.25
394.107	102.25
394.331	134.25
394.556	128.25
394.78	110.25
395.005	87.25
395.229	77.25
395.454	92.25
395.678	92.25
395.903	117.25
396.127	150.25
396.352	163.25
396.576	89.25
396.801	95.25
397.025	74.25
397.249	97.25
397.474	100.25
397.698	78.25
397.922	81.25
398.147	85.25
398.371	86.25
398.595	79.25
398.82	71.25
399.044	77.25
399.268	78.25
399.492	90.25
399.717	90.25
399.941	90.25
400.165	93.25
400.389	84.25
400.613	86.25
400.837	88.25
401.062	96.25
401.286	95.25
401.51	87.25
401.734	87.25
401.958	78.25
402.182	81.25
402.406	88.25
402.63	93.25
402.854	83.25
403.078	96.25
403.302	82.25
403.526	96.25
403.75	83.25
403.974	82.25
404.198	89.25
404.422	95.25
404.645	78.25
404.869	88.25
405.093	83.25
405.317	87.25
405.541	87.25
405.765	94.25
405.988	78.25
406.212	76.25
406.436	73.25
406.66	78.25
406.883	84.25
407.107	83.25
407.331	87.25
407.555	92.25
407.778	81.25
408.002	73.25
408.226	84.25
408.449	81.25
408.673	87.25
408.896	77.25
409.12	67.25
409.344	88.25
409.567	89.25
409.791	69.25
410.014	86.25
410.238	82.25
410.461	71.25
410.685	84.25
410.908	76.25
411.132	78.25
411.355	86.25
411.578	97.25
411.802	93.25
412.025	87.25
412.249	85.25
412.472	91.25
412.695	89.25
412.919	87.25
413.142	97.25
413.365	88.25
413.589	80.25
413.812	83.25
414.035	88.25
414.258	85.25
414.482	76.25
414.705	94.25
414.928	75.25
415.151	85.25
415.374	79.25
415.597	96.25
415.821	75.25
416.044	81.25
416.267	77.25
416.49	81.25
416.713	99.25
416.936	77.25
417.159	69.25
417.382	74.25
417.605	81.25
417.828	91.25
418.051	84.25
418.274	82.25
418.497	77.25
418.72	84.25
418.943	86.25
419.166	87.25
419.389	74.25
419.611	73.25
419.834	81.25
420.057	96.25
420.28	81.25
420.503	80.25
420.726	76.25
420.948	66.25
421.171	86.25
421.394	77.25
421.617	82.25
421.839	87.25
422.062	86.25
422.285	82.25
422.507	92.25
422.73	89.25
422.953	83.25
423.175	96.25
423.398	79.25
423.621	79.25
423.843	97.25
424.066	92.25
424.288	95.25
424.511	92.25
424.733	84.25
424.956	91.25
425.178	66.25
425.401	68.25
425.623	80.25
425.846	91.25
426.068	85.25
426.291	86.25
426.513	77.25
426.735	86.25
426.958	77.25
427.18	90.25
427.402	94.25
427.625	85.25
427.847	76.25
428.069	92.25
428.292	92.25
428.514	93.25
428.736	81.25
428.958	89.25
429.181	75.25
429.403	86.25
429.625	81.25
429.847	76.25
430.069	79.25
430.292	99.25
430.514	75.25
430.736	83.25
430.958	97.25
431.18	68.25
431.402	89.25
431.624	85.25
431.846	77.25
432.068	95.25
432.29	85.25
432.512	78.25
432.734	87.25
432.956	79.25
433.178	82.25
433.4	88.25
433.622	82.25
433.844	89.25
434.066	78.25
434.287	89.25
434.509	71.25
434.731	79.25
434.953	78.25
435.175	76.25
435.397	93.25
435.618	78.25
435.84	87.25
436.062	81.25
436.284	88.25
436.505	75.25
436.727	90.25
436.949	69.25
437.17	80.25
437.392	81.25
437.614	85.25
437.835	86.25
438.057	91.25
438.278	83.25
438.5	85.25
438.721	84.25
438.943	79.25
439.165	84.25
439.386	81.25
439.608	69.25
439.829	79.25
440.05	79.25
440.272	91.25
440.493	82.25
440.715	85.25
440.936	90.25
441.158	89.25
441.379	76.25
441.6	80.25
441.822	87.25
442.043	87.25
442.264	98.25
442.486	81.25
442.707	81.25
442.928	88.25
443.149	79.25
443.371	103.25
443.592	67.25
443.813	77.25
444.034	81.25
444.255	89.25
444.476	68.25
444.698	91.25
444.919	74.25
445.14	148.25
445.361	111.25
445.582	82.25
445.803	79.25
446.024	89.25
446.245	99.25
446.466	75.25
446.687	87.25
446.908	85.25
447.129	80.25
447.35	85.25
447.571	63.25
447.792	84.25
448.013	75.25
448.234	67.25
448.455	79.25
448.675	74.25
448.896	74.25
449.117	95.25
449.338	68.25
449.559	91.25
449.779	88.25
450	93.25
450.221	90.25
450.442	75.25
450.662	83.25
450.883	83.25
451.104	84.25
451.324	82.25
451.545	82.25
451.766	81.25
451.986	77.25
452.207	94.25
452.428	76.25
452.648	80.25
452.869	88.25
453.089	84.25
453.31	98.25
453.53	90.25
453.751	81.25
453.971	79.25
454.192	85.25
454.412	84.25
454.633	68.25
454.853	73.25
455.073	87.25
455.294	87.25
455.514	88.25
455.734	78.25
455.955	97.25
456.175	74.25
456.395	75.25
456.616	86.25
456.836	82.25
457.056	93.25
457.276	99.25
457.497	95.25
457.717	94.25
457.937	79.25
458.157	84.25
458.377	87.25
458.598	84.25
458.818	82.25
459.038	86.25
459.258	78.25
459.478	67.25
459.698	76.25
459.918	68.25
460.138	77.25
460.358	86.25
460.578	85.25
460.798	77.25
461.018	85.25
461.238	79.25
461.458	73.25
461.678	74.25
461.898	84.25
462.118	83.25
462.338	80.25
462.558	95.25
462.777	96.25
462.997	91.25
463.217	81.25
463.437	87.25
463.657	87.25
463.876	68.25
464.096	80.25
464.316	78.25
464.536	96.25
464.755	75.25
464.975	82.25
465.195	79.25
465.414	87.25
465.634	80.25
465.854	85.25
466.073	75.25
466.293	85.25
466.512	90.25
466.732	85.25
466.951	87.25
467.171	85.25
467.391	63.25
467.61	83.25
467.829	89.25
468.049	70.25
468.268	86.25
468.488	86.25
468.707	73.25
468.927	75.25
469.146	87.25
469.365	80.25
469.585	86.25
469.804	93.25
470.023	85.25
470.243	86.25
470.462	81.25
470.681	101.25
470.901	101.25
471.12	77.25
471.339	83.25
471.558	85.25
471.777	95.25
471.997	78.25
472.216	88.25
472.435	83.25
472.654	84.25
472.873	84.25
473.092	79.25
473.311	77.25
473.53	77.25
473.749	80.25
473.968	85.25
474.187	72.25
474.406	83.25
474.625	86.25
474.844	80.25
475.063	80.25
475.282	88.25
475.501	89.25
475.72	99.25
475.939	97.25
476.158	84.25
476.377	90.25
476.596	82.25
476.814	89.25
477.033	93.25
477.252	92.25
477.471	77.25
477.69	100.25
477.908	88.25
478.127	111.25
478.346	81.25
478.564	78.25
478.783	94.25
479.002	88.25
479.22	87.25
479.439	87.25
479.658	95.25
479.876	96.25
480.095	93.25
480.313	78.25
480.532	85.25
480.751	98.25
480.969	95.25
481.188	92.25
481.406	75.25
481.624	89.25
481.843	89.25
482.061	79.25
482.28	86.25
482.498	82.25
482.717	73.25
482.935	85.25
483.153	74.25
483.372	89.25
483.59	79.25
483.808	96.25
484.027	78.25
484.245	87.25
484.463	89.25
484.681	84.25
484.9	85.25
485.118	92.25
485.336	100.25
485.554	74.25
485.772	92.25
485.99	84.25
486.209	92.25
486.427	78.25
486.645	81.25
486.863	84.25
487.081	71.25
487.299	88.25
487.517	75.25
487.735	97.25
487.953	101.25
488.171	95.25
488.389	96.25
488.607	90.25
488.825	88.25
489.043	86.25
489.261	78.25
489.479	87.25
489.696	79.25
489.914	74.25
490.132	80.25
490.35	79.25
490.568	85.25
490.786	82.25
491.003	94.25
491.221	73.25
491.439	75.25
491.657	86.25
491.874	82.25
492.092	109.25
492.31	96.25
492.527	96.25
492.745	100.25
492.963	81.25
493.18	95.25
493.398	82.25
493.615	78.25
493.833	76.25
494.05	79.25
494.268	87.25
494.485	89.25
494.703	85.25
494.92	87.25
495.138	90.25
495.355	76.25
495.573	99.25
495.79	79.25
496.008	80.25
496.225	86.25
496.442	93.25
496.66	81.25
496.877	86.25
497.094	86.25
497.312	85.25
497.529	101.25
497.746	84.25
497.963	102.25
498.181	78.25
498.398	95.25
498.615	80.25
498.832	86.25
499.049	69.25
499.267	81.25
499.484	91.25
499.701	100.25
499.918	84.25
500.135	87.25
500.352	81.25
500.569	83.25
500.786	87.25
501.003	98.25
501.22	84.25
501.437	81.25
501.654	79.25
501.871	88.25
502.088	71.25
502.305	82.25
502.522	80.25
502.739	87.25
502.956	87.25
503.172	77.25
503.389	82.25
503.606	87.25
503.823	90.25
504.04	84.25
504.256	84.25
504.473	71.25
504.69	103.25
504.907	84.25
505.123	85.25
505.34	73.25
505.557	79.25
505.773	77.25
505.99	79.25
506.207	85.25
506.423	79.25
506.64	90.25
506.856	94.25
507.073	76.25
507.289	84.25
507.506	76.25
507.722	95.25
507.939	81.25
508.155	84.25
508.372	76.25
508.588	100.25
508.805	81.25
509.021	89.25
509.238	80.25
509.454	71.25
509.67	85.25
509.887	80.25
510.103	89.25
510.319	84.25
510.536	79.25
510.752	91.25
510.968	83.25
511.184	81.25
511.401	89.25
511.617	75.25
511.833	94.25
512.049	89.25
512.265	82.25
512.481	75.25
512.698	74.25
512.914	102.25
513.13	88.25
513.346	87.25
513.562	93.25
513.778	87.25
513.994	86.25
514.21	82.25
514.426	100.25
514.642	82.25
514.858	79.25
515.074	77.25
515.29	85.25
515.506	85.25
515.721	93.25
515.937	102.25
516.153	78.25
516.369	87.25
516.585	91.25
516.801	78.25
517.016	83.25
517.232	91.25
517.448	80.25
517.664	102.25
517.879	86.25
518.095	87.25
518.311	75.25
518.527	86.25
518.742	90.25
518.958	83.25
519.173	75.25
519.389	80.25
519.605	83.25
