Data from Coke_Can_Side_HRD10591_00006.txt Node
Date: Wed Nov 05 15:42:09 EST 2025
User: Yrep
Spectrometer: HR+D1059
Trigger mode: 1
Integration Time (sec): 1.000000E-1
Scans to average: 1
Electric dark correction enabled: true
Nonlinearity correction enabled: false
Boxcar width: 0
XAxis mode: Wavelengths
Number of Pixels in Spectrum: 2048
>>>>>Begin Spectral Data<<<<<
223.165	-9.56
223.4	-9.56
223.635	-9.56
223.869	-16.56
224.104	-15.56
224.338	-15.56
224.573	-8.56
224.808	-4.56
225.042	-13.56
225.277	-12.56
225.511	-14.56
225.746	-0.56
225.98	15.44
226.215	9.44
226.449	12.44
226.683	16.44
226.918	23.44
227.152	34.44
227.387	25.44
227.621	37.44
227.856	52.44
228.09	52.44
228.324	38.44
228.559	52.44
228.793	48.44
229.027	66.44
229.262	52.44
229.496	63.44
229.73	67.44
229.964	76.44
230.199	66.44
230.433	75.44
230.667	83.44
230.901	72.44
231.136	68.44
231.37	74.44
231.604	82.44
231.838	72.44
232.072	72.44
232.306	91.44
232.541	71.44
232.775	73.44
233.009	78.44
233.243	82.44
233.477	77.44
233.711	90.44
233.945	93.44
234.179	88.44
234.413	99.44
234.647	77.44
234.881	80.44
235.115	79.44
235.349	87.44
235.583	82.44
235.817	76.44
236.051	72.44
236.285	75.44
236.519	77.44
236.753	68.44
236.987	86.44
237.221	80.44
237.455	74.44
237.689	82.44
237.922	83.44
238.156	88.44
238.39	68.44
238.624	71.44
238.858	63.44
239.091	72.44
239.325	81.44
239.559	75.44
239.793	73.44
240.027	80.44
240.26	62.44
240.494	70.44
240.728	70.44
240.961	71.44
241.195	92.44
241.429	69.44
241.662	76.44
241.896	74.44
242.13	76.44
242.363	77.44
242.597	91.44
242.83	78.44
243.064	68.44
243.298	82.44
243.531	76.44
243.765	75.44
243.998	71.44
244.232	76.44
244.465	73.44
244.699	84.44
244.932	64.44
245.166	87.44
245.399	85.44
245.633	73.44
245.866	86.44
246.099	82.44
246.333	95.44
246.566	77.44
246.8	66.44
247.033	84.44
247.266	72.44
247.5	76.44
247.733	72.44
247.966	74.44
248.2	75.44
248.433	57.44
248.666	77.44
248.899	74.44
249.133	73.44
249.366	82.44
249.599	80.44
249.832	79.44
250.066	78.44
250.299	77.44
250.532	91.44
250.765	82.44
250.998	75.44
251.231	72.44
251.465	88.44
251.698	87.44
251.931	79.44
252.164	72.44
252.397	86.44
252.63	67.44
252.863	71.44
253.096	86.44
253.329	78.44
253.562	91.44
253.795	88.44
254.028	78.44
254.261	78.44
254.494	85.44
254.727	78.44
254.96	91.44
255.193	87.44
255.426	79.44
255.659	81.44
255.892	82.44
256.124	69.44
256.357	84.44
256.59	82.44
256.823	75.44
257.056	88.44
257.289	87.44
257.521	74.44
257.754	88.44
257.987	96.44
258.22	69.44
258.452	70.44
258.685	90.44
258.918	61.44
259.151	99.44
259.383	88.44
259.616	76.44
259.849	81.44
260.081	86.44
260.314	83.44
260.547	71.44
260.779	82.44
261.012	88.44
261.244	75.44
261.477	89.44
261.71	74.44
261.942	77.44
262.175	66.44
262.407	73.44
262.64	80.44
262.872	75.44
263.105	78.44
263.337	103.44
263.57	97.44
263.802	81.44
264.035	64.44
264.267	92.44
264.499	83.44
264.732	91.44
264.964	73.44
265.197	75.44
265.429	83.44
265.661	84.44
265.894	89.44
266.126	90.44
266.358	85.44
266.591	80.44
266.823	71.44
267.055	72.44
267.287	82.44
267.52	87.44
267.752	82.44
267.984	85.44
268.216	80.44
268.448	95.44
268.681	84.44
268.913	80.44
269.145	91.44
269.377	92.44
269.609	84.44
269.841	82.44
270.073	77.44
270.306	87.44
270.538	88.44
270.77	77.44
271.002	60.44
271.234	82.44
271.466	87.44
271.698	79.44
271.93	83.44
272.162	79.44
272.394	90.44
272.626	83.44
272.858	78.44
273.09	78.44
273.322	83.44
273.553	76.44
273.785	74.44
274.017	81.44
274.249	72.44
274.481	74.44
274.713	77.44
274.945	102.44
275.176	76.44
275.408	74.44
275.64	77.44
275.872	60.44
276.104	80.44
276.335	90.44
276.567	76.44
276.799	84.44
277.031	90.44
277.262	77.44
277.494	91.44
277.726	83.44
277.957	68.44
278.189	82.44
278.421	76.44
278.652	84.44
278.884	73.44
279.115	82.44
279.347	74.44
279.579	84.44
279.81	85.44
280.042	87.44
280.273	83.44
280.505	82.44
280.736	97.44
280.968	97.44
281.199	68.44
281.431	87.44
281.662	88.44
281.894	80.44
282.125	81.44
282.356	82.44
282.588	92.44
282.819	75.44
283.051	88.44
283.282	72.44
283.513	89.44
283.745	94.44
283.976	76.44
284.207	75.44
284.439	86.44
284.67	69.44
284.901	81.44
285.132	89.44
285.364	93.44
285.595	86.44
285.826	86.44
286.057	91.44
286.288	67.44
286.52	90.44
286.751	101.44
286.982	82.44
287.213	74.44
287.444	94.44
287.675	86.44
287.906	77.44
288.138	72.44
288.369	84.44
288.6	75.44
288.831	86.44
289.062	82.44
289.293	89.44
289.524	93.44
289.755	66.44
289.986	83.44
290.217	70.44
290.448	85.44
290.679	88.44
290.91	98.44
291.141	88.44
291.371	74.44
291.602	76.44
291.833	99.44
292.064	85.44
292.295	85.44
292.526	79.44
292.757	96.44
292.987	80.44
293.218	91.44
293.449	90.44
293.68	75.44
293.91	94.44
294.141	96.44
294.372	67.44
294.603	76.44
294.833	82.44
295.064	79.44
295.295	92.44
295.525	69.44
295.756	84.44
295.987	79.44
296.217	87.44
296.448	82.44
296.679	87.44
296.909	85.44
297.14	92.44
297.37	78.44
297.601	85.44
297.831	83.44
298.062	85.44
298.292	78.44
298.523	75.44
298.753	91.44
298.984	104.44
299.214	90.44
299.445	88.44
299.675	91.44
299.905	84.44
300.136	90.44
300.366	72.44
300.597	76.44
300.827	98.44
301.057	94.44
301.288	79.44
301.518	70.44
301.748	72.44
301.979	97.44
302.209	71.44
302.439	80.44
302.669	77.44
302.9	82.44
303.13	95.44
303.36	92.44
303.59	86.44
303.82	82.44
304.051	85.44
304.281	82.44
304.511	84.44
304.741	75.44
304.971	73.44
305.201	83.44
305.431	85.44
305.661	79.44
305.891	86.44
306.121	83.44
306.352	76.44
306.582	93.44
306.812	92.44
307.042	92.44
307.272	91.44
307.502	71.44
307.731	90.44
307.961	94.44
308.191	84.44
308.421	88.44
308.651	88.44
308.881	92.44
309.111	85.44
309.341	91.44
309.571	98.44
309.8	86.44
310.03	77.44
310.26	98.44
310.49	84.44
310.72	88.44
310.949	78.44
311.179	84.44
311.409	78.44
311.639	88.44
311.868	87.44
312.098	75.44
312.328	70.44
312.557	86.44
312.787	79.44
313.017	78.44
313.246	70.44
313.476	83.44
313.706	68.44
313.935	92.44
314.165	86.44
314.394	86.44
314.624	87.44
314.853	65.44
315.083	89.44
315.312	95.44
315.542	96.44
315.771	76.44
316.001	80.44
316.23	90.44
316.46	83.44
316.689	81.44
316.919	90.44
317.148	83.44
317.377	88.44
317.607	78.44
317.836	92.44
318.065	91.44
318.295	86.44
318.524	77.44
318.753	72.44
318.983	74.44
319.212	86.44
319.441	79.44
319.67	78.44
319.9	86.44
320.129	91.44
320.358	83.44
320.587	95.44
320.816	71.44
321.046	69.44
321.275	92.44
321.504	87.44
321.733	89.44
321.962	94.44
322.191	85.44
322.42	89.44
322.649	82.44
322.878	86.44
323.108	78.44
323.337	79.44
323.566	79.44
323.795	88.44
324.024	101.44
324.253	85.44
324.482	87.44
324.71	86.44
324.939	83.44
325.168	76.44
325.397	89.44
325.626	83.44
325.855	86.44
326.084	85.44
326.313	83.44
326.542	76.44
326.77	85.44
326.999	90.44
327.228	82.44
327.457	75.44
327.686	84.44
327.914	89.44
328.143	77.44
328.372	74.44
328.6	88.44
328.829	88.44
329.058	91.44
329.287	86.44
329.515	78.44
329.744	95.44
329.972	88.44
330.201	98.44
330.43	82.44
330.658	83.44
330.887	76.44
331.115	80.44
331.344	79.44
331.572	92.44
331.801	78.44
332.03	76.44
332.258	84.44
332.486	83.44
332.715	87.44
332.943	80.44
333.172	79.44
333.4	84.44
333.629	77.44
333.857	78.44
334.085	78.44
334.314	91.44
334.542	86.44
334.771	89.44
334.999	84.44
335.227	79.44
335.455	63.44
335.684	80.44
335.912	72.44
336.14	79.44
336.369	80.44
336.597	75.44
336.825	90.44
337.053	96.44
337.281	90.44
337.51	76.44
337.738	89.44
337.966	76.44
338.194	81.44
338.422	88.44
338.65	70.44
338.878	85.44
339.106	71.44
339.334	72.44
339.562	79.44
339.79	68.44
340.018	80.44
340.246	77.44
340.474	76.44
340.702	70.44
340.93	74.44
341.158	83.44
341.386	100.44
341.614	90.44
341.842	90.44
342.07	82.44
342.298	67.44
342.526	84.44
342.754	84.44
342.981	85.44
343.209	80.44
343.437	114.44
343.665	72.44
343.893	83.44
344.12	82.44
344.348	74.44
344.576	86.44
344.804	72.44
345.031	90.44
345.259	94.44
345.487	89.44
345.714	77.44
345.942	71.44
346.17	71.44
346.397	82.44
346.625	81.44
346.853	78.44
347.08	83.44
347.308	83.44
347.535	90.44
347.763	66.44
347.99	96.44
348.218	88.44
348.445	87.44
348.673	88.44
348.9	79.44
349.128	93.44
349.355	85.44
349.583	77.44
349.81	84.44
350.037	74.44
350.265	78.44
350.492	75.44
350.72	83.44
350.947	86.44
351.174	86.44
351.402	79.44
351.629	75.44
351.856	82.44
352.083	85.44
352.311	78.44
352.538	81.44
352.765	98.44
352.992	97.44
353.22	75.44
353.447	88.44
353.674	70.44
353.901	86.44
354.128	83.44
354.355	81.44
354.583	70.44
354.81	87.44
355.037	86.44
355.264	79.44
355.491	82.44
355.718	82.44
355.945	76.44
356.172	78.44
356.399	80.44
356.626	75.44
356.853	89.44
357.08	96.44
357.307	72.44
357.534	83.44
357.761	69.44
357.988	74.44
358.215	85.44
358.441	77.44
358.668	86.44
358.895	87.44
359.122	70.44
359.349	77.44
359.576	77.44
359.802	79.44
360.029	85.44
360.256	85.44
360.483	67.44
360.709	96.44
360.936	89.44
361.163	84.44
361.39	82.44
361.616	77.44
361.843	82.44
362.07	87.44
362.296	88.44
362.523	70.44
362.749	72.44
362.976	72.44
363.203	72.44
363.429	99.44
363.656	86.44
363.882	96.44
364.109	88.44
364.335	81.44
364.562	82.44
364.788	84.44
365.015	73.44
365.241	80.44
365.468	84.44
365.694	94.44
365.92	98.44
366.147	78.44
366.373	92.44
366.599	72.44
366.826	87.44
367.052	88.44
367.278	91.44
367.505	63.44
367.731	77.44
367.957	79.44
368.184	69.44
368.41	75.44
368.636	87.44
368.862	77.44
369.089	82.44
369.315	75.44
369.541	90.44
369.767	96.44
369.993	84.44
370.219	92.44
370.445	80.44
370.672	76.44
370.898	75.44
371.124	75.44
371.35	79.44
371.576	98.44
371.802	86.44
372.028	73.44
372.254	77.44
372.48	94.44
372.706	72.44
372.932	90.44
373.158	83.44
373.384	80.44
373.61	87.44
373.835	94.44
374.061	71.44
374.287	83.44
374.513	68.44
374.739	81.44
374.965	76.44
375.191	72.44
375.416	90.44
375.642	75.44
375.868	79.44
376.094	80.44
376.319	81.44
376.545	94.44
376.771	68.44
376.997	80.44
377.222	75.44
377.448	81.44
377.674	76.44
377.899	82.44
378.125	81.44
378.35	77.44
378.576	82.44
378.802	74.44
379.027	78.44
379.253	86.44
379.478	79.44
379.704	81.44
379.929	81.44
380.155	89.44
380.38	90.44
380.606	86.44
380.831	79.44
381.057	75.44
381.282	86.44
381.507	82.44
381.733	70.44
381.958	82.44
382.184	70.44
382.409	87.44
382.634	88.44
382.86	73.44
383.085	84.44
383.31	94.44
383.535	69.44
383.761	94.44
383.986	73.44
384.211	75.44
384.436	88.44
384.662	75.44
384.887	86.44
385.112	90.44
385.337	84.44
385.562	82.44
385.787	72.44
386.013	70.44
386.238	84.44
386.463	89.44
386.688	97.44
386.913	86.44
387.138	98.44
387.363	74.44
387.588	78.44
387.813	86.44
388.038	87.44
388.263	72.44
388.488	75.44
388.713	89.44
388.938	66.44
389.163	82.44
389.387	73.44
389.612	74.44
389.837	88.44
390.062	87.44
390.287	90.44
390.512	93.44
390.736	74.44
390.961	82.44
391.186	86.44
391.411	82.44
391.636	86.44
391.86	82.44
392.085	74.44
392.31	96.44
392.534	84.44
392.759	63.44
392.984	91.44
393.208	88.44
393.433	80.44
393.658	82.44
393.882	89.44
394.107	103.44
394.331	109.44
394.556	129.44
394.78	96.44
395.005	94.44
395.229	86.44
395.454	82.44
395.678	91.44
395.903	118.44
396.127	135.44
396.352	135.44
396.576	98.44
396.801	99.44
397.025	80.44
397.249	83.44
397.474	81.44
397.698	73.44
397.922	71.44
398.147	74.44
398.371	80.44
398.595	75.44
398.82	82.44
399.044	83.44
399.268	86.44
399.492	74.44
399.717	90.44
399.941	89.44
400.165	95.44
400.389	85.44
400.613	80.44
400.837	66.44
401.062	80.44
401.286	74.44
401.51	72.44
401.734	83.44
401.958	74.44
402.182	86.44
402.406	75.44
402.63	70.44
402.854	83.44
403.078	80.44
403.302	87.44
403.526	80.44
403.75	94.44
403.974	84.44
404.198	70.44
404.422	67.44
404.645	80.44
404.869	86.44
405.093	65.44
405.317	79.44
405.541	59.44
405.765	74.44
405.988	83.44
406.212	75.44
406.436	76.44
406.66	82.44
406.883	75.44
407.107	74.44
407.331	76.44
407.555	84.44
407.778	71.44
408.002	80.44
408.226	80.44
408.449	63.44
408.673	83.44
408.896	82.44
409.12	81.44
409.344	85.44
409.567	71.44
409.791	67.44
410.014	91.44
410.238	78.44
410.461	86.44
410.685	86.44
410.908	85.44
411.132	77.44
411.355	83.44
411.578	84.44
411.802	84.44
412.025	85.44
412.249	74.44
412.472	86.44
412.695	77.44
412.919	64.44
413.142	85.44
413.365	82.44
413.589	77.44
413.812	73.44
414.035	84.44
414.258	84.44
414.482	73.44
414.705	82.44
414.928	76.44
415.151	95.44
415.374	84.44
415.597	75.44
415.821	73.44
416.044	81.44
416.267	75.44
416.49	88.44
416.713	80.44
416.936	82.44
417.159	68.44
417.382	63.44
417.605	72.44
417.828	67.44
418.051	70.44
418.274	99.44
418.497	81.44
418.72	65.44
418.943	77.44
419.166	65.44
419.389	78.44
419.611	73.44
419.834	68.44
420.057	79.44
420.28	73.44
420.503	86.44
420.726	93.44
420.948	76.44
421.171	84.44
421.394	72.44
421.617	84.44
421.839	75.44
422.062	61.44
422.285	71.44
422.507	75.44
422.73	78.44
422.953	89.44
423.175	91.44
423.398	84.44
423.621	79.44
423.843	88.44
424.066	88.44
424.288	80.44
424.511	74.44
424.733	68.44
424.956	72.44
425.178	70.44
425.401	75.44
425.623	72.44
425.846	84.44
426.068	83.44
426.291	77.44
426.513	98.44
426.735	96.44
426.958	74.44
427.18	92.44
427.402	91.44
427.625	77.44
427.847	80.44
428.069	66.44
428.292	91.44
428.514	86.44
428.736	81.44
428.958	78.44
429.181	88.44
429.403	72.44
429.625	95.44
429.847	80.44
430.069	80.44
430.292	90.44
430.514	77.44
430.736	81.44
430.958	74.44
431.18	86.44
431.402	92.44
431.624	76.44
431.846	83.44
432.068	74.44
432.29	80.44
432.512	72.44
432.734	82.44
432.956	84.44
433.178	82.44
433.4	86.44
433.622	68.44
433.844	71.44
434.066	90.44
434.287	68.44
434.509	75.44
434.731	85.44
434.953	66.44
435.175	88.44
435.397	87.44
435.618	69.44
435.84	87.44
436.062	82.44
436.284	98.44
436.505	92.44
436.727	85.44
436.949	80.44
437.17	84.44
437.392	71.44
437.614	89.44
437.835	88.44
438.057	66.44
438.278	89.44
438.5	85.44
438.721	82.44
438.943	89.44
439.165	80.44
439.386	88.44
439.608	81.44
439.829	84.44
440.05	73.44
440.272	80.44
440.493	73.44
440.715	97.44
440.936	78.44
441.158	93.44
441.379	77.44
441.6	91.44
441.822	73.44
442.043	78.44
442.264	74.44
442.486	68.44
442.707	73.44
442.928	82.44
443.149	75.44
443.371	93.44
443.592	74.44
443.813	77.44
444.034	72.44
444.255	84.44
444.476	79.44
444.698	66.44
444.919	70.44
445.14	156.44
445.361	97.44
445.582	84.44
445.803	83.44
446.024	75.44
446.245	82.44
446.466	76.44
446.687	78.44
446.908	86.44
447.129	73.44
447.35	78.44
447.571	80.44
447.792	82.44
448.013	89.44
448.234	73.44
448.455	61.44
448.675	76.44
448.896	77.44
449.117	70.44
449.338	72.44
449.559	98.44
449.779	82.44
450	85.44
450.221	97.44
450.442	80.44
450.662	94.44
450.883	87.44
451.104	78.44
451.324	76.44
451.545	71.44
451.766	82.44
451.986	68.44
452.207	87.44
452.428	78.44
452.648	75.44
452.869	63.44
453.089	86.44
453.31	76.44
453.53	82.44
453.751	83.44
453.971	84.44
454.192	75.44
454.412	78.44
454.633	71.44
454.853	94.44
455.073	78.44
455.294	89.44
455.514	102.44
455.734	88.44
455.955	65.44
456.175	78.44
456.395	89.44
456.616	81.44
456.836	71.44
457.056	84.44
457.276	70.44
457.497	72.44
457.717	85.44
457.937	82.44
458.157	69.44
458.377	74.44
458.598	74.44
458.818	82.44
459.038	94.44
459.258	77.44
459.478	84.44
459.698	81.44
459.918	64.44
460.138	80.44
460.358	72.44
460.578	80.44
460.798	77.44
461.018	82.44
461.238	82.44
461.458	74.44
461.678	80.44
461.898	75.44
462.118	91.44
462.338	70.44
462.558	84.44
462.777	76.44
462.997	64.44
463.217	88.44
463.437	74.44
463.657	87.44
463.876	68.44
464.096	85.44
464.316	50.44
464.536	80.44
464.755	82.44
464.975	82.44
465.195	66.44
465.414	92.44
465.634	85.44
465.854	79.44
466.073	84.44
466.293	80.44
466.512	76.44
466.732	73.44
466.951	94.44
467.171	89.44
467.391	83.44
467.61	87.44
467.829	65.44
468.049	80.44
468.268	96.44
468.488	89.44
468.707	76.44
468.927	78.44
469.146	68.44
469.365	82.44
469.585	84.44
469.804	87.44
470.023	71.44
470.243	80.44
470.462	83.44
470.681	95.44
470.901	80.44
471.12	92.44
471.339	86.44
471.558	80.44
471.777	82.44
471.997	79.44
472.216	85.44
472.435	96.44
472.654	96.44
472.873	90.44
473.092	80.44
473.311	82.44
473.53	81.44
473.749	90.44
473.968	82.44
474.187	63.44
474.406	72.44
474.625	81.44
474.844	80.44
475.063	86.44
475.282	89.44
475.501	74.44
475.72	83.44
475.939	77.44
476.158	69.44
476.377	79.44
476.596	74.44
476.814	92.44
477.033	84.44
477.252	82.44
477.471	72.44
477.69	86.44
477.908	78.44
478.127	70.44
478.346	87.44
478.564	86.44
478.783	98.44
479.002	82.44
479.22	75.44
479.439	74.44
479.658	70.44
479.876	94.44
480.095	70.44
480.313	92.44
480.532	76.44
480.751	83.44
480.969	67.44
481.188	91.44
481.406	80.44
481.624	91.44
481.843	77.44
482.061	80.44
482.28	77.44
482.498	77.44
482.717	83.44
482.935	87.44
483.153	85.44
483.372	79.44
483.59	78.44
483.808	84.44
484.027	88.44
484.245	84.44
484.463	82.44
484.681	73.44
484.9	81.44
485.118	88.44
485.336	77.44
485.554	73.44
485.772	76.44
485.99	78.44
486.209	82.44
486.427	87.44
486.645	84.44
486.863	82.44
487.081	71.44
487.299	94.44
487.517	96.44
487.735	75.44
487.953	68.44
488.171	90.44
488.389	94.44
488.607	95.44
488.825	83.44
489.043	78.44
489.261	78.44
489.479	73.44
489.696	77.44
489.914	72.44
490.132	62.44
490.35	90.44
490.568	86.44
490.786	86.44
491.003	89.44
491.221	66.44
491.439	84.44
491.657	80.44
491.874	75.44
492.092	91.44
492.31	95.44
492.527	79.44
492.745	92.44
492.963	87.44
493.18	84.44
493.398	98.44
493.615	79.44
493.833	75.44
494.05	85.44
494.268	70.44
494.485	96.44
494.703	80.44
494.92	82.44
495.138	89.44
495.355	74.44
495.573	80.44
495.79	102.44
496.008	98.44
496.225	66.44
496.442	93.44
496.66	84.44
496.877	80.44
497.094	98.44
497.312	71.44
497.529	84.44
497.746	80.44
497.963	83.44
498.181	82.44
498.398	80.44
498.615	91.44
498.832	88.44
499.049	91.44
499.267	103.44
499.484	97.44
499.701	80.44
499.918	90.44
500.135	86.44
500.352	74.44
500.569	84.44
500.786	91.44
501.003	72.44
501.22	94.44
501.437	86.44
501.654	80.44
501.871	71.44
502.088	82.44
502.305	85.44
502.522	89.44
502.739	72.44
502.956	75.44
503.172	89.44
503.389	84.44
503.606	73.44
503.823	68.44
504.04	73.44
504.256	76.44
504.473	79.44
504.69	91.44
504.907	88.44
505.123	81.44
505.34	92.44
505.557	75.44
505.773	82.44
505.99	77.44
506.207	88.44
506.423	88.44
506.64	90.44
506.856	84.44
507.073	90.44
507.289	80.44
507.506	65.44
507.722	81.44
507.939	84.44
508.155	89.44
508.372	79.44
508.588	73.44
508.805	89.44
509.021	92.44
509.238	84.44
509.454	85.44
509.67	74.44
509.887	85.44
510.103	80.44
510.319	79.44
510.536	83.44
510.752	84.44
510.968	96.44
511.184	84.44
511.401	77.44
511.617	84.44
511.833	91.44
512.049	88.44
512.265	86.44
512.481	88.44
512.698	110.44
512.914	77.44
513.13	91.44
513.346	75.44
513.562	75.44
513.778	71.44
513.994	83.44
514.21	85.44
514.426	87.44
514.642	87.44
514.858	82.44
515.074	78.44
515.29	101.44
515.506	68.44
515.721	78.44
515.937	62.44
516.153	85.44
516.369	81.44
516.585	80.44
516.801	94.44
517.016	94.44
517.232	88.44
517.448	80.44
517.664	70.44
517.879	83.44
518.095	65.44
518.311	82.44
518.527	68.44
518.742	75.44
518.958	78.44
519.173	87.44
519.389	82.44
519.605	82.44
519.82	73.44
520.036	82.44
