Data from Uncirc_1987_H10_HRD10591_00066.txt Node
Date: Wed Jan 03 12:09:01 EST 2024
User: Yrep
Spectrometer: HR+D1059
Trigger mode: 1
Integration Time (sec): 1.000000E-1
Scans to average: 1
Electric dark correction enabled: true
Nonlinearity correction enabled: false
Boxcar width: 0
XAxis mode: Wavelengths
Number of Pixels in Spectrum: 2048
>>>>>Begin Spectral Data<<<<<
223.165	-23.25
223.4	-23.25
223.635	-23.25
223.869	-17.25
224.104	-18.25
224.338	-0.25
224.573	-15.25
224.808	-1.25
225.042	-18.25
225.277	-3.25
225.511	6.75
225.746	6.75
225.98	2.75
226.215	5.75
226.449	17.75
226.683	12.75
226.918	26.75
227.152	17.75
227.387	34.75
227.621	50.75
227.856	42.75
228.09	36.75
228.324	41.75
228.559	56.75
228.793	52.75
229.027	50.75
229.262	84.75
229.496	72.75
229.73	80.75
229.964	88.75
230.199	69.75
230.433	74.75
230.667	83.75
230.901	76.75
231.136	81.75
231.37	75.75
231.604	85.75
231.838	72.75
232.072	86.75
232.306	84.75
232.541	86.75
232.775	77.75
233.009	76.75
233.243	82.75
233.477	81.75
233.711	69.75
233.945	88.75
234.179	89.75
234.413	89.75
234.647	79.75
234.881	77.75
235.115	76.75
235.349	80.75
235.583	81.75
235.817	74.75
236.051	76.75
236.285	69.75
236.519	68.75
236.753	71.75
236.987	78.75
237.221	85.75
237.455	96.75
237.689	66.75
237.922	80.75
238.156	69.75
238.39	58.75
238.624	78.75
238.858	82.75
239.091	75.75
239.325	70.75
239.559	78.75
239.793	87.75
240.027	78.75
240.26	71.75
240.494	91.75
240.728	80.75
240.961	80.75
241.195	88.75
241.429	67.75
241.662	74.75
241.896	77.75
242.13	66.75
242.363	70.75
242.597	61.75
242.83	82.75
243.064	86.75
243.298	81.75
243.531	70.75
243.765	76.75
243.998	76.75
244.232	77.75
244.465	79.75
244.699	63.75
244.932	70.75
245.166	86.75
245.399	73.75
245.633	94.75
245.866	83.75
246.099	88.75
246.333	77.75
246.566	81.75
246.8	79.75
247.033	69.75
247.266	80.75
247.5	84.75
247.733	73.75
247.966	78.75
248.2	80.75
248.433	86.75
248.666	84.75
248.899	72.75
249.133	85.75
249.366	97.75
249.599	93.75
249.832	87.75
250.066	74.75
250.299	73.75
250.532	86.75
250.765	89.75
250.998	71.75
251.231	73.75
251.465	80.75
251.698	71.75
251.931	84.75
252.164	82.75
252.397	82.75
252.63	84.75
252.863	88.75
253.096	93.75
253.329	86.75
253.562	71.75
253.795	93.75
254.028	92.75
254.261	64.75
254.494	77.75
254.727	79.75
254.96	65.75
255.193	85.75
255.426	81.75
255.659	83.75
255.892	78.75
256.124	71.75
256.357	72.75
256.59	75.75
256.823	84.75
257.056	84.75
257.289	82.75
257.521	82.75
257.754	83.75
257.987	85.75
258.22	83.75
258.452	68.75
258.685	80.75
258.918	72.75
259.151	78.75
259.383	97.75
259.616	83.75
259.849	85.75
260.081	70.75
260.314	77.75
260.547	88.75
260.779	86.75
261.012	71.75
261.244	79.75
261.477	78.75
261.71	93.75
261.942	95.75
262.175	109.75
262.407	84.75
262.64	82.75
262.872	81.75
263.105	75.75
263.337	80.75
263.57	86.75
263.802	71.75
264.035	76.75
264.267	71.75
264.499	77.75
264.732	86.75
264.964	90.75
265.197	83.75
265.429	88.75
265.661	82.75
265.894	89.75
266.126	79.75
266.358	85.75
266.591	92.75
266.823	79.75
267.055	85.75
267.287	93.75
267.52	86.75
267.752	72.75
267.984	91.75
268.216	73.75
268.448	94.75
268.681	92.75
268.913	87.75
269.145	90.75
269.377	89.75
269.609	79.75
269.841	98.75
270.073	85.75
270.306	87.75
270.538	76.75
270.77	88.75
271.002	70.75
271.234	80.75
271.466	78.75
271.698	77.75
271.93	75.75
272.162	86.75
272.394	76.75
272.626	82.75
272.858	78.75
273.09	87.75
273.322	78.75
273.553	85.75
273.785	81.75
274.017	88.75
274.249	83.75
274.481	74.75
274.713	84.75
274.945	87.75
275.176	87.75
275.408	88.75
275.64	98.75
275.872	80.75
276.104	71.75
276.335	96.75
276.567	90.75
276.799	102.75
277.031	104.75
277.262	91.75
277.494	81.75
277.726	84.75
277.957	82.75
278.189	74.75
278.421	76.75
278.652	101.75
278.884	91.75
279.115	80.75
279.347	83.75
279.579	87.75
279.81	80.75
280.042	85.75
280.273	83.75
280.505	82.75
280.736	89.75
280.968	90.75
281.199	92.75
281.431	89.75
281.662	89.75
281.894	93.75
282.125	104.75
282.356	122.75
282.588	125.75
282.819	121.75
283.051	82.75
283.282	86.75
283.513	80.75
283.745	82.75
283.976	83.75
284.207	76.75
284.439	97.75
284.67	86.75
284.901	80.75
285.132	65.75
285.364	93.75
285.595	88.75
285.826	89.75
286.057	86.75
286.288	86.75
286.52	88.75
286.751	87.75
286.982	89.75
287.213	74.75
287.444	97.75
287.675	85.75
287.906	96.75
288.138	85.75
288.369	105.75
288.6	89.75
288.831	79.75
289.062	92.75
289.293	89.75
289.524	104.75
289.755	83.75
289.986	78.75
290.217	84.75
290.448	90.75
290.679	94.75
290.91	101.75
291.141	90.75
291.371	88.75
291.602	74.75
291.833	97.75
292.064	78.75
292.295	94.75
292.526	85.75
292.757	94.75
292.987	84.75
293.218	87.75
293.449	92.75
293.68	96.75
293.91	88.75
294.141	104.75
294.372	73.75
294.603	97.75
294.833	94.75
295.064	88.75
295.295	94.75
295.525	92.75
295.756	112.75
295.987	104.75
296.217	136.75
296.448	109.75
296.679	89.75
296.909	89.75
297.14	85.75
297.37	102.75
297.601	91.75
297.831	86.75
298.062	75.75
298.292	98.75
298.523	86.75
298.753	88.75
298.984	91.75
299.214	92.75
299.445	86.75
299.675	99.75
299.905	73.75
300.136	87.75
300.366	102.75
300.597	76.75
300.827	88.75
301.057	100.75
301.288	97.75
301.518	95.75
301.748	72.75
301.979	91.75
302.209	82.75
302.439	85.75
302.669	93.75
302.9	90.75
303.13	85.75
303.36	88.75
303.59	96.75
303.82	98.75
304.051	97.75
304.281	84.75
304.511	78.75
304.741	73.75
304.971	80.75
305.201	87.75
305.431	86.75
305.661	87.75
305.891	96.75
306.121	90.75
306.352	103.75
306.582	105.75
306.812	91.75
307.042	81.75
307.272	84.75
307.502	81.75
307.731	83.75
307.961	88.75
308.191	81.75
308.421	81.75
308.651	83.75
308.881	86.75
309.111	89.75
309.341	87.75
309.571	85.75
309.8	92.75
310.03	96.75
310.26	83.75
310.49	107.75
310.72	89.75
310.949	97.75
311.179	89.75
311.409	102.75
311.639	108.75
311.868	88.75
312.098	90.75
312.328	87.75
312.557	85.75
312.787	108.75
313.017	108.75
313.246	101.75
313.476	89.75
313.706	90.75
313.935	87.75
314.165	102.75
314.394	97.75
314.624	89.75
314.853	92.75
315.083	92.75
315.312	89.75
315.542	90.75
315.771	92.75
316.001	80.75
316.23	87.75
316.46	83.75
316.689	90.75
316.919	81.75
317.148	89.75
317.377	96.75
317.607	94.75
317.836	101.75
318.065	95.75
318.295	93.75
318.524	97.75
318.753	89.75
318.983	101.75
319.212	100.75
319.441	87.75
319.67	100.75
319.9	95.75
320.129	91.75
320.358	81.75
320.587	73.75
320.816	88.75
321.046	102.75
321.275	99.75
321.504	92.75
321.733	97.75
321.962	100.75
322.191	104.75
322.42	102.75
322.649	105.75
322.878	110.75
323.108	112.75
323.337	104.75
323.566	114.75
323.795	134.75
324.024	205.75
324.253	370.75
324.482	796.75
324.71	1627.75
324.939	2157.75
325.168	804.75
325.397	246.75
325.626	160.75
325.855	127.75
326.084	134.75
326.313	136.75
326.542	138.75
326.77	220.75
326.999	453.75
327.228	913.75
327.457	1650.75
327.686	1310.75
327.914	356.75
328.143	186.75
328.372	149.75
328.6	118.75
328.829	121.75
329.058	119.75
329.287	121.75
329.515	103.75
329.744	103.75
329.972	104.75
330.201	119.75
330.43	118.75
330.658	119.75
330.887	131.75
331.115	117.75
331.344	91.75
331.572	110.75
331.801	112.75
332.03	86.75
332.258	103.75
332.486	93.75
332.715	97.75
332.943	87.75
333.172	101.75
333.4	90.75
333.629	98.75
333.857	114.75
334.085	115.75
334.314	102.75
334.542	109.75
334.771	94.75
334.999	89.75
335.227	86.75
335.455	97.75
335.684	109.75
335.912	102.75
336.14	92.75
336.369	113.75
336.597	109.75
336.825	90.75
337.053	89.75
337.281	101.75
337.51	100.75
337.738	89.75
337.966	87.75
338.194	99.75
338.422	86.75
338.65	96.75
338.878	89.75
339.106	87.75
339.334	72.75
339.562	88.75
339.79	92.75
340.018	74.75
340.246	83.75
340.474	85.75
340.702	89.75
340.93	88.75
341.158	83.75
341.386	90.75
341.614	104.75
341.842	83.75
342.07	87.75
342.298	86.75
342.526	94.75
342.754	79.75
342.981	86.75
343.209	91.75
343.437	96.75
343.665	81.75
343.893	92.75
344.12	101.75
344.348	84.75
344.576	86.75
344.804	89.75
345.031	93.75
345.259	97.75
345.487	98.75
345.714	103.75
345.942	87.75
346.17	92.75
346.397	105.75
346.625	101.75
346.853	76.75
347.08	86.75
347.308	103.75
347.535	109.75
347.763	92.75
347.99	103.75
348.218	100.75
348.445	109.75
348.673	104.75
348.9	104.75
349.128	101.75
349.355	91.75
349.583	101.75
349.81	86.75
350.037	100.75
350.265	97.75
350.492	102.75
350.72	109.75
350.947	109.75
351.174	119.75
351.402	98.75
351.629	94.75
351.856	113.75
352.083	102.75
352.311	99.75
352.538	97.75
352.765	91.75
352.992	114.75
353.22	110.75
353.447	107.75
353.674	100.75
353.901	90.75
354.128	87.75
354.355	89.75
354.583	113.75
354.81	98.75
355.037	94.75
355.264	101.75
355.491	104.75
355.718	103.75
355.945	86.75
356.172	86.75
356.399	102.75
356.626	102.75
356.853	86.75
357.08	94.75
357.307	102.75
357.534	93.75
357.761	94.75
357.988	96.75
358.215	89.75
358.441	105.75
358.668	93.75
358.895	80.75
359.122	87.75
359.349	87.75
359.576	76.75
359.802	104.75
360.029	109.75
360.256	105.75
360.483	93.75
360.709	89.75
360.936	85.75
361.163	91.75
361.39	92.75
361.616	80.75
361.843	90.75
362.07	95.75
362.296	94.75
362.523	89.75
362.749	103.75
362.976	79.75
363.203	103.75
363.429	92.75
363.656	89.75
363.882	89.75
364.109	88.75
364.335	85.75
364.562	90.75
364.788	97.75
365.015	104.75
365.241	106.75
365.468	114.75
365.694	97.75
365.92	89.75
366.147	88.75
366.373	84.75
366.599	80.75
366.826	81.75
367.052	81.75
367.278	86.75
367.505	104.75
367.731	97.75
367.957	87.75
368.184	94.75
368.41	98.75
368.636	116.75
368.862	129.75
369.089	94.75
369.315	92.75
369.541	92.75
369.767	83.75
369.993	87.75
370.219	81.75
370.445	81.75
370.672	78.75
370.898	84.75
371.124	84.75
371.35	95.75
371.576	84.75
371.802	82.75
372.028	93.75
372.254	92.75
372.48	80.75
372.706	81.75
372.932	83.75
373.158	92.75
373.384	88.75
373.61	99.75
373.835	99.75
374.061	91.75
374.287	97.75
374.513	94.75
374.739	84.75
374.965	99.75
375.191	88.75
375.416	80.75
375.642	94.75
375.868	80.75
376.094	100.75
376.319	89.75
376.545	100.75
376.771	95.75
376.997	87.75
377.222	98.75
377.448	99.75
377.674	80.75
377.899	94.75
378.125	91.75
378.35	92.75
378.576	98.75
378.802	92.75
379.027	80.75
379.253	83.75
379.478	94.75
379.704	91.75
379.929	96.75
380.155	94.75
380.38	96.75
380.606	102.75
380.831	70.75
381.057	100.75
381.282	102.75
381.507	93.75
381.733	103.75
381.958	100.75
382.184	99.75
382.409	91.75
382.634	112.75
382.86	94.75
383.085	86.75
383.31	94.75
383.535	93.75
383.761	84.75
383.986	97.75
384.211	96.75
384.436	82.75
384.662	105.75
384.887	97.75
385.112	101.75
385.337	109.75
385.562	102.75
385.787	105.75
386.013	100.75
386.238	98.75
386.463	103.75
386.688	110.75
386.913	105.75
387.138	83.75
387.363	96.75
387.588	103.75
387.813	94.75
388.038	99.75
388.263	91.75
388.488	92.75
388.713	114.75
388.938	102.75
389.163	96.75
389.387	99.75
389.612	103.75
389.837	95.75
390.062	101.75
390.287	93.75
390.512	89.75
390.736	88.75
390.961	90.75
391.186	101.75
391.411	95.75
391.636	86.75
391.86	95.75
392.085	100.75
392.31	80.75
392.534	78.75
392.759	87.75
392.984	83.75
393.208	102.75
393.433	91.75
393.658	93.75
393.882	87.75
394.107	87.75
394.331	91.75
394.556	95.75
394.78	85.75
395.005	90.75
395.229	97.75
395.454	96.75
395.678	78.75
395.903	95.75
396.127	81.75
396.352	89.75
396.576	90.75
396.801	71.75
397.025	86.75
397.249	80.75
397.474	92.75
397.698	87.75
397.922	79.75
398.147	97.75
398.371	89.75
398.595	79.75
398.82	86.75
399.044	76.75
399.268	92.75
399.492	85.75
399.717	85.75
399.941	86.75
400.165	85.75
400.389	96.75
400.613	97.75
400.837	71.75
401.062	86.75
401.286	86.75
401.51	100.75
401.734	104.75
401.958	98.75
402.182	125.75
402.406	156.75
402.63	121.75
402.854	104.75
403.078	82.75
403.302	84.75
403.526	96.75
403.75	93.75
403.974	96.75
404.198	94.75
404.422	89.75
404.645	87.75
404.869	93.75
405.093	115.75
405.317	112.75
405.541	100.75
405.765	96.75
405.988	122.75
406.212	165.75
406.436	230.75
406.66	140.75
406.883	93.75
407.107	96.75
407.331	89.75
407.555	92.75
407.778	86.75
408.002	99.75
408.226	80.75
408.449	105.75
408.673	92.75
408.896	100.75
409.12	86.75
409.344	106.75
409.567	85.75
409.791	100.75
410.014	91.75
410.238	87.75
410.461	93.75
410.685	89.75
410.908	103.75
411.132	116.75
411.355	89.75
411.578	84.75
411.802	90.75
412.025	94.75
412.249	90.75
412.472	108.75
412.695	91.75
412.919	83.75
413.142	89.75
413.365	83.75
413.589	82.75
413.812	81.75
414.035	90.75
414.258	92.75
414.482	88.75
414.705	86.75
414.928	83.75
415.151	89.75
415.374	94.75
415.597	92.75
415.821	78.75
416.044	89.75
416.267	102.75
416.49	90.75
416.713	93.75
416.936	93.75
417.159	85.75
417.382	80.75
417.605	79.75
417.828	83.75
418.051	96.75
418.274	80.75
418.497	89.75
418.72	100.75
418.943	86.75
419.166	77.75
419.389	86.75
419.611	88.75
419.834	64.75
420.057	94.75
420.28	83.75
420.503	58.75
420.726	100.75
420.948	86.75
421.171	76.75
421.394	101.75
421.617	94.75
421.839	82.75
422.062	97.75
422.285	82.75
422.507	94.75
422.73	118.75
422.953	98.75
423.175	95.75
423.398	92.75
423.621	95.75
423.843	83.75
424.066	93.75
424.288	87.75
424.511	100.75
424.733	89.75
424.956	116.75
425.178	92.75
425.401	104.75
425.623	105.75
425.846	98.75
426.068	84.75
426.291	74.75
426.513	102.75
426.735	102.75
426.958	93.75
427.18	95.75
427.402	120.75
427.625	165.75
427.847	128.75
428.069	107.75
428.292	94.75
428.514	80.75
428.736	77.75
428.958	88.75
429.181	84.75
429.403	79.75
429.625	76.75
429.847	86.75
430.069	93.75
430.292	91.75
430.514	87.75
430.736	80.75
430.958	88.75
431.18	84.75
431.402	90.75
431.624	88.75
431.846	77.75
432.068	91.75
432.29	85.75
432.512	88.75
432.734	82.75
432.956	96.75
433.178	80.75
433.4	93.75
433.622	86.75
433.844	83.75
434.066	96.75
434.287	102.75
434.509	93.75
434.731	99.75
434.953	85.75
435.175	98.75
435.397	91.75
435.618	91.75
435.84	91.75
436.062	103.75
436.284	112.75
436.505	82.75
436.727	110.75
436.949	89.75
437.17	86.75
437.392	106.75
437.614	88.75
437.835	100.75
438.057	111.75
438.278	106.75
438.5	106.75
438.721	113.75
438.943	104.75
439.165	80.75
439.386	73.75
439.608	116.75
439.829	102.75
440.05	109.75
440.272	144.75
440.493	112.75
440.715	86.75
440.936	109.75
441.158	100.75
441.379	84.75
441.6	90.75
441.822	101.75
442.043	81.75
442.264	95.75
442.486	104.75
442.707	89.75
442.928	97.75
443.149	130.75
443.371	127.75
443.592	110.75
443.813	105.75
444.034	119.75
444.255	93.75
444.476	107.75
444.698	81.75
444.919	85.75
445.14	131.75
445.361	111.75
445.582	104.75
445.803	121.75
446.024	129.75
446.245	121.75
446.466	115.75
446.687	96.75
446.908	89.75
447.129	100.75
447.35	88.75
447.571	78.75
447.792	100.75
448.013	104.75
448.234	96.75
448.455	97.75
448.675	124.75
448.896	113.75
449.117	112.75
449.338	103.75
449.559	127.75
449.779	131.75
450	90.75
450.221	99.75
450.442	100.75
450.662	78.75
450.883	105.75
451.104	111.75
451.324	101.75
451.545	80.75
451.766	90.75
451.986	97.75
452.207	80.75
452.428	89.75
452.648	109.75
452.869	115.75
453.089	113.75
453.31	130.75
453.53	85.75
453.751	82.75
453.971	95.75
454.192	104.75
454.412	103.75
454.633	92.75
454.853	84.75
455.073	79.75
455.294	90.75
455.514	97.75
455.734	108.75
455.955	95.75
456.175	87.75
456.395	84.75
456.616	85.75
456.836	94.75
457.056	101.75
457.276	89.75
457.497	95.75
457.717	85.75
457.937	79.75
458.157	80.75
458.377	88.75
458.598	113.75
458.818	145.75
459.038	168.75
459.258	112.75
459.478	93.75
459.698	89.75
459.918	86.75
460.138	96.75
460.358	84.75
460.578	84.75
460.798	97.75
461.018	90.75
461.238	100.75
461.458	83.75
461.678	92.75
461.898	85.75
462.118	95.75
462.338	88.75
462.558	89.75
462.777	71.75
462.997	80.75
463.217	79.75
463.437	80.75
463.657	83.75
463.876	88.75
464.096	98.75
464.316	94.75
464.536	89.75
464.755	93.75
464.975	116.75
465.195	165.75
465.414	159.75
465.634	83.75
465.854	94.75
466.073	84.75
466.293	87.75
466.512	93.75
466.732	96.75
466.951	82.75
467.171	80.75
467.391	89.75
467.61	110.75
467.829	104.75
468.049	94.75
468.268	87.75
468.488	92.75
468.707	89.75
468.927	88.75
469.146	79.75
469.365	102.75
469.585	81.75
469.804	92.75
470.023	119.75
470.243	88.75
470.462	96.75
470.681	116.75
470.901	88.75
471.12	82.75
471.339	78.75
471.558	93.75
471.777	93.75
471.997	101.75
472.216	92.75
472.435	113.75
472.654	112.75
472.873	77.75
473.092	101.75
473.311	85.75
473.53	65.75
473.749	73.75
473.968	94.75
474.187	92.75
474.406	90.75
474.625	80.75
474.844	80.75
475.063	85.75
475.282	104.75
475.501	87.75
475.72	93.75
475.939	89.75
476.158	81.75
476.377	82.75
476.596	80.75
476.814	90.75
477.033	102.75
477.252	90.75
477.471	88.75
477.69	85.75
477.908	92.75
478.127	83.75
478.346	92.75
478.564	106.75
478.783	95.75
479.002	87.75
479.22	85.75
479.439	103.75
479.658	98.75
479.876	98.75
480.095	101.75
480.313	90.75
480.532	82.75
480.751	89.75
480.969	107.75
481.188	154.75
481.406	114.75
481.624	89.75
481.843	98.75
482.061	91.75
482.28	82.75
482.498	80.75
482.717	83.75
482.935	86.75
483.153	84.75
483.372	99.75
483.59	92.75
483.808	86.75
484.027	76.75
484.245	94.75
484.463	82.75
484.681	98.75
484.9	84.75
485.118	89.75
485.336	98.75
485.554	99.75
485.772	105.75
485.99	94.75
486.209	92.75
486.427	102.75
486.645	112.75
486.863	104.75
487.081	110.75
487.299	73.75
487.517	86.75
487.735	82.75
487.953	105.75
488.171	93.75
488.389	94.75
488.607	100.75
488.825	100.75
489.043	106.75
489.261	101.75
489.479	95.75
489.696	93.75
489.914	61.75
490.132	93.75
490.35	82.75
490.568	89.75
490.786	80.75
491.003	92.75
491.221	85.75
491.439	85.75
491.657	97.75
491.874	91.75
492.092	84.75
492.31	88.75
492.527	78.75
492.745	92.75
492.963	86.75
493.18	82.75
493.398	74.75
493.615	94.75
493.833	100.75
494.05	94.75
494.268	99.75
494.485	104.75
494.703	98.75
494.92	88.75
495.138	81.75
495.355	88.75
495.573	101.75
495.79	86.75
496.008	85.75
496.225	119.75
496.442	85.75
496.66	95.75
496.877	98.75
497.094	105.75
497.312	88.75
497.529	93.75
497.746	88.75
497.963	75.75
498.181	89.75
498.398	78.75
498.615	87.75
498.832	95.75
499.049	85.75
499.267	104.75
499.484	99.75
499.701	103.75
499.918	95.75
500.135	90.75
500.352	96.75
500.569	94.75
500.786	91.75
501.003	93.75
501.22	102.75
501.437	94.75
501.654	84.75
501.871	108.75
502.088	92.75
502.305	101.75
502.522	92.75
502.739	80.75
502.956	104.75
503.172	90.75
503.389	85.75
503.606	97.75
503.823	88.75
504.04	81.75
504.256	74.75
504.473	91.75
504.69	84.75
504.907	93.75
505.123	101.75
505.34	80.75
505.557	90.75
505.773	89.75
505.99	94.75
506.207	96.75
506.423	85.75
506.64	93.75
506.856	74.75
507.073	81.75
507.289	98.75
507.506	85.75
507.722	111.75
507.939	109.75
508.155	104.75
508.372	88.75
508.588	85.75
508.805	94.75
509.021	90.75
509.238	108.75
509.454	102.75
509.67	101.75
509.887	106.75
510.103	127.75
510.319	225.75
510.536	765.75
510.752	2402.75
510.968	679.75
511.184	148.75
511.401	110.75
511.617	104.75
511.833	87.75
512.049	97.75
512.265	86.75
512.481	99.75
512.698	101.75
512.914	100.75
513.13	96.75
513.346	92.75
513.562	108.75
513.778	99.75
513.994	97.75
514.21	108.75
514.426	118.75
514.642	133.75
514.858	123.75
515.074	157.75
515.29	454.75
515.506	1536.75
