Data from Uncirc_1987_H10_HRD10591_00097.txt Node
Date: Wed Jan 03 12:09:07 EST 2024
User: Yrep
Spectrometer: HR+D1059
Trigger mode: 1
Integration Time (sec): 1.000000E-1
Scans to average: 1
Electric dark correction enabled: true
Nonlinearity correction enabled: false
Boxcar width: 0
XAxis mode: Wavelengths
Number of Pixels in Spectrum: 2048
>>>>>Begin Spectral Data<<<<<
223.165	-26.81
223.4	-26.81
223.635	-26.81
223.869	-14.81
224.104	-16.81
224.338	-12.81
224.573	-18.81
224.808	-22.81
225.042	8.19
225.277	0.19
225.511	-6.81
225.746	2.19
225.98	13.19
226.215	14.19
226.449	8.19
226.683	22.19
226.918	25.19
227.152	26.19
227.387	48.19
227.621	52.19
227.856	41.19
228.09	35.19
228.324	62.19
228.559	56.19
228.793	61.19
229.027	64.19
229.262	58.19
229.496	70.19
229.73	85.19
229.964	76.19
230.199	81.19
230.433	78.19
230.667	72.19
230.901	83.19
231.136	67.19
231.37	79.19
231.604	76.19
231.838	74.19
232.072	78.19
232.306	85.19
232.541	76.19
232.775	70.19
233.009	82.19
233.243	75.19
233.477	85.19
233.711	70.19
233.945	84.19
234.179	77.19
234.413	74.19
234.647	78.19
234.881	78.19
235.115	83.19
235.349	86.19
235.583	77.19
235.817	89.19
236.051	78.19
236.285	63.19
236.519	86.19
236.753	85.19
236.987	71.19
237.221	85.19
237.455	85.19
237.689	79.19
237.922	81.19
238.156	73.19
238.39	81.19
238.624	62.19
238.858	84.19
239.091	80.19
239.325	66.19
239.559	70.19
239.793	76.19
240.027	96.19
240.26	76.19
240.494	77.19
240.728	83.19
240.961	77.19
241.195	72.19
241.429	68.19
241.662	70.19
241.896	87.19
242.13	73.19
242.363	55.19
242.597	60.19
242.83	83.19
243.064	68.19
243.298	73.19
243.531	69.19
243.765	86.19
243.998	80.19
244.232	90.19
244.465	72.19
244.699	76.19
244.932	78.19
245.166	82.19
245.399	71.19
245.633	82.19
245.866	70.19
246.099	78.19
246.333	84.19
246.566	69.19
246.8	76.19
247.033	82.19
247.266	82.19
247.5	62.19
247.733	68.19
247.966	68.19
248.2	64.19
248.433	70.19
248.666	81.19
248.899	84.19
249.133	77.19
249.366	85.19
249.599	101.19
249.832	73.19
250.066	84.19
250.299	73.19
250.532	68.19
250.765	70.19
250.998	88.19
251.231	76.19
251.465	81.19
251.698	69.19
251.931	87.19
252.164	79.19
252.397	76.19
252.63	78.19
252.863	83.19
253.096	76.19
253.329	87.19
253.562	69.19
253.795	80.19
254.028	84.19
254.261	73.19
254.494	87.19
254.727	88.19
254.96	84.19
255.193	74.19
255.426	65.19
255.659	69.19
255.892	77.19
256.124	87.19
256.357	71.19
256.59	78.19
256.823	76.19
257.056	78.19
257.289	81.19
257.521	73.19
257.754	78.19
257.987	80.19
258.22	80.19
258.452	79.19
258.685	79.19
258.918	78.19
259.151	83.19
259.383	76.19
259.616	83.19
259.849	74.19
260.081	81.19
260.314	82.19
260.547	77.19
260.779	77.19
261.012	79.19
261.244	82.19
261.477	88.19
261.71	81.19
261.942	98.19
262.175	106.19
262.407	81.19
262.64	85.19
262.872	79.19
263.105	92.19
263.337	96.19
263.57	88.19
263.802	52.19
264.035	85.19
264.267	91.19
264.499	88.19
264.732	76.19
264.964	73.19
265.197	80.19
265.429	72.19
265.661	89.19
265.894	69.19
266.126	78.19
266.358	89.19
266.591	81.19
266.823	97.19
267.055	99.19
267.287	76.19
267.52	86.19
267.752	88.19
267.984	90.19
268.216	87.19
268.448	82.19
268.681	85.19
268.913	81.19
269.145	81.19
269.377	90.19
269.609	71.19
269.841	76.19
270.073	57.19
270.306	74.19
270.538	85.19
270.77	74.19
271.002	83.19
271.234	84.19
271.466	78.19
271.698	69.19
271.93	80.19
272.162	88.19
272.394	76.19
272.626	71.19
272.858	76.19
273.09	95.19
273.322	86.19
273.553	78.19
273.785	71.19
274.017	87.19
274.249	73.19
274.481	85.19
274.713	88.19
274.945	107.19
275.176	62.19
275.408	87.19
275.64	90.19
275.872	78.19
276.104	97.19
276.335	84.19
276.567	93.19
276.799	112.19
277.031	96.19
277.262	78.19
277.494	83.19
277.726	96.19
277.957	78.19
278.189	96.19
278.421	82.19
278.652	95.19
278.884	89.19
279.115	86.19
279.347	67.19
279.579	70.19
279.81	82.19
280.042	87.19
280.273	90.19
280.505	83.19
280.736	97.19
280.968	78.19
281.199	99.19
281.431	110.19
281.662	85.19
281.894	88.19
282.125	96.19
282.356	109.19
282.588	128.19
282.819	117.19
283.051	87.19
283.282	96.19
283.513	97.19
283.745	87.19
283.976	86.19
284.207	82.19
284.439	89.19
284.67	78.19
284.901	94.19
285.132	87.19
285.364	89.19
285.595	101.19
285.826	85.19
286.057	93.19
286.288	80.19
286.52	82.19
286.751	95.19
286.982	85.19
287.213	87.19
287.444	90.19
287.675	86.19
287.906	97.19
288.138	90.19
288.369	84.19
288.6	93.19
288.831	79.19
289.062	90.19
289.293	93.19
289.524	92.19
289.755	69.19
289.986	81.19
290.217	92.19
290.448	76.19
290.679	79.19
290.91	95.19
291.141	81.19
291.371	82.19
291.602	84.19
291.833	86.19
292.064	81.19
292.295	85.19
292.526	84.19
292.757	73.19
292.987	89.19
293.218	84.19
293.449	83.19
293.68	91.19
293.91	85.19
294.141	82.19
294.372	99.19
294.603	97.19
294.833	94.19
295.064	97.19
295.295	79.19
295.525	105.19
295.756	99.19
295.987	121.19
296.217	123.19
296.448	119.19
296.679	97.19
296.909	80.19
297.14	77.19
297.37	98.19
297.601	82.19
297.831	92.19
298.062	101.19
298.292	80.19
298.523	110.19
298.753	91.19
298.984	79.19
299.214	88.19
299.445	93.19
299.675	85.19
299.905	90.19
300.136	94.19
300.366	71.19
300.597	96.19
300.827	93.19
301.057	94.19
301.288	107.19
301.518	101.19
301.748	83.19
301.979	96.19
302.209	93.19
302.439	84.19
302.669	82.19
302.9	79.19
303.13	80.19
303.36	102.19
303.59	102.19
303.82	109.19
304.051	87.19
304.281	93.19
304.511	86.19
304.741	83.19
304.971	92.19
305.201	87.19
305.431	92.19
305.661	96.19
305.891	103.19
306.121	91.19
306.352	88.19
306.582	97.19
306.812	98.19
307.042	87.19
307.272	86.19
307.502	87.19
307.731	109.19
307.961	95.19
308.191	88.19
308.421	87.19
308.651	83.19
308.881	97.19
309.111	100.19
309.341	100.19
309.571	83.19
309.8	89.19
310.03	87.19
310.26	90.19
310.49	96.19
310.72	102.19
310.949	123.19
311.179	91.19
311.409	92.19
311.639	98.19
311.868	88.19
312.098	99.19
312.328	90.19
312.557	105.19
312.787	85.19
313.017	100.19
313.246	97.19
313.476	95.19
313.706	84.19
313.935	81.19
314.165	89.19
314.394	90.19
314.624	93.19
314.853	91.19
315.083	93.19
315.312	101.19
315.542	80.19
315.771	88.19
316.001	93.19
316.23	92.19
316.46	94.19
316.689	88.19
316.919	99.19
317.148	102.19
317.377	105.19
317.607	96.19
317.836	102.19
318.065	101.19
318.295	102.19
318.524	86.19
318.753	96.19
318.983	102.19
319.212	100.19
319.441	95.19
319.67	109.19
319.9	97.19
320.129	82.19
320.358	82.19
320.587	93.19
320.816	92.19
321.046	91.19
321.275	104.19
321.504	94.19
321.733	92.19
321.962	90.19
322.191	94.19
322.42	96.19
322.649	113.19
322.878	108.19
323.108	100.19
323.337	101.19
323.566	114.19
323.795	125.19
324.024	183.19
324.253	360.19
324.482	732.19
324.71	1457.19
324.939	1904.19
325.168	715.19
325.397	229.19
325.626	160.19
325.855	114.19
326.084	113.19
326.313	124.19
326.542	141.19
326.77	213.19
326.999	398.19
327.228	822.19
327.457	1498.19
327.686	1161.19
327.914	348.19
328.143	178.19
328.372	146.19
328.6	125.19
328.829	92.19
329.058	115.19
329.287	105.19
329.515	113.19
329.744	104.19
329.972	94.19
330.201	103.19
330.43	116.19
330.658	120.19
330.887	128.19
331.115	105.19
331.344	95.19
331.572	96.19
331.801	104.19
332.03	97.19
332.258	93.19
332.486	89.19
332.715	93.19
332.943	91.19
333.172	90.19
333.4	93.19
333.629	99.19
333.857	106.19
334.085	110.19
334.314	110.19
334.542	121.19
334.771	107.19
334.999	111.19
335.227	92.19
335.455	104.19
335.684	86.19
335.912	95.19
336.14	89.19
336.369	100.19
336.597	104.19
336.825	96.19
337.053	84.19
337.281	82.19
337.51	90.19
337.738	101.19
337.966	79.19
338.194	92.19
338.422	98.19
338.65	86.19
338.878	84.19
339.106	87.19
339.334	97.19
339.562	82.19
339.79	98.19
340.018	108.19
340.246	89.19
340.474	86.19
340.702	88.19
340.93	84.19
341.158	89.19
341.386	97.19
341.614	94.19
341.842	92.19
342.07	91.19
342.298	76.19
342.526	93.19
342.754	86.19
342.981	88.19
343.209	80.19
343.437	101.19
343.665	80.19
343.893	84.19
344.12	94.19
344.348	84.19
344.576	84.19
344.804	80.19
345.031	90.19
345.259	92.19
345.487	88.19
345.714	93.19
345.942	97.19
346.17	85.19
346.397	87.19
346.625	86.19
346.853	85.19
347.08	88.19
347.308	86.19
347.535	86.19
347.763	97.19
347.99	92.19
348.218	89.19
348.445	95.19
348.673	97.19
348.9	98.19
349.128	98.19
349.355	71.19
349.583	93.19
349.81	73.19
350.037	88.19
350.265	83.19
350.492	92.19
350.72	98.19
350.947	93.19
351.174	111.19
351.402	105.19
351.629	92.19
351.856	94.19
352.083	99.19
352.311	102.19
352.538	93.19
352.765	112.19
352.992	103.19
353.22	119.19
353.447	112.19
353.674	108.19
353.901	91.19
354.128	95.19
354.355	91.19
354.583	105.19
354.81	106.19
355.037	81.19
355.264	89.19
355.491	85.19
355.718	81.19
355.945	97.19
356.172	82.19
356.399	92.19
356.626	106.19
356.853	118.19
357.08	92.19
357.307	88.19
357.534	82.19
357.761	94.19
357.988	90.19
358.215	80.19
358.441	95.19
358.668	82.19
358.895	97.19
359.122	95.19
359.349	95.19
359.576	90.19
359.802	86.19
360.029	95.19
360.256	100.19
360.483	98.19
360.709	92.19
360.936	94.19
361.163	79.19
361.39	93.19
361.616	71.19
361.843	90.19
362.07	85.19
362.296	99.19
362.523	92.19
362.749	89.19
362.976	89.19
363.203	87.19
363.429	82.19
363.656	96.19
363.882	87.19
364.109	86.19
364.335	85.19
364.562	87.19
364.788	96.19
365.015	98.19
365.241	99.19
365.468	101.19
365.694	96.19
365.92	99.19
366.147	104.19
366.373	93.19
366.599	88.19
366.826	82.19
367.052	85.19
367.278	96.19
367.505	100.19
367.731	94.19
367.957	99.19
368.184	96.19
368.41	93.19
368.636	113.19
368.862	97.19
369.089	104.19
369.315	92.19
369.541	85.19
369.767	77.19
369.993	89.19
370.219	95.19
370.445	84.19
370.672	84.19
370.898	76.19
371.124	96.19
371.35	93.19
371.576	90.19
371.802	88.19
372.028	74.19
372.254	83.19
372.48	72.19
372.706	80.19
372.932	76.19
373.158	86.19
373.384	93.19
373.61	80.19
373.835	80.19
374.061	101.19
374.287	97.19
374.513	81.19
374.739	93.19
374.965	85.19
375.191	93.19
375.416	85.19
375.642	95.19
375.868	94.19
376.094	100.19
376.319	98.19
376.545	78.19
376.771	87.19
376.997	86.19
377.222	94.19
377.448	101.19
377.674	71.19
377.899	88.19
378.125	92.19
378.35	92.19
378.576	85.19
378.802	96.19
379.027	92.19
379.253	77.19
379.478	111.19
379.704	101.19
379.929	110.19
380.155	86.19
380.38	94.19
380.606	84.19
380.831	81.19
381.057	74.19
381.282	88.19
381.507	97.19
381.733	82.19
381.958	91.19
382.184	88.19
382.409	105.19
382.634	79.19
382.86	96.19
383.085	105.19
383.31	91.19
383.535	96.19
383.761	93.19
383.986	96.19
384.211	101.19
384.436	96.19
384.662	86.19
384.887	98.19
385.112	93.19
385.337	91.19
385.562	95.19
385.787	98.19
386.013	104.19
386.238	103.19
386.463	110.19
386.688	115.19
386.913	90.19
387.138	108.19
387.363	94.19
387.588	92.19
387.813	87.19
388.038	90.19
388.263	103.19
388.488	116.19
388.713	93.19
388.938	98.19
389.163	105.19
389.387	94.19
389.612	95.19
389.837	89.19
390.062	90.19
390.287	93.19
390.512	89.19
390.736	93.19
390.961	104.19
391.186	100.19
391.411	95.19
391.636	83.19
391.86	93.19
392.085	91.19
392.31	83.19
392.534	95.19
392.759	87.19
392.984	87.19
393.208	87.19
393.433	82.19
393.658	85.19
393.882	93.19
394.107	100.19
394.331	89.19
394.556	78.19
394.78	73.19
395.005	96.19
395.229	82.19
395.454	94.19
395.678	78.19
395.903	88.19
396.127	89.19
396.352	86.19
396.576	57.19
396.801	78.19
397.025	85.19
397.249	84.19
397.474	92.19
397.698	85.19
397.922	92.19
398.147	90.19
398.371	69.19
398.595	92.19
398.82	85.19
399.044	92.19
399.268	91.19
399.492	92.19
399.717	82.19
399.941	93.19
400.165	101.19
400.389	85.19
400.613	81.19
400.837	87.19
401.062	74.19
401.286	82.19
401.51	96.19
401.734	96.19
401.958	95.19
402.182	121.19
402.406	128.19
402.63	116.19
402.854	87.19
403.078	79.19
403.302	89.19
403.526	86.19
403.75	80.19
403.974	80.19
404.198	83.19
404.422	102.19
404.645	86.19
404.869	85.19
405.093	100.19
405.317	92.19
405.541	103.19
405.765	90.19
405.988	105.19
406.212	160.19
406.436	194.19
406.66	133.19
406.883	88.19
407.107	92.19
407.331	90.19
407.555	99.19
407.778	86.19
408.002	89.19
408.226	98.19
408.449	102.19
408.673	76.19
408.896	83.19
409.12	89.19
409.344	88.19
409.567	94.19
409.791	90.19
410.014	93.19
410.238	95.19
410.461	94.19
410.685	86.19
410.908	97.19
411.132	103.19
411.355	85.19
411.578	84.19
411.802	114.19
412.025	97.19
412.249	98.19
412.472	90.19
412.695	98.19
412.919	92.19
413.142	85.19
413.365	76.19
413.589	95.19
413.812	90.19
414.035	98.19
414.258	85.19
414.482	94.19
414.705	89.19
414.928	98.19
415.151	103.19
415.374	94.19
415.597	100.19
415.821	82.19
416.044	86.19
416.267	87.19
416.49	83.19
416.713	83.19
416.936	90.19
417.159	89.19
417.382	74.19
417.605	80.19
417.828	106.19
418.051	96.19
418.274	100.19
418.497	87.19
418.72	82.19
418.943	93.19
419.166	97.19
419.389	85.19
419.611	85.19
419.834	93.19
420.057	82.19
420.28	84.19
420.503	88.19
420.726	85.19
420.948	97.19
421.171	91.19
421.394	95.19
421.617	88.19
421.839	86.19
422.062	91.19
422.285	82.19
422.507	104.19
422.73	90.19
422.953	92.19
423.175	85.19
423.398	85.19
423.621	90.19
423.843	90.19
424.066	83.19
424.288	92.19
424.511	93.19
424.733	105.19
424.956	93.19
425.178	98.19
425.401	103.19
425.623	104.19
425.846	77.19
426.068	103.19
426.291	86.19
426.513	82.19
426.735	94.19
426.958	80.19
427.18	96.19
427.402	118.19
427.625	155.19
427.847	143.19
428.069	85.19
428.292	82.19
428.514	84.19
428.736	84.19
428.958	95.19
429.181	92.19
429.403	68.19
429.625	80.19
429.847	87.19
430.069	99.19
430.292	98.19
430.514	94.19
430.736	89.19
430.958	86.19
431.18	85.19
431.402	81.19
431.624	73.19
431.846	77.19
432.068	89.19
432.29	86.19
432.512	80.19
432.734	82.19
432.956	79.19
433.178	96.19
433.4	98.19
433.622	83.19
433.844	80.19
434.066	91.19
434.287	101.19
434.509	87.19
434.731	82.19
434.953	85.19
435.175	85.19
435.397	89.19
435.618	95.19
435.84	98.19
436.062	119.19
436.284	123.19
436.505	96.19
436.727	105.19
436.949	87.19
437.17	85.19
437.392	86.19
437.614	88.19
437.835	99.19
438.057	108.19
438.278	96.19
438.5	99.19
438.721	124.19
438.943	93.19
439.165	99.19
439.386	90.19
439.608	97.19
439.829	115.19
440.05	129.19
440.272	121.19
440.493	97.19
440.715	86.19
440.936	86.19
441.158	96.19
441.379	78.19
441.6	83.19
441.822	94.19
442.043	89.19
442.264	99.19
442.486	84.19
442.707	90.19
442.928	106.19
443.149	128.19
443.371	125.19
443.592	107.19
443.813	110.19
444.034	119.19
444.255	78.19
444.476	82.19
444.698	90.19
444.919	90.19
445.14	148.19
445.361	119.19
445.582	101.19
445.803	117.19
446.024	120.19
446.245	125.19
446.466	102.19
446.687	78.19
446.908	76.19
447.129	92.19
447.35	81.19
447.571	86.19
447.792	81.19
448.013	103.19
448.234	107.19
448.455	118.19
448.675	129.19
448.896	109.19
449.117	88.19
449.338	96.19
449.559	121.19
449.779	111.19
450	106.19
450.221	76.19
450.442	82.19
450.662	87.19
450.883	98.19
451.104	100.19
451.324	96.19
451.545	86.19
451.766	67.19
451.986	90.19
452.207	89.19
452.428	88.19
452.648	101.19
452.869	105.19
453.089	120.19
453.31	114.19
453.53	81.19
453.751	78.19
453.971	106.19
454.192	101.19
454.412	103.19
454.633	85.19
454.853	88.19
455.073	80.19
455.294	86.19
455.514	98.19
455.734	86.19
455.955	65.19
456.175	84.19
456.395	92.19
456.616	85.19
456.836	80.19
457.056	93.19
457.276	88.19
457.497	70.19
457.717	78.19
457.937	89.19
458.157	78.19
458.377	97.19
458.598	101.19
458.818	140.19
459.038	146.19
459.258	106.19
459.478	90.19
459.698	86.19
459.918	86.19
460.138	90.19
460.358	87.19
460.578	69.19
460.798	80.19
461.018	72.19
461.238	95.19
461.458	93.19
461.678	80.19
461.898	88.19
462.118	91.19
462.338	87.19
462.558	89.19
462.777	85.19
462.997	86.19
463.217	84.19
463.437	96.19
463.657	85.19
463.876	86.19
464.096	92.19
464.316	104.19
464.536	85.19
464.755	76.19
464.975	106.19
465.195	159.19
465.414	149.19
465.634	101.19
465.854	78.19
466.073	100.19
466.293	92.19
466.512	88.19
466.732	83.19
466.951	81.19
467.171	96.19
467.391	104.19
467.61	99.19
467.829	104.19
468.049	104.19
468.268	100.19
468.488	93.19
468.707	89.19
468.927	95.19
469.146	92.19
469.365	100.19
469.585	93.19
469.804	86.19
470.023	104.19
470.243	88.19
470.462	103.19
470.681	106.19
470.901	89.19
471.12	90.19
471.339	92.19
471.558	84.19
471.777	78.19
471.997	100.19
472.216	96.19
472.435	114.19
472.654	89.19
472.873	91.19
473.092	98.19
473.311	86.19
473.53	89.19
473.749	93.19
473.968	92.19
474.187	99.19
474.406	95.19
474.625	77.19
474.844	74.19
475.063	92.19
475.282	93.19
475.501	100.19
475.72	85.19
475.939	84.19
476.158	98.19
476.377	89.19
476.596	86.19
476.814	87.19
477.033	97.19
477.252	97.19
477.471	98.19
477.69	77.19
477.908	85.19
478.127	87.19
478.346	87.19
478.564	85.19
478.783	105.19
479.002	83.19
479.22	99.19
479.439	116.19
479.658	106.19
479.876	87.19
480.095	86.19
480.313	101.19
480.532	79.19
480.751	88.19
480.969	111.19
481.188	193.19
481.406	136.19
481.624	81.19
481.843	95.19
482.061	86.19
482.28	78.19
482.498	82.19
482.717	86.19
482.935	70.19
483.153	81.19
483.372	85.19
483.59	80.19
483.808	97.19
484.027	86.19
484.245	94.19
484.463	90.19
484.681	100.19
484.9	89.19
485.118	93.19
485.336	94.19
485.554	87.19
485.772	98.19
485.99	107.19
486.209	108.19
486.427	86.19
486.645	100.19
486.863	116.19
487.081	102.19
487.299	100.19
487.517	94.19
487.735	92.19
487.953	92.19
488.171	106.19
488.389	81.19
488.607	102.19
488.825	86.19
489.043	90.19
489.261	87.19
489.479	93.19
489.696	73.19
489.914	85.19
490.132	81.19
490.35	102.19
490.568	92.19
490.786	79.19
491.003	87.19
491.221	88.19
491.439	89.19
491.657	88.19
491.874	92.19
492.092	86.19
492.31	95.19
492.527	87.19
492.745	82.19
492.963	89.19
493.18	90.19
493.398	100.19
493.615	83.19
493.833	88.19
494.05	78.19
494.268	85.19
494.485	85.19
494.703	94.19
494.92	87.19
495.138	101.19
495.355	94.19
495.573	86.19
495.79	93.19
496.008	98.19
496.225	90.19
496.442	84.19
496.66	104.19
496.877	95.19
497.094	103.19
497.312	97.19
497.529	82.19
497.746	90.19
497.963	88.19
498.181	93.19
498.398	90.19
498.615	102.19
498.832	98.19
499.049	88.19
499.267	90.19
499.484	85.19
499.701	77.19
499.918	93.19
500.135	89.19
500.352	72.19
500.569	89.19
500.786	95.19
501.003	92.19
501.22	99.19
501.437	93.19
501.654	92.19
501.871	105.19
502.088	82.19
502.305	73.19
502.522	95.19
502.739	89.19
502.956	104.19
503.172	95.19
503.389	95.19
503.606	106.19
503.823	96.19
504.04	100.19
504.256	93.19
504.473	85.19
504.69	106.19
504.907	89.19
505.123	90.19
505.34	77.19
505.557	78.19
505.773	90.19
505.99	93.19
506.207	80.19
506.423	89.19
506.64	87.19
506.856	69.19
507.073	79.19
507.289	89.19
507.506	108.19
507.722	98.19
507.939	94.19
508.155	88.19
508.372	91.19
508.588	103.19
508.805	103.19
509.021	108.19
509.238	86.19
509.454	87.19
509.67	102.19
509.887	102.19
510.103	116.19
510.319	197.19
510.536	673.19
510.752	2152.19
510.968	598.19
511.184	155.19
511.401	104.19
511.617	85.19
511.833	96.19
512.049	90.19
512.265	83.19
512.481	80.19
512.698	89.19
512.914	91.19
513.13	100.19
513.346	89.19
513.562	94.19
513.778	94.19
513.994	106.19
514.21	92.19
514.426	114.19
514.642	132.19
514.858	115.19
515.074	140.19
515.29	398.19
515.506	1307.19
515.721	474.19
515.937	149.19
516.153	102.19
516.369	96.19
