Data from Uncirc_1987_H10_HRD10591_00038.txt Node
Date: Wed Jan 03 12:08:56 EST 2024
User: Yrep
Spectrometer: HR+D1059
Trigger mode: 1
Integration Time (sec): 1.000000E-1
Scans to average: 1
Electric dark correction enabled: true
Nonlinearity correction enabled: false
Boxcar width: 0
XAxis mode: Wavelengths
Number of Pixels in Spectrum: 2048
>>>>>Begin Spectral Data<<<<<
223.165	-24.81
223.4	-24.81
223.635	-24.81
223.869	-22.81
224.104	-6.81
224.338	1.19
224.573	-9.81
224.808	-3.81
225.042	-9.81
225.277	-15.81
225.511	-2.81
225.746	9.19
225.98	8.19
226.215	2.19
226.449	22.19
226.683	12.19
226.918	20.19
227.152	21.19
227.387	38.19
227.621	30.19
227.856	28.19
228.09	35.19
228.324	49.19
228.559	46.19
228.793	40.19
229.027	58.19
229.262	66.19
229.496	70.19
229.73	79.19
229.964	67.19
230.199	72.19
230.433	80.19
230.667	83.19
230.901	67.19
231.136	79.19
231.37	70.19
231.604	78.19
231.838	84.19
232.072	90.19
232.306	80.19
232.541	81.19
232.775	77.19
233.009	77.19
233.243	85.19
233.477	64.19
233.711	91.19
233.945	78.19
234.179	78.19
234.413	69.19
234.647	86.19
234.881	70.19
235.115	78.19
235.349	74.19
235.583	81.19
235.817	72.19
236.051	59.19
236.285	71.19
236.519	61.19
236.753	59.19
236.987	61.19
237.221	78.19
237.455	83.19
237.689	62.19
237.922	85.19
238.156	88.19
238.39	77.19
238.624	82.19
238.858	76.19
239.091	88.19
239.325	80.19
239.559	86.19
239.793	84.19
240.027	83.19
240.26	81.19
240.494	83.19
240.728	74.19
240.961	70.19
241.195	81.19
241.429	68.19
241.662	75.19
241.896	76.19
242.13	64.19
242.363	65.19
242.597	78.19
242.83	88.19
243.064	67.19
243.298	93.19
243.531	78.19
243.765	75.19
243.998	86.19
244.232	68.19
244.465	90.19
244.699	74.19
244.932	64.19
245.166	65.19
245.399	80.19
245.633	80.19
245.866	64.19
246.099	70.19
246.333	74.19
246.566	89.19
246.8	77.19
247.033	82.19
247.266	42.19
247.5	81.19
247.733	62.19
247.966	76.19
248.2	69.19
248.433	62.19
248.666	74.19
248.899	93.19
249.133	88.19
249.366	82.19
249.599	85.19
249.832	85.19
250.066	75.19
250.299	70.19
250.532	62.19
250.765	77.19
250.998	79.19
251.231	79.19
251.465	80.19
251.698	63.19
251.931	73.19
252.164	70.19
252.397	63.19
252.63	81.19
252.863	66.19
253.096	76.19
253.329	76.19
253.562	82.19
253.795	87.19
254.028	84.19
254.261	86.19
254.494	61.19
254.727	86.19
254.96	68.19
255.193	79.19
255.426	81.19
255.659	77.19
255.892	75.19
256.124	89.19
256.357	70.19
256.59	80.19
256.823	84.19
257.056	93.19
257.289	76.19
257.521	76.19
257.754	90.19
257.987	76.19
258.22	81.19
258.452	77.19
258.685	99.19
258.918	91.19
259.151	84.19
259.383	79.19
259.616	66.19
259.849	78.19
260.081	84.19
260.314	87.19
260.547	75.19
260.779	79.19
261.012	91.19
261.244	79.19
261.477	81.19
261.71	84.19
261.942	107.19
262.175	115.19
262.407	64.19
262.64	77.19
262.872	90.19
263.105	86.19
263.337	89.19
263.57	74.19
263.802	71.19
264.035	76.19
264.267	88.19
264.499	96.19
264.732	79.19
264.964	71.19
265.197	83.19
265.429	66.19
265.661	74.19
265.894	81.19
266.126	82.19
266.358	82.19
266.591	71.19
266.823	95.19
267.055	76.19
267.287	85.19
267.52	78.19
267.752	86.19
267.984	92.19
268.216	84.19
268.448	70.19
268.681	84.19
268.913	80.19
269.145	95.19
269.377	77.19
269.609	69.19
269.841	79.19
270.073	85.19
270.306	84.19
270.538	70.19
270.77	89.19
271.002	87.19
271.234	74.19
271.466	92.19
271.698	79.19
271.93	74.19
272.162	90.19
272.394	90.19
272.626	83.19
272.858	78.19
273.09	85.19
273.322	81.19
273.553	81.19
273.785	90.19
274.017	83.19
274.249	86.19
274.481	86.19
274.713	81.19
274.945	100.19
275.176	93.19
275.408	101.19
275.64	71.19
275.872	78.19
276.104	77.19
276.335	95.19
276.567	98.19
276.799	101.19
277.031	100.19
277.262	85.19
277.494	82.19
277.726	85.19
277.957	78.19
278.189	74.19
278.421	78.19
278.652	86.19
278.884	88.19
279.115	78.19
279.347	90.19
279.579	78.19
279.81	96.19
280.042	80.19
280.273	100.19
280.505	82.19
280.736	74.19
280.968	98.19
281.199	86.19
281.431	88.19
281.662	98.19
281.894	97.19
282.125	90.19
282.356	111.19
282.588	127.19
282.819	98.19
283.051	101.19
283.282	96.19
283.513	84.19
283.745	70.19
283.976	77.19
284.207	86.19
284.439	76.19
284.67	96.19
284.901	81.19
285.132	99.19
285.364	85.19
285.595	90.19
285.826	80.19
286.057	78.19
286.288	94.19
286.52	76.19
286.751	73.19
286.982	79.19
287.213	83.19
287.444	91.19
287.675	69.19
287.906	98.19
288.138	84.19
288.369	87.19
288.6	92.19
288.831	84.19
289.062	87.19
289.293	93.19
289.524	72.19
289.755	72.19
289.986	86.19
290.217	76.19
290.448	95.19
290.679	75.19
290.91	99.19
291.141	97.19
291.371	99.19
291.602	83.19
291.833	75.19
292.064	78.19
292.295	85.19
292.526	92.19
292.757	86.19
292.987	79.19
293.218	83.19
293.449	85.19
293.68	77.19
293.91	96.19
294.141	85.19
294.372	90.19
294.603	88.19
294.833	86.19
295.064	96.19
295.295	80.19
295.525	104.19
295.756	103.19
295.987	112.19
296.217	138.19
296.448	124.19
296.679	92.19
296.909	82.19
297.14	85.19
297.37	88.19
297.601	96.19
297.831	76.19
298.062	82.19
298.292	82.19
298.523	89.19
298.753	79.19
298.984	88.19
299.214	87.19
299.445	79.19
299.675	99.19
299.905	88.19
300.136	67.19
300.366	78.19
300.597	88.19
300.827	90.19
301.057	107.19
301.288	98.19
301.518	92.19
301.748	88.19
301.979	90.19
302.209	74.19
302.439	81.19
302.669	81.19
302.9	87.19
303.13	96.19
303.36	92.19
303.59	90.19
303.82	110.19
304.051	83.19
304.281	91.19
304.511	95.19
304.741	93.19
304.971	84.19
305.201	82.19
305.431	79.19
305.661	86.19
305.891	91.19
306.121	84.19
306.352	100.19
306.582	106.19
306.812	93.19
307.042	80.19
307.272	94.19
307.502	87.19
307.731	87.19
307.961	99.19
308.191	93.19
308.421	83.19
308.651	97.19
308.881	93.19
309.111	108.19
309.341	85.19
309.571	103.19
309.8	84.19
310.03	99.19
310.26	89.19
310.49	90.19
310.72	92.19
310.949	90.19
311.179	106.19
311.409	98.19
311.639	83.19
311.868	96.19
312.098	94.19
312.328	90.19
312.557	91.19
312.787	95.19
313.017	91.19
313.246	83.19
313.476	90.19
313.706	93.19
313.935	101.19
314.165	85.19
314.394	101.19
314.624	100.19
314.853	96.19
315.083	91.19
315.312	95.19
315.542	88.19
315.771	88.19
316.001	74.19
316.23	82.19
316.46	96.19
316.689	83.19
316.919	89.19
317.148	100.19
317.377	101.19
317.607	94.19
317.836	90.19
318.065	92.19
318.295	91.19
318.524	96.19
318.753	83.19
318.983	87.19
319.212	102.19
319.441	92.19
319.67	106.19
319.9	91.19
320.129	88.19
320.358	93.19
320.587	93.19
320.816	99.19
321.046	88.19
321.275	94.19
321.504	82.19
321.733	72.19
321.962	87.19
322.191	85.19
322.42	96.19
322.649	104.19
322.878	104.19
323.108	116.19
323.337	116.19
323.566	135.19
323.795	160.19
324.024	187.19
324.253	381.19
324.482	780.19
324.71	1618.19
324.939	2167.19
325.168	773.19
325.397	238.19
325.626	131.19
325.855	106.19
326.084	120.19
326.313	122.19
326.542	143.19
326.77	209.19
326.999	452.19
327.228	922.19
327.457	1706.19
327.686	1333.19
327.914	351.19
328.143	169.19
328.372	138.19
328.6	106.19
328.829	114.19
329.058	111.19
329.287	109.19
329.515	96.19
329.744	114.19
329.972	100.19
330.201	86.19
330.43	109.19
330.658	106.19
330.887	147.19
331.115	118.19
331.344	95.19
331.572	103.19
331.801	109.19
332.03	92.19
332.258	101.19
332.486	87.19
332.715	88.19
332.943	91.19
333.172	92.19
333.4	97.19
333.629	96.19
333.857	105.19
334.085	88.19
334.314	94.19
334.542	104.19
334.771	102.19
334.999	99.19
335.227	97.19
335.455	83.19
335.684	109.19
335.912	100.19
336.14	96.19
336.369	98.19
336.597	103.19
336.825	80.19
337.053	94.19
337.281	82.19
337.51	102.19
337.738	77.19
337.966	93.19
338.194	84.19
338.422	95.19
338.65	102.19
338.878	91.19
339.106	92.19
339.334	87.19
339.562	76.19
339.79	86.19
340.018	84.19
340.246	88.19
340.474	97.19
340.702	95.19
340.93	84.19
341.158	95.19
341.386	100.19
341.614	94.19
341.842	107.19
342.07	92.19
342.298	83.19
342.526	77.19
342.754	89.19
342.981	76.19
343.209	81.19
343.437	98.19
343.665	78.19
343.893	95.19
344.12	104.19
344.348	79.19
344.576	83.19
344.804	101.19
345.031	86.19
345.259	100.19
345.487	88.19
345.714	83.19
345.942	88.19
346.17	92.19
346.397	95.19
346.625	90.19
346.853	83.19
347.08	74.19
347.308	90.19
347.535	87.19
347.763	100.19
347.99	95.19
348.218	94.19
348.445	107.19
348.673	94.19
348.9	84.19
349.128	104.19
349.355	87.19
349.583	86.19
349.81	85.19
350.037	81.19
350.265	90.19
350.492	84.19
350.72	83.19
350.947	90.19
351.174	103.19
351.402	103.19
351.629	98.19
351.856	91.19
352.083	98.19
352.311	102.19
352.538	107.19
352.765	80.19
352.992	109.19
353.22	110.19
353.447	91.19
353.674	98.19
353.901	79.19
354.128	102.19
354.355	96.19
354.583	95.19
354.81	102.19
355.037	93.19
355.264	80.19
355.491	106.19
355.718	87.19
355.945	92.19
356.172	90.19
356.399	85.19
356.626	98.19
356.853	80.19
357.08	85.19
357.307	92.19
357.534	89.19
357.761	91.19
357.988	85.19
358.215	90.19
358.441	92.19
358.668	92.19
358.895	94.19
359.122	70.19
359.349	87.19
359.576	97.19
359.802	92.19
360.029	107.19
360.256	119.19
360.483	94.19
360.709	93.19
360.936	92.19
361.163	90.19
361.39	95.19
361.616	98.19
361.843	82.19
362.07	93.19
362.296	92.19
362.523	98.19
362.749	100.19
362.976	91.19
363.203	83.19
363.429	83.19
363.656	82.19
363.882	101.19
364.109	87.19
364.335	83.19
364.562	75.19
364.788	82.19
365.015	85.19
365.241	95.19
365.468	110.19
365.694	102.19
365.92	80.19
366.147	85.19
366.373	84.19
366.599	87.19
366.826	83.19
367.052	86.19
367.278	93.19
367.505	82.19
367.731	98.19
367.957	98.19
368.184	84.19
368.41	79.19
368.636	94.19
368.862	100.19
369.089	103.19
369.315	88.19
369.541	104.19
369.767	86.19
369.993	85.19
370.219	96.19
370.445	85.19
370.672	85.19
370.898	82.19
371.124	98.19
371.35	80.19
371.576	83.19
371.802	85.19
372.028	84.19
372.254	86.19
372.48	74.19
372.706	80.19
372.932	86.19
373.158	79.19
373.384	101.19
373.61	88.19
373.835	77.19
374.061	79.19
374.287	73.19
374.513	99.19
374.739	82.19
374.965	83.19
375.191	88.19
375.416	89.19
375.642	86.19
375.868	83.19
376.094	76.19
376.319	99.19
376.545	85.19
376.771	78.19
376.997	75.19
377.222	71.19
377.448	82.19
377.674	95.19
377.899	98.19
378.125	76.19
378.35	86.19
378.576	85.19
378.802	91.19
379.027	82.19
379.253	98.19
379.478	87.19
379.704	85.19
379.929	95.19
380.155	106.19
380.38	87.19
380.606	98.19
380.831	88.19
381.057	100.19
381.282	94.19
381.507	95.19
381.733	98.19
381.958	97.19
382.184	104.19
382.409	88.19
382.634	91.19
382.86	99.19
383.085	106.19
383.31	103.19
383.535	93.19
383.761	95.19
383.986	96.19
384.211	96.19
384.436	90.19
384.662	98.19
384.887	85.19
385.112	92.19
385.337	99.19
385.562	87.19
385.787	107.19
386.013	99.19
386.238	102.19
386.463	86.19
386.688	103.19
386.913	102.19
387.138	86.19
387.363	88.19
387.588	98.19
387.813	92.19
388.038	95.19
388.263	97.19
388.488	95.19
388.713	87.19
388.938	79.19
389.163	96.19
389.387	104.19
389.612	99.19
389.837	92.19
390.062	94.19
390.287	82.19
390.512	82.19
390.736	92.19
390.961	93.19
391.186	97.19
391.411	85.19
391.636	100.19
391.86	78.19
392.085	80.19
392.31	69.19
392.534	68.19
392.759	79.19
392.984	91.19
393.208	87.19
393.433	82.19
393.658	98.19
393.882	94.19
394.107	81.19
394.331	95.19
394.556	70.19
394.78	90.19
395.005	92.19
395.229	78.19
395.454	86.19
395.678	84.19
395.903	99.19
396.127	78.19
396.352	75.19
396.576	87.19
396.801	79.19
397.025	101.19
397.249	75.19
397.474	80.19
397.698	80.19
397.922	93.19
398.147	86.19
398.371	66.19
398.595	92.19
398.82	90.19
399.044	95.19
399.268	82.19
399.492	93.19
399.717	97.19
399.941	82.19
400.165	82.19
400.389	86.19
400.613	77.19
400.837	80.19
401.062	76.19
401.286	93.19
401.51	82.19
401.734	92.19
401.958	93.19
402.182	126.19
402.406	139.19
402.63	108.19
402.854	83.19
403.078	83.19
403.302	76.19
403.526	93.19
403.75	96.19
403.974	86.19
404.198	76.19
404.422	85.19
404.645	85.19
404.869	85.19
405.093	88.19
405.317	94.19
405.541	92.19
405.765	110.19
405.988	107.19
406.212	167.19
406.436	200.19
406.66	132.19
406.883	81.19
407.107	99.19
407.331	104.19
407.555	109.19
407.778	104.19
408.002	76.19
408.226	98.19
408.449	86.19
408.673	81.19
408.896	85.19
409.12	91.19
409.344	101.19
409.567	78.19
409.791	89.19
410.014	99.19
410.238	99.19
410.461	80.19
410.685	90.19
410.908	91.19
411.132	86.19
411.355	101.19
411.578	86.19
411.802	91.19
412.025	77.19
412.249	85.19
412.472	84.19
412.695	90.19
412.919	94.19
413.142	88.19
413.365	83.19
413.589	85.19
413.812	85.19
414.035	88.19
414.258	97.19
414.482	79.19
414.705	84.19
414.928	98.19
415.151	83.19
415.374	94.19
415.597	86.19
415.821	82.19
416.044	84.19
416.267	81.19
416.49	78.19
416.713	79.19
416.936	80.19
417.159	83.19
417.382	81.19
417.605	79.19
417.828	91.19
418.051	91.19
418.274	82.19
418.497	82.19
418.72	77.19
418.943	83.19
419.166	71.19
419.389	83.19
419.611	102.19
419.834	76.19
420.057	84.19
420.28	85.19
420.503	74.19
420.726	86.19
420.948	84.19
421.171	87.19
421.394	88.19
421.617	69.19
421.839	79.19
422.062	96.19
422.285	93.19
422.507	87.19
422.73	112.19
422.953	101.19
423.175	81.19
423.398	84.19
423.621	91.19
423.843	92.19
424.066	86.19
424.288	77.19
424.511	78.19
424.733	96.19
424.956	110.19
425.178	103.19
425.401	97.19
425.623	96.19
425.846	78.19
426.068	70.19
426.291	86.19
426.513	82.19
426.735	85.19
426.958	94.19
427.18	111.19
427.402	126.19
427.625	155.19
427.847	116.19
428.069	80.19
428.292	80.19
428.514	83.19
428.736	80.19
428.958	92.19
429.181	87.19
429.403	74.19
429.625	84.19
429.847	91.19
430.069	92.19
430.292	83.19
430.514	75.19
430.736	82.19
430.958	96.19
431.18	74.19
431.402	84.19
431.624	94.19
431.846	82.19
432.068	79.19
432.29	88.19
432.512	90.19
432.734	78.19
432.956	89.19
433.178	104.19
433.4	102.19
433.622	86.19
433.844	81.19
434.066	91.19
434.287	90.19
434.509	81.19
434.731	85.19
434.953	81.19
435.175	79.19
435.397	80.19
435.618	78.19
435.84	96.19
436.062	110.19
436.284	112.19
436.505	85.19
436.727	95.19
436.949	89.19
437.17	94.19
437.392	74.19
437.614	91.19
437.835	97.19
438.057	112.19
438.278	104.19
438.5	106.19
438.721	108.19
438.943	96.19
439.165	88.19
439.386	92.19
439.608	89.19
439.829	101.19
440.05	125.19
440.272	138.19
440.493	97.19
440.715	71.19
440.936	77.19
441.158	84.19
441.379	82.19
441.6	88.19
441.822	87.19
442.043	93.19
442.264	91.19
442.486	107.19
442.707	86.19
442.928	103.19
443.149	133.19
443.371	115.19
443.592	108.19
443.813	109.19
444.034	110.19
444.255	98.19
444.476	88.19
444.698	83.19
444.919	74.19
445.14	130.19
445.361	117.19
445.582	128.19
445.803	124.19
446.024	130.19
446.245	119.19
446.466	112.19
446.687	97.19
446.908	78.19
447.129	88.19
447.35	86.19
447.571	86.19
447.792	86.19
448.013	99.19
448.234	99.19
448.455	94.19
448.675	114.19
448.896	112.19
449.117	96.19
449.338	107.19
449.559	125.19
449.779	138.19
450	85.19
450.221	86.19
450.442	90.19
450.662	88.19
450.883	99.19
451.104	94.19
451.324	101.19
451.545	78.19
451.766	90.19
451.986	80.19
452.207	92.19
452.428	94.19
452.648	94.19
452.869	96.19
453.089	111.19
453.31	103.19
453.53	96.19
453.751	92.19
453.971	108.19
454.192	98.19
454.412	93.19
454.633	93.19
454.853	74.19
455.073	82.19
455.294	78.19
455.514	96.19
455.734	90.19
455.955	102.19
456.175	85.19
456.395	82.19
456.616	82.19
456.836	92.19
457.056	80.19
457.276	72.19
457.497	69.19
457.717	74.19
457.937	86.19
458.157	97.19
458.377	74.19
458.598	108.19
458.818	141.19
459.038	150.19
459.258	108.19
459.478	92.19
459.698	74.19
459.918	67.19
460.138	82.19
460.358	88.19
460.578	79.19
460.798	67.19
461.018	81.19
461.238	91.19
461.458	80.19
461.678	88.19
461.898	72.19
462.118	84.19
462.338	78.19
462.558	79.19
462.777	74.19
462.997	90.19
463.217	93.19
463.437	60.19
463.657	64.19
463.876	91.19
464.096	91.19
464.316	88.19
464.536	96.19
464.755	85.19
464.975	90.19
465.195	156.19
465.414	142.19
465.634	97.19
465.854	81.19
466.073	86.19
466.293	77.19
466.512	81.19
466.732	79.19
466.951	84.19
467.171	95.19
467.391	93.19
467.61	108.19
467.829	86.19
468.049	76.19
468.268	86.19
468.488	93.19
468.707	84.19
468.927	85.19
469.146	89.19
469.365	92.19
469.585	93.19
469.804	85.19
470.023	91.19
470.243	74.19
470.462	84.19
470.681	100.19
470.901	83.19
471.12	83.19
471.339	83.19
471.558	81.19
471.777	94.19
471.997	89.19
472.216	81.19
472.435	81.19
472.654	76.19
472.873	87.19
473.092	85.19
473.311	86.19
473.53	89.19
473.749	92.19
473.968	86.19
474.187	92.19
474.406	93.19
474.625	83.19
474.844	83.19
475.063	89.19
475.282	84.19
475.501	86.19
475.72	89.19
475.939	85.19
476.158	86.19
476.377	85.19
476.596	90.19
476.814	91.19
477.033	101.19
477.252	96.19
477.471	78.19
477.69	93.19
477.908	89.19
478.127	63.19
478.346	87.19
478.564	81.19
478.783	96.19
479.002	78.19
479.22	75.19
479.439	97.19
479.658	85.19
479.876	90.19
480.095	84.19
480.313	88.19
480.532	88.19
480.751	75.19
480.969	95.19
481.188	105.19
481.406	114.19
481.624	91.19
481.843	74.19
482.061	64.19
482.28	95.19
482.498	92.19
482.717	83.19
482.935	74.19
483.153	84.19
483.372	91.19
483.59	74.19
483.808	69.19
484.027	80.19
484.245	92.19
484.463	102.19
484.681	81.19
484.9	88.19
485.118	94.19
485.336	76.19
485.554	79.19
485.772	89.19
485.99	93.19
486.209	102.19
486.427	102.19
486.645	102.19
486.863	104.19
487.081	98.19
487.299	98.19
487.517	86.19
487.735	94.19
487.953	90.19
488.171	87.19
488.389	102.19
488.607	90.19
488.825	87.19
489.043	84.19
489.261	86.19
489.479	79.19
489.696	96.19
489.914	82.19
490.132	88.19
490.35	96.19
490.568	83.19
490.786	79.19
491.003	86.19
491.221	78.19
491.439	89.19
491.657	97.19
491.874	94.19
492.092	81.19
492.31	91.19
492.527	80.19
492.745	92.19
492.963	91.19
493.18	89.19
493.398	93.19
493.615	95.19
493.833	82.19
494.05	77.19
494.268	83.19
494.485	83.19
494.703	89.19
494.92	95.19
495.138	85.19
495.355	79.19
495.573	97.19
495.79	88.19
496.008	91.19
496.225	94.19
496.442	91.19
496.66	95.19
496.877	95.19
497.094	89.19
497.312	83.19
497.529	81.19
497.746	87.19
497.963	93.19
498.181	95.19
498.398	104.19
498.615	101.19
498.832	91.19
499.049	84.19
499.267	75.19
499.484	87.19
499.701	91.19
499.918	94.19
500.135	82.19
500.352	85.19
500.569	83.19
500.786	84.19
501.003	89.19
501.22	84.19
501.437	98.19
501.654	93.19
501.871	99.19
502.088	94.19
502.305	94.19
502.522	97.19
502.739	81.19
502.956	83.19
503.172	75.19
503.389	78.19
503.606	105.19
503.823	108.19
504.04	93.19
504.256	91.19
504.473	84.19
504.69	87.19
504.907	89.19
505.123	98.19
505.34	89.19
505.557	79.19
505.773	95.19
505.99	92.19
506.207	83.19
506.423	71.19
506.64	88.19
506.856	74.19
507.073	85.19
507.289	90.19
507.506	101.19
507.722	90.19
507.939	109.19
508.155	95.19
508.372	92.19
508.588	89.19
508.805	104.19
509.021	91.19
509.238	99.19
509.454	108.19
509.67	92.19
509.887	96.19
510.103	134.19
510.319	234.19
510.536	735.19
510.752	2216.19
510.968	610.19
511.184	144.19
511.401	105.19
511.617	85.19
511.833	101.19
512.049	94.19
512.265	74.19
512.481	75.19
512.698	85.19
512.914	97.19
513.13	74.19
513.346	97.19
513.562	91.19
513.778	88.19
513.994	82.19
514.21	92.19
514.426	102.19
514.642	111.19
514.858	122.19
515.074	164.19
515.29	423.19
515.506	1380.19
515.721	500.19
515.937	147.19
516.153	93.19
516.369	109.19
516.585	80.19
516.801	95.19
517.016	91.19
