Data from Uncirc_1987_H10_HRD10591_00034.txt Node
Date: Wed Jan 03 12:08:55 EST 2024
User: Yrep
Spectrometer: HR+D1059
Trigger mode: 1
Integration Time (sec): 1.000000E-1
Scans to average: 1
Electric dark correction enabled: true
Nonlinearity correction enabled: false
Boxcar width: 0
XAxis mode: Wavelengths
Number of Pixels in Spectrum: 2048
>>>>>Begin Spectral Data<<<<<
223.165	-16.62
223.4	-16.62
223.635	-16.62
223.869	-28.62
224.104	-17.62
224.338	-15.62
224.573	-17.62
224.808	-12.62
225.042	-5.62
225.277	-6.62
225.511	5.38
225.746	5.38
225.98	8.38
226.215	2.38
226.449	20.38
226.683	23.38
226.918	22.38
227.152	33.38
227.387	45.38
227.621	35.38
227.856	54.38
228.09	48.38
228.324	65.38
228.559	48.38
228.793	67.38
229.027	60.38
229.262	76.38
229.496	74.38
229.73	84.38
229.964	84.38
230.199	67.38
230.433	73.38
230.667	77.38
230.901	83.38
231.136	87.38
231.37	85.38
231.604	90.38
231.838	96.38
232.072	74.38
232.306	81.38
232.541	82.38
232.775	85.38
233.009	83.38
233.243	87.38
233.477	88.38
233.711	94.38
233.945	84.38
234.179	66.38
234.413	90.38
234.647	95.38
234.881	80.38
235.115	91.38
235.349	87.38
235.583	87.38
235.817	83.38
236.051	76.38
236.285	86.38
236.519	69.38
236.753	88.38
236.987	74.38
237.221	80.38
237.455	74.38
237.689	76.38
237.922	81.38
238.156	69.38
238.39	82.38
238.624	85.38
238.858	85.38
239.091	83.38
239.325	91.38
239.559	90.38
239.793	75.38
240.027	84.38
240.26	65.38
240.494	71.38
240.728	85.38
240.961	82.38
241.195	79.38
241.429	86.38
241.662	86.38
241.896	81.38
242.13	85.38
242.363	94.38
242.597	72.38
242.83	75.38
243.064	77.38
243.298	80.38
243.531	80.38
243.765	83.38
243.998	82.38
244.232	74.38
244.465	75.38
244.699	82.38
244.932	81.38
245.166	85.38
245.399	66.38
245.633	80.38
245.866	92.38
246.099	76.38
246.333	75.38
246.566	80.38
246.8	73.38
247.033	82.38
247.266	74.38
247.5	86.38
247.733	84.38
247.966	85.38
248.2	89.38
248.433	68.38
248.666	76.38
248.899	88.38
249.133	77.38
249.366	90.38
249.599	100.38
249.832	94.38
250.066	75.38
250.299	73.38
250.532	87.38
250.765	77.38
250.998	90.38
251.231	83.38
251.465	69.38
251.698	76.38
251.931	67.38
252.164	88.38
252.397	86.38
252.63	87.38
252.863	84.38
253.096	92.38
253.329	86.38
253.562	92.38
253.795	97.38
254.028	73.38
254.261	77.38
254.494	88.38
254.727	82.38
254.96	79.38
255.193	81.38
255.426	83.38
255.659	66.38
255.892	72.38
256.124	83.38
256.357	85.38
256.59	95.38
256.823	87.38
257.056	89.38
257.289	88.38
257.521	76.38
257.754	95.38
257.987	92.38
258.22	78.38
258.452	75.38
258.685	74.38
258.918	84.38
259.151	82.38
259.383	88.38
259.616	87.38
259.849	98.38
260.081	72.38
260.314	83.38
260.547	86.38
260.779	75.38
261.012	92.38
261.244	80.38
261.477	93.38
261.71	104.38
261.942	101.38
262.175	113.38
262.407	89.38
262.64	88.38
262.872	81.38
263.105	93.38
263.337	86.38
263.57	87.38
263.802	82.38
264.035	90.38
264.267	87.38
264.499	80.38
264.732	95.38
264.964	76.38
265.197	84.38
265.429	94.38
265.661	87.38
265.894	89.38
266.126	99.38
266.358	77.38
266.591	81.38
266.823	84.38
267.055	81.38
267.287	88.38
267.52	96.38
267.752	100.38
267.984	97.38
268.216	88.38
268.448	88.38
268.681	86.38
268.913	92.38
269.145	91.38
269.377	92.38
269.609	86.38
269.841	81.38
270.073	92.38
270.306	86.38
270.538	91.38
270.77	84.38
271.002	84.38
271.234	81.38
271.466	80.38
271.698	84.38
271.93	85.38
272.162	85.38
272.394	94.38
272.626	89.38
272.858	84.38
273.09	82.38
273.322	80.38
273.553	90.38
273.785	81.38
274.017	84.38
274.249	91.38
274.481	99.38
274.713	95.38
274.945	92.38
275.176	91.38
275.408	77.38
275.64	89.38
275.872	106.38
276.104	86.38
276.335	103.38
276.567	94.38
276.799	101.38
277.031	86.38
277.262	96.38
277.494	86.38
277.726	74.38
277.957	97.38
278.189	103.38
278.421	90.38
278.652	91.38
278.884	99.38
279.115	89.38
279.347	98.38
279.579	81.38
279.81	97.38
280.042	93.38
280.273	79.38
280.505	93.38
280.736	94.38
280.968	96.38
281.199	77.38
281.431	87.38
281.662	89.38
281.894	93.38
282.125	114.38
282.356	132.38
282.588	133.38
282.819	102.38
283.051	81.38
283.282	90.38
283.513	92.38
283.745	97.38
283.976	84.38
284.207	92.38
284.439	75.38
284.67	95.38
284.901	89.38
285.132	88.38
285.364	83.38
285.595	100.38
285.826	77.38
286.057	101.38
286.288	92.38
286.52	80.38
286.751	92.38
286.982	83.38
287.213	73.38
287.444	90.38
287.675	100.38
287.906	102.38
288.138	84.38
288.369	92.38
288.6	103.38
288.831	88.38
289.062	81.38
289.293	89.38
289.524	96.38
289.755	92.38
289.986	87.38
290.217	102.38
290.448	97.38
290.679	100.38
290.91	87.38
291.141	102.38
291.371	97.38
291.602	81.38
291.833	93.38
292.064	85.38
292.295	92.38
292.526	81.38
292.757	101.38
292.987	84.38
293.218	77.38
293.449	88.38
293.68	77.38
293.91	94.38
294.141	100.38
294.372	101.38
294.603	93.38
294.833	100.38
295.064	90.38
295.295	100.38
295.525	96.38
295.756	103.38
295.987	130.38
296.217	131.38
296.448	119.38
296.679	88.38
296.909	98.38
297.14	95.38
297.37	94.38
297.601	77.38
297.831	88.38
298.062	103.38
298.292	96.38
298.523	92.38
298.753	89.38
298.984	89.38
299.214	105.38
299.445	97.38
299.675	99.38
299.905	102.38
300.136	96.38
300.366	104.38
300.597	78.38
300.827	91.38
301.057	88.38
301.288	98.38
301.518	99.38
301.748	87.38
301.979	114.38
302.209	92.38
302.439	92.38
302.669	84.38
302.9	86.38
303.13	105.38
303.36	97.38
303.59	105.38
303.82	93.38
304.051	85.38
304.281	99.38
304.511	101.38
304.741	87.38
304.971	80.38
305.201	89.38
305.431	90.38
305.661	90.38
305.891	105.38
306.121	96.38
306.352	99.38
306.582	110.38
306.812	98.38
307.042	93.38
307.272	88.38
307.502	93.38
307.731	93.38
307.961	88.38
308.191	100.38
308.421	104.38
308.651	117.38
308.881	104.38
309.111	97.38
309.341	107.38
309.571	99.38
309.8	100.38
310.03	101.38
310.26	115.38
310.49	91.38
310.72	98.38
310.949	92.38
311.179	107.38
311.409	105.38
311.639	107.38
311.868	92.38
312.098	98.38
312.328	93.38
312.557	105.38
312.787	107.38
313.017	94.38
313.246	82.38
313.476	87.38
313.706	98.38
313.935	104.38
314.165	93.38
314.394	88.38
314.624	89.38
314.853	100.38
315.083	100.38
315.312	94.38
315.542	99.38
315.771	99.38
316.001	85.38
316.23	106.38
316.46	93.38
316.689	80.38
316.919	94.38
317.148	110.38
317.377	103.38
317.607	91.38
317.836	106.38
318.065	106.38
318.295	101.38
318.524	99.38
318.753	101.38
318.983	95.38
319.212	102.38
319.441	99.38
319.67	105.38
319.9	100.38
320.129	98.38
320.358	103.38
320.587	93.38
320.816	96.38
321.046	94.38
321.275	92.38
321.504	106.38
321.733	81.38
321.962	102.38
322.191	106.38
322.42	111.38
322.649	104.38
322.878	121.38
323.108	110.38
323.337	117.38
323.566	129.38
323.795	135.38
324.024	188.38
324.253	348.38
324.482	689.38
324.71	1426.38
324.939	1874.38
325.168	706.38
325.397	219.38
325.626	134.38
325.855	128.38
326.084	106.38
326.313	112.38
326.542	134.38
326.77	231.38
326.999	413.38
327.228	822.38
327.457	1488.38
327.686	1182.38
327.914	323.38
328.143	177.38
328.372	129.38
328.6	118.38
328.829	97.38
329.058	128.38
329.287	136.38
329.515	103.38
329.744	98.38
329.972	97.38
330.201	99.38
330.43	111.38
330.658	122.38
330.887	148.38
331.115	125.38
331.344	88.38
331.572	113.38
331.801	105.38
332.03	90.38
332.258	96.38
332.486	90.38
332.715	102.38
332.943	99.38
333.172	110.38
333.4	101.38
333.629	107.38
333.857	122.38
334.085	100.38
334.314	93.38
334.542	98.38
334.771	102.38
334.999	112.38
335.227	114.38
335.455	105.38
335.684	104.38
335.912	103.38
336.14	99.38
336.369	97.38
336.597	90.38
336.825	108.38
337.053	105.38
337.281	104.38
337.51	94.38
337.738	95.38
337.966	103.38
338.194	97.38
338.422	99.38
338.65	100.38
338.878	103.38
339.106	89.38
339.334	107.38
339.562	106.38
339.79	85.38
340.018	96.38
340.246	82.38
340.474	92.38
340.702	110.38
340.93	107.38
341.158	107.38
341.386	93.38
341.614	103.38
341.842	88.38
342.07	92.38
342.298	95.38
342.526	82.38
342.754	88.38
342.981	100.38
343.209	99.38
343.437	104.38
343.665	92.38
343.893	86.38
344.12	107.38
344.348	95.38
344.576	82.38
344.804	99.38
345.031	103.38
345.259	98.38
345.487	93.38
345.714	102.38
345.942	88.38
346.17	94.38
346.397	105.38
346.625	96.38
346.853	105.38
347.08	110.38
347.308	110.38
347.535	105.38
347.763	100.38
347.99	113.38
348.218	104.38
348.445	86.38
348.673	94.38
348.9	98.38
349.128	100.38
349.355	113.38
349.583	108.38
349.81	92.38
350.037	98.38
350.265	98.38
350.492	93.38
350.72	104.38
350.947	111.38
351.174	107.38
351.402	109.38
351.629	105.38
351.856	98.38
352.083	107.38
352.311	108.38
352.538	110.38
352.765	113.38
352.992	118.38
353.22	109.38
353.447	88.38
353.674	100.38
353.901	96.38
354.128	97.38
354.355	115.38
354.583	104.38
354.81	101.38
355.037	103.38
355.264	104.38
355.491	104.38
355.718	89.38
355.945	90.38
356.172	93.38
356.399	92.38
356.626	110.38
356.853	113.38
357.08	86.38
357.307	101.38
357.534	108.38
357.761	109.38
357.988	106.38
358.215	86.38
358.441	108.38
358.668	96.38
358.895	90.38
359.122	77.38
359.349	91.38
359.576	92.38
359.802	100.38
360.029	108.38
360.256	98.38
360.483	97.38
360.709	84.38
360.936	102.38
361.163	89.38
361.39	87.38
361.616	83.38
361.843	83.38
362.07	98.38
362.296	88.38
362.523	87.38
362.749	104.38
362.976	105.38
363.203	103.38
363.429	99.38
363.656	97.38
363.882	101.38
364.109	86.38
364.335	100.38
364.562	88.38
364.788	83.38
365.015	103.38
365.241	102.38
365.468	92.38
365.694	97.38
365.92	118.38
366.147	102.38
366.373	95.38
366.599	105.38
366.826	103.38
367.052	101.38
367.278	91.38
367.505	100.38
367.731	95.38
367.957	88.38
368.184	85.38
368.41	102.38
368.636	107.38
368.862	117.38
369.089	115.38
369.315	84.38
369.541	102.38
369.767	98.38
369.993	100.38
370.219	92.38
370.445	90.38
370.672	88.38
370.898	86.38
371.124	87.38
371.35	76.38
371.576	94.38
371.802	100.38
372.028	100.38
372.254	91.38
372.48	90.38
372.706	103.38
372.932	74.38
373.158	111.38
373.384	103.38
373.61	107.38
373.835	102.38
374.061	94.38
374.287	92.38
374.513	92.38
374.739	99.38
374.965	92.38
375.191	95.38
375.416	94.38
375.642	79.38
375.868	83.38
376.094	88.38
376.319	100.38
376.545	98.38
376.771	88.38
376.997	76.38
377.222	97.38
377.448	93.38
377.674	99.38
377.899	89.38
378.125	104.38
378.35	99.38
378.576	99.38
378.802	106.38
379.027	104.38
379.253	98.38
379.478	101.38
379.704	92.38
379.929	109.38
380.155	100.38
380.38	82.38
380.606	88.38
380.831	102.38
381.057	89.38
381.282	104.38
381.507	94.38
381.733	100.38
381.958	104.38
382.184	106.38
382.409	100.38
382.634	109.38
382.86	110.38
383.085	99.38
383.31	94.38
383.535	104.38
383.761	99.38
383.986	104.38
384.211	89.38
384.436	76.38
384.662	105.38
384.887	108.38
385.112	98.38
385.337	110.38
385.562	110.38
385.787	93.38
386.013	107.38
386.238	112.38
386.463	101.38
386.688	104.38
386.913	96.38
387.138	96.38
387.363	97.38
387.588	90.38
387.813	88.38
388.038	107.38
388.263	113.38
388.488	108.38
388.713	111.38
388.938	99.38
389.163	105.38
389.387	95.38
389.612	95.38
389.837	96.38
390.062	101.38
390.287	99.38
390.512	88.38
390.736	95.38
390.961	104.38
391.186	108.38
391.411	89.38
391.636	106.38
391.86	93.38
392.085	88.38
392.31	95.38
392.534	93.38
392.759	98.38
392.984	111.38
393.208	98.38
393.433	101.38
393.658	86.38
393.882	74.38
394.107	93.38
394.331	84.38
394.556	87.38
394.78	96.38
395.005	87.38
395.229	82.38
395.454	101.38
395.678	82.38
395.903	82.38
396.127	85.38
396.352	107.38
396.576	103.38
396.801	89.38
397.025	85.38
397.249	88.38
397.474	84.38
397.698	94.38
397.922	89.38
398.147	90.38
398.371	89.38
398.595	101.38
398.82	105.38
399.044	92.38
399.268	89.38
399.492	85.38
399.717	84.38
399.941	78.38
400.165	90.38
400.389	94.38
400.613	92.38
400.837	98.38
401.062	93.38
401.286	91.38
401.51	96.38
401.734	96.38
401.958	84.38
402.182	98.38
402.406	130.38
402.63	110.38
402.854	93.38
403.078	93.38
403.302	95.38
403.526	102.38
403.75	104.38
403.974	96.38
404.198	92.38
404.422	92.38
404.645	97.38
404.869	88.38
405.093	98.38
405.317	92.38
405.541	103.38
405.765	94.38
405.988	118.38
406.212	148.38
406.436	193.38
406.66	138.38
406.883	105.38
407.107	90.38
407.331	86.38
407.555	101.38
407.778	89.38
408.002	105.38
408.226	91.38
408.449	92.38
408.673	92.38
408.896	87.38
409.12	105.38
409.344	107.38
409.567	87.38
409.791	99.38
410.014	98.38
410.238	102.38
410.461	88.38
410.685	93.38
410.908	89.38
411.132	97.38
411.355	108.38
411.578	103.38
411.802	85.38
412.025	107.38
412.249	96.38
412.472	111.38
412.695	93.38
412.919	98.38
413.142	88.38
413.365	101.38
413.589	96.38
413.812	80.38
414.035	100.38
414.258	81.38
414.482	103.38
414.705	96.38
414.928	85.38
415.151	96.38
415.374	96.38
415.597	89.38
415.821	103.38
416.044	94.38
416.267	93.38
416.49	80.38
416.713	99.38
416.936	98.38
417.159	85.38
417.382	89.38
417.605	94.38
417.828	97.38
418.051	94.38
418.274	98.38
418.497	97.38
418.72	93.38
418.943	89.38
419.166	93.38
419.389	85.38
419.611	90.38
419.834	101.38
420.057	92.38
420.28	94.38
420.503	88.38
420.726	78.38
420.948	78.38
421.171	93.38
421.394	99.38
421.617	101.38
421.839	93.38
422.062	75.38
422.285	98.38
422.507	102.38
422.73	113.38
422.953	99.38
423.175	89.38
423.398	95.38
423.621	76.38
423.843	72.38
424.066	103.38
424.288	90.38
424.511	94.38
424.733	101.38
424.956	107.38
425.178	123.38
425.401	109.38
425.623	125.38
425.846	102.38
426.068	90.38
426.291	93.38
426.513	100.38
426.735	84.38
426.958	99.38
427.18	103.38
427.402	118.38
427.625	144.38
427.847	106.38
428.069	104.38
428.292	106.38
428.514	92.38
428.736	87.38
428.958	85.38
429.181	92.38
429.403	71.38
429.625	93.38
429.847	102.38
430.069	110.38
430.292	100.38
430.514	84.38
430.736	82.38
430.958	93.38
431.18	92.38
431.402	100.38
431.624	89.38
431.846	87.38
432.068	97.38
432.29	88.38
432.512	101.38
432.734	92.38
432.956	105.38
433.178	101.38
433.4	101.38
433.622	82.38
433.844	83.38
434.066	101.38
434.287	99.38
434.509	104.38
434.731	80.38
434.953	88.38
435.175	89.38
435.397	73.38
435.618	106.38
435.84	93.38
436.062	122.38
436.284	106.38
436.505	107.38
436.727	104.38
436.949	94.38
437.17	91.38
437.392	108.38
437.614	102.38
437.835	105.38
438.057	91.38
438.278	103.38
438.5	109.38
438.721	124.38
438.943	105.38
439.165	94.38
439.386	93.38
439.608	98.38
439.829	97.38
440.05	115.38
440.272	136.38
440.493	90.38
440.715	75.38
440.936	90.38
441.158	78.38
441.379	94.38
441.6	99.38
441.822	103.38
442.043	95.38
442.264	101.38
442.486	115.38
442.707	98.38
442.928	106.38
443.149	135.38
443.371	111.38
443.592	105.38
443.813	103.38
444.034	85.38
444.255	95.38
444.476	91.38
444.698	92.38
444.919	89.38
445.14	136.38
445.361	116.38
445.582	117.38
445.803	134.38
446.024	128.38
446.245	127.38
446.466	104.38
446.687	97.38
446.908	83.38
447.129	96.38
447.35	100.38
447.571	87.38
447.792	96.38
448.013	98.38
448.234	101.38
448.455	99.38
448.675	114.38
448.896	126.38
449.117	97.38
449.338	105.38
449.559	127.38
449.779	113.38
450	92.38
450.221	84.38
450.442	89.38
450.662	91.38
450.883	104.38
451.104	117.38
451.324	91.38
451.545	97.38
451.766	94.38
451.986	79.38
452.207	97.38
452.428	88.38
452.648	96.38
452.869	98.38
453.089	96.38
453.31	107.38
453.53	105.38
453.751	94.38
453.971	93.38
454.192	99.38
454.412	93.38
454.633	87.38
454.853	92.38
455.073	89.38
455.294	91.38
455.514	90.38
455.734	80.38
455.955	94.38
456.175	86.38
456.395	91.38
456.616	92.38
456.836	96.38
457.056	97.38
457.276	79.38
457.497	102.38
457.717	92.38
457.937	100.38
458.157	90.38
458.377	90.38
458.598	110.38
458.818	126.38
459.038	133.38
459.258	109.38
459.478	90.38
459.698	88.38
459.918	94.38
460.138	78.38
460.358	90.38
460.578	94.38
460.798	98.38
461.018	96.38
461.238	89.38
461.458	84.38
461.678	88.38
461.898	95.38
462.118	81.38
462.338	84.38
462.558	95.38
462.777	90.38
462.997	86.38
463.217	91.38
463.437	88.38
463.657	89.38
463.876	75.38
464.096	72.38
464.316	80.38
464.536	100.38
464.755	105.38
464.975	101.38
465.195	139.38
465.414	150.38
465.634	97.38
465.854	91.38
466.073	83.38
466.293	85.38
466.512	95.38
466.732	96.38
466.951	90.38
467.171	96.38
467.391	86.38
467.61	91.38
467.829	102.38
468.049	94.38
468.268	107.38
468.488	94.38
468.707	91.38
468.927	96.38
469.146	102.38
469.365	98.38
469.585	96.38
469.804	95.38
470.023	80.38
470.243	104.38
470.462	86.38
470.681	104.38
470.901	96.38
471.12	100.38
471.339	100.38
471.558	91.38
471.777	91.38
471.997	95.38
472.216	98.38
472.435	87.38
472.654	89.38
472.873	88.38
473.092	94.38
473.311	97.38
473.53	85.38
473.749	96.38
473.968	100.38
474.187	100.38
474.406	107.38
474.625	92.38
474.844	84.38
475.063	100.38
475.282	90.38
475.501	90.38
475.72	93.38
475.939	93.38
476.158	90.38
476.377	101.38
476.596	96.38
476.814	90.38
477.033	96.38
477.252	101.38
477.471	87.38
477.69	82.38
477.908	90.38
478.127	98.38
478.346	88.38
478.564	86.38
478.783	81.38
479.002	87.38
479.22	88.38
479.439	98.38
479.658	101.38
479.876	89.38
480.095	89.38
480.313	103.38
480.532	96.38
480.751	94.38
480.969	89.38
481.188	116.38
481.406	102.38
481.624	85.38
481.843	95.38
482.061	99.38
482.28	100.38
482.498	94.38
482.717	87.38
482.935	78.38
483.153	92.38
483.372	98.38
483.59	94.38
483.808	87.38
484.027	96.38
484.245	98.38
484.463	84.38
484.681	91.38
484.9	105.38
485.118	92.38
485.336	77.38
485.554	98.38
485.772	93.38
485.99	101.38
486.209	98.38
486.427	100.38
486.645	107.38
486.863	101.38
487.081	104.38
487.299	94.38
487.517	94.38
487.735	87.38
487.953	94.38
488.171	98.38
488.389	91.38
488.607	99.38
488.825	80.38
489.043	82.38
489.261	91.38
489.479	86.38
489.696	90.38
489.914	87.38
490.132	92.38
490.35	101.38
490.568	88.38
490.786	91.38
491.003	84.38
491.221	91.38
491.439	97.38
491.657	102.38
491.874	99.38
492.092	89.38
492.31	95.38
492.527	96.38
492.745	72.38
492.963	92.38
493.18	102.38
493.398	105.38
493.615	113.38
493.833	82.38
494.05	84.38
494.268	93.38
494.485	88.38
494.703	92.38
494.92	115.38
495.138	103.38
495.355	77.38
495.573	103.38
495.79	88.38
496.008	96.38
496.225	101.38
496.442	104.38
496.66	93.38
496.877	100.38
497.094	98.38
497.312	89.38
497.529	93.38
497.746	94.38
497.963	83.38
498.181	86.38
498.398	97.38
498.615	108.38
498.832	108.38
499.049	90.38
499.267	93.38
499.484	95.38
499.701	89.38
499.918	79.38
500.135	88.38
500.352	94.38
500.569	74.38
500.786	88.38
501.003	100.38
501.22	85.38
501.437	77.38
501.654	101.38
501.871	112.38
502.088	96.38
502.305	88.38
502.522	87.38
502.739	85.38
502.956	92.38
503.172	96.38
503.389	86.38
503.606	114.38
503.823	93.38
504.04	96.38
504.256	94.38
504.473	87.38
504.69	68.38
504.907	89.38
505.123	80.38
505.34	84.38
505.557	99.38
505.773	93.38
505.99	81.38
506.207	92.38
506.423	95.38
506.64	101.38
506.856	84.38
507.073	97.38
507.289	92.38
507.506	96.38
507.722	107.38
507.939	104.38
508.155	109.38
508.372	91.38
508.588	105.38
508.805	109.38
509.021	107.38
509.238	105.38
509.454	108.38
509.67	107.38
509.887	104.38
510.103	126.38
510.319	191.38
510.536	647.38
510.752	1951.38
510.968	566.38
511.184	157.38
511.401	90.38
511.617	95.38
511.833	85.38
512.049	100.38
512.265	91.38
512.481	87.38
512.698	93.38
512.914	92.38
513.13	93.38
513.346	94.38
513.562	95.38
513.778	93.38
513.994	102.38
514.21	112.38
