Data from Uncirc_1987_H10_HRD10591_00015.txt Node
Date: Wed Jan 03 12:08:51 EST 2024
User: Yrep
Spectrometer: HR+D1059
Trigger mode: 1
Integration Time (sec): 1.000000E-1
Scans to average: 1
Electric dark correction enabled: true
Nonlinearity correction enabled: false
Boxcar width: 0
XAxis mode: Wavelengths
Number of Pixels in Spectrum: 2048
>>>>>Begin Spectral Data<<<<<
223.165	-16.62
223.4	-16.62
223.635	-16.62
223.869	-16.62
224.104	-13.62
224.338	-19.62
224.573	-7.62
224.808	-15.62
225.042	-5.62
225.277	-10.62
225.511	-5.62
225.746	8.38
225.98	9.38
226.215	9.38
226.449	27.38
226.683	11.38
226.918	20.38
227.152	25.38
227.387	45.38
227.621	36.38
227.856	44.38
228.09	66.38
228.324	65.38
228.559	63.38
228.793	54.38
229.027	56.38
229.262	75.38
229.496	83.38
229.73	81.38
229.964	88.38
230.199	83.38
230.433	69.38
230.667	64.38
230.901	84.38
231.136	90.38
231.37	82.38
231.604	90.38
231.838	68.38
232.072	91.38
232.306	75.38
232.541	78.38
232.775	89.38
233.009	74.38
233.243	84.38
233.477	78.38
233.711	85.38
233.945	74.38
234.179	97.38
234.413	91.38
234.647	85.38
234.881	86.38
235.115	60.38
235.349	89.38
235.583	95.38
235.817	71.38
236.051	65.38
236.285	72.38
236.519	88.38
236.753	83.38
236.987	94.38
237.221	90.38
237.455	70.38
237.689	74.38
237.922	75.38
238.156	72.38
238.39	88.38
238.624	64.38
238.858	70.38
239.091	80.38
239.325	79.38
239.559	88.38
239.793	90.38
240.027	74.38
240.26	74.38
240.494	64.38
240.728	67.38
240.961	72.38
241.195	79.38
241.429	60.38
241.662	80.38
241.896	93.38
242.13	74.38
242.363	91.38
242.597	82.38
242.83	86.38
243.064	79.38
243.298	74.38
243.531	63.38
243.765	76.38
243.998	76.38
244.232	81.38
244.465	71.38
244.699	79.38
244.932	98.38
245.166	81.38
245.399	85.38
245.633	90.38
245.866	81.38
246.099	77.38
246.333	87.38
246.566	81.38
246.8	76.38
247.033	72.38
247.266	83.38
247.5	75.38
247.733	85.38
247.966	75.38
248.2	81.38
248.433	68.38
248.666	75.38
248.899	74.38
249.133	89.38
249.366	106.38
249.599	91.38
249.832	90.38
250.066	85.38
250.299	77.38
250.532	81.38
250.765	84.38
250.998	82.38
251.231	95.38
251.465	95.38
251.698	81.38
251.931	85.38
252.164	79.38
252.397	68.38
252.63	83.38
252.863	75.38
253.096	81.38
253.329	86.38
253.562	81.38
253.795	76.38
254.028	88.38
254.261	90.38
254.494	79.38
254.727	87.38
254.96	89.38
255.193	83.38
255.426	79.38
255.659	84.38
255.892	72.38
256.124	74.38
256.357	67.38
256.59	90.38
256.823	79.38
257.056	86.38
257.289	84.38
257.521	84.38
257.754	67.38
257.987	93.38
258.22	80.38
258.452	99.38
258.685	79.38
258.918	76.38
259.151	80.38
259.383	86.38
259.616	73.38
259.849	77.38
260.081	63.38
260.314	95.38
260.547	99.38
260.779	73.38
261.012	82.38
261.244	85.38
261.477	86.38
261.71	88.38
261.942	107.38
262.175	104.38
262.407	87.38
262.64	80.38
262.872	80.38
263.105	81.38
263.337	100.38
263.57	93.38
263.802	85.38
264.035	88.38
264.267	90.38
264.499	90.38
264.732	82.38
264.964	81.38
265.197	92.38
265.429	79.38
265.661	95.38
265.894	80.38
266.126	82.38
266.358	82.38
266.591	85.38
266.823	97.38
267.055	79.38
267.287	87.38
267.52	96.38
267.752	80.38
267.984	80.38
268.216	96.38
268.448	87.38
268.681	86.38
268.913	95.38
269.145	82.38
269.377	96.38
269.609	99.38
269.841	89.38
270.073	72.38
270.306	87.38
270.538	83.38
270.77	90.38
271.002	82.38
271.234	96.38
271.466	84.38
271.698	87.38
271.93	98.38
272.162	92.38
272.394	72.38
272.626	91.38
272.858	85.38
273.09	82.38
273.322	82.38
273.553	69.38
273.785	91.38
274.017	85.38
274.249	88.38
274.481	73.38
274.713	93.38
274.945	88.38
275.176	102.38
275.408	91.38
275.64	81.38
275.872	74.38
276.104	91.38
276.335	95.38
276.567	99.38
276.799	110.38
277.031	105.38
277.262	95.38
277.494	84.38
277.726	73.38
277.957	89.38
278.189	88.38
278.421	95.38
278.652	80.38
278.884	88.38
279.115	88.38
279.347	96.38
279.579	99.38
279.81	90.38
280.042	85.38
280.273	91.38
280.505	90.38
280.736	90.38
280.968	104.38
281.199	82.38
281.431	80.38
281.662	101.38
281.894	99.38
282.125	92.38
282.356	106.38
282.588	121.38
282.819	97.38
283.051	84.38
283.282	96.38
283.513	87.38
283.745	89.38
283.976	90.38
284.207	76.38
284.439	99.38
284.67	87.38
284.901	105.38
285.132	93.38
285.364	93.38
285.595	76.38
285.826	89.38
286.057	98.38
286.288	90.38
286.52	84.38
286.751	86.38
286.982	96.38
287.213	97.38
287.444	90.38
287.675	93.38
287.906	91.38
288.138	98.38
288.369	80.38
288.6	93.38
288.831	82.38
289.062	83.38
289.293	84.38
289.524	80.38
289.755	87.38
289.986	91.38
290.217	93.38
290.448	85.38
290.679	80.38
290.91	97.38
291.141	96.38
291.371	83.38
291.602	93.38
291.833	91.38
292.064	95.38
292.295	83.38
292.526	89.38
292.757	83.38
292.987	79.38
293.218	86.38
293.449	88.38
293.68	87.38
293.91	91.38
294.141	85.38
294.372	70.38
294.603	91.38
294.833	95.38
295.064	95.38
295.295	90.38
295.525	89.38
295.756	105.38
295.987	111.38
296.217	120.38
296.448	117.38
296.679	92.38
296.909	90.38
297.14	98.38
297.37	92.38
297.601	92.38
297.831	98.38
298.062	88.38
298.292	100.38
298.523	84.38
298.753	88.38
298.984	95.38
299.214	82.38
299.445	91.38
299.675	99.38
299.905	104.38
300.136	100.38
300.366	88.38
300.597	84.38
300.827	99.38
301.057	98.38
301.288	103.38
301.518	80.38
301.748	89.38
301.979	96.38
302.209	106.38
302.439	93.38
302.669	93.38
302.9	89.38
303.13	92.38
303.36	94.38
303.59	105.38
303.82	98.38
304.051	105.38
304.281	90.38
304.511	105.38
304.741	91.38
304.971	87.38
305.201	86.38
305.431	94.38
305.661	101.38
305.891	100.38
306.121	103.38
306.352	103.38
306.582	102.38
306.812	99.38
307.042	102.38
307.272	98.38
307.502	89.38
307.731	97.38
307.961	85.38
308.191	98.38
308.421	94.38
308.651	104.38
308.881	88.38
309.111	94.38
309.341	104.38
309.571	102.38
309.8	108.38
310.03	105.38
310.26	105.38
310.49	108.38
310.72	94.38
310.949	113.38
311.179	94.38
311.409	95.38
311.639	88.38
311.868	91.38
312.098	91.38
312.328	103.38
312.557	111.38
312.787	106.38
313.017	98.38
313.246	105.38
313.476	97.38
313.706	88.38
313.935	104.38
314.165	103.38
314.394	120.38
314.624	90.38
314.853	95.38
315.083	101.38
315.312	103.38
315.542	99.38
315.771	101.38
316.001	97.38
316.23	85.38
316.46	83.38
316.689	84.38
316.919	92.38
317.148	98.38
317.377	108.38
317.607	96.38
317.836	88.38
318.065	93.38
318.295	95.38
318.524	83.38
318.753	100.38
318.983	81.38
319.212	110.38
319.441	102.38
319.67	113.38
319.9	83.38
320.129	98.38
320.358	113.38
320.587	101.38
320.816	105.38
321.046	89.38
321.275	104.38
321.504	90.38
321.733	95.38
321.962	88.38
322.191	100.38
322.42	107.38
322.649	88.38
322.878	114.38
323.108	96.38
323.337	126.38
323.566	128.38
323.795	159.38
324.024	185.38
324.253	365.38
324.482	737.38
324.71	1633.38
324.939	2103.38
325.168	785.38
325.397	231.38
325.626	142.38
325.855	135.38
326.084	124.38
326.313	114.38
326.542	155.38
326.77	219.38
326.999	425.38
327.228	922.38
327.457	1636.38
327.686	1320.38
327.914	351.38
328.143	179.38
328.372	140.38
328.6	119.38
328.829	107.38
329.058	131.38
329.287	122.38
329.515	117.38
329.744	124.38
329.972	104.38
330.201	116.38
330.43	106.38
330.658	108.38
330.887	114.38
331.115	108.38
331.344	91.38
331.572	103.38
331.801	107.38
332.03	99.38
332.258	90.38
332.486	89.38
332.715	101.38
332.943	99.38
333.172	81.38
333.4	98.38
333.629	101.38
333.857	115.38
334.085	100.38
334.314	101.38
334.542	86.38
334.771	96.38
334.999	109.38
335.227	101.38
335.455	106.38
335.684	92.38
335.912	85.38
336.14	106.38
336.369	103.38
336.597	107.38
336.825	101.38
337.053	83.38
337.281	97.38
337.51	91.38
337.738	84.38
337.966	86.38
338.194	97.38
338.422	109.38
338.65	97.38
338.878	104.38
339.106	90.38
339.334	98.38
339.562	108.38
339.79	92.38
340.018	93.38
340.246	101.38
340.474	109.38
340.702	104.38
340.93	94.38
341.158	81.38
341.386	90.38
341.614	82.38
341.842	90.38
342.07	87.38
342.298	105.38
342.526	88.38
342.754	95.38
342.981	91.38
343.209	103.38
343.437	102.38
343.665	84.38
343.893	108.38
344.12	92.38
344.348	103.38
344.576	105.38
344.804	107.38
345.031	83.38
345.259	87.38
345.487	97.38
345.714	100.38
345.942	102.38
346.17	116.38
346.397	97.38
346.625	84.38
346.853	87.38
347.08	89.38
347.308	101.38
347.535	85.38
347.763	94.38
347.99	95.38
348.218	103.38
348.445	102.38
348.673	91.38
348.9	92.38
349.128	100.38
349.355	95.38
349.583	97.38
349.81	96.38
350.037	96.38
350.265	88.38
350.492	95.38
350.72	103.38
350.947	112.38
351.174	107.38
351.402	103.38
351.629	115.38
351.856	112.38
352.083	99.38
352.311	97.38
352.538	114.38
352.765	108.38
352.992	121.38
353.22	115.38
353.447	130.38
353.674	112.38
353.901	105.38
354.128	97.38
354.355	108.38
354.583	113.38
354.81	85.38
355.037	98.38
355.264	104.38
355.491	92.38
355.718	89.38
355.945	108.38
356.172	89.38
356.399	99.38
356.626	106.38
356.853	91.38
357.08	82.38
357.307	96.38
357.534	91.38
357.761	87.38
357.988	109.38
358.215	93.38
358.441	96.38
358.668	74.38
358.895	83.38
359.122	87.38
359.349	98.38
359.576	81.38
359.802	109.38
360.029	122.38
360.256	103.38
360.483	90.38
360.709	84.38
360.936	104.38
361.163	98.38
361.39	96.38
361.616	87.38
361.843	96.38
362.07	93.38
362.296	93.38
362.523	96.38
362.749	101.38
362.976	87.38
363.203	96.38
363.429	99.38
363.656	96.38
363.882	88.38
364.109	91.38
364.335	105.38
364.562	100.38
364.788	89.38
365.015	87.38
365.241	103.38
365.468	96.38
365.694	94.38
365.92	102.38
366.147	93.38
366.373	82.38
366.599	85.38
366.826	89.38
367.052	82.38
367.278	82.38
367.505	91.38
367.731	95.38
367.957	88.38
368.184	95.38
368.41	103.38
368.636	99.38
368.862	116.38
369.089	103.38
369.315	94.38
369.541	99.38
369.767	93.38
369.993	102.38
370.219	91.38
370.445	97.38
370.672	75.38
370.898	88.38
371.124	89.38
371.35	99.38
371.576	102.38
371.802	91.38
372.028	94.38
372.254	83.38
372.48	102.38
372.706	92.38
372.932	74.38
373.158	85.38
373.384	86.38
373.61	94.38
373.835	101.38
374.061	85.38
374.287	89.38
374.513	90.38
374.739	98.38
374.965	90.38
375.191	86.38
375.416	101.38
375.642	92.38
375.868	91.38
376.094	101.38
376.319	87.38
376.545	82.38
376.771	107.38
376.997	93.38
377.222	101.38
377.448	98.38
377.674	98.38
377.899	103.38
378.125	89.38
378.35	91.38
378.576	88.38
378.802	94.38
379.027	99.38
379.253	88.38
379.478	106.38
379.704	96.38
379.929	92.38
380.155	97.38
380.38	91.38
380.606	92.38
380.831	88.38
381.057	86.38
381.282	98.38
381.507	99.38
381.733	97.38
381.958	115.38
382.184	104.38
382.409	108.38
382.634	92.38
382.86	95.38
383.085	99.38
383.31	115.38
383.535	108.38
383.761	97.38
383.986	101.38
384.211	105.38
384.436	103.38
384.662	105.38
384.887	98.38
385.112	100.38
385.337	93.38
385.562	100.38
385.787	98.38
386.013	117.38
386.238	130.38
386.463	104.38
386.688	100.38
386.913	91.38
387.138	92.38
387.363	98.38
387.588	98.38
387.813	109.38
388.038	100.38
388.263	101.38
388.488	107.38
388.713	91.38
388.938	83.38
389.163	99.38
389.387	101.38
389.612	76.38
389.837	92.38
390.062	93.38
390.287	84.38
390.512	91.38
390.736	90.38
390.961	91.38
391.186	83.38
391.411	104.38
391.636	103.38
391.86	79.38
392.085	81.38
392.31	91.38
392.534	88.38
392.759	93.38
392.984	111.38
393.208	95.38
393.433	93.38
393.658	96.38
393.882	87.38
394.107	79.38
394.331	67.38
394.556	87.38
394.78	95.38
395.005	106.38
395.229	85.38
395.454	98.38
395.678	96.38
395.903	87.38
396.127	85.38
396.352	95.38
396.576	78.38
396.801	92.38
397.025	95.38
397.249	98.38
397.474	86.38
397.698	80.38
397.922	83.38
398.147	93.38
398.371	91.38
398.595	95.38
398.82	84.38
399.044	80.38
399.268	80.38
399.492	83.38
399.717	90.38
399.941	90.38
400.165	88.38
400.389	75.38
400.613	98.38
400.837	93.38
401.062	101.38
401.286	89.38
401.51	91.38
401.734	95.38
401.958	108.38
402.182	104.38
402.406	139.38
402.63	103.38
402.854	90.38
403.078	90.38
403.302	90.38
403.526	93.38
403.75	84.38
403.974	83.38
404.198	81.38
404.422	81.38
404.645	106.38
404.869	69.38
405.093	97.38
405.317	93.38
405.541	87.38
405.765	95.38
405.988	119.38
406.212	169.38
406.436	196.38
406.66	140.38
406.883	102.38
407.107	96.38
407.331	89.38
407.555	105.38
407.778	108.38
408.002	91.38
408.226	87.38
408.449	96.38
408.673	84.38
408.896	75.38
409.12	91.38
409.344	102.38
409.567	86.38
409.791	93.38
410.014	92.38
410.238	106.38
410.461	88.38
410.685	87.38
410.908	102.38
411.132	112.38
411.355	100.38
411.578	97.38
411.802	87.38
412.025	100.38
412.249	99.38
412.472	97.38
412.695	96.38
412.919	90.38
413.142	98.38
413.365	83.38
413.589	87.38
413.812	87.38
414.035	99.38
414.258	96.38
414.482	99.38
414.705	99.38
414.928	93.38
415.151	86.38
415.374	94.38
415.597	84.38
415.821	96.38
416.044	100.38
416.267	103.38
416.49	85.38
416.713	76.38
416.936	91.38
417.159	90.38
417.382	90.38
417.605	89.38
417.828	97.38
418.051	78.38
418.274	92.38
418.497	86.38
418.72	86.38
418.943	88.38
419.166	85.38
419.389	101.38
419.611	96.38
419.834	88.38
420.057	82.38
420.28	95.38
420.503	87.38
420.726	89.38
420.948	86.38
421.171	89.38
421.394	93.38
421.617	93.38
421.839	91.38
422.062	75.38
422.285	105.38
422.507	99.38
422.73	102.38
422.953	86.38
423.175	75.38
423.398	80.38
423.621	87.38
423.843	76.38
424.066	85.38
424.288	87.38
424.511	89.38
424.733	86.38
424.956	95.38
425.178	100.38
425.401	125.38
425.623	104.38
425.846	104.38
426.068	85.38
426.291	83.38
426.513	87.38
426.735	96.38
426.958	83.38
427.18	106.38
427.402	120.38
427.625	167.38
427.847	115.38
428.069	86.38
428.292	76.38
428.514	91.38
428.736	85.38
428.958	87.38
429.181	81.38
429.403	85.38
429.625	92.38
429.847	91.38
430.069	97.38
430.292	100.38
430.514	91.38
430.736	94.38
430.958	85.38
431.18	98.38
431.402	87.38
431.624	91.38
431.846	98.38
432.068	103.38
432.29	86.38
432.512	81.38
432.734	87.38
432.956	79.38
433.178	104.38
433.4	102.38
433.622	99.38
433.844	88.38
434.066	87.38
434.287	85.38
434.509	93.38
434.731	89.38
434.953	85.38
435.175	92.38
435.397	98.38
435.618	89.38
435.84	112.38
436.062	117.38
436.284	122.38
436.505	101.38
436.727	97.38
436.949	92.38
437.17	98.38
437.392	93.38
437.614	95.38
437.835	123.38
438.057	108.38
438.278	116.38
438.5	111.38
438.721	117.38
438.943	97.38
439.165	99.38
439.386	94.38
439.608	91.38
439.829	88.38
440.05	127.38
440.272	139.38
440.493	104.38
440.715	92.38
440.936	86.38
441.158	100.38
441.379	74.38
441.6	90.38
441.822	87.38
442.043	75.38
442.264	96.38
442.486	106.38
442.707	111.38
442.928	108.38
443.149	115.38
443.371	127.38
443.592	108.38
443.813	123.38
444.034	114.38
444.255	95.38
444.476	101.38
444.698	87.38
444.919	90.38
445.14	127.38
445.361	113.38
445.582	123.38
445.803	135.38
446.024	130.38
446.245	143.38
446.466	109.38
446.687	89.38
446.908	91.38
447.129	93.38
447.35	84.38
447.571	103.38
447.792	92.38
448.013	89.38
448.234	114.38
448.455	97.38
448.675	104.38
448.896	122.38
449.117	96.38
449.338	99.38
449.559	144.38
449.779	139.38
450	99.38
450.221	84.38
450.442	75.38
450.662	82.38
450.883	128.38
451.104	106.38
451.324	98.38
451.545	91.38
451.766	73.38
451.986	95.38
452.207	91.38
452.428	92.38
452.648	94.38
452.869	106.38
453.089	100.38
453.31	113.38
453.53	91.38
453.751	84.38
453.971	97.38
454.192	95.38
454.412	100.38
454.633	90.38
454.853	81.38
455.073	99.38
455.294	88.38
455.514	102.38
455.734	106.38
455.955	86.38
456.175	94.38
456.395	88.38
456.616	88.38
456.836	86.38
457.056	87.38
457.276	69.38
457.497	71.38
457.717	93.38
457.937	87.38
458.157	95.38
458.377	87.38
458.598	114.38
458.818	131.38
459.038	162.38
459.258	111.38
459.478	93.38
459.698	88.38
459.918	89.38
460.138	83.38
460.358	93.38
460.578	91.38
460.798	80.38
461.018	96.38
461.238	91.38
461.458	87.38
461.678	94.38
461.898	103.38
462.118	84.38
462.338	78.38
462.558	88.38
462.777	77.38
462.997	94.38
463.217	84.38
463.437	80.38
463.657	86.38
463.876	88.38
464.096	92.38
464.316	90.38
464.536	83.38
464.755	98.38
464.975	85.38
465.195	141.38
465.414	130.38
465.634	97.38
465.854	96.38
466.073	106.38
466.293	91.38
466.512	89.38
466.732	86.38
466.951	83.38
467.171	93.38
467.391	92.38
467.61	102.38
467.829	89.38
468.049	85.38
468.268	81.38
468.488	97.38
468.707	92.38
468.927	83.38
469.146	67.38
469.365	96.38
469.585	107.38
469.804	94.38
470.023	99.38
470.243	79.38
470.462	105.38
470.681	105.38
470.901	90.38
471.12	82.38
471.339	84.38
471.558	100.38
471.777	95.38
471.997	89.38
472.216	83.38
472.435	96.38
472.654	96.38
472.873	91.38
473.092	89.38
473.311	92.38
473.53	97.38
473.749	72.38
473.968	102.38
474.187	110.38
474.406	105.38
474.625	97.38
474.844	91.38
475.063	85.38
475.282	82.38
475.501	91.38
475.72	89.38
475.939	100.38
476.158	84.38
476.377	84.38
476.596	84.38
476.814	77.38
477.033	89.38
477.252	100.38
477.471	96.38
477.69	81.38
477.908	90.38
478.127	85.38
478.346	89.38
478.564	101.38
478.783	95.38
479.002	95.38
479.22	98.38
479.439	95.38
479.658	81.38
479.876	104.38
480.095	106.38
480.313	81.38
480.532	85.38
480.751	86.38
480.969	91.38
481.188	113.38
481.406	111.38
481.624	92.38
481.843	91.38
482.061	89.38
482.28	83.38
482.498	84.38
482.717	86.38
482.935	82.38
483.153	82.38
483.372	101.38
483.59	97.38
483.808	82.38
484.027	95.38
484.245	83.38
484.463	76.38
484.681	90.38
484.9	105.38
485.118	92.38
485.336	100.38
485.554	106.38
485.772	108.38
485.99	101.38
486.209	99.38
486.427	104.38
486.645	105.38
486.863	110.38
487.081	102.38
487.299	95.38
487.517	103.38
487.735	108.38
487.953	97.38
488.171	90.38
488.389	96.38
488.607	104.38
488.825	93.38
489.043	96.38
489.261	99.38
489.479	103.38
489.696	100.38
489.914	81.38
490.132	90.38
490.35	86.38
490.568	86.38
490.786	96.38
491.003	83.38
491.221	87.38
491.439	91.38
491.657	95.38
491.874	90.38
492.092	89.38
492.31	84.38
492.527	109.38
492.745	91.38
492.963	97.38
493.18	94.38
493.398	90.38
493.615	96.38
493.833	92.38
494.05	96.38
494.268	73.38
494.485	100.38
494.703	91.38
494.92	103.38
495.138	104.38
495.355	88.38
495.573	86.38
495.79	90.38
496.008	92.38
496.225	94.38
496.442	91.38
496.66	96.38
496.877	99.38
497.094	88.38
497.312	102.38
497.529	87.38
497.746	81.38
497.963	98.38
498.181	87.38
498.398	100.38
498.615	110.38
498.832	102.38
499.049	92.38
499.267	107.38
499.484	101.38
499.701	98.38
499.918	100.38
500.135	87.38
500.352	100.38
500.569	83.38
500.786	87.38
501.003	80.38
501.22	93.38
501.437	92.38
501.654	91.38
501.871	92.38
502.088	106.38
502.305	89.38
502.522	104.38
502.739	83.38
502.956	83.38
503.172	91.38
503.389	87.38
503.606	102.38
503.823	112.38
504.04	89.38
504.256	86.38
504.473	104.38
504.69	100.38
504.907	102.38
505.123	89.38
505.34	91.38
505.557	99.38
505.773	101.38
505.99	82.38
506.207	90.38
506.423	84.38
506.64	95.38
506.856	100.38
507.073	101.38
507.289	88.38
507.506	91.38
507.722	113.38
507.939	115.38
508.155	90.38
508.372	92.38
508.588	105.38
508.805	91.38
509.021	87.38
509.238	84.38
509.454	85.38
509.67	107.38
509.887	120.38
510.103	126.38
510.319	185.38
510.536	650.38
510.752	1906.38
510.968	549.38
511.184	147.38
511.401	123.38
511.617	99.38
511.833	87.38
512.049	95.38
512.265	93.38
512.481	82.38
512.698	86.38
512.914	84.38
513.13	81.38
513.346	87.38
513.562	100.38
513.778	103.38
513.994	88.38
514.21	96.38
514.426	120.38
514.642	127.38
514.858	115.38
515.074	168.38
