Data from Uncirc_1987_H10_HRD10591_00033.txt Node
Date: Wed Jan 03 12:08:55 EST 2024
User: Yrep
Spectrometer: HR+D1059
Trigger mode: 1
Integration Time (sec): 1.000000E-1
Scans to average: 1
Electric dark correction enabled: true
Nonlinearity correction enabled: false
Boxcar width: 0
XAxis mode: Wavelengths
Number of Pixels in Spectrum: 2048
>>>>>Begin Spectral Data<<<<<
223.165	-7.12
223.4	-7.12
223.635	-7.12
223.869	-19.12
224.104	-23.12
224.338	-13.12
224.573	-20.12
224.808	-2.12
225.042	-16.12
225.277	-14.12
225.511	-9.12
225.746	3.88
225.98	15.88
226.215	9.88
226.449	18.88
226.683	24.88
226.918	11.88
227.152	38.88
227.387	36.88
227.621	44.88
227.856	46.88
228.09	35.88
228.324	38.88
228.559	44.88
228.793	60.88
229.027	63.88
229.262	74.88
229.496	66.88
229.73	77.88
229.964	57.88
230.199	82.88
230.433	72.88
230.667	74.88
230.901	70.88
231.136	70.88
231.37	87.88
231.604	88.88
231.838	82.88
232.072	71.88
232.306	85.88
232.541	83.88
232.775	72.88
233.009	76.88
233.243	78.88
233.477	86.88
233.711	69.88
233.945	85.88
234.179	71.88
234.413	77.88
234.647	87.88
234.881	84.88
235.115	79.88
235.349	70.88
235.583	60.88
235.817	81.88
236.051	77.88
236.285	74.88
236.519	73.88
236.753	77.88
236.987	71.88
237.221	77.88
237.455	72.88
237.689	82.88
237.922	82.88
238.156	74.88
238.39	79.88
238.624	82.88
238.858	65.88
239.091	72.88
239.325	76.88
239.559	78.88
239.793	82.88
240.027	84.88
240.26	78.88
240.494	68.88
240.728	55.88
240.961	85.88
241.195	81.88
241.429	59.88
241.662	65.88
241.896	74.88
242.13	66.88
242.363	67.88
242.597	72.88
242.83	76.88
243.064	70.88
243.298	82.88
243.531	82.88
243.765	68.88
243.998	87.88
244.232	72.88
244.465	82.88
244.699	74.88
244.932	81.88
245.166	64.88
245.399	82.88
245.633	74.88
245.866	83.88
246.099	74.88
246.333	67.88
246.566	75.88
246.8	59.88
247.033	65.88
247.266	71.88
247.5	75.88
247.733	87.88
247.966	75.88
248.2	74.88
248.433	60.88
248.666	65.88
248.899	78.88
249.133	68.88
249.366	85.88
249.599	91.88
249.832	78.88
250.066	74.88
250.299	81.88
250.532	80.88
250.765	78.88
250.998	78.88
251.231	66.88
251.465	82.88
251.698	79.88
251.931	95.88
252.164	81.88
252.397	75.88
252.63	70.88
252.863	80.88
253.096	73.88
253.329	83.88
253.562	84.88
253.795	83.88
254.028	84.88
254.261	71.88
254.494	69.88
254.727	74.88
254.96	66.88
255.193	91.88
255.426	81.88
255.659	65.88
255.892	79.88
256.124	77.88
256.357	66.88
256.59	65.88
256.823	90.88
257.056	82.88
257.289	78.88
257.521	85.88
257.754	76.88
257.987	60.88
258.22	89.88
258.452	74.88
258.685	80.88
258.918	68.88
259.151	84.88
259.383	79.88
259.616	69.88
259.849	78.88
260.081	83.88
260.314	75.88
260.547	78.88
260.779	67.88
261.012	72.88
261.244	74.88
261.477	76.88
261.71	99.88
261.942	97.88
262.175	101.88
262.407	87.88
262.64	76.88
262.872	85.88
263.105	79.88
263.337	70.88
263.57	90.88
263.802	87.88
264.035	67.88
264.267	71.88
264.499	80.88
264.732	100.88
264.964	76.88
265.197	80.88
265.429	70.88
265.661	95.88
265.894	82.88
266.126	75.88
266.358	76.88
266.591	76.88
266.823	72.88
267.055	89.88
267.287	84.88
267.52	87.88
267.752	81.88
267.984	71.88
268.216	78.88
268.448	78.88
268.681	82.88
268.913	87.88
269.145	87.88
269.377	85.88
269.609	78.88
269.841	89.88
270.073	76.88
270.306	84.88
270.538	87.88
270.77	75.88
271.002	63.88
271.234	86.88
271.466	67.88
271.698	70.88
271.93	81.88
272.162	78.88
272.394	80.88
272.626	93.88
272.858	75.88
273.09	70.88
273.322	74.88
273.553	78.88
273.785	68.88
274.017	94.88
274.249	101.88
274.481	88.88
274.713	77.88
274.945	94.88
275.176	81.88
275.408	74.88
275.64	90.88
275.872	72.88
276.104	76.88
276.335	92.88
276.567	92.88
276.799	99.88
277.031	88.88
277.262	74.88
277.494	92.88
277.726	86.88
277.957	99.88
278.189	77.88
278.421	71.88
278.652	81.88
278.884	74.88
279.115	73.88
279.347	59.88
279.579	76.88
279.81	84.88
280.042	98.88
280.273	70.88
280.505	84.88
280.736	78.88
280.968	93.88
281.199	81.88
281.431	89.88
281.662	86.88
281.894	94.88
282.125	89.88
282.356	107.88
282.588	120.88
282.819	107.88
283.051	76.88
283.282	93.88
283.513	90.88
283.745	82.88
283.976	82.88
284.207	83.88
284.439	80.88
284.67	84.88
284.901	90.88
285.132	88.88
285.364	86.88
285.595	96.88
285.826	72.88
286.057	98.88
286.288	92.88
286.52	81.88
286.751	87.88
286.982	79.88
287.213	83.88
287.444	89.88
287.675	84.88
287.906	80.88
288.138	84.88
288.369	96.88
288.6	81.88
288.831	85.88
289.062	87.88
289.293	98.88
289.524	89.88
289.755	91.88
289.986	79.88
290.217	80.88
290.448	92.88
290.679	75.88
290.91	82.88
291.141	90.88
291.371	83.88
291.602	84.88
291.833	70.88
292.064	84.88
292.295	92.88
292.526	99.88
292.757	81.88
292.987	80.88
293.218	87.88
293.449	86.88
293.68	80.88
293.91	75.88
294.141	99.88
294.372	87.88
294.603	86.88
294.833	86.88
295.064	74.88
295.295	87.88
295.525	79.88
295.756	101.88
295.987	99.88
296.217	133.88
296.448	111.88
296.679	95.88
296.909	101.88
297.14	101.88
297.37	84.88
297.601	81.88
297.831	94.88
298.062	79.88
298.292	86.88
298.523	93.88
298.753	104.88
298.984	91.88
299.214	95.88
299.445	80.88
299.675	98.88
299.905	83.88
300.136	91.88
300.366	86.88
300.597	79.88
300.827	94.88
301.057	89.88
301.288	100.88
301.518	87.88
301.748	87.88
301.979	91.88
302.209	75.88
302.439	92.88
302.669	91.88
302.9	95.88
303.13	86.88
303.36	83.88
303.59	82.88
303.82	89.88
304.051	100.88
304.281	87.88
304.511	97.88
304.741	82.88
304.971	85.88
305.201	90.88
305.431	85.88
305.661	95.88
305.891	84.88
306.121	96.88
306.352	102.88
306.582	110.88
306.812	92.88
307.042	93.88
307.272	82.88
307.502	71.88
307.731	87.88
307.961	77.88
308.191	79.88
308.421	91.88
308.651	95.88
308.881	82.88
309.111	101.88
309.341	88.88
309.571	97.88
309.8	82.88
310.03	91.88
310.26	90.88
310.49	79.88
310.72	83.88
310.949	105.88
311.179	108.88
311.409	86.88
311.639	87.88
311.868	86.88
312.098	90.88
312.328	90.88
312.557	100.88
312.787	91.88
313.017	98.88
313.246	93.88
313.476	79.88
313.706	104.88
313.935	94.88
314.165	102.88
314.394	97.88
314.624	106.88
314.853	85.88
315.083	94.88
315.312	85.88
315.542	91.88
315.771	94.88
316.001	81.88
316.23	77.88
316.46	85.88
316.689	88.88
316.919	90.88
317.148	86.88
317.377	98.88
317.607	96.88
317.836	79.88
318.065	94.88
318.295	82.88
318.524	85.88
318.753	94.88
318.983	90.88
319.212	99.88
319.441	114.88
319.67	107.88
319.9	89.88
320.129	92.88
320.358	105.88
320.587	87.88
320.816	91.88
321.046	84.88
321.275	96.88
321.504	86.88
321.733	91.88
321.962	99.88
322.191	109.88
322.42	113.88
322.649	92.88
322.878	92.88
323.108	111.88
323.337	117.88
323.566	118.88
323.795	130.88
324.024	191.88
324.253	345.88
324.482	720.88
324.71	1490.88
324.939	1964.88
325.168	712.88
325.397	230.88
325.626	124.88
325.855	124.88
326.084	109.88
326.313	110.88
326.542	133.88
326.77	217.88
326.999	417.88
327.228	804.88
327.457	1515.88
327.686	1194.88
327.914	327.88
328.143	164.88
328.372	118.88
328.6	119.88
328.829	100.88
329.058	120.88
329.287	118.88
329.515	110.88
329.744	99.88
329.972	99.88
330.201	88.88
330.43	91.88
330.658	109.88
330.887	127.88
331.115	118.88
331.344	95.88
331.572	110.88
331.801	96.88
332.03	86.88
332.258	101.88
332.486	105.88
332.715	95.88
332.943	78.88
333.172	99.88
333.4	79.88
333.629	100.88
333.857	88.88
334.085	86.88
334.314	94.88
334.542	97.88
334.771	107.88
334.999	92.88
335.227	82.88
335.455	91.88
335.684	97.88
335.912	82.88
336.14	78.88
336.369	92.88
336.597	87.88
336.825	67.88
337.053	94.88
337.281	107.88
337.51	96.88
337.738	84.88
337.966	93.88
338.194	81.88
338.422	87.88
338.65	90.88
338.878	79.88
339.106	79.88
339.334	79.88
339.562	91.88
339.79	91.88
340.018	90.88
340.246	87.88
340.474	88.88
340.702	79.88
340.93	88.88
341.158	90.88
341.386	101.88
341.614	112.88
341.842	94.88
342.07	90.88
342.298	83.88
342.526	95.88
342.754	78.88
342.981	100.88
343.209	98.88
343.437	104.88
343.665	84.88
343.893	81.88
344.12	92.88
344.348	87.88
344.576	64.88
344.804	87.88
345.031	92.88
345.259	114.88
345.487	77.88
345.714	90.88
345.942	98.88
346.17	101.88
346.397	83.88
346.625	88.88
346.853	98.88
347.08	97.88
347.308	90.88
347.535	93.88
347.763	94.88
347.99	102.88
348.218	74.88
348.445	100.88
348.673	100.88
348.9	86.88
349.128	78.88
349.355	96.88
349.583	82.88
349.81	83.88
350.037	100.88
350.265	99.88
350.492	97.88
350.72	99.88
350.947	86.88
351.174	97.88
351.402	108.88
351.629	101.88
351.856	81.88
352.083	98.88
352.311	89.88
352.538	99.88
352.765	89.88
352.992	112.88
353.22	98.88
353.447	91.88
353.674	90.88
353.901	91.88
354.128	93.88
354.355	97.88
354.583	94.88
354.81	93.88
355.037	92.88
355.264	80.88
355.491	93.88
355.718	104.88
355.945	89.88
356.172	100.88
356.399	80.88
356.626	81.88
356.853	89.88
357.08	101.88
357.307	92.88
357.534	98.88
357.761	87.88
357.988	84.88
358.215	90.88
358.441	101.88
358.668	98.88
358.895	84.88
359.122	91.88
359.349	92.88
359.576	83.88
359.802	95.88
360.029	90.88
360.256	112.88
360.483	97.88
360.709	94.88
360.936	94.88
361.163	95.88
361.39	88.88
361.616	84.88
361.843	87.88
362.07	88.88
362.296	87.88
362.523	93.88
362.749	84.88
362.976	82.88
363.203	83.88
363.429	78.88
363.656	82.88
363.882	96.88
364.109	92.88
364.335	85.88
364.562	81.88
364.788	100.88
365.015	88.88
365.241	85.88
365.468	94.88
365.694	99.88
365.92	98.88
366.147	94.88
366.373	82.88
366.599	76.88
366.826	89.88
367.052	78.88
367.278	84.88
367.505	88.88
367.731	91.88
367.957	90.88
368.184	100.88
368.41	94.88
368.636	95.88
368.862	111.88
369.089	89.88
369.315	76.88
369.541	82.88
369.767	74.88
369.993	85.88
370.219	80.88
370.445	74.88
370.672	100.88
370.898	89.88
371.124	96.88
371.35	87.88
371.576	78.88
371.802	86.88
372.028	84.88
372.254	98.88
372.48	84.88
372.706	84.88
372.932	79.88
373.158	87.88
373.384	81.88
373.61	80.88
373.835	87.88
374.061	76.88
374.287	81.88
374.513	66.88
374.739	91.88
374.965	78.88
375.191	70.88
375.416	86.88
375.642	77.88
375.868	93.88
376.094	87.88
376.319	84.88
376.545	77.88
376.771	86.88
376.997	92.88
377.222	91.88
377.448	81.88
377.674	86.88
377.899	91.88
378.125	96.88
378.35	90.88
378.576	94.88
378.802	89.88
379.027	79.88
379.253	84.88
379.478	89.88
379.704	95.88
379.929	85.88
380.155	86.88
380.38	89.88
380.606	90.88
380.831	84.88
381.057	97.88
381.282	82.88
381.507	90.88
381.733	99.88
381.958	88.88
382.184	96.88
382.409	101.88
382.634	101.88
382.86	96.88
383.085	95.88
383.31	96.88
383.535	94.88
383.761	87.88
383.986	92.88
384.211	86.88
384.436	97.88
384.662	85.88
384.887	100.88
385.112	96.88
385.337	97.88
385.562	82.88
385.787	94.88
386.013	90.88
386.238	102.88
386.463	96.88
386.688	100.88
386.913	87.88
387.138	92.88
387.363	95.88
387.588	94.88
387.813	101.88
388.038	93.88
388.263	105.88
388.488	99.88
388.713	83.88
388.938	85.88
389.163	99.88
389.387	96.88
389.612	86.88
389.837	96.88
390.062	91.88
390.287	96.88
390.512	95.88
390.736	82.88
390.961	97.88
391.186	85.88
391.411	94.88
391.636	90.88
391.86	90.88
392.085	75.88
392.31	79.88
392.534	88.88
392.759	92.88
392.984	89.88
393.208	90.88
393.433	92.88
393.658	92.88
393.882	82.88
394.107	92.88
394.331	86.88
394.556	86.88
394.78	84.88
395.005	85.88
395.229	69.88
395.454	90.88
395.678	87.88
395.903	89.88
396.127	107.88
396.352	97.88
396.576	91.88
396.801	84.88
397.025	83.88
397.249	88.88
397.474	86.88
397.698	81.88
397.922	87.88
398.147	88.88
398.371	82.88
398.595	86.88
398.82	86.88
399.044	76.88
399.268	68.88
399.492	101.88
399.717	82.88
399.941	83.88
400.165	99.88
400.389	99.88
400.613	85.88
400.837	88.88
401.062	83.88
401.286	66.88
401.51	93.88
401.734	85.88
401.958	84.88
402.182	100.88
402.406	118.88
402.63	96.88
402.854	85.88
403.078	94.88
403.302	82.88
403.526	83.88
403.75	86.88
403.974	82.88
404.198	82.88
404.422	91.88
404.645	77.88
404.869	79.88
405.093	81.88
405.317	78.88
405.541	66.88
405.765	89.88
405.988	116.88
406.212	150.88
406.436	194.88
406.66	125.88
406.883	93.88
407.107	69.88
407.331	92.88
407.555	107.88
407.778	86.88
408.002	82.88
408.226	92.88
408.449	75.88
408.673	85.88
408.896	85.88
409.12	91.88
409.344	78.88
409.567	66.88
409.791	83.88
410.014	104.88
410.238	99.88
410.461	87.88
410.685	76.88
410.908	81.88
411.132	99.88
411.355	86.88
411.578	74.88
411.802	95.88
412.025	92.88
412.249	83.88
412.472	82.88
412.695	97.88
412.919	91.88
413.142	85.88
413.365	87.88
413.589	85.88
413.812	76.88
414.035	91.88
414.258	83.88
414.482	94.88
414.705	93.88
414.928	98.88
415.151	102.88
415.374	90.88
415.597	85.88
415.821	89.88
416.044	81.88
416.267	87.88
416.49	74.88
416.713	94.88
416.936	80.88
417.159	80.88
417.382	87.88
417.605	84.88
417.828	94.88
418.051	87.88
418.274	87.88
418.497	89.88
418.72	80.88
418.943	94.88
419.166	85.88
419.389	75.88
419.611	77.88
419.834	82.88
420.057	94.88
420.28	79.88
420.503	85.88
420.726	101.88
420.948	90.88
421.171	85.88
421.394	95.88
421.617	82.88
421.839	89.88
422.062	86.88
422.285	95.88
422.507	98.88
422.73	100.88
422.953	79.88
423.175	84.88
423.398	102.88
423.621	88.88
423.843	79.88
424.066	84.88
424.288	87.88
424.511	96.88
424.733	90.88
424.956	93.88
425.178	90.88
425.401	93.88
425.623	79.88
425.846	81.88
426.068	76.88
426.291	92.88
426.513	92.88
426.735	68.88
426.958	86.88
427.18	106.88
427.402	122.88
427.625	139.88
427.847	123.88
428.069	96.88
428.292	88.88
428.514	80.88
428.736	89.88
428.958	83.88
429.181	80.88
429.403	89.88
429.625	87.88
429.847	86.88
430.069	99.88
430.292	95.88
430.514	84.88
430.736	85.88
430.958	83.88
431.18	83.88
431.402	83.88
431.624	81.88
431.846	88.88
432.068	88.88
432.29	72.88
432.512	77.88
432.734	98.88
432.956	95.88
433.178	102.88
433.4	97.88
433.622	97.88
433.844	98.88
434.066	89.88
434.287	80.88
434.509	87.88
434.731	101.88
434.953	85.88
435.175	84.88
435.397	88.88
435.618	81.88
435.84	96.88
436.062	115.88
436.284	105.88
436.505	91.88
436.727	102.88
436.949	78.88
437.17	93.88
437.392	103.88
437.614	111.88
437.835	109.88
438.057	114.88
438.278	88.88
438.5	81.88
438.721	113.88
438.943	94.88
439.165	93.88
439.386	91.88
439.608	69.88
439.829	92.88
440.05	104.88
440.272	131.88
440.493	95.88
440.715	78.88
440.936	80.88
441.158	98.88
441.379	89.88
441.6	96.88
441.822	86.88
442.043	92.88
442.264	89.88
442.486	86.88
442.707	91.88
442.928	94.88
443.149	111.88
443.371	110.88
443.592	93.88
443.813	102.88
444.034	104.88
444.255	91.88
444.476	69.88
444.698	77.88
444.919	86.88
445.14	115.88
445.361	126.88
445.582	114.88
445.803	105.88
446.024	112.88
446.245	116.88
446.466	103.88
446.687	99.88
446.908	88.88
447.129	87.88
447.35	72.88
447.571	83.88
447.792	94.88
448.013	86.88
448.234	95.88
448.455	87.88
448.675	107.88
448.896	99.88
449.117	97.88
449.338	96.88
449.559	119.88
449.779	114.88
450	91.88
450.221	82.88
450.442	82.88
450.662	89.88
450.883	96.88
451.104	106.88
451.324	99.88
451.545	85.88
451.766	90.88
451.986	103.88
452.207	85.88
452.428	87.88
452.648	102.88
452.869	97.88
453.089	115.88
453.31	95.88
453.53	71.88
453.751	93.88
453.971	91.88
454.192	99.88
454.412	77.88
454.633	80.88
454.853	90.88
455.073	83.88
455.294	90.88
455.514	86.88
455.734	86.88
455.955	61.88
456.175	102.88
456.395	76.88
456.616	81.88
456.836	85.88
457.056	85.88
457.276	83.88
457.497	87.88
457.717	70.88
457.937	87.88
458.157	87.88
458.377	91.88
458.598	101.88
458.818	122.88
459.038	130.88
459.258	120.88
459.478	74.88
459.698	71.88
459.918	74.88
460.138	70.88
460.358	79.88
460.578	80.88
460.798	84.88
461.018	97.88
461.238	88.88
461.458	85.88
461.678	85.88
461.898	69.88
462.118	100.88
462.338	90.88
462.558	80.88
462.777	80.88
462.997	75.88
463.217	78.88
463.437	72.88
463.657	85.88
463.876	95.88
464.096	74.88
464.316	91.88
464.536	87.88
464.755	89.88
464.975	103.88
465.195	148.88
465.414	129.88
465.634	86.88
465.854	71.88
466.073	85.88
466.293	84.88
466.512	92.88
466.732	90.88
466.951	76.88
467.171	86.88
467.391	76.88
467.61	92.88
467.829	92.88
468.049	86.88
468.268	82.88
468.488	71.88
468.707	80.88
468.927	84.88
469.146	90.88
469.365	90.88
469.585	88.88
469.804	90.88
470.023	84.88
470.243	91.88
470.462	85.88
470.681	92.88
470.901	80.88
471.12	84.88
471.339	70.88
471.558	90.88
471.777	81.88
471.997	85.88
472.216	97.88
472.435	94.88
472.654	88.88
472.873	101.88
473.092	91.88
473.311	78.88
473.53	82.88
473.749	89.88
473.968	88.88
474.187	100.88
474.406	91.88
474.625	94.88
474.844	72.88
475.063	74.88
475.282	79.88
475.501	78.88
475.72	81.88
475.939	83.88
476.158	83.88
476.377	78.88
476.596	86.88
476.814	86.88
477.033	83.88
477.252	79.88
477.471	86.88
477.69	80.88
477.908	78.88
478.127	86.88
478.346	79.88
478.564	97.88
478.783	95.88
479.002	68.88
479.22	94.88
479.439	83.88
479.658	94.88
479.876	98.88
480.095	78.88
480.313	97.88
480.532	75.88
480.751	75.88
480.969	75.88
481.188	107.88
481.406	93.88
481.624	86.88
481.843	71.88
482.061	81.88
482.28	79.88
482.498	80.88
482.717	84.88
482.935	77.88
483.153	64.88
483.372	71.88
483.59	84.88
483.808	78.88
484.027	99.88
484.245	111.88
484.463	96.88
484.681	96.88
484.9	80.88
485.118	84.88
485.336	92.88
485.554	110.88
485.772	91.88
485.99	103.88
486.209	109.88
486.427	84.88
486.645	96.88
486.863	109.88
487.081	96.88
487.299	91.88
487.517	96.88
487.735	91.88
487.953	97.88
488.171	93.88
488.389	104.88
488.607	97.88
488.825	96.88
489.043	90.88
489.261	72.88
489.479	85.88
489.696	78.88
489.914	86.88
490.132	87.88
490.35	89.88
490.568	90.88
490.786	94.88
491.003	82.88
491.221	86.88
491.439	110.88
491.657	87.88
491.874	91.88
492.092	90.88
492.31	86.88
492.527	78.88
492.745	85.88
492.963	75.88
493.18	96.88
493.398	92.88
493.615	94.88
493.833	81.88
494.05	84.88
494.268	76.88
494.485	73.88
494.703	87.88
494.92	94.88
495.138	86.88
495.355	94.88
495.573	100.88
495.79	98.88
496.008	80.88
496.225	74.88
496.442	92.88
496.66	85.88
496.877	83.88
497.094	91.88
497.312	80.88
497.529	95.88
497.746	80.88
497.963	90.88
498.181	80.88
498.398	102.88
498.615	101.88
498.832	92.88
499.049	94.88
499.267	92.88
499.484	91.88
499.701	95.88
499.918	87.88
500.135	91.88
500.352	74.88
500.569	71.88
500.786	84.88
501.003	92.88
501.22	101.88
501.437	90.88
501.654	90.88
501.871	92.88
502.088	99.88
502.305	82.88
502.522	86.88
502.739	96.88
502.956	73.88
503.172	89.88
503.389	91.88
503.606	93.88
503.823	104.88
504.04	91.88
504.256	83.88
504.473	76.88
504.69	70.88
504.907	92.88
505.123	87.88
505.34	70.88
505.557	81.88
505.773	84.88
505.99	79.88
506.207	81.88
506.423	82.88
506.64	90.88
506.856	98.88
507.073	95.88
507.289	96.88
507.506	97.88
507.722	88.88
507.939	97.88
508.155	80.88
508.372	91.88
508.588	83.88
508.805	97.88
509.021	94.88
509.238	90.88
509.454	74.88
509.67	88.88
509.887	108.88
510.103	119.88
510.319	174.88
510.536	621.88
510.752	1863.88
510.968	530.88
511.184	124.88
511.401	104.88
511.617	79.88
511.833	90.88
512.049	87.88
512.265	97.88
512.481	92.88
512.698	86.88
512.914	106.88
513.13	101.88
513.346	95.88
513.562	84.88
513.778	77.88
513.994	94.88
514.21	102.88
514.426	116.88
514.642	121.88
514.858	106.88
515.074	147.88
515.29	361.88
515.506	1124.88
515.721	437.88
515.937	119.88
516.153	92.88
516.369	100.88
516.585	102.88
516.801	85.88
517.016	97.88
517.232	92.88
517.448	76.88
