Data from Uncirc_1987_H10_HRD10591_00067.txt Node
Date: Wed Jan 03 12:09:01 EST 2024
User: Yrep
Spectrometer: HR+D1059
Trigger mode: 1
Integration Time (sec): 1.000000E-1
Scans to average: 1
Electric dark correction enabled: true
Nonlinearity correction enabled: false
Boxcar width: 0
XAxis mode: Wavelengths
Number of Pixels in Spectrum: 2048
>>>>>Begin Spectral Data<<<<<
223.165	-8.06
223.4	-8.06
223.635	-8.06
223.869	-20.06
224.104	-30.06
224.338	-16.06
224.573	-15.06
224.808	-16.06
225.042	2.94
225.277	0.94
225.511	-3.06
225.746	3.94
225.98	7.94
226.215	17.94
226.449	9.94
226.683	22.94
226.918	10.94
227.152	30.94
227.387	31.94
227.621	43.94
227.856	42.94
228.09	43.94
228.324	55.94
228.559	58.94
228.793	55.94
229.027	59.94
229.262	51.94
229.496	74.94
229.73	86.94
229.964	76.94
230.199	81.94
230.433	79.94
230.667	70.94
230.901	75.94
231.136	79.94
231.37	72.94
231.604	83.94
231.838	94.94
232.072	82.94
232.306	83.94
232.541	88.94
232.775	64.94
233.009	90.94
233.243	83.94
233.477	87.94
233.711	103.94
233.945	75.94
234.179	86.94
234.413	82.94
234.647	95.94
234.881	75.94
235.115	87.94
235.349	82.94
235.583	79.94
235.817	78.94
236.051	70.94
236.285	94.94
236.519	83.94
236.753	79.94
236.987	77.94
237.221	80.94
237.455	90.94
237.689	71.94
237.922	95.94
238.156	79.94
238.39	67.94
238.624	69.94
238.858	78.94
239.091	70.94
239.325	76.94
239.559	71.94
239.793	82.94
240.027	79.94
240.26	80.94
240.494	86.94
240.728	78.94
240.961	82.94
241.195	72.94
241.429	82.94
241.662	84.94
241.896	70.94
242.13	74.94
242.363	67.94
242.597	72.94
242.83	93.94
243.064	85.94
243.298	76.94
243.531	78.94
243.765	78.94
243.998	77.94
244.232	81.94
244.465	99.94
244.699	79.94
244.932	80.94
245.166	83.94
245.399	99.94
245.633	78.94
245.866	67.94
246.099	78.94
246.333	82.94
246.566	91.94
246.8	78.94
247.033	88.94
247.266	86.94
247.5	84.94
247.733	95.94
247.966	70.94
248.2	79.94
248.433	73.94
248.666	91.94
248.899	86.94
249.133	84.94
249.366	80.94
249.599	92.94
249.832	87.94
250.066	78.94
250.299	68.94
250.532	74.94
250.765	76.94
250.998	71.94
251.231	85.94
251.465	71.94
251.698	98.94
251.931	97.94
252.164	82.94
252.397	78.94
252.63	80.94
252.863	83.94
253.096	73.94
253.329	87.94
253.562	74.94
253.795	94.94
254.028	90.94
254.261	100.94
254.494	82.94
254.727	83.94
254.96	81.94
255.193	94.94
255.426	75.94
255.659	76.94
255.892	82.94
256.124	92.94
256.357	92.94
256.59	79.94
256.823	70.94
257.056	74.94
257.289	72.94
257.521	95.94
257.754	69.94
257.987	84.94
258.22	83.94
258.452	84.94
258.685	79.94
258.918	81.94
259.151	91.94
259.383	84.94
259.616	74.94
259.849	68.94
260.081	91.94
260.314	86.94
260.547	98.94
260.779	86.94
261.012	87.94
261.244	84.94
261.477	98.94
261.71	83.94
261.942	104.94
262.175	126.94
262.407	90.94
262.64	81.94
262.872	82.94
263.105	88.94
263.337	85.94
263.57	92.94
263.802	81.94
264.035	76.94
264.267	91.94
264.499	96.94
264.732	97.94
264.964	84.94
265.197	87.94
265.429	98.94
265.661	85.94
265.894	85.94
266.126	75.94
266.358	82.94
266.591	89.94
266.823	89.94
267.055	72.94
267.287	88.94
267.52	96.94
267.752	94.94
267.984	89.94
268.216	79.94
268.448	79.94
268.681	78.94
268.913	74.94
269.145	85.94
269.377	80.94
269.609	88.94
269.841	91.94
270.073	80.94
270.306	85.94
270.538	93.94
270.77	78.94
271.002	75.94
271.234	96.94
271.466	90.94
271.698	84.94
271.93	80.94
272.162	68.94
272.394	80.94
272.626	90.94
272.858	96.94
273.09	88.94
273.322	99.94
273.553	97.94
273.785	97.94
274.017	76.94
274.249	96.94
274.481	83.94
274.713	83.94
274.945	74.94
275.176	96.94
275.408	79.94
275.64	85.94
275.872	85.94
276.104	91.94
276.335	98.94
276.567	107.94
276.799	104.94
277.031	96.94
277.262	97.94
277.494	83.94
277.726	81.94
277.957	90.94
278.189	82.94
278.421	84.94
278.652	87.94
278.884	89.94
279.115	78.94
279.347	84.94
279.579	66.94
279.81	83.94
280.042	87.94
280.273	75.94
280.505	94.94
280.736	97.94
280.968	81.94
281.199	82.94
281.431	92.94
281.662	94.94
281.894	89.94
282.125	98.94
282.356	119.94
282.588	130.94
282.819	106.94
283.051	101.94
283.282	100.94
283.513	102.94
283.745	71.94
283.976	75.94
284.207	85.94
284.439	84.94
284.67	99.94
284.901	91.94
285.132	100.94
285.364	74.94
285.595	85.94
285.826	73.94
286.057	84.94
286.288	102.94
286.52	92.94
286.751	82.94
286.982	91.94
287.213	83.94
287.444	95.94
287.675	97.94
287.906	100.94
288.138	78.94
288.369	90.94
288.6	97.94
288.831	96.94
289.062	107.94
289.293	88.94
289.524	94.94
289.755	91.94
289.986	87.94
290.217	76.94
290.448	94.94
290.679	87.94
290.91	74.94
291.141	83.94
291.371	96.94
291.602	97.94
291.833	95.94
292.064	89.94
292.295	86.94
292.526	98.94
292.757	99.94
292.987	85.94
293.218	82.94
293.449	90.94
293.68	87.94
293.91	91.94
294.141	85.94
294.372	102.94
294.603	100.94
294.833	79.94
295.064	91.94
295.295	93.94
295.525	73.94
295.756	110.94
295.987	129.94
296.217	149.94
296.448	106.94
296.679	86.94
296.909	97.94
297.14	97.94
297.37	100.94
297.601	99.94
297.831	95.94
298.062	96.94
298.292	99.94
298.523	95.94
298.753	88.94
298.984	89.94
299.214	90.94
299.445	103.94
299.675	98.94
299.905	97.94
300.136	86.94
300.366	98.94
300.597	90.94
300.827	86.94
301.057	116.94
301.288	105.94
301.518	83.94
301.748	80.94
301.979	98.94
302.209	85.94
302.439	87.94
302.669	84.94
302.9	96.94
303.13	100.94
303.36	105.94
303.59	109.94
303.82	108.94
304.051	107.94
304.281	96.94
304.511	78.94
304.741	91.94
304.971	79.94
305.201	79.94
305.431	90.94
305.661	88.94
305.891	103.94
306.121	99.94
306.352	103.94
306.582	100.94
306.812	106.94
307.042	99.94
307.272	92.94
307.502	106.94
307.731	86.94
307.961	94.94
308.191	95.94
308.421	80.94
308.651	100.94
308.881	106.94
309.111	98.94
309.341	103.94
309.571	91.94
309.8	87.94
310.03	105.94
310.26	81.94
310.49	106.94
310.72	95.94
310.949	110.94
311.179	90.94
311.409	97.94
311.639	97.94
311.868	94.94
312.098	100.94
312.328	96.94
312.557	94.94
312.787	103.94
313.017	103.94
313.246	82.94
313.476	87.94
313.706	94.94
313.935	94.94
314.165	91.94
314.394	99.94
314.624	97.94
314.853	109.94
315.083	90.94
315.312	88.94
315.542	90.94
315.771	89.94
316.001	89.94
316.23	81.94
316.46	104.94
316.689	88.94
316.919	95.94
317.148	100.94
317.377	96.94
317.607	95.94
317.836	92.94
318.065	84.94
318.295	97.94
318.524	95.94
318.753	96.94
318.983	80.94
319.212	98.94
319.441	110.94
319.67	109.94
319.9	91.94
320.129	103.94
320.358	106.94
320.587	85.94
320.816	87.94
321.046	87.94
321.275	113.94
321.504	96.94
321.733	92.94
321.962	106.94
322.191	92.94
322.42	111.94
322.649	100.94
322.878	101.94
323.108	106.94
323.337	131.94
323.566	135.94
323.795	147.94
324.024	192.94
324.253	353.94
324.482	732.94
324.71	1462.94
324.939	1926.94
325.168	736.94
325.397	222.94
325.626	137.94
325.855	129.94
326.084	121.94
326.313	124.94
326.542	137.94
326.77	220.94
326.999	391.94
327.228	836.94
327.457	1530.94
327.686	1205.94
327.914	330.94
328.143	183.94
328.372	142.94
328.6	117.94
328.829	106.94
329.058	120.94
329.287	120.94
329.515	113.94
329.744	115.94
329.972	92.94
330.201	101.94
330.43	103.94
330.658	115.94
330.887	129.94
331.115	130.94
331.344	96.94
331.572	96.94
331.801	103.94
332.03	95.94
332.258	92.94
332.486	94.94
332.715	88.94
332.943	102.94
333.172	88.94
333.4	98.94
333.629	110.94
333.857	102.94
334.085	105.94
334.314	96.94
334.542	122.94
334.771	108.94
334.999	100.94
335.227	103.94
335.455	93.94
335.684	89.94
335.912	103.94
336.14	99.94
336.369	83.94
336.597	108.94
336.825	98.94
337.053	91.94
337.281	102.94
337.51	105.94
337.738	98.94
337.966	112.94
338.194	73.94
338.422	91.94
338.65	94.94
338.878	94.94
339.106	98.94
339.334	83.94
339.562	90.94
339.79	106.94
340.018	81.94
340.246	87.94
340.474	98.94
340.702	99.94
340.93	96.94
341.158	100.94
341.386	76.94
341.614	97.94
341.842	107.94
342.07	84.94
342.298	78.94
342.526	84.94
342.754	91.94
342.981	84.94
343.209	94.94
343.437	88.94
343.665	104.94
343.893	87.94
344.12	86.94
344.348	105.94
344.576	94.94
344.804	97.94
345.031	103.94
345.259	98.94
345.487	90.94
345.714	92.94
345.942	98.94
346.17	102.94
346.397	104.94
346.625	92.94
346.853	83.94
347.08	98.94
347.308	98.94
347.535	98.94
347.763	94.94
347.99	100.94
348.218	112.94
348.445	105.94
348.673	94.94
348.9	92.94
349.128	106.94
349.355	103.94
349.583	102.94
349.81	92.94
350.037	98.94
350.265	99.94
350.492	114.94
350.72	100.94
350.947	112.94
351.174	106.94
351.402	104.94
351.629	91.94
351.856	102.94
352.083	108.94
352.311	97.94
352.538	100.94
352.765	104.94
352.992	115.94
353.22	96.94
353.447	110.94
353.674	105.94
353.901	110.94
354.128	110.94
354.355	101.94
354.583	103.94
354.81	94.94
355.037	94.94
355.264	95.94
355.491	96.94
355.718	84.94
355.945	98.94
356.172	100.94
356.399	105.94
356.626	101.94
356.853	96.94
357.08	90.94
357.307	99.94
357.534	87.94
357.761	101.94
357.988	103.94
358.215	113.94
358.441	102.94
358.668	90.94
358.895	75.94
359.122	86.94
359.349	80.94
359.576	97.94
359.802	89.94
360.029	111.94
360.256	113.94
360.483	107.94
360.709	94.94
360.936	82.94
361.163	87.94
361.39	106.94
361.616	86.94
361.843	91.94
362.07	83.94
362.296	85.94
362.523	90.94
362.749	92.94
362.976	106.94
363.203	95.94
363.429	88.94
363.656	89.94
363.882	80.94
364.109	102.94
364.335	92.94
364.562	99.94
364.788	92.94
365.015	97.94
365.241	106.94
365.468	105.94
365.694	110.94
365.92	108.94
366.147	98.94
366.373	64.94
366.599	81.94
366.826	100.94
367.052	87.94
367.278	80.94
367.505	88.94
367.731	86.94
367.957	94.94
368.184	94.94
368.41	107.94
368.636	108.94
368.862	113.94
369.089	111.94
369.315	98.94
369.541	102.94
369.767	87.94
369.993	91.94
370.219	86.94
370.445	96.94
370.672	87.94
370.898	89.94
371.124	101.94
371.35	86.94
371.576	80.94
371.802	90.94
372.028	84.94
372.254	106.94
372.48	86.94
372.706	70.94
372.932	84.94
373.158	91.94
373.384	97.94
373.61	102.94
373.835	81.94
374.061	97.94
374.287	97.94
374.513	89.94
374.739	90.94
374.965	90.94
375.191	91.94
375.416	96.94
375.642	97.94
375.868	105.94
376.094	95.94
376.319	94.94
376.545	95.94
376.771	92.94
376.997	95.94
377.222	91.94
377.448	98.94
377.674	92.94
377.899	82.94
378.125	65.94
378.35	84.94
378.576	86.94
378.802	86.94
379.027	95.94
379.253	93.94
379.478	100.94
379.704	90.94
379.929	86.94
380.155	99.94
380.38	92.94
380.606	105.94
380.831	96.94
381.057	121.94
381.282	98.94
381.507	94.94
381.733	91.94
381.958	107.94
382.184	89.94
382.409	82.94
382.634	105.94
382.86	110.94
383.085	112.94
383.31	105.94
383.535	86.94
383.761	97.94
383.986	97.94
384.211	108.94
384.436	95.94
384.662	99.94
384.887	110.94
385.112	103.94
385.337	103.94
385.562	110.94
385.787	98.94
386.013	101.94
386.238	92.94
386.463	86.94
386.688	116.94
386.913	108.94
387.138	99.94
387.363	95.94
387.588	97.94
387.813	91.94
388.038	109.94
388.263	111.94
388.488	110.94
388.713	103.94
388.938	98.94
389.163	104.94
389.387	91.94
389.612	98.94
389.837	106.94
390.062	113.94
390.287	99.94
390.512	99.94
390.736	114.94
390.961	96.94
391.186	96.94
391.411	97.94
391.636	90.94
391.86	79.94
392.085	82.94
392.31	66.94
392.534	87.94
392.759	99.94
392.984	88.94
393.208	94.94
393.433	82.94
393.658	76.94
393.882	87.94
394.107	99.94
394.331	91.94
394.556	86.94
394.78	110.94
395.005	96.94
395.229	91.94
395.454	86.94
395.678	91.94
395.903	95.94
396.127	96.94
396.352	83.94
396.576	91.94
396.801	91.94
397.025	103.94
397.249	81.94
397.474	89.94
397.698	75.94
397.922	102.94
398.147	88.94
398.371	92.94
398.595	81.94
398.82	91.94
399.044	78.94
399.268	97.94
399.492	77.94
399.717	102.94
399.941	88.94
400.165	94.94
400.389	104.94
400.613	86.94
400.837	88.94
401.062	96.94
401.286	83.94
401.51	99.94
401.734	98.94
401.958	107.94
402.182	117.94
402.406	143.94
402.63	117.94
402.854	98.94
403.078	88.94
403.302	96.94
403.526	107.94
403.75	91.94
403.974	70.94
404.198	85.94
404.422	100.94
404.645	82.94
404.869	98.94
405.093	88.94
405.317	96.94
405.541	96.94
405.765	103.94
405.988	116.94
406.212	154.94
406.436	208.94
406.66	137.94
406.883	98.94
407.107	103.94
407.331	92.94
407.555	108.94
407.778	113.94
408.002	88.94
408.226	100.94
408.449	96.94
408.673	81.94
408.896	105.94
409.12	103.94
409.344	88.94
409.567	106.94
409.791	78.94
410.014	99.94
410.238	102.94
410.461	99.94
410.685	102.94
410.908	92.94
411.132	108.94
411.355	94.94
411.578	89.94
411.802	96.94
412.025	90.94
412.249	95.94
412.472	91.94
412.695	98.94
412.919	96.94
413.142	93.94
413.365	87.94
413.589	70.94
413.812	80.94
414.035	86.94
414.258	101.94
414.482	101.94
414.705	98.94
414.928	87.94
415.151	90.94
415.374	95.94
415.597	84.94
415.821	94.94
416.044	94.94
416.267	87.94
416.49	104.94
416.713	82.94
416.936	86.94
417.159	92.94
417.382	92.94
417.605	78.94
417.828	100.94
418.051	91.94
418.274	88.94
418.497	66.94
418.72	98.94
418.943	102.94
419.166	92.94
419.389	103.94
419.611	84.94
419.834	92.94
420.057	98.94
420.28	88.94
420.503	97.94
420.726	84.94
420.948	94.94
421.171	90.94
421.394	98.94
421.617	89.94
421.839	87.94
422.062	92.94
422.285	93.94
422.507	98.94
422.73	108.94
422.953	88.94
423.175	97.94
423.398	88.94
423.621	89.94
423.843	90.94
424.066	88.94
424.288	89.94
424.511	106.94
424.733	87.94
424.956	97.94
425.178	92.94
425.401	110.94
425.623	106.94
425.846	95.94
426.068	94.94
426.291	87.94
426.513	100.94
426.735	81.94
426.958	92.94
427.18	130.94
427.402	130.94
427.625	146.94
427.847	116.94
428.069	119.94
428.292	105.94
428.514	101.94
428.736	101.94
428.958	90.94
429.181	79.94
429.403	98.94
429.625	78.94
429.847	92.94
430.069	105.94
430.292	95.94
430.514	87.94
430.736	91.94
430.958	89.94
431.18	88.94
431.402	86.94
431.624	96.94
431.846	87.94
432.068	97.94
432.29	96.94
432.512	94.94
432.734	86.94
432.956	83.94
433.178	85.94
433.4	101.94
433.622	99.94
433.844	95.94
434.066	88.94
434.287	88.94
434.509	84.94
434.731	90.94
434.953	83.94
435.175	81.94
435.397	88.94
435.618	90.94
435.84	99.94
436.062	112.94
436.284	119.94
436.505	91.94
436.727	89.94
436.949	83.94
437.17	86.94
437.392	81.94
437.614	91.94
437.835	108.94
438.057	107.94
438.278	105.94
438.5	94.94
438.721	126.94
438.943	96.94
439.165	91.94
439.386	99.94
439.608	99.94
439.829	109.94
440.05	113.94
440.272	118.94
440.493	93.94
440.715	97.94
440.936	86.94
441.158	91.94
441.379	99.94
441.6	95.94
441.822	94.94
442.043	102.94
442.264	106.94
442.486	96.94
442.707	99.94
442.928	100.94
443.149	136.94
443.371	140.94
443.592	102.94
443.813	104.94
444.034	112.94
444.255	109.94
444.476	90.94
444.698	80.94
444.919	84.94
445.14	135.94
445.361	112.94
445.582	103.94
445.803	135.94
446.024	119.94
446.245	131.94
446.466	98.94
446.687	90.94
446.908	84.94
447.129	84.94
447.35	87.94
447.571	75.94
447.792	102.94
448.013	103.94
448.234	105.94
448.455	106.94
448.675	109.94
448.896	127.94
449.117	99.94
449.338	103.94
449.559	120.94
449.779	119.94
450	89.94
450.221	90.94
450.442	100.94
450.662	102.94
450.883	107.94
451.104	120.94
451.324	103.94
451.545	97.94
451.766	88.94
451.986	98.94
452.207	91.94
452.428	96.94
452.648	94.94
452.869	93.94
453.089	112.94
453.31	111.94
453.53	100.94
453.751	95.94
453.971	108.94
454.192	112.94
454.412	98.94
454.633	103.94
454.853	88.94
455.073	86.94
455.294	92.94
455.514	98.94
455.734	91.94
455.955	84.94
456.175	92.94
456.395	86.94
456.616	79.94
456.836	82.94
457.056	100.94
457.276	80.94
457.497	89.94
457.717	73.94
457.937	75.94
458.157	104.94
458.377	103.94
458.598	100.94
458.818	118.94
459.038	139.94
459.258	102.94
459.478	96.94
459.698	85.94
459.918	88.94
460.138	92.94
460.358	92.94
460.578	84.94
460.798	83.94
461.018	97.94
461.238	91.94
461.458	88.94
461.678	86.94
461.898	89.94
462.118	80.94
462.338	104.94
462.558	81.94
462.777	89.94
462.997	99.94
463.217	82.94
463.437	87.94
463.657	99.94
463.876	80.94
464.096	90.94
464.316	103.94
464.536	85.94
464.755	98.94
464.975	102.94
465.195	141.94
465.414	142.94
465.634	110.94
465.854	87.94
466.073	100.94
466.293	99.94
466.512	94.94
466.732	84.94
466.951	95.94
467.171	94.94
467.391	96.94
467.61	100.94
467.829	100.94
468.049	83.94
468.268	96.94
468.488	91.94
468.707	87.94
468.927	82.94
469.146	87.94
469.365	88.94
469.585	85.94
469.804	83.94
470.023	88.94
470.243	88.94
470.462	88.94
470.681	104.94
470.901	92.94
471.12	87.94
471.339	81.94
471.558	82.94
471.777	93.94
471.997	89.94
472.216	101.94
472.435	98.94
472.654	93.94
472.873	91.94
473.092	94.94
473.311	94.94
473.53	93.94
473.749	89.94
473.968	82.94
474.187	93.94
474.406	104.94
474.625	86.94
474.844	82.94
475.063	81.94
475.282	85.94
475.501	90.94
475.72	94.94
475.939	81.94
476.158	84.94
476.377	97.94
476.596	89.94
476.814	98.94
477.033	99.94
477.252	91.94
477.471	95.94
477.69	80.94
477.908	88.94
478.127	93.94
478.346	92.94
478.564	96.94
478.783	94.94
479.002	98.94
479.22	94.94
479.439	101.94
479.658	108.94
479.876	85.94
480.095	86.94
480.313	84.94
480.532	92.94
480.751	91.94
480.969	103.94
481.188	138.94
481.406	129.94
481.624	87.94
481.843	106.94
482.061	99.94
482.28	80.94
482.498	100.94
482.717	98.94
482.935	96.94
483.153	79.94
483.372	98.94
483.59	101.94
483.808	76.94
484.027	87.94
484.245	86.94
484.463	96.94
484.681	108.94
484.9	88.94
485.118	92.94
485.336	93.94
485.554	96.94
485.772	111.94
485.99	100.94
486.209	110.94
486.427	114.94
486.645	115.94
486.863	106.94
487.081	102.94
487.299	90.94
487.517	83.94
487.735	97.94
487.953	96.94
488.171	94.94
488.389	104.94
488.607	106.94
488.825	91.94
489.043	100.94
489.261	94.94
489.479	89.94
489.696	89.94
489.914	101.94
490.132	94.94
490.35	84.94
490.568	89.94
490.786	94.94
491.003	92.94
491.221	106.94
491.439	93.94
491.657	99.94
491.874	104.94
492.092	110.94
492.31	86.94
492.527	92.94
492.745	94.94
492.963	104.94
493.18	90.94
493.398	80.94
493.615	106.94
493.833	99.94
494.05	94.94
494.268	96.94
494.485	87.94
494.703	87.94
494.92	88.94
495.138	78.94
495.355	105.94
495.573	100.94
495.79	97.94
496.008	95.94
496.225	94.94
496.442	82.94
496.66	87.94
496.877	88.94
497.094	92.94
497.312	98.94
497.529	87.94
497.746	94.94
497.963	79.94
498.181	95.94
498.398	87.94
498.615	108.94
498.832	80.94
499.049	78.94
499.267	96.94
499.484	82.94
499.701	78.94
499.918	89.94
500.135	88.94
500.352	92.94
500.569	96.94
500.786	94.94
501.003	92.94
501.22	89.94
501.437	93.94
501.654	98.94
501.871	107.94
502.088	99.94
502.305	85.94
502.522	95.94
502.739	89.94
502.956	98.94
503.172	91.94
503.389	103.94
503.606	114.94
503.823	99.94
504.04	103.94
504.256	84.94
504.473	82.94
504.69	107.94
504.907	86.94
505.123	96.94
505.34	93.94
505.557	96.94
505.773	95.94
505.99	112.94
506.207	94.94
506.423	88.94
506.64	106.94
506.856	92.94
507.073	91.94
507.289	94.94
507.506	106.94
507.722	103.94
507.939	112.94
508.155	100.94
508.372	90.94
508.588	94.94
508.805	92.94
509.021	91.94
509.238	93.94
509.454	96.94
509.67	95.94
509.887	107.94
510.103	134.94
510.319	202.94
510.536	699.94
510.752	2130.94
510.968	587.94
511.184	147.94
511.401	108.94
511.617	110.94
511.833	97.94
512.049	83.94
512.265	81.94
512.481	83.94
512.698	79.94
512.914	81.94
513.13	100.94
513.346	87.94
513.562	75.94
513.778	104.94
513.994	94.94
514.21	101.94
514.426	105.94
514.642	124.94
514.858	127.94
515.074	164.94
