Data from Uncirc_1987_H10_HRD10591_00028.txt Node
Date: Wed Jan 03 12:08:54 EST 2024
User: Yrep
Spectrometer: HR+D1059
Trigger mode: 1
Integration Time (sec): 1.000000E-1
Scans to average: 1
Electric dark correction enabled: true
Nonlinearity correction enabled: false
Boxcar width: 0
XAxis mode: Wavelengths
Number of Pixels in Spectrum: 2048
>>>>>Begin Spectral Data<<<<<
223.165	-22.56
223.4	-22.56
223.635	-22.56
223.869	-23.56
224.104	-23.56
224.338	-10.56
224.573	-14.56
224.808	-9.56
225.042	6.44
225.277	-17.56
225.511	-12.56
225.746	4.44
225.98	7.44
226.215	22.44
226.449	23.44
226.683	17.44
226.918	24.44
227.152	28.44
227.387	43.44
227.621	45.44
227.856	44.44
228.09	46.44
228.324	46.44
228.559	59.44
228.793	64.44
229.027	68.44
229.262	68.44
229.496	65.44
229.73	85.44
229.964	79.44
230.199	69.44
230.433	71.44
230.667	75.44
230.901	80.44
231.136	77.44
231.37	81.44
231.604	72.44
231.838	97.44
232.072	76.44
232.306	66.44
232.541	76.44
232.775	69.44
233.009	81.44
233.243	91.44
233.477	84.44
233.711	87.44
233.945	79.44
234.179	82.44
234.413	63.44
234.647	85.44
234.881	101.44
235.115	80.44
235.349	79.44
235.583	81.44
235.817	91.44
236.051	84.44
236.285	86.44
236.519	89.44
236.753	73.44
236.987	78.44
237.221	87.44
237.455	80.44
237.689	81.44
237.922	71.44
238.156	77.44
238.39	72.44
238.624	70.44
238.858	72.44
239.091	66.44
239.325	93.44
239.559	74.44
239.793	75.44
240.027	74.44
240.26	70.44
240.494	89.44
240.728	78.44
240.961	76.44
241.195	68.44
241.429	81.44
241.662	85.44
241.896	83.44
242.13	64.44
242.363	67.44
242.597	74.44
242.83	85.44
243.064	86.44
243.298	80.44
243.531	85.44
243.765	80.44
243.998	89.44
244.232	89.44
244.465	82.44
244.699	72.44
244.932	85.44
245.166	86.44
245.399	80.44
245.633	72.44
245.866	80.44
246.099	73.44
246.333	79.44
246.566	81.44
246.8	69.44
247.033	74.44
247.266	80.44
247.5	80.44
247.733	80.44
247.966	68.44
248.2	69.44
248.433	71.44
248.666	79.44
248.899	85.44
249.133	85.44
249.366	85.44
249.599	89.44
249.832	97.44
250.066	71.44
250.299	80.44
250.532	79.44
250.765	96.44
250.998	81.44
251.231	73.44
251.465	86.44
251.698	79.44
251.931	72.44
252.164	89.44
252.397	82.44
252.63	80.44
252.863	70.44
253.096	74.44
253.329	82.44
253.562	73.44
253.795	73.44
254.028	74.44
254.261	72.44
254.494	77.44
254.727	74.44
254.96	84.44
255.193	77.44
255.426	88.44
255.659	69.44
255.892	90.44
256.124	93.44
256.357	77.44
256.59	77.44
256.823	75.44
257.056	82.44
257.289	84.44
257.521	91.44
257.754	79.44
257.987	79.44
258.22	93.44
258.452	68.44
258.685	86.44
258.918	93.44
259.151	71.44
259.383	62.44
259.616	82.44
259.849	77.44
260.081	66.44
260.314	80.44
260.547	70.44
260.779	93.44
261.012	78.44
261.244	101.44
261.477	85.44
261.71	73.44
261.942	107.44
262.175	102.44
262.407	89.44
262.64	82.44
262.872	83.44
263.105	84.44
263.337	67.44
263.57	75.44
263.802	77.44
264.035	85.44
264.267	72.44
264.499	74.44
264.732	93.44
264.964	83.44
265.197	62.44
265.429	77.44
265.661	83.44
265.894	71.44
266.126	92.44
266.358	78.44
266.591	87.44
266.823	81.44
267.055	80.44
267.287	81.44
267.52	97.44
267.752	85.44
267.984	95.44
268.216	79.44
268.448	89.44
268.681	89.44
268.913	85.44
269.145	87.44
269.377	73.44
269.609	88.44
269.841	84.44
270.073	90.44
270.306	86.44
270.538	80.44
270.77	96.44
271.002	77.44
271.234	86.44
271.466	89.44
271.698	88.44
271.93	102.44
272.162	80.44
272.394	88.44
272.626	90.44
272.858	89.44
273.09	75.44
273.322	74.44
273.553	73.44
273.785	90.44
274.017	92.44
274.249	85.44
274.481	89.44
274.713	72.44
274.945	90.44
275.176	85.44
275.408	81.44
275.64	84.44
275.872	99.44
276.104	89.44
276.335	83.44
276.567	85.44
276.799	96.44
277.031	120.44
277.262	93.44
277.494	87.44
277.726	94.44
277.957	87.44
278.189	78.44
278.421	89.44
278.652	96.44
278.884	80.44
279.115	75.44
279.347	95.44
279.579	81.44
279.81	97.44
280.042	74.44
280.273	87.44
280.505	83.44
280.736	72.44
280.968	102.44
281.199	94.44
281.431	104.44
281.662	88.44
281.894	94.44
282.125	89.44
282.356	98.44
282.588	134.44
282.819	107.44
283.051	91.44
283.282	74.44
283.513	85.44
283.745	89.44
283.976	76.44
284.207	69.44
284.439	83.44
284.67	84.44
284.901	79.44
285.132	89.44
285.364	97.44
285.595	87.44
285.826	104.44
286.057	81.44
286.288	87.44
286.52	81.44
286.751	89.44
286.982	86.44
287.213	77.44
287.444	104.44
287.675	72.44
287.906	82.44
288.138	102.44
288.369	93.44
288.6	88.44
288.831	75.44
289.062	88.44
289.293	87.44
289.524	91.44
289.755	88.44
289.986	87.44
290.217	89.44
290.448	95.44
290.679	94.44
290.91	88.44
291.141	72.44
291.371	84.44
291.602	80.44
291.833	73.44
292.064	87.44
292.295	81.44
292.526	87.44
292.757	89.44
292.987	78.44
293.218	80.44
293.449	75.44
293.68	82.44
293.91	93.44
294.141	98.44
294.372	78.44
294.603	84.44
294.833	94.44
295.064	82.44
295.295	93.44
295.525	90.44
295.756	84.44
295.987	116.44
296.217	120.44
296.448	100.44
296.679	89.44
296.909	103.44
297.14	89.44
297.37	95.44
297.601	81.44
297.831	101.44
298.062	101.44
298.292	85.44
298.523	74.44
298.753	90.44
298.984	106.44
299.214	94.44
299.445	95.44
299.675	102.44
299.905	93.44
300.136	79.44
300.366	96.44
300.597	96.44
300.827	86.44
301.057	103.44
301.288	95.44
301.518	85.44
301.748	89.44
301.979	99.44
302.209	96.44
302.439	89.44
302.669	92.44
302.9	80.44
303.13	85.44
303.36	94.44
303.59	86.44
303.82	88.44
304.051	75.44
304.281	93.44
304.511	77.44
304.741	90.44
304.971	100.44
305.201	98.44
305.431	81.44
305.661	74.44
305.891	90.44
306.121	99.44
306.352	100.44
306.582	101.44
306.812	88.44
307.042	95.44
307.272	90.44
307.502	84.44
307.731	99.44
307.961	89.44
308.191	93.44
308.421	82.44
308.651	101.44
308.881	93.44
309.111	89.44
309.341	83.44
309.571	100.44
309.8	104.44
310.03	98.44
310.26	94.44
310.49	105.44
310.72	107.44
310.949	94.44
311.179	95.44
311.409	101.44
311.639	103.44
311.868	105.44
312.098	101.44
312.328	89.44
312.557	94.44
312.787	103.44
313.017	101.44
313.246	97.44
313.476	85.44
313.706	95.44
313.935	74.44
314.165	102.44
314.394	88.44
314.624	95.44
314.853	105.44
315.083	105.44
315.312	89.44
315.542	89.44
315.771	99.44
316.001	85.44
316.23	90.44
316.46	90.44
316.689	86.44
316.919	76.44
317.148	78.44
317.377	99.44
317.607	91.44
317.836	96.44
318.065	84.44
318.295	101.44
318.524	95.44
318.753	88.44
318.983	79.44
319.212	102.44
319.441	89.44
319.67	99.44
319.9	85.44
320.129	91.44
320.358	89.44
320.587	89.44
320.816	96.44
321.046	91.44
321.275	102.44
321.504	92.44
321.733	87.44
321.962	94.44
322.191	107.44
322.42	103.44
322.649	97.44
322.878	114.44
323.108	107.44
323.337	124.44
323.566	119.44
323.795	119.44
324.024	175.44
324.253	311.44
324.482	670.44
324.71	1342.44
324.939	1762.44
325.168	659.44
325.397	209.44
325.626	131.44
325.855	118.44
326.084	112.44
326.313	125.44
326.542	138.44
326.77	179.44
326.999	363.44
327.228	755.44
327.457	1419.44
327.686	1115.44
327.914	321.44
328.143	179.44
328.372	120.44
328.6	110.44
328.829	104.44
329.058	96.44
329.287	110.44
329.515	106.44
329.744	109.44
329.972	107.44
330.201	85.44
330.43	113.44
330.658	97.44
330.887	115.44
331.115	106.44
331.344	95.44
331.572	95.44
331.801	79.44
332.03	100.44
332.258	103.44
332.486	103.44
332.715	93.44
332.943	85.44
333.172	94.44
333.4	84.44
333.629	106.44
333.857	113.44
334.085	86.44
334.314	107.44
334.542	94.44
334.771	99.44
334.999	96.44
335.227	95.44
335.455	101.44
335.684	105.44
335.912	87.44
336.14	108.44
336.369	96.44
336.597	99.44
336.825	91.44
337.053	87.44
337.281	100.44
337.51	96.44
337.738	102.44
337.966	98.44
338.194	105.44
338.422	81.44
338.65	82.44
338.878	83.44
339.106	86.44
339.334	99.44
339.562	97.44
339.79	99.44
340.018	93.44
340.246	74.44
340.474	99.44
340.702	90.44
340.93	107.44
341.158	86.44
341.386	104.44
341.614	90.44
341.842	105.44
342.07	83.44
342.298	88.44
342.526	84.44
342.754	88.44
342.981	86.44
343.209	85.44
343.437	93.44
343.665	83.44
343.893	96.44
344.12	99.44
344.348	85.44
344.576	89.44
344.804	94.44
345.031	84.44
345.259	85.44
345.487	98.44
345.714	90.44
345.942	91.44
346.17	90.44
346.397	95.44
346.625	93.44
346.853	86.44
347.08	80.44
347.308	94.44
347.535	94.44
347.763	89.44
347.99	87.44
348.218	106.44
348.445	99.44
348.673	93.44
348.9	94.44
349.128	97.44
349.355	97.44
349.583	95.44
349.81	83.44
350.037	102.44
350.265	105.44
350.492	101.44
350.72	96.44
350.947	94.44
351.174	101.44
351.402	104.44
351.629	103.44
351.856	92.44
352.083	103.44
352.311	113.44
352.538	102.44
352.765	114.44
352.992	99.44
353.22	112.44
353.447	117.44
353.674	101.44
353.901	97.44
354.128	92.44
354.355	98.44
354.583	94.44
354.81	92.44
355.037	97.44
355.264	89.44
355.491	79.44
355.718	88.44
355.945	88.44
356.172	105.44
356.399	97.44
356.626	74.44
356.853	89.44
357.08	109.44
357.307	104.44
357.534	97.44
357.761	83.44
357.988	107.44
358.215	94.44
358.441	94.44
358.668	94.44
358.895	89.44
359.122	79.44
359.349	90.44
359.576	90.44
359.802	84.44
360.029	106.44
360.256	107.44
360.483	82.44
360.709	88.44
360.936	91.44
361.163	94.44
361.39	100.44
361.616	99.44
361.843	84.44
362.07	80.44
362.296	98.44
362.523	103.44
362.749	89.44
362.976	85.44
363.203	104.44
363.429	85.44
363.656	89.44
363.882	98.44
364.109	66.44
364.335	91.44
364.562	85.44
364.788	89.44
365.015	87.44
365.241	94.44
365.468	109.44
365.694	111.44
365.92	98.44
366.147	78.44
366.373	89.44
366.599	74.44
366.826	85.44
367.052	99.44
367.278	88.44
367.505	91.44
367.731	91.44
367.957	97.44
368.184	97.44
368.41	104.44
368.636	115.44
368.862	93.44
369.089	101.44
369.315	103.44
369.541	94.44
369.767	97.44
369.993	101.44
370.219	85.44
370.445	95.44
370.672	68.44
370.898	105.44
371.124	92.44
371.35	78.44
371.576	85.44
371.802	93.44
372.028	83.44
372.254	77.44
372.48	94.44
372.706	94.44
372.932	74.44
373.158	73.44
373.384	74.44
373.61	85.44
373.835	84.44
374.061	91.44
374.287	94.44
374.513	99.44
374.739	95.44
374.965	96.44
375.191	78.44
375.416	94.44
375.642	96.44
375.868	101.44
376.094	90.44
376.319	101.44
376.545	94.44
376.771	85.44
376.997	79.44
377.222	90.44
377.448	85.44
377.674	96.44
377.899	102.44
378.125	80.44
378.35	102.44
378.576	97.44
378.802	89.44
379.027	91.44
379.253	102.44
379.478	102.44
379.704	89.44
379.929	99.44
380.155	105.44
380.38	99.44
380.606	98.44
380.831	95.44
381.057	89.44
381.282	89.44
381.507	82.44
381.733	93.44
381.958	100.44
382.184	107.44
382.409	93.44
382.634	116.44
382.86	95.44
383.085	100.44
383.31	91.44
383.535	95.44
383.761	101.44
383.986	85.44
384.211	86.44
384.436	87.44
384.662	87.44
384.887	94.44
385.112	90.44
385.337	109.44
385.562	87.44
385.787	94.44
386.013	113.44
386.238	112.44
386.463	103.44
386.688	100.44
386.913	88.44
387.138	95.44
387.363	95.44
387.588	103.44
387.813	115.44
388.038	95.44
388.263	96.44
388.488	102.44
388.713	90.44
388.938	95.44
389.163	104.44
389.387	107.44
389.612	91.44
389.837	92.44
390.062	106.44
390.287	92.44
390.512	90.44
390.736	93.44
390.961	84.44
391.186	93.44
391.411	112.44
391.636	91.44
391.86	100.44
392.085	87.44
392.31	84.44
392.534	85.44
392.759	79.44
392.984	89.44
393.208	81.44
393.433	97.44
393.658	93.44
393.882	79.44
394.107	99.44
394.331	96.44
394.556	94.44
394.78	92.44
395.005	88.44
395.229	92.44
395.454	79.44
395.678	83.44
395.903	83.44
396.127	86.44
396.352	88.44
396.576	100.44
396.801	90.44
397.025	102.44
397.249	90.44
397.474	97.44
397.698	94.44
397.922	90.44
398.147	82.44
398.371	92.44
398.595	81.44
398.82	70.44
399.044	88.44
399.268	84.44
399.492	85.44
399.717	77.44
399.941	74.44
400.165	81.44
400.389	84.44
400.613	92.44
400.837	87.44
401.062	87.44
401.286	99.44
401.51	100.44
401.734	93.44
401.958	90.44
402.182	120.44
402.406	139.44
402.63	99.44
402.854	97.44
403.078	89.44
403.302	90.44
403.526	86.44
403.75	87.44
403.974	99.44
404.198	82.44
404.422	78.44
404.645	74.44
404.869	80.44
405.093	84.44
405.317	94.44
405.541	97.44
405.765	102.44
405.988	108.44
406.212	144.44
406.436	190.44
406.66	131.44
406.883	96.44
407.107	111.44
407.331	84.44
407.555	78.44
407.778	95.44
408.002	94.44
408.226	82.44
408.449	85.44
408.673	96.44
408.896	88.44
409.12	84.44
409.344	93.44
409.567	101.44
409.791	88.44
410.014	103.44
410.238	84.44
410.461	112.44
410.685	99.44
410.908	97.44
411.132	99.44
411.355	110.44
411.578	85.44
411.802	85.44
412.025	93.44
412.249	101.44
412.472	89.44
412.695	93.44
412.919	75.44
413.142	89.44
413.365	89.44
413.589	86.44
413.812	89.44
414.035	93.44
414.258	89.44
414.482	93.44
414.705	87.44
414.928	98.44
415.151	94.44
415.374	104.44
415.597	89.44
415.821	91.44
416.044	88.44
416.267	83.44
416.49	82.44
416.713	94.44
416.936	89.44
417.159	83.44
417.382	83.44
417.605	96.44
417.828	95.44
418.051	88.44
418.274	89.44
418.497	82.44
418.72	92.44
418.943	85.44
419.166	82.44
419.389	91.44
419.611	90.44
419.834	95.44
420.057	95.44
420.28	69.44
420.503	64.44
420.726	83.44
420.948	82.44
421.171	105.44
421.394	91.44
421.617	93.44
421.839	92.44
422.062	79.44
422.285	93.44
422.507	91.44
422.73	98.44
422.953	96.44
423.175	82.44
423.398	94.44
423.621	89.44
423.843	91.44
424.066	92.44
424.288	86.44
424.511	94.44
424.733	83.44
424.956	100.44
425.178	91.44
425.401	96.44
425.623	100.44
425.846	83.44
426.068	87.44
426.291	85.44
426.513	83.44
426.735	88.44
426.958	95.44
427.18	92.44
427.402	128.44
427.625	155.44
427.847	120.44
428.069	117.44
428.292	89.44
428.514	97.44
428.736	86.44
428.958	87.44
429.181	94.44
429.403	89.44
429.625	91.44
429.847	97.44
430.069	95.44
430.292	93.44
430.514	88.44
430.736	89.44
430.958	93.44
431.18	89.44
431.402	93.44
431.624	81.44
431.846	91.44
432.068	84.44
432.29	96.44
432.512	88.44
432.734	87.44
432.956	85.44
433.178	80.44
433.4	97.44
433.622	77.44
433.844	88.44
434.066	69.44
434.287	94.44
434.509	95.44
434.731	82.44
434.953	100.44
435.175	90.44
435.397	95.44
435.618	81.44
435.84	87.44
436.062	109.44
436.284	99.44
436.505	84.44
436.727	89.44
436.949	100.44
437.17	93.44
437.392	83.44
437.614	110.44
437.835	101.44
438.057	98.44
438.278	110.44
438.5	96.44
438.721	108.44
438.943	89.44
439.165	90.44
439.386	83.44
439.608	87.44
439.829	91.44
440.05	115.44
440.272	125.44
440.493	97.44
440.715	85.44
440.936	97.44
441.158	95.44
441.379	83.44
441.6	70.44
441.822	75.44
442.043	96.44
442.264	94.44
442.486	92.44
442.707	90.44
442.928	96.44
443.149	125.44
443.371	114.44
443.592	91.44
443.813	104.44
444.034	94.44
444.255	97.44
444.476	82.44
444.698	78.44
444.919	94.44
445.14	131.44
445.361	106.44
445.582	90.44
445.803	119.44
446.024	128.44
446.245	135.44
446.466	104.44
446.687	80.44
446.908	89.44
447.129	101.44
447.35	96.44
447.571	83.44
447.792	90.44
448.013	86.44
448.234	112.44
448.455	98.44
448.675	89.44
448.896	119.44
449.117	84.44
449.338	90.44
449.559	119.44
449.779	117.44
450	94.44
450.221	93.44
450.442	92.44
450.662	107.44
450.883	101.44
451.104	102.44
451.324	93.44
451.545	101.44
451.766	72.44
451.986	92.44
452.207	79.44
452.428	91.44
452.648	97.44
452.869	84.44
453.089	106.44
453.31	114.44
453.53	77.44
453.751	90.44
453.971	102.44
454.192	107.44
454.412	91.44
454.633	78.44
454.853	83.44
455.073	90.44
455.294	90.44
455.514	111.44
455.734	75.44
455.955	84.44
456.175	68.44
456.395	90.44
456.616	85.44
456.836	72.44
457.056	86.44
457.276	64.44
457.497	91.44
457.717	89.44
457.937	82.44
458.157	84.44
458.377	91.44
458.598	98.44
458.818	122.44
459.038	116.44
459.258	102.44
459.478	86.44
459.698	87.44
459.918	83.44
460.138	86.44
460.358	81.44
460.578	83.44
460.798	72.44
461.018	94.44
461.238	93.44
461.458	90.44
461.678	92.44
461.898	97.44
462.118	82.44
462.338	93.44
462.558	87.44
462.777	87.44
462.997	92.44
463.217	97.44
463.437	82.44
463.657	83.44
463.876	77.44
464.096	86.44
464.316	93.44
464.536	104.44
464.755	89.44
464.975	97.44
465.195	141.44
465.414	137.44
465.634	102.44
465.854	97.44
466.073	75.44
466.293	90.44
466.512	83.44
466.732	88.44
466.951	84.44
467.171	93.44
467.391	104.44
467.61	92.44
467.829	98.44
468.049	106.44
468.268	94.44
468.488	81.44
468.707	83.44
468.927	82.44
469.146	84.44
469.365	79.44
469.585	90.44
469.804	93.44
470.023	101.44
470.243	90.44
470.462	106.44
470.681	102.44
470.901	91.44
471.12	82.44
471.339	88.44
471.558	86.44
471.777	101.44
471.997	83.44
472.216	97.44
472.435	88.44
472.654	84.44
472.873	95.44
473.092	74.44
473.311	85.44
473.53	87.44
473.749	83.44
473.968	97.44
474.187	112.44
474.406	102.44
474.625	78.44
474.844	89.44
475.063	84.44
475.282	102.44
475.501	81.44
475.72	97.44
475.939	85.44
476.158	90.44
476.377	95.44
476.596	100.44
476.814	95.44
477.033	94.44
477.252	104.44
477.471	110.44
477.69	90.44
477.908	96.44
478.127	99.44
478.346	100.44
478.564	88.44
478.783	99.44
479.002	99.44
479.22	78.44
479.439	89.44
479.658	88.44
479.876	100.44
480.095	102.44
480.313	78.44
480.532	73.44
480.751	86.44
480.969	93.44
481.188	90.44
481.406	103.44
481.624	97.44
481.843	89.44
482.061	87.44
482.28	93.44
482.498	90.44
482.717	90.44
482.935	86.44
483.153	75.44
483.372	90.44
483.59	87.44
483.808	85.44
484.027	91.44
484.245	97.44
484.463	95.44
484.681	85.44
484.9	90.44
485.118	89.44
485.336	107.44
485.554	109.44
485.772	103.44
485.99	89.44
486.209	104.44
486.427	104.44
486.645	99.44
486.863	125.44
487.081	106.44
487.299	88.44
487.517	98.44
487.735	108.44
487.953	79.44
488.171	81.44
488.389	88.44
488.607	98.44
488.825	83.44
489.043	106.44
489.261	102.44
489.479	87.44
489.696	97.44
489.914	81.44
490.132	93.44
490.35	98.44
490.568	95.44
490.786	103.44
491.003	82.44
491.221	87.44
491.439	95.44
491.657	105.44
491.874	86.44
492.092	98.44
492.31	94.44
492.527	105.44
492.745	75.44
492.963	95.44
493.18	78.44
493.398	94.44
493.615	105.44
493.833	91.44
494.05	83.44
494.268	82.44
494.485	78.44
494.703	95.44
494.92	94.44
495.138	94.44
495.355	82.44
495.573	95.44
495.79	79.44
496.008	84.44
496.225	85.44
496.442	93.44
496.66	87.44
496.877	93.44
497.094	94.44
497.312	86.44
497.529	93.44
497.746	90.44
497.963	87.44
498.181	95.44
498.398	87.44
498.615	99.44
498.832	94.44
499.049	91.44
499.267	96.44
499.484	90.44
499.701	99.44
499.918	95.44
500.135	94.44
500.352	91.44
500.569	89.44
500.786	87.44
501.003	97.44
501.22	105.44
501.437	99.44
501.654	91.44
501.871	99.44
502.088	95.44
502.305	95.44
502.522	85.44
502.739	101.44
502.956	93.44
503.172	97.44
503.389	103.44
503.606	105.44
503.823	88.44
504.04	74.44
504.256	87.44
504.473	86.44
504.69	87.44
504.907	90.44
505.123	88.44
505.34	83.44
505.557	98.44
505.773	87.44
505.99	99.44
506.207	102.44
506.423	104.44
506.64	82.44
506.856	89.44
507.073	101.44
507.289	85.44
507.506	92.44
507.722	92.44
507.939	94.44
508.155	87.44
508.372	107.44
508.588	97.44
508.805	91.44
509.021	102.44
509.238	101.44
509.454	110.44
509.67	99.44
509.887	94.44
510.103	116.44
510.319	200.44
510.536	610.44
510.752	1784.44
510.968	513.44
511.184	122.44
511.401	112.44
511.617	105.44
511.833	97.44
512.049	94.44
512.265	115.44
512.481	95.44
512.698	100.44
512.914	89.44
513.13	87.44
513.346	95.44
513.562	90.44
513.778	89.44
513.994	94.44
514.21	96.44
514.426	99.44
514.642	123.44
514.858	107.44
515.074	129.44
515.29	353.44
515.506	1053.44
515.721	421.44
515.937	124.44
516.153	109.44
