Data from Uncirc_1987_H10_HRD10591_00088.txt Node
Date: Wed Jan 03 12:09:06 EST 2024
User: Yrep
Spectrometer: HR+D1059
Trigger mode: 1
Integration Time (sec): 1.000000E-1
Scans to average: 1
Electric dark correction enabled: true
Nonlinearity correction enabled: false
Boxcar width: 0
XAxis mode: Wavelengths
Number of Pixels in Spectrum: 2048
>>>>>Begin Spectral Data<<<<<
223.165	-30.44
223.4	-30.44
223.635	-30.44
223.869	-16.44
224.104	-27.44
224.338	-4.44
224.573	-11.44
224.808	-14.44
225.042	0.56
225.277	8.56
225.511	-8.44
225.746	9.56
225.98	18.56
226.215	0.56
226.449	10.56
226.683	3.56
226.918	21.56
227.152	39.56
227.387	54.56
227.621	49.56
227.856	38.56
228.09	48.56
228.324	50.56
228.559	61.56
228.793	57.56
229.027	46.56
229.262	60.56
229.496	72.56
229.73	63.56
229.964	79.56
230.199	83.56
230.433	85.56
230.667	70.56
230.901	69.56
231.136	77.56
231.37	71.56
231.604	78.56
231.838	84.56
232.072	77.56
232.306	79.56
232.541	98.56
232.775	89.56
233.009	84.56
233.243	83.56
233.477	58.56
233.711	73.56
233.945	83.56
234.179	84.56
234.413	73.56
234.647	74.56
234.881	74.56
235.115	78.56
235.349	82.56
235.583	84.56
235.817	88.56
236.051	78.56
236.285	81.56
236.519	86.56
236.753	78.56
236.987	82.56
237.221	80.56
237.455	80.56
237.689	71.56
237.922	82.56
238.156	71.56
238.39	83.56
238.624	84.56
238.858	73.56
239.091	70.56
239.325	82.56
239.559	73.56
239.793	78.56
240.027	80.56
240.26	76.56
240.494	76.56
240.728	79.56
240.961	80.56
241.195	82.56
241.429	82.56
241.662	70.56
241.896	72.56
242.13	63.56
242.363	69.56
242.597	73.56
242.83	69.56
243.064	82.56
243.298	72.56
243.531	74.56
243.765	73.56
243.998	72.56
244.232	70.56
244.465	90.56
244.699	93.56
244.932	62.56
245.166	64.56
245.399	68.56
245.633	81.56
245.866	77.56
246.099	71.56
246.333	78.56
246.566	76.56
246.8	78.56
247.033	82.56
247.266	66.56
247.5	87.56
247.733	60.56
247.966	73.56
248.2	70.56
248.433	88.56
248.666	78.56
248.899	86.56
249.133	78.56
249.366	80.56
249.599	95.56
249.832	71.56
250.066	85.56
250.299	84.56
250.532	77.56
250.765	69.56
250.998	74.56
251.231	74.56
251.465	69.56
251.698	82.56
251.931	84.56
252.164	77.56
252.397	88.56
252.63	73.56
252.863	84.56
253.096	84.56
253.329	77.56
253.562	87.56
253.795	84.56
254.028	93.56
254.261	85.56
254.494	73.56
254.727	78.56
254.96	63.56
255.193	65.56
255.426	80.56
255.659	92.56
255.892	93.56
256.124	65.56
256.357	85.56
256.59	78.56
256.823	74.56
257.056	82.56
257.289	83.56
257.521	73.56
257.754	70.56
257.987	97.56
258.22	78.56
258.452	81.56
258.685	80.56
258.918	89.56
259.151	84.56
259.383	93.56
259.616	83.56
259.849	71.56
260.081	88.56
260.314	77.56
260.547	71.56
260.779	73.56
261.012	84.56
261.244	80.56
261.477	95.56
261.71	95.56
261.942	111.56
262.175	105.56
262.407	91.56
262.64	86.56
262.872	85.56
263.105	87.56
263.337	80.56
263.57	78.56
263.802	91.56
264.035	73.56
264.267	84.56
264.499	91.56
264.732	81.56
264.964	84.56
265.197	80.56
265.429	64.56
265.661	82.56
265.894	83.56
266.126	85.56
266.358	86.56
266.591	80.56
266.823	80.56
267.055	89.56
267.287	73.56
267.52	97.56
267.752	84.56
267.984	83.56
268.216	94.56
268.448	96.56
268.681	90.56
268.913	80.56
269.145	73.56
269.377	76.56
269.609	74.56
269.841	90.56
270.073	74.56
270.306	65.56
270.538	84.56
270.77	78.56
271.002	79.56
271.234	86.56
271.466	92.56
271.698	88.56
271.93	87.56
272.162	88.56
272.394	91.56
272.626	96.56
272.858	82.56
273.09	66.56
273.322	83.56
273.553	100.56
273.785	83.56
274.017	72.56
274.249	68.56
274.481	78.56
274.713	82.56
274.945	77.56
275.176	97.56
275.408	78.56
275.64	76.56
275.872	86.56
276.104	77.56
276.335	90.56
276.567	102.56
276.799	84.56
277.031	105.56
277.262	89.56
277.494	91.56
277.726	101.56
277.957	77.56
278.189	78.56
278.421	96.56
278.652	94.56
278.884	76.56
279.115	89.56
279.347	80.56
279.579	100.56
279.81	82.56
280.042	92.56
280.273	78.56
280.505	88.56
280.736	87.56
280.968	76.56
281.199	94.56
281.431	89.56
281.662	82.56
281.894	99.56
282.125	104.56
282.356	115.56
282.588	129.56
282.819	99.56
283.051	78.56
283.282	100.56
283.513	89.56
283.745	85.56
283.976	84.56
284.207	96.56
284.439	80.56
284.67	75.56
284.901	77.56
285.132	66.56
285.364	67.56
285.595	87.56
285.826	88.56
286.057	81.56
286.288	72.56
286.52	84.56
286.751	81.56
286.982	80.56
287.213	72.56
287.444	82.56
287.675	89.56
287.906	80.56
288.138	86.56
288.369	82.56
288.6	80.56
288.831	88.56
289.062	95.56
289.293	92.56
289.524	89.56
289.755	78.56
289.986	65.56
290.217	72.56
290.448	80.56
290.679	85.56
290.91	80.56
291.141	97.56
291.371	70.56
291.602	76.56
291.833	79.56
292.064	83.56
292.295	80.56
292.526	95.56
292.757	82.56
292.987	76.56
293.218	79.56
293.449	78.56
293.68	87.56
293.91	78.56
294.141	84.56
294.372	84.56
294.603	86.56
294.833	72.56
295.064	94.56
295.295	81.56
295.525	93.56
295.756	96.56
295.987	117.56
296.217	127.56
296.448	124.56
296.679	89.56
296.909	90.56
297.14	80.56
297.37	91.56
297.601	73.56
297.831	92.56
298.062	101.56
298.292	84.56
298.523	91.56
298.753	84.56
298.984	91.56
299.214	82.56
299.445	93.56
299.675	94.56
299.905	83.56
300.136	88.56
300.366	88.56
300.597	89.56
300.827	89.56
301.057	89.56
301.288	89.56
301.518	86.56
301.748	93.56
301.979	91.56
302.209	88.56
302.439	83.56
302.669	78.56
302.9	86.56
303.13	94.56
303.36	83.56
303.59	82.56
303.82	94.56
304.051	93.56
304.281	89.56
304.511	96.56
304.741	88.56
304.971	88.56
305.201	73.56
305.431	67.56
305.661	91.56
305.891	98.56
306.121	92.56
306.352	90.56
306.582	110.56
306.812	81.56
307.042	96.56
307.272	79.56
307.502	80.56
307.731	90.56
307.961	93.56
308.191	87.56
308.421	92.56
308.651	87.56
308.881	95.56
309.111	88.56
309.341	87.56
309.571	90.56
309.8	88.56
310.03	98.56
310.26	90.56
310.49	84.56
310.72	95.56
310.949	90.56
311.179	78.56
311.409	89.56
311.639	81.56
311.868	90.56
312.098	91.56
312.328	70.56
312.557	111.56
312.787	109.56
313.017	99.56
313.246	86.56
313.476	92.56
313.706	93.56
313.935	86.56
314.165	104.56
314.394	82.56
314.624	96.56
314.853	98.56
315.083	101.56
315.312	81.56
315.542	85.56
315.771	93.56
316.001	90.56
316.23	102.56
316.46	74.56
316.689	82.56
316.919	105.56
317.148	113.56
317.377	98.56
317.607	83.56
317.836	86.56
318.065	89.56
318.295	88.56
318.524	97.56
318.753	104.56
318.983	89.56
319.212	88.56
319.441	83.56
319.67	106.56
319.9	80.56
320.129	83.56
320.358	83.56
320.587	103.56
320.816	86.56
321.046	108.56
321.275	98.56
321.504	96.56
321.733	89.56
321.962	101.56
322.191	96.56
322.42	89.56
322.649	90.56
322.878	109.56
323.108	105.56
323.337	116.56
323.566	121.56
323.795	133.56
324.024	180.56
324.253	338.56
324.482	704.56
324.71	1433.56
324.939	1962.56
325.168	733.56
325.397	217.56
325.626	142.56
325.855	117.56
326.084	108.56
326.313	114.56
326.542	151.56
326.77	210.56
326.999	401.56
327.228	824.56
327.457	1466.56
327.686	1212.56
327.914	323.56
328.143	181.56
328.372	149.56
328.6	110.56
328.829	110.56
329.058	117.56
329.287	113.56
329.515	96.56
329.744	97.56
329.972	94.56
330.201	119.56
330.43	112.56
330.658	122.56
330.887	121.56
331.115	119.56
331.344	96.56
331.572	98.56
331.801	96.56
332.03	103.56
332.258	98.56
332.486	92.56
332.715	85.56
332.943	94.56
333.172	72.56
333.4	96.56
333.629	100.56
333.857	112.56
334.085	118.56
334.314	106.56
334.542	112.56
334.771	110.56
334.999	113.56
335.227	91.56
335.455	98.56
335.684	103.56
335.912	83.56
336.14	102.56
336.369	97.56
336.597	94.56
336.825	102.56
337.053	108.56
337.281	93.56
337.51	90.56
337.738	78.56
337.966	90.56
338.194	77.56
338.422	96.56
338.65	92.56
338.878	80.56
339.106	80.56
339.334	92.56
339.562	89.56
339.79	96.56
340.018	99.56
340.246	90.56
340.474	97.56
340.702	102.56
340.93	99.56
341.158	97.56
341.386	95.56
341.614	90.56
341.842	96.56
342.07	92.56
342.298	93.56
342.526	99.56
342.754	85.56
342.981	86.56
343.209	90.56
343.437	96.56
343.665	83.56
343.893	92.56
344.12	85.56
344.348	82.56
344.576	78.56
344.804	73.56
345.031	78.56
345.259	100.56
345.487	95.56
345.714	97.56
345.942	88.56
346.17	73.56
346.397	85.56
346.625	97.56
346.853	94.56
347.08	79.56
347.308	95.56
347.535	99.56
347.763	81.56
347.99	96.56
348.218	104.56
348.445	101.56
348.673	103.56
348.9	96.56
349.128	91.56
349.355	94.56
349.583	105.56
349.81	83.56
350.037	92.56
350.265	93.56
350.492	89.56
350.72	113.56
350.947	101.56
351.174	101.56
351.402	93.56
351.629	112.56
351.856	97.56
352.083	104.56
352.311	97.56
352.538	95.56
352.765	100.56
352.992	112.56
353.22	111.56
353.447	102.56
353.674	116.56
353.901	101.56
354.128	86.56
354.355	101.56
354.583	97.56
354.81	112.56
355.037	94.56
355.264	96.56
355.491	78.56
355.718	100.56
355.945	90.56
356.172	96.56
356.399	102.56
356.626	102.56
356.853	96.56
357.08	92.56
357.307	81.56
357.534	85.56
357.761	100.56
357.988	83.56
358.215	96.56
358.441	86.56
358.668	89.56
358.895	87.56
359.122	86.56
359.349	92.56
359.576	88.56
359.802	103.56
360.029	103.56
360.256	87.56
360.483	90.56
360.709	94.56
360.936	101.56
361.163	94.56
361.39	94.56
361.616	87.56
361.843	70.56
362.07	89.56
362.296	96.56
362.523	71.56
362.749	95.56
362.976	95.56
363.203	89.56
363.429	97.56
363.656	95.56
363.882	85.56
364.109	83.56
364.335	94.56
364.562	85.56
364.788	96.56
365.015	94.56
365.241	99.56
365.468	107.56
365.694	105.56
365.92	84.56
366.147	79.56
366.373	80.56
366.599	78.56
366.826	94.56
367.052	81.56
367.278	96.56
367.505	91.56
367.731	93.56
367.957	82.56
368.184	88.56
368.41	97.56
368.636	110.56
368.862	106.56
369.089	97.56
369.315	100.56
369.541	94.56
369.767	89.56
369.993	84.56
370.219	83.56
370.445	103.56
370.672	87.56
370.898	77.56
371.124	98.56
371.35	88.56
371.576	91.56
371.802	87.56
372.028	90.56
372.254	88.56
372.48	81.56
372.706	88.56
372.932	80.56
373.158	92.56
373.384	91.56
373.61	85.56
373.835	81.56
374.061	87.56
374.287	90.56
374.513	76.56
374.739	81.56
374.965	94.56
375.191	86.56
375.416	83.56
375.642	93.56
375.868	101.56
376.094	88.56
376.319	99.56
376.545	91.56
376.771	89.56
376.997	101.56
377.222	81.56
377.448	95.56
377.674	93.56
377.899	91.56
378.125	100.56
378.35	99.56
378.576	74.56
378.802	80.56
379.027	79.56
379.253	97.56
379.478	89.56
379.704	84.56
379.929	95.56
380.155	97.56
380.38	100.56
380.606	101.56
380.831	87.56
381.057	100.56
381.282	86.56
381.507	98.56
381.733	99.56
381.958	82.56
382.184	93.56
382.409	109.56
382.634	94.56
382.86	83.56
383.085	94.56
383.31	90.56
383.535	106.56
383.761	90.56
383.986	103.56
384.211	95.56
384.436	87.56
384.662	89.56
384.887	91.56
385.112	92.56
385.337	87.56
385.562	96.56
385.787	108.56
386.013	90.56
386.238	115.56
386.463	105.56
386.688	110.56
386.913	98.56
387.138	90.56
387.363	91.56
387.588	100.56
387.813	107.56
388.038	96.56
388.263	95.56
388.488	103.56
388.713	101.56
388.938	92.56
389.163	91.56
389.387	84.56
389.612	96.56
389.837	105.56
390.062	92.56
390.287	91.56
390.512	85.56
390.736	90.56
390.961	93.56
391.186	95.56
391.411	91.56
391.636	92.56
391.86	60.56
392.085	79.56
392.31	74.56
392.534	84.56
392.759	97.56
392.984	89.56
393.208	96.56
393.433	96.56
393.658	89.56
393.882	80.56
394.107	88.56
394.331	94.56
394.556	78.56
394.78	98.56
395.005	101.56
395.229	73.56
395.454	90.56
395.678	82.56
395.903	92.56
396.127	82.56
396.352	81.56
396.576	85.56
396.801	85.56
397.025	93.56
397.249	78.56
397.474	84.56
397.698	103.56
397.922	78.56
398.147	93.56
398.371	88.56
398.595	78.56
398.82	87.56
399.044	81.56
399.268	94.56
399.492	80.56
399.717	99.56
399.941	83.56
400.165	89.56
400.389	102.56
400.613	92.56
400.837	100.56
401.062	91.56
401.286	85.56
401.51	84.56
401.734	90.56
401.958	94.56
402.182	132.56
402.406	131.56
402.63	99.56
402.854	96.56
403.078	96.56
403.302	82.56
403.526	81.56
403.75	90.56
403.974	82.56
404.198	92.56
404.422	83.56
404.645	84.56
404.869	101.56
405.093	91.56
405.317	103.56
405.541	100.56
405.765	99.56
405.988	102.56
406.212	147.56
406.436	193.56
406.66	135.56
406.883	89.56
407.107	92.56
407.331	86.56
407.555	83.56
407.778	87.56
408.002	105.56
408.226	97.56
408.449	91.56
408.673	84.56
408.896	93.56
409.12	98.56
409.344	76.56
409.567	89.56
409.791	95.56
410.014	92.56
410.238	88.56
410.461	94.56
410.685	94.56
410.908	89.56
411.132	105.56
411.355	82.56
411.578	94.56
411.802	88.56
412.025	95.56
412.249	105.56
412.472	101.56
412.695	95.56
412.919	84.56
413.142	94.56
413.365	83.56
413.589	85.56
413.812	89.56
414.035	83.56
414.258	79.56
414.482	84.56
414.705	90.56
414.928	90.56
415.151	94.56
415.374	65.56
415.597	81.56
415.821	97.56
416.044	88.56
416.267	98.56
416.49	81.56
416.713	92.56
416.936	86.56
417.159	84.56
417.382	84.56
417.605	76.56
417.828	86.56
418.051	86.56
418.274	85.56
418.497	89.56
418.72	92.56
418.943	82.56
419.166	80.56
419.389	106.56
419.611	79.56
419.834	93.56
420.057	92.56
420.28	71.56
420.503	78.56
420.726	90.56
420.948	100.56
421.171	94.56
421.394	77.56
421.617	101.56
421.839	93.56
422.062	83.56
422.285	77.56
422.507	104.56
422.73	96.56
422.953	92.56
423.175	90.56
423.398	79.56
423.621	86.56
423.843	85.56
424.066	88.56
424.288	91.56
424.511	92.56
424.733	87.56
424.956	95.56
425.178	99.56
425.401	101.56
425.623	92.56
425.846	88.56
426.068	93.56
426.291	97.56
426.513	84.56
426.735	85.56
426.958	89.56
427.18	109.56
427.402	132.56
427.625	160.56
427.847	121.56
428.069	116.56
428.292	87.56
428.514	76.56
428.736	90.56
428.958	82.56
429.181	83.56
429.403	99.56
429.625	95.56
429.847	83.56
430.069	92.56
430.292	105.56
430.514	80.56
430.736	92.56
430.958	84.56
431.18	96.56
431.402	83.56
431.624	74.56
431.846	95.56
432.068	96.56
432.29	102.56
432.512	95.56
432.734	88.56
432.956	96.56
433.178	88.56
433.4	99.56
433.622	90.56
433.844	89.56
434.066	73.56
434.287	86.56
434.509	88.56
434.731	89.56
434.953	87.56
435.175	86.56
435.397	85.56
435.618	103.56
435.84	100.56
436.062	115.56
436.284	106.56
436.505	95.56
436.727	94.56
436.949	106.56
437.17	89.56
437.392	83.56
437.614	87.56
437.835	100.56
438.057	105.56
438.278	118.56
438.5	97.56
438.721	122.56
438.943	96.56
439.165	90.56
439.386	86.56
439.608	80.56
439.829	81.56
440.05	116.56
440.272	123.56
440.493	86.56
440.715	98.56
440.936	93.56
441.158	84.56
441.379	73.56
441.6	82.56
441.822	84.56
442.043	93.56
442.264	87.56
442.486	90.56
442.707	93.56
442.928	97.56
443.149	118.56
443.371	116.56
443.592	116.56
443.813	109.56
444.034	108.56
444.255	85.56
444.476	87.56
444.698	87.56
444.919	86.56
445.14	132.56
445.361	103.56
445.582	116.56
445.803	117.56
446.024	137.56
446.245	124.56
446.466	111.56
446.687	89.56
446.908	84.56
447.129	97.56
447.35	98.56
447.571	92.56
447.792	92.56
448.013	89.56
448.234	107.56
448.455	92.56
448.675	102.56
448.896	102.56
449.117	112.56
449.338	105.56
449.559	131.56
449.779	124.56
450	100.56
450.221	88.56
450.442	92.56
450.662	87.56
450.883	100.56
451.104	106.56
451.324	94.56
451.545	89.56
451.766	90.56
451.986	80.56
452.207	93.56
452.428	98.56
452.648	93.56
452.869	104.56
453.089	104.56
453.31	104.56
453.53	108.56
453.751	96.56
453.971	97.56
454.192	88.56
454.412	89.56
454.633	80.56
454.853	84.56
455.073	92.56
455.294	91.56
455.514	83.56
455.734	86.56
455.955	77.56
456.175	84.56
456.395	81.56
456.616	84.56
456.836	79.56
457.056	93.56
457.276	73.56
457.497	86.56
457.717	82.56
457.937	71.56
458.157	80.56
458.377	96.56
458.598	100.56
458.818	135.56
459.038	131.56
459.258	118.56
459.478	90.56
459.698	86.56
459.918	85.56
460.138	84.56
460.358	80.56
460.578	94.56
460.798	88.56
461.018	93.56
461.238	84.56
461.458	82.56
461.678	95.56
461.898	82.56
462.118	89.56
462.338	91.56
462.558	88.56
462.777	86.56
462.997	81.56
463.217	74.56
463.437	92.56
463.657	85.56
463.876	87.56
464.096	90.56
464.316	84.56
464.536	95.56
464.755	105.56
464.975	113.56
465.195	139.56
465.414	140.56
465.634	99.56
465.854	81.56
466.073	92.56
466.293	87.56
466.512	89.56
466.732	82.56
466.951	93.56
467.171	96.56
467.391	103.56
467.61	103.56
467.829	90.56
468.049	97.56
468.268	102.56
468.488	80.56
468.707	84.56
468.927	95.56
469.146	90.56
469.365	79.56
469.585	71.56
469.804	84.56
470.023	98.56
470.243	80.56
470.462	74.56
470.681	92.56
470.901	93.56
471.12	97.56
471.339	93.56
471.558	84.56
471.777	90.56
471.997	87.56
472.216	98.56
472.435	112.56
472.654	99.56
472.873	83.56
473.092	78.56
473.311	92.56
473.53	74.56
473.749	86.56
473.968	96.56
474.187	98.56
474.406	96.56
474.625	89.56
474.844	76.56
475.063	84.56
475.282	85.56
475.501	89.56
475.72	99.56
475.939	84.56
476.158	83.56
476.377	85.56
476.596	86.56
476.814	96.56
477.033	101.56
477.252	87.56
477.471	78.56
477.69	80.56
477.908	76.56
478.127	81.56
478.346	76.56
478.564	89.56
478.783	93.56
479.002	98.56
479.22	92.56
479.439	110.56
479.658	116.56
479.876	96.56
480.095	91.56
480.313	84.56
480.532	87.56
480.751	85.56
480.969	106.56
481.188	150.56
481.406	135.56
481.624	94.56
481.843	101.56
482.061	92.56
482.28	96.56
482.498	86.56
482.717	71.56
482.935	96.56
483.153	88.56
483.372	88.56
483.59	81.56
483.808	77.56
484.027	85.56
484.245	93.56
484.463	94.56
484.681	99.56
484.9	99.56
485.118	96.56
485.336	96.56
485.554	94.56
485.772	113.56
485.99	109.56
486.209	113.56
486.427	102.56
486.645	96.56
486.863	106.56
487.081	100.56
487.299	76.56
487.517	99.56
487.735	92.56
487.953	85.56
488.171	95.56
488.389	104.56
488.607	91.56
488.825	92.56
489.043	83.56
489.261	95.56
489.479	79.56
489.696	83.56
489.914	81.56
490.132	88.56
490.35	78.56
490.568	69.56
490.786	87.56
491.003	86.56
491.221	93.56
491.439	102.56
491.657	84.56
491.874	86.56
492.092	96.56
492.31	102.56
492.527	92.56
492.745	103.56
492.963	85.56
493.18	78.56
493.398	90.56
493.615	77.56
493.833	97.56
494.05	79.56
494.268	94.56
494.485	70.56
494.703	72.56
494.92	93.56
495.138	89.56
495.355	80.56
495.573	105.56
495.79	98.56
496.008	102.56
496.225	87.56
496.442	102.56
496.66	96.56
496.877	94.56
497.094	83.56
497.312	94.56
497.529	98.56
497.746	90.56
497.963	84.56
498.181	89.56
498.398	87.56
498.615	103.56
498.832	104.56
499.049	93.56
499.267	104.56
499.484	92.56
499.701	95.56
499.918	97.56
500.135	89.56
500.352	80.56
500.569	92.56
500.786	90.56
501.003	78.56
501.22	95.56
501.437	86.56
501.654	94.56
501.871	117.56
502.088	94.56
502.305	89.56
502.522	86.56
502.739	93.56
502.956	83.56
503.172	72.56
503.389	88.56
503.606	101.56
503.823	111.56
504.04	102.56
504.256	87.56
504.473	86.56
504.69	98.56
504.907	90.56
505.123	79.56
505.34	102.56
505.557	89.56
505.773	87.56
505.99	83.56
506.207	87.56
506.423	77.56
506.64	94.56
506.856	106.56
507.073	87.56
507.289	88.56
507.506	91.56
507.722	82.56
507.939	102.56
508.155	96.56
508.372	89.56
508.588	111.56
508.805	84.56
509.021	88.56
509.238	94.56
509.454	106.56
509.67	97.56
509.887	107.56
510.103	140.56
510.319	185.56
510.536	672.56
510.752	2058.56
510.968	565.56
511.184	156.56
511.401	108.56
511.617	95.56
511.833	89.56
512.049	93.56
512.265	101.56
512.481	85.56
512.698	89.56
512.914	90.56
513.13	89.56
513.346	101.56
513.562	97.56
513.778	101.56
513.994	82.56
514.21	96.56
514.426	115.56
514.642	121.56
514.858	106.56
515.074	149.56
515.29	377.56
515.506	1256.56
515.721	444.56
515.937	140.56
516.153	90.56
516.369	100.56
516.585	95.56
