Data from Uncirc_1987_H10_HRD10591_00014.txt Node
Date: Wed Jan 03 12:08:51 EST 2024
User: Yrep
Spectrometer: HR+D1059
Trigger mode: 1
Integration Time (sec): 1.000000E-1
Scans to average: 1
Electric dark correction enabled: true
Nonlinearity correction enabled: false
Boxcar width: 0
XAxis mode: Wavelengths
Number of Pixels in Spectrum: 2048
>>>>>Begin Spectral Data<<<<<
223.165	-16.62
223.4	-16.62
223.635	-16.62
223.869	-20.62
224.104	-13.62
224.338	-27.62
224.573	-38.62
224.808	-10.62
225.042	1.38
225.277	-9.62
225.511	4.38
225.746	3.38
225.98	4.38
226.215	19.38
226.449	11.38
226.683	24.38
226.918	26.38
227.152	42.38
227.387	36.38
227.621	35.38
227.856	65.38
228.09	47.38
228.324	55.38
228.559	50.38
228.793	59.38
229.027	70.38
229.262	74.38
229.496	76.38
229.73	90.38
229.964	83.38
230.199	73.38
230.433	76.38
230.667	74.38
230.901	80.38
231.136	82.38
231.37	67.38
231.604	82.38
231.838	70.38
232.072	82.38
232.306	76.38
232.541	90.38
232.775	86.38
233.009	67.38
233.243	90.38
233.477	70.38
233.711	76.38
233.945	91.38
234.179	93.38
234.413	86.38
234.647	94.38
234.881	75.38
235.115	76.38
235.349	92.38
235.583	81.38
235.817	74.38
236.051	80.38
236.285	73.38
236.519	69.38
236.753	83.38
236.987	78.38
237.221	74.38
237.455	82.38
237.689	77.38
237.922	74.38
238.156	54.38
238.39	76.38
238.624	82.38
238.858	86.38
239.091	94.38
239.325	87.38
239.559	72.38
239.793	77.38
240.027	92.38
240.26	72.38
240.494	81.38
240.728	78.38
240.961	80.38
241.195	93.38
241.429	91.38
241.662	70.38
241.896	90.38
242.13	75.38
242.363	84.38
242.597	56.38
242.83	73.38
243.064	65.38
243.298	60.38
243.531	84.38
243.765	76.38
243.998	99.38
244.232	79.38
244.465	74.38
244.699	77.38
244.932	67.38
245.166	79.38
245.399	79.38
245.633	76.38
245.866	85.38
246.099	78.38
246.333	86.38
246.566	89.38
246.8	95.38
247.033	80.38
247.266	83.38
247.5	82.38
247.733	72.38
247.966	82.38
248.2	82.38
248.433	96.38
248.666	86.38
248.899	75.38
249.133	79.38
249.366	86.38
249.599	95.38
249.832	87.38
250.066	91.38
250.299	83.38
250.532	78.38
250.765	89.38
250.998	72.38
251.231	84.38
251.465	84.38
251.698	65.38
251.931	88.38
252.164	82.38
252.397	98.38
252.63	77.38
252.863	74.38
253.096	84.38
253.329	82.38
253.562	70.38
253.795	85.38
254.028	86.38
254.261	82.38
254.494	63.38
254.727	97.38
254.96	95.38
255.193	80.38
255.426	66.38
255.659	71.38
255.892	88.38
256.124	85.38
256.357	82.38
256.59	100.38
256.823	84.38
257.056	88.38
257.289	68.38
257.521	97.38
257.754	77.38
257.987	88.38
258.22	96.38
258.452	85.38
258.685	67.38
258.918	73.38
259.151	88.38
259.383	64.38
259.616	79.38
259.849	70.38
260.081	71.38
260.314	86.38
260.547	86.38
260.779	84.38
261.012	86.38
261.244	86.38
261.477	89.38
261.71	78.38
261.942	92.38
262.175	88.38
262.407	86.38
262.64	77.38
262.872	85.38
263.105	84.38
263.337	87.38
263.57	80.38
263.802	83.38
264.035	86.38
264.267	76.38
264.499	68.38
264.732	97.38
264.964	88.38
265.197	76.38
265.429	74.38
265.661	73.38
265.894	72.38
266.126	70.38
266.358	90.38
266.591	89.38
266.823	94.38
267.055	87.38
267.287	81.38
267.52	93.38
267.752	89.38
267.984	91.38
268.216	92.38
268.448	96.38
268.681	82.38
268.913	98.38
269.145	89.38
269.377	80.38
269.609	86.38
269.841	93.38
270.073	82.38
270.306	80.38
270.538	90.38
270.77	95.38
271.002	73.38
271.234	89.38
271.466	78.38
271.698	83.38
271.93	88.38
272.162	90.38
272.394	99.38
272.626	82.38
272.858	93.38
273.09	70.38
273.322	75.38
273.553	81.38
273.785	88.38
274.017	92.38
274.249	96.38
274.481	86.38
274.713	100.38
274.945	84.38
275.176	85.38
275.408	81.38
275.64	90.38
275.872	74.38
276.104	94.38
276.335	83.38
276.567	87.38
276.799	94.38
277.031	83.38
277.262	95.38
277.494	97.38
277.726	79.38
277.957	90.38
278.189	85.38
278.421	75.38
278.652	98.38
278.884	99.38
279.115	90.38
279.347	81.38
279.579	91.38
279.81	72.38
280.042	85.38
280.273	85.38
280.505	94.38
280.736	94.38
280.968	88.38
281.199	89.38
281.431	91.38
281.662	99.38
281.894	83.38
282.125	91.38
282.356	110.38
282.588	113.38
282.819	107.38
283.051	99.38
283.282	93.38
283.513	92.38
283.745	87.38
283.976	97.38
284.207	80.38
284.439	75.38
284.67	82.38
284.901	90.38
285.132	88.38
285.364	77.38
285.595	87.38
285.826	87.38
286.057	80.38
286.288	87.38
286.52	82.38
286.751	80.38
286.982	89.38
287.213	86.38
287.444	102.38
287.675	94.38
287.906	83.38
288.138	88.38
288.369	71.38
288.6	92.38
288.831	78.38
289.062	90.38
289.293	100.38
289.524	93.38
289.755	84.38
289.986	90.38
290.217	86.38
290.448	88.38
290.679	84.38
290.91	100.38
291.141	76.38
291.371	89.38
291.602	86.38
291.833	79.38
292.064	97.38
292.295	80.38
292.526	79.38
292.757	83.38
292.987	90.38
293.218	106.38
293.449	99.38
293.68	84.38
293.91	82.38
294.141	98.38
294.372	90.38
294.603	86.38
294.833	93.38
295.064	93.38
295.295	92.38
295.525	94.38
295.756	104.38
295.987	109.38
296.217	130.38
296.448	112.38
296.679	89.38
296.909	84.38
297.14	91.38
297.37	112.38
297.601	100.38
297.831	96.38
298.062	91.38
298.292	83.38
298.523	80.38
298.753	85.38
298.984	77.38
299.214	92.38
299.445	82.38
299.675	106.38
299.905	86.38
300.136	87.38
300.366	80.38
300.597	96.38
300.827	89.38
301.057	103.38
301.288	95.38
301.518	95.38
301.748	87.38
301.979	87.38
302.209	76.38
302.439	92.38
302.669	86.38
302.9	100.38
303.13	98.38
303.36	97.38
303.59	89.38
303.82	98.38
304.051	92.38
304.281	69.38
304.511	94.38
304.741	89.38
304.971	93.38
305.201	80.38
305.431	99.38
305.661	88.38
305.891	104.38
306.121	91.38
306.352	100.38
306.582	96.38
306.812	92.38
307.042	91.38
307.272	76.38
307.502	96.38
307.731	88.38
307.961	93.38
308.191	80.38
308.421	90.38
308.651	83.38
308.881	101.38
309.111	83.38
309.341	102.38
309.571	93.38
309.8	98.38
310.03	88.38
310.26	96.38
310.49	97.38
310.72	93.38
310.949	80.38
311.179	100.38
311.409	95.38
311.639	90.38
311.868	99.38
312.098	87.38
312.328	105.38
312.557	96.38
312.787	106.38
313.017	101.38
313.246	102.38
313.476	84.38
313.706	89.38
313.935	89.38
314.165	102.38
314.394	113.38
314.624	83.38
314.853	108.38
315.083	103.38
315.312	89.38
315.542	103.38
315.771	98.38
316.001	74.38
316.23	75.38
316.46	93.38
316.689	95.38
316.919	96.38
317.148	89.38
317.377	92.38
317.607	91.38
317.836	104.38
318.065	93.38
318.295	76.38
318.524	87.38
318.753	87.38
318.983	99.38
319.212	100.38
319.441	102.38
319.67	110.38
319.9	89.38
320.129	90.38
320.358	80.38
320.587	91.38
320.816	88.38
321.046	99.38
321.275	96.38
321.504	86.38
321.733	89.38
321.962	104.38
322.191	101.38
322.42	107.38
322.649	107.38
322.878	97.38
323.108	108.38
323.337	110.38
323.566	132.38
323.795	138.38
324.024	191.38
324.253	320.38
324.482	649.38
324.71	1375.38
324.939	1826.38
325.168	673.38
325.397	224.38
325.626	139.38
325.855	112.38
326.084	119.38
326.313	129.38
326.542	155.38
326.77	202.38
326.999	395.38
327.228	771.38
327.457	1415.38
327.686	1129.38
327.914	320.38
328.143	174.38
328.372	129.38
328.6	101.38
328.829	101.38
329.058	123.38
329.287	113.38
329.515	97.38
329.744	115.38
329.972	88.38
330.201	104.38
330.43	106.38
330.658	109.38
330.887	120.38
331.115	97.38
331.344	99.38
331.572	91.38
331.801	99.38
332.03	102.38
332.258	86.38
332.486	100.38
332.715	100.38
332.943	98.38
333.172	90.38
333.4	103.38
333.629	94.38
333.857	104.38
334.085	103.38
334.314	97.38
334.542	100.38
334.771	101.38
334.999	101.38
335.227	94.38
335.455	94.38
335.684	85.38
335.912	99.38
336.14	92.38
336.369	82.38
336.597	84.38
336.825	100.38
337.053	106.38
337.281	99.38
337.51	81.38
337.738	90.38
337.966	105.38
338.194	90.38
338.422	83.38
338.65	105.38
338.878	87.38
339.106	97.38
339.334	104.38
339.562	88.38
339.79	92.38
340.018	82.38
340.246	89.38
340.474	95.38
340.702	84.38
340.93	96.38
341.158	85.38
341.386	98.38
341.614	107.38
341.842	96.38
342.07	92.38
342.298	91.38
342.526	86.38
342.754	102.38
342.981	99.38
343.209	90.38
343.437	94.38
343.665	90.38
343.893	91.38
344.12	105.38
344.348	86.38
344.576	89.38
344.804	100.38
345.031	91.38
345.259	96.38
345.487	82.38
345.714	103.38
345.942	85.38
346.17	90.38
346.397	96.38
346.625	105.38
346.853	90.38
347.08	111.38
347.308	91.38
347.535	91.38
347.763	105.38
347.99	98.38
348.218	76.38
348.445	104.38
348.673	89.38
348.9	101.38
349.128	96.38
349.355	109.38
349.583	110.38
349.81	103.38
350.037	88.38
350.265	88.38
350.492	99.38
350.72	90.38
350.947	96.38
351.174	110.38
351.402	110.38
351.629	91.38
351.856	102.38
352.083	101.38
352.311	108.38
352.538	100.38
352.765	91.38
352.992	114.38
353.22	119.38
353.447	110.38
353.674	106.38
353.901	111.38
354.128	103.38
354.355	100.38
354.583	92.38
354.81	104.38
355.037	93.38
355.264	104.38
355.491	80.38
355.718	90.38
355.945	95.38
356.172	98.38
356.399	99.38
356.626	92.38
356.853	81.38
357.08	108.38
357.307	94.38
357.534	86.38
357.761	84.38
357.988	93.38
358.215	92.38
358.441	102.38
358.668	96.38
358.895	96.38
359.122	87.38
359.349	97.38
359.576	98.38
359.802	91.38
360.029	108.38
360.256	92.38
360.483	96.38
360.709	90.38
360.936	93.38
361.163	92.38
361.39	83.38
361.616	84.38
361.843	98.38
362.07	90.38
362.296	88.38
362.523	100.38
362.749	80.38
362.976	90.38
363.203	98.38
363.429	79.38
363.656	106.38
363.882	96.38
364.109	87.38
364.335	78.38
364.562	93.38
364.788	94.38
365.015	84.38
365.241	90.38
365.468	95.38
365.694	114.38
365.92	98.38
366.147	90.38
366.373	93.38
366.599	85.38
366.826	84.38
367.052	96.38
367.278	95.38
367.505	87.38
367.731	106.38
367.957	92.38
368.184	102.38
368.41	111.38
368.636	96.38
368.862	105.38
369.089	94.38
369.315	96.38
369.541	110.38
369.767	99.38
369.993	90.38
370.219	83.38
370.445	70.38
370.672	90.38
370.898	83.38
371.124	78.38
371.35	83.38
371.576	91.38
371.802	84.38
372.028	100.38
372.254	99.38
372.48	95.38
372.706	95.38
372.932	103.38
373.158	88.38
373.384	85.38
373.61	86.38
373.835	88.38
374.061	102.38
374.287	110.38
374.513	85.38
374.739	86.38
374.965	98.38
375.191	97.38
375.416	91.38
375.642	82.38
375.868	102.38
376.094	89.38
376.319	90.38
376.545	88.38
376.771	84.38
376.997	90.38
377.222	91.38
377.448	95.38
377.674	93.38
377.899	87.38
378.125	87.38
378.35	75.38
378.576	86.38
378.802	86.38
379.027	88.38
379.253	92.38
379.478	83.38
379.704	86.38
379.929	99.38
380.155	95.38
380.38	93.38
380.606	95.38
380.831	97.38
381.057	95.38
381.282	96.38
381.507	87.38
381.733	100.38
381.958	100.38
382.184	104.38
382.409	86.38
382.634	89.38
382.86	109.38
383.085	112.38
383.31	105.38
383.535	98.38
383.761	110.38
383.986	98.38
384.211	84.38
384.436	89.38
384.662	106.38
384.887	108.38
385.112	106.38
385.337	108.38
385.562	99.38
385.787	101.38
386.013	95.38
386.238	120.38
386.463	105.38
386.688	116.38
386.913	104.38
387.138	109.38
387.363	104.38
387.588	112.38
387.813	103.38
388.038	103.38
388.263	107.38
388.488	107.38
388.713	95.38
388.938	93.38
389.163	93.38
389.387	87.38
389.612	96.38
389.837	92.38
390.062	99.38
390.287	97.38
390.512	110.38
390.736	96.38
390.961	82.38
391.186	80.38
391.411	90.38
391.636	91.38
391.86	92.38
392.085	92.38
392.31	90.38
392.534	97.38
392.759	88.38
392.984	98.38
393.208	99.38
393.433	94.38
393.658	97.38
393.882	88.38
394.107	92.38
394.331	74.38
394.556	80.38
394.78	82.38
395.005	92.38
395.229	87.38
395.454	89.38
395.678	83.38
395.903	91.38
396.127	78.38
396.352	75.38
396.576	85.38
396.801	94.38
397.025	99.38
397.249	92.38
397.474	73.38
397.698	80.38
397.922	98.38
398.147	89.38
398.371	86.38
398.595	82.38
398.82	86.38
399.044	95.38
399.268	94.38
399.492	90.38
399.717	100.38
399.941	91.38
400.165	67.38
400.389	100.38
400.613	100.38
400.837	84.38
401.062	85.38
401.286	88.38
401.51	96.38
401.734	94.38
401.958	105.38
402.182	107.38
402.406	124.38
402.63	102.38
402.854	91.38
403.078	86.38
403.302	98.38
403.526	88.38
403.75	102.38
403.974	79.38
404.198	91.38
404.422	81.38
404.645	73.38
404.869	90.38
405.093	103.38
405.317	92.38
405.541	104.38
405.765	108.38
405.988	96.38
406.212	137.38
406.436	186.38
406.66	114.38
406.883	80.38
407.107	91.38
407.331	99.38
407.555	115.38
407.778	100.38
408.002	96.38
408.226	98.38
408.449	84.38
408.673	88.38
408.896	84.38
409.12	94.38
409.344	88.38
409.567	99.38
409.791	98.38
410.014	97.38
410.238	93.38
410.461	103.38
410.685	95.38
410.908	85.38
411.132	96.38
411.355	102.38
411.578	105.38
411.802	83.38
412.025	88.38
412.249	86.38
412.472	97.38
412.695	111.38
412.919	105.38
413.142	78.38
413.365	89.38
413.589	99.38
413.812	92.38
414.035	78.38
414.258	83.38
414.482	90.38
414.705	108.38
414.928	104.38
415.151	98.38
415.374	101.38
415.597	82.38
415.821	94.38
416.044	102.38
416.267	99.38
416.49	96.38
416.713	88.38
416.936	84.38
417.159	90.38
417.382	91.38
417.605	84.38
417.828	77.38
418.051	90.38
418.274	99.38
418.497	92.38
418.72	86.38
418.943	94.38
419.166	97.38
419.389	87.38
419.611	96.38
419.834	90.38
420.057	94.38
420.28	88.38
420.503	98.38
420.726	86.38
420.948	97.38
421.171	96.38
421.394	96.38
421.617	90.38
421.839	87.38
422.062	95.38
422.285	97.38
422.507	99.38
422.73	98.38
422.953	96.38
423.175	83.38
423.398	100.38
423.621	89.38
423.843	96.38
424.066	92.38
424.288	82.38
424.511	108.38
424.733	88.38
424.956	98.38
425.178	93.38
425.401	100.38
425.623	86.38
425.846	88.38
426.068	82.38
426.291	97.38
426.513	92.38
426.735	91.38
426.958	82.38
427.18	110.38
427.402	128.38
427.625	124.38
427.847	116.38
428.069	98.38
428.292	109.38
428.514	85.38
428.736	78.38
428.958	94.38
429.181	88.38
429.403	95.38
429.625	88.38
429.847	94.38
430.069	90.38
430.292	94.38
430.514	97.38
430.736	90.38
430.958	90.38
431.18	82.38
431.402	83.38
431.624	86.38
431.846	82.38
432.068	96.38
432.29	91.38
432.512	92.38
432.734	87.38
432.956	97.38
433.178	108.38
433.4	84.38
433.622	86.38
433.844	88.38
434.066	94.38
434.287	82.38
434.509	86.38
434.731	83.38
434.953	102.38
435.175	97.38
435.397	75.38
435.618	80.38
435.84	94.38
436.062	121.38
436.284	101.38
436.505	95.38
436.727	100.38
436.949	106.38
437.17	94.38
437.392	104.38
437.614	100.38
437.835	114.38
438.057	100.38
438.278	109.38
438.5	100.38
438.721	104.38
438.943	86.38
439.165	90.38
439.386	81.38
439.608	99.38
439.829	88.38
440.05	115.38
440.272	121.38
440.493	96.38
440.715	83.38
440.936	91.38
441.158	82.38
441.379	82.38
441.6	91.38
441.822	99.38
442.043	90.38
442.264	87.38
442.486	82.38
442.707	75.38
442.928	101.38
443.149	119.38
443.371	114.38
443.592	107.38
443.813	91.38
444.034	103.38
444.255	93.38
444.476	94.38
444.698	82.38
444.919	90.38
445.14	128.38
445.361	117.38
445.582	109.38
445.803	137.38
446.024	110.38
446.245	132.38
446.466	116.38
446.687	89.38
446.908	82.38
447.129	88.38
447.35	96.38
447.571	80.38
447.792	92.38
448.013	98.38
448.234	98.38
448.455	102.38
448.675	99.38
448.896	106.38
449.117	99.38
449.338	104.38
449.559	114.38
449.779	125.38
450	91.38
450.221	78.38
450.442	98.38
450.662	92.38
450.883	100.38
451.104	104.38
451.324	78.38
451.545	96.38
451.766	101.38
451.986	86.38
452.207	105.38
452.428	97.38
452.648	100.38
452.869	102.38
453.089	95.38
453.31	100.38
453.53	102.38
453.751	100.38
453.971	96.38
454.192	87.38
454.412	89.38
454.633	79.38
454.853	94.38
455.073	86.38
455.294	94.38
455.514	89.38
455.734	88.38
455.955	75.38
456.175	76.38
456.395	75.38
456.616	93.38
456.836	75.38
457.056	102.38
457.276	73.38
457.497	85.38
457.717	85.38
457.937	99.38
458.157	89.38
458.377	84.38
458.598	96.38
458.818	129.38
459.038	147.38
459.258	112.38
459.478	86.38
459.698	94.38
459.918	90.38
460.138	86.38
460.358	91.38
460.578	96.38
460.798	85.38
461.018	90.38
461.238	88.38
461.458	80.38
461.678	91.38
461.898	91.38
462.118	82.38
462.338	86.38
462.558	90.38
462.777	87.38
462.997	82.38
463.217	90.38
463.437	79.38
463.657	90.38
463.876	90.38
464.096	92.38
464.316	89.38
464.536	94.38
464.755	87.38
464.975	94.38
465.195	133.38
465.414	139.38
465.634	108.38
465.854	92.38
466.073	95.38
466.293	81.38
466.512	85.38
466.732	77.38
466.951	81.38
467.171	91.38
467.391	96.38
467.61	80.38
467.829	94.38
468.049	89.38
468.268	90.38
468.488	86.38
468.707	72.38
468.927	87.38
469.146	73.38
469.365	86.38
469.585	103.38
469.804	104.38
470.023	87.38
470.243	90.38
470.462	104.38
470.681	97.38
470.901	95.38
471.12	78.38
471.339	84.38
471.558	82.38
471.777	98.38
471.997	87.38
472.216	95.38
472.435	102.38
472.654	82.38
472.873	95.38
473.092	107.38
473.311	91.38
473.53	92.38
473.749	87.38
473.968	89.38
474.187	94.38
474.406	75.38
474.625	96.38
474.844	97.38
475.063	92.38
475.282	97.38
475.501	96.38
475.72	91.38
475.939	81.38
476.158	84.38
476.377	80.38
476.596	88.38
476.814	88.38
477.033	92.38
477.252	94.38
477.471	80.38
477.69	95.38
477.908	72.38
478.127	94.38
478.346	88.38
478.564	99.38
478.783	94.38
479.002	95.38
479.22	100.38
479.439	104.38
479.658	108.38
479.876	107.38
480.095	78.38
480.313	99.38
480.532	90.38
480.751	80.38
480.969	89.38
481.188	106.38
481.406	91.38
481.624	89.38
481.843	89.38
482.061	85.38
482.28	86.38
482.498	91.38
482.717	91.38
482.935	96.38
483.153	82.38
483.372	99.38
483.59	90.38
483.808	102.38
484.027	80.38
484.245	89.38
484.463	108.38
484.681	99.38
484.9	84.38
485.118	98.38
485.336	100.38
485.554	95.38
485.772	99.38
485.99	105.38
486.209	76.38
486.427	90.38
486.645	104.38
486.863	115.38
487.081	110.38
487.299	89.38
487.517	95.38
487.735	102.38
487.953	92.38
488.171	95.38
488.389	97.38
488.607	93.38
488.825	85.38
489.043	68.38
489.261	97.38
489.479	88.38
489.696	82.38
489.914	90.38
490.132	94.38
490.35	98.38
490.568	89.38
490.786	80.38
491.003	87.38
491.221	95.38
491.439	96.38
491.657	102.38
491.874	93.38
492.092	94.38
492.31	97.38
492.527	98.38
492.745	84.38
492.963	102.38
493.18	86.38
493.398	92.38
493.615	94.38
493.833	101.38
494.05	80.38
494.268	101.38
494.485	100.38
494.703	96.38
494.92	97.38
495.138	82.38
495.355	98.38
495.573	93.38
495.79	75.38
496.008	93.38
496.225	82.38
496.442	103.38
496.66	82.38
496.877	94.38
497.094	104.38
497.312	90.38
497.529	86.38
497.746	100.38
497.963	90.38
498.181	91.38
498.398	97.38
498.615	96.38
498.832	100.38
499.049	100.38
499.267	106.38
499.484	90.38
499.701	92.38
499.918	86.38
500.135	92.38
500.352	87.38
500.569	74.38
500.786	98.38
501.003	95.38
501.22	80.38
501.437	91.38
501.654	102.38
501.871	103.38
502.088	83.38
502.305	87.38
502.522	94.38
502.739	82.38
502.956	93.38
503.172	99.38
503.389	93.38
503.606	97.38
503.823	87.38
504.04	82.38
504.256	92.38
504.473	86.38
504.69	85.38
504.907	98.38
505.123	90.38
505.34	88.38
505.557	87.38
505.773	82.38
505.99	102.38
506.207	91.38
506.423	91.38
506.64	108.38
506.856	94.38
507.073	97.38
507.289	94.38
507.506	109.38
507.722	98.38
507.939	102.38
508.155	103.38
508.372	91.38
508.588	67.38
508.805	105.38
509.021	82.38
509.238	114.38
509.454	104.38
509.67	114.38
509.887	107.38
510.103	121.38
510.319	184.38
510.536	578.38
510.752	1748.38
510.968	495.38
511.184	137.38
511.401	102.38
511.617	96.38
511.833	113.38
512.049	75.38
512.265	78.38
512.481	86.38
512.698	89.38
512.914	85.38
513.13	87.38
513.346	92.38
513.562	110.38
513.778	101.38
513.994	92.38
514.21	98.38
514.426	107.38
514.642	118.38
514.858	118.38
515.074	122.38
515.29	338.38
515.506	1062.38
515.721	410.38
515.937	114.38
