Data from Uncirc_1987_H10_HRD10591_00004.txt Node
Date: Wed Jan 03 12:08:49 EST 2024
User: Yrep
Spectrometer: HR+D1059
Trigger mode: 1
Integration Time (sec): 1.000000E-1
Scans to average: 1
Electric dark correction enabled: true
Nonlinearity correction enabled: false
Boxcar width: 0
XAxis mode: Wavelengths
Number of Pixels in Spectrum: 2048
>>>>>Begin Spectral Data<<<<<
223.165	-31.62
223.4	-31.62
223.635	-31.62
223.869	-10.62
224.104	-8.62
224.338	-24.62
224.573	-17.62
224.808	1.38
225.042	-24.62
225.277	12.38
225.511	4.38
225.746	-4.62
225.98	12.38
226.215	16.38
226.449	10.38
226.683	11.38
226.918	30.38
227.152	23.38
227.387	34.38
227.621	52.38
227.856	41.38
228.09	59.38
228.324	61.38
228.559	48.38
228.793	53.38
229.027	79.38
229.262	66.38
229.496	68.38
229.73	81.38
229.964	85.38
230.199	63.38
230.433	83.38
230.667	88.38
230.901	83.38
231.136	87.38
231.37	80.38
231.604	68.38
231.838	97.38
232.072	69.38
232.306	83.38
232.541	84.38
232.775	87.38
233.009	93.38
233.243	90.38
233.477	87.38
233.711	86.38
233.945	100.38
234.179	75.38
234.413	92.38
234.647	80.38
234.881	91.38
235.115	77.38
235.349	75.38
235.583	88.38
235.817	83.38
236.051	90.38
236.285	96.38
236.519	78.38
236.753	109.38
236.987	82.38
237.221	84.38
237.455	85.38
237.689	83.38
237.922	82.38
238.156	80.38
238.39	77.38
238.624	79.38
238.858	81.38
239.091	77.38
239.325	85.38
239.559	95.38
239.793	71.38
240.027	85.38
240.26	85.38
240.494	88.38
240.728	76.38
240.961	87.38
241.195	87.38
241.429	75.38
241.662	90.38
241.896	69.38
242.13	57.38
242.363	77.38
242.597	83.38
242.83	83.38
243.064	87.38
243.298	93.38
243.531	89.38
243.765	84.38
243.998	98.38
244.232	72.38
244.465	79.38
244.699	88.38
244.932	90.38
245.166	69.38
245.399	77.38
245.633	89.38
245.866	95.38
246.099	84.38
246.333	85.38
246.566	87.38
246.8	70.38
247.033	70.38
247.266	80.38
247.5	83.38
247.733	75.38
247.966	79.38
248.2	96.38
248.433	96.38
248.666	73.38
248.899	107.38
249.133	85.38
249.366	105.38
249.599	100.38
249.832	86.38
250.066	92.38
250.299	86.38
250.532	81.38
250.765	99.38
250.998	79.38
251.231	87.38
251.465	85.38
251.698	93.38
251.931	82.38
252.164	86.38
252.397	86.38
252.63	87.38
252.863	86.38
253.096	83.38
253.329	81.38
253.562	90.38
253.795	80.38
254.028	93.38
254.261	87.38
254.494	74.38
254.727	85.38
254.96	98.38
255.193	89.38
255.426	87.38
255.659	77.38
255.892	99.38
256.124	90.38
256.357	92.38
256.59	94.38
256.823	87.38
257.056	92.38
257.289	97.38
257.521	103.38
257.754	92.38
257.987	97.38
258.22	91.38
258.452	75.38
258.685	85.38
258.918	108.38
259.151	87.38
259.383	90.38
259.616	83.38
259.849	89.38
260.081	79.38
260.314	76.38
260.547	81.38
260.779	79.38
261.012	77.38
261.244	82.38
261.477	90.38
261.71	96.38
261.942	107.38
262.175	115.38
262.407	85.38
262.64	96.38
262.872	93.38
263.105	92.38
263.337	86.38
263.57	102.38
263.802	84.38
264.035	77.38
264.267	90.38
264.499	83.38
264.732	105.38
264.964	93.38
265.197	92.38
265.429	96.38
265.661	101.38
265.894	103.38
266.126	81.38
266.358	92.38
266.591	89.38
266.823	77.38
267.055	94.38
267.287	101.38
267.52	89.38
267.752	94.38
267.984	83.38
268.216	83.38
268.448	93.38
268.681	80.38
268.913	87.38
269.145	94.38
269.377	95.38
269.609	86.38
269.841	92.38
270.073	84.38
270.306	104.38
270.538	91.38
270.77	77.38
271.002	82.38
271.234	87.38
271.466	103.38
271.698	92.38
271.93	95.38
272.162	103.38
272.394	91.38
272.626	86.38
272.858	88.38
273.09	94.38
273.322	99.38
273.553	93.38
273.785	90.38
274.017	89.38
274.249	94.38
274.481	92.38
274.713	86.38
274.945	92.38
275.176	96.38
275.408	95.38
275.64	96.38
275.872	96.38
276.104	90.38
276.335	95.38
276.567	89.38
276.799	100.38
277.031	110.38
277.262	95.38
277.494	89.38
277.726	93.38
277.957	89.38
278.189	89.38
278.421	93.38
278.652	85.38
278.884	80.38
279.115	92.38
279.347	100.38
279.579	81.38
279.81	89.38
280.042	96.38
280.273	95.38
280.505	99.38
280.736	94.38
280.968	82.38
281.199	84.38
281.431	80.38
281.662	103.38
281.894	92.38
282.125	106.38
282.356	125.38
282.588	135.38
282.819	108.38
283.051	78.38
283.282	97.38
283.513	95.38
283.745	97.38
283.976	85.38
284.207	101.38
284.439	97.38
284.67	79.38
284.901	87.38
285.132	97.38
285.364	79.38
285.595	96.38
285.826	87.38
286.057	90.38
286.288	97.38
286.52	92.38
286.751	91.38
286.982	94.38
287.213	100.38
287.444	93.38
287.675	99.38
287.906	97.38
288.138	90.38
288.369	108.38
288.6	101.38
288.831	91.38
289.062	94.38
289.293	104.38
289.524	89.38
289.755	91.38
289.986	81.38
290.217	90.38
290.448	89.38
290.679	96.38
290.91	92.38
291.141	97.38
291.371	97.38
291.602	93.38
291.833	95.38
292.064	85.38
292.295	95.38
292.526	94.38
292.757	94.38
292.987	81.38
293.218	90.38
293.449	90.38
293.68	101.38
293.91	83.38
294.141	92.38
294.372	87.38
294.603	93.38
294.833	94.38
295.064	106.38
295.295	103.38
295.525	104.38
295.756	97.38
295.987	110.38
296.217	128.38
296.448	104.38
296.679	101.38
296.909	91.38
297.14	111.38
297.37	103.38
297.601	82.38
297.831	89.38
298.062	96.38
298.292	85.38
298.523	100.38
298.753	91.38
298.984	99.38
299.214	88.38
299.445	89.38
299.675	94.38
299.905	111.38
300.136	103.38
300.366	84.38
300.597	87.38
300.827	104.38
301.057	93.38
301.288	99.38
301.518	117.38
301.748	96.38
301.979	100.38
302.209	98.38
302.439	105.38
302.669	100.38
302.9	103.38
303.13	93.38
303.36	101.38
303.59	107.38
303.82	108.38
304.051	99.38
304.281	88.38
304.511	112.38
304.741	89.38
304.971	78.38
305.201	87.38
305.431	94.38
305.661	95.38
305.891	84.38
306.121	103.38
306.352	113.38
306.582	91.38
306.812	91.38
307.042	93.38
307.272	103.38
307.502	93.38
307.731	93.38
307.961	93.38
308.191	104.38
308.421	91.38
308.651	102.38
308.881	95.38
309.111	99.38
309.341	106.38
309.571	80.38
309.8	103.38
310.03	94.38
310.26	103.38
310.49	106.38
310.72	110.38
310.949	109.38
311.179	100.38
311.409	97.38
311.639	89.38
311.868	103.38
312.098	107.38
312.328	95.38
312.557	96.38
312.787	101.38
313.017	99.38
313.246	101.38
313.476	88.38
313.706	91.38
313.935	88.38
314.165	113.38
314.394	103.38
314.624	100.38
314.853	105.38
315.083	92.38
315.312	89.38
315.542	88.38
315.771	92.38
316.001	100.38
316.23	104.38
316.46	101.38
316.689	92.38
316.919	88.38
317.148	91.38
317.377	103.38
317.607	98.38
317.836	97.38
318.065	91.38
318.295	113.38
318.524	99.38
318.753	103.38
318.983	109.38
319.212	103.38
319.441	105.38
319.67	97.38
319.9	104.38
320.129	103.38
320.358	99.38
320.587	101.38
320.816	95.38
321.046	98.38
321.275	113.38
321.504	108.38
321.733	108.38
321.962	86.38
322.191	91.38
322.42	95.38
322.649	124.38
322.878	109.38
323.108	114.38
323.337	113.38
323.566	115.38
323.795	149.38
324.024	182.38
324.253	366.38
324.482	777.38
324.71	1542.38
324.939	2000.38
325.168	749.38
325.397	221.38
325.626	144.38
325.855	128.38
326.084	125.38
326.313	136.38
326.542	154.38
326.77	209.38
326.999	404.38
327.228	896.38
327.457	1555.38
327.686	1279.38
327.914	346.38
328.143	174.38
328.372	137.38
328.6	120.38
328.829	122.38
329.058	121.38
329.287	116.38
329.515	105.38
329.744	103.38
329.972	103.38
330.201	109.38
330.43	116.38
330.658	113.38
330.887	136.38
331.115	125.38
331.344	113.38
331.572	103.38
331.801	99.38
332.03	107.38
332.258	115.38
332.486	114.38
332.715	105.38
332.943	97.38
333.172	101.38
333.4	80.38
333.629	102.38
333.857	100.38
334.085	111.38
334.314	105.38
334.542	97.38
334.771	99.38
334.999	88.38
335.227	97.38
335.455	88.38
335.684	101.38
335.912	118.38
336.14	112.38
336.369	111.38
336.597	97.38
336.825	107.38
337.053	97.38
337.281	101.38
337.51	71.38
337.738	110.38
337.966	92.38
338.194	98.38
338.422	111.38
338.65	111.38
338.878	89.38
339.106	105.38
339.334	93.38
339.562	93.38
339.79	98.38
340.018	107.38
340.246	103.38
340.474	96.38
340.702	107.38
340.93	112.38
341.158	84.38
341.386	96.38
341.614	97.38
341.842	105.38
342.07	94.38
342.298	89.38
342.526	88.38
342.754	93.38
342.981	98.38
343.209	94.38
343.437	105.38
343.665	94.38
343.893	91.38
344.12	102.38
344.348	93.38
344.576	94.38
344.804	104.38
345.031	98.38
345.259	103.38
345.487	103.38
345.714	81.38
345.942	105.38
346.17	94.38
346.397	88.38
346.625	89.38
346.853	90.38
347.08	94.38
347.308	99.38
347.535	90.38
347.763	104.38
347.99	114.38
348.218	102.38
348.445	107.38
348.673	104.38
348.9	112.38
349.128	110.38
349.355	125.38
349.583	101.38
349.81	108.38
350.037	98.38
350.265	107.38
350.492	104.38
350.72	109.38
350.947	89.38
351.174	97.38
351.402	103.38
351.629	88.38
351.856	99.38
352.083	111.38
352.311	113.38
352.538	107.38
352.765	121.38
352.992	110.38
353.22	115.38
353.447	120.38
353.674	117.38
353.901	107.38
354.128	112.38
354.355	96.38
354.583	103.38
354.81	103.38
355.037	100.38
355.264	99.38
355.491	93.38
355.718	86.38
355.945	107.38
356.172	104.38
356.399	98.38
356.626	100.38
356.853	115.38
357.08	92.38
357.307	108.38
357.534	99.38
357.761	87.38
357.988	96.38
358.215	93.38
358.441	95.38
358.668	110.38
358.895	97.38
359.122	80.38
359.349	101.38
359.576	101.38
359.802	91.38
360.029	103.38
360.256	116.38
360.483	99.38
360.709	101.38
360.936	95.38
361.163	90.38
361.39	108.38
361.616	101.38
361.843	101.38
362.07	96.38
362.296	88.38
362.523	99.38
362.749	102.38
362.976	95.38
363.203	107.38
363.429	92.38
363.656	97.38
363.882	89.38
364.109	99.38
364.335	92.38
364.562	98.38
364.788	92.38
365.015	101.38
365.241	88.38
365.468	127.38
365.694	117.38
365.92	93.38
366.147	84.38
366.373	88.38
366.599	101.38
366.826	93.38
367.052	94.38
367.278	108.38
367.505	101.38
367.731	95.38
367.957	87.38
368.184	109.38
368.41	108.38
368.636	119.38
368.862	124.38
369.089	108.38
369.315	109.38
369.541	85.38
369.767	91.38
369.993	83.38
370.219	89.38
370.445	108.38
370.672	83.38
370.898	96.38
371.124	94.38
371.35	92.38
371.576	92.38
371.802	93.38
372.028	94.38
372.254	90.38
372.48	107.38
372.706	103.38
372.932	102.38
373.158	99.38
373.384	92.38
373.61	101.38
373.835	98.38
374.061	96.38
374.287	107.38
374.513	93.38
374.739	89.38
374.965	101.38
375.191	96.38
375.416	76.38
375.642	91.38
375.868	82.38
376.094	100.38
376.319	102.38
376.545	119.38
376.771	81.38
376.997	87.38
377.222	87.38
377.448	93.38
377.674	101.38
377.899	90.38
378.125	88.38
378.35	112.38
378.576	95.38
378.802	97.38
379.027	106.38
379.253	85.38
379.478	107.38
379.704	111.38
379.929	84.38
380.155	111.38
380.38	99.38
380.606	108.38
380.831	101.38
381.057	111.38
381.282	96.38
381.507	94.38
381.733	99.38
381.958	112.38
382.184	105.38
382.409	103.38
382.634	99.38
382.86	110.38
383.085	103.38
383.31	106.38
383.535	99.38
383.761	104.38
383.986	100.38
384.211	99.38
384.436	100.38
384.662	93.38
384.887	101.38
385.112	109.38
385.337	116.38
385.562	123.38
385.787	98.38
386.013	111.38
386.238	99.38
386.463	89.38
386.688	111.38
386.913	113.38
387.138	109.38
387.363	116.38
387.588	94.38
387.813	103.38
388.038	117.38
388.263	117.38
388.488	107.38
388.713	101.38
388.938	106.38
389.163	84.38
389.387	107.38
389.612	111.38
389.837	110.38
390.062	93.38
390.287	99.38
390.512	88.38
390.736	97.38
390.961	92.38
391.186	103.38
391.411	97.38
391.636	95.38
391.86	96.38
392.085	96.38
392.31	83.38
392.534	102.38
392.759	104.38
392.984	86.38
393.208	103.38
393.433	104.38
393.658	99.38
393.882	88.38
394.107	91.38
394.331	96.38
394.556	91.38
394.78	83.38
395.005	90.38
395.229	89.38
395.454	108.38
395.678	100.38
395.903	98.38
396.127	105.38
396.352	102.38
396.576	94.38
396.801	92.38
397.025	101.38
397.249	93.38
397.474	89.38
397.698	91.38
397.922	96.38
398.147	102.38
398.371	78.38
398.595	101.38
398.82	96.38
399.044	115.38
399.268	90.38
399.492	87.38
399.717	95.38
399.941	94.38
400.165	105.38
400.389	104.38
400.613	94.38
400.837	100.38
401.062	103.38
401.286	89.38
401.51	88.38
401.734	100.38
401.958	93.38
402.182	119.38
402.406	136.38
402.63	112.38
402.854	95.38
403.078	92.38
403.302	104.38
403.526	86.38
403.75	88.38
403.974	102.38
404.198	94.38
404.422	99.38
404.645	91.38
404.869	89.38
405.093	104.38
405.317	101.38
405.541	109.38
405.765	102.38
405.988	101.38
406.212	133.38
406.436	202.38
406.66	141.38
406.883	114.38
407.107	104.38
407.331	93.38
407.555	98.38
407.778	130.38
408.002	101.38
408.226	90.38
408.449	96.38
408.673	103.38
408.896	96.38
409.12	107.38
409.344	93.38
409.567	95.38
409.791	105.38
410.014	100.38
410.238	98.38
410.461	109.38
410.685	100.38
410.908	92.38
411.132	115.38
411.355	99.38
411.578	92.38
411.802	104.38
412.025	95.38
412.249	97.38
412.472	95.38
412.695	99.38
412.919	89.38
413.142	96.38
413.365	97.38
413.589	88.38
413.812	95.38
414.035	107.38
414.258	92.38
414.482	83.38
414.705	105.38
414.928	95.38
415.151	97.38
415.374	112.38
415.597	106.38
415.821	84.38
416.044	97.38
416.267	89.38
416.49	94.38
416.713	103.38
416.936	92.38
417.159	99.38
417.382	89.38
417.605	97.38
417.828	88.38
418.051	95.38
418.274	92.38
418.497	97.38
418.72	91.38
418.943	91.38
419.166	97.38
419.389	92.38
419.611	78.38
419.834	88.38
420.057	99.38
420.28	99.38
420.503	103.38
420.726	98.38
420.948	80.38
421.171	91.38
421.394	97.38
421.617	110.38
421.839	99.38
422.062	86.38
422.285	93.38
422.507	93.38
422.73	124.38
422.953	90.38
423.175	90.38
423.398	85.38
423.621	89.38
423.843	92.38
424.066	103.38
424.288	91.38
424.511	100.38
424.733	109.38
424.956	113.38
425.178	103.38
425.401	112.38
425.623	104.38
425.846	87.38
426.068	89.38
426.291	92.38
426.513	90.38
426.735	93.38
426.958	106.38
427.18	106.38
427.402	154.38
427.625	156.38
427.847	121.38
428.069	103.38
428.292	88.38
428.514	100.38
428.736	84.38
428.958	98.38
429.181	95.38
429.403	88.38
429.625	87.38
429.847	99.38
430.069	117.38
430.292	102.38
430.514	73.38
430.736	99.38
430.958	93.38
431.18	99.38
431.402	84.38
431.624	95.38
431.846	89.38
432.068	92.38
432.29	100.38
432.512	92.38
432.734	96.38
432.956	103.38
433.178	98.38
433.4	98.38
433.622	88.38
433.844	99.38
434.066	109.38
434.287	88.38
434.509	97.38
434.731	96.38
434.953	103.38
435.175	93.38
435.397	98.38
435.618	103.38
435.84	95.38
436.062	150.38
436.284	121.38
436.505	118.38
436.727	119.38
436.949	112.38
437.17	98.38
437.392	99.38
437.614	93.38
437.835	102.38
438.057	115.38
438.278	115.38
438.5	96.38
438.721	122.38
438.943	103.38
439.165	85.38
439.386	107.38
439.608	100.38
439.829	100.38
440.05	128.38
440.272	134.38
440.493	115.38
440.715	99.38
440.936	92.38
441.158	94.38
441.379	97.38
441.6	96.38
441.822	92.38
442.043	115.38
442.264	127.38
442.486	109.38
442.707	103.38
442.928	94.38
443.149	129.38
443.371	134.38
443.592	105.38
443.813	123.38
444.034	113.38
444.255	99.38
444.476	90.38
444.698	89.38
444.919	83.38
445.14	124.38
445.361	129.38
445.582	114.38
445.803	143.38
446.024	136.38
446.245	133.38
446.466	117.38
446.687	101.38
446.908	97.38
447.129	100.38
447.35	91.38
447.571	95.38
447.792	110.38
448.013	107.38
448.234	116.38
448.455	107.38
448.675	119.38
448.896	123.38
449.117	113.38
449.338	112.38
449.559	137.38
449.779	139.38
450	83.38
450.221	103.38
450.442	95.38
450.662	96.38
450.883	102.38
451.104	114.38
451.324	95.38
451.545	93.38
451.766	94.38
451.986	85.38
452.207	103.38
452.428	102.38
452.648	100.38
452.869	106.38
453.089	112.38
453.31	109.38
453.53	99.38
453.751	101.38
453.971	94.38
454.192	110.38
454.412	102.38
454.633	86.38
454.853	81.38
455.073	80.38
455.294	101.38
455.514	101.38
455.734	92.38
455.955	92.38
456.175	104.38
456.395	99.38
456.616	88.38
456.836	93.38
457.056	93.38
457.276	91.38
457.497	88.38
457.717	101.38
457.937	95.38
458.157	69.38
458.377	103.38
458.598	110.38
458.818	136.38
459.038	150.38
459.258	115.38
459.478	83.38
459.698	103.38
459.918	104.38
460.138	87.38
460.358	97.38
460.578	98.38
460.798	98.38
461.018	102.38
461.238	103.38
461.458	96.38
461.678	89.38
461.898	92.38
462.118	91.38
462.338	107.38
462.558	83.38
462.777	101.38
462.997	97.38
463.217	108.38
463.437	86.38
463.657	89.38
463.876	96.38
464.096	89.38
464.316	99.38
464.536	98.38
464.755	85.38
464.975	109.38
465.195	138.38
465.414	132.38
465.634	107.38
465.854	79.38
466.073	97.38
466.293	94.38
466.512	99.38
466.732	89.38
466.951	98.38
467.171	92.38
467.391	87.38
467.61	91.38
467.829	87.38
468.049	83.38
468.268	88.38
468.488	106.38
468.707	77.38
468.927	103.38
469.146	86.38
469.365	73.38
469.585	96.38
469.804	95.38
470.023	94.38
470.243	95.38
470.462	101.38
470.681	108.38
470.901	92.38
471.12	83.38
471.339	88.38
471.558	87.38
471.777	89.38
471.997	95.38
472.216	106.38
472.435	97.38
472.654	111.38
472.873	87.38
473.092	99.38
473.311	78.38
473.53	87.38
473.749	79.38
473.968	110.38
474.187	109.38
474.406	102.38
474.625	80.38
474.844	97.38
475.063	83.38
475.282	87.38
475.501	89.38
475.72	97.38
475.939	99.38
476.158	87.38
476.377	91.38
476.596	108.38
476.814	101.38
477.033	102.38
477.252	93.38
477.471	96.38
477.69	97.38
477.908	96.38
478.127	92.38
478.346	90.38
478.564	93.38
478.783	100.38
479.002	88.38
479.22	95.38
479.439	99.38
479.658	125.38
479.876	95.38
480.095	98.38
480.313	87.38
480.532	97.38
480.751	97.38
480.969	94.38
481.188	98.38
481.406	101.38
481.624	89.38
481.843	93.38
482.061	100.38
482.28	94.38
482.498	91.38
482.717	98.38
482.935	96.38
483.153	96.38
483.372	90.38
483.59	91.38
483.808	103.38
484.027	102.38
484.245	99.38
484.463	105.38
484.681	108.38
484.9	93.38
485.118	101.38
485.336	105.38
485.554	105.38
485.772	104.38
485.99	109.38
486.209	104.38
486.427	113.38
486.645	112.38
486.863	119.38
487.081	107.38
487.299	90.38
487.517	106.38
487.735	103.38
487.953	95.38
488.171	102.38
488.389	101.38
488.607	103.38
488.825	104.38
489.043	106.38
489.261	92.38
489.479	99.38
489.696	87.38
489.914	98.38
490.132	89.38
490.35	93.38
490.568	96.38
490.786	96.38
491.003	97.38
491.221	86.38
491.439	95.38
491.657	102.38
491.874	106.38
492.092	102.38
492.31	88.38
492.527	90.38
492.745	77.38
492.963	105.38
493.18	100.38
493.398	87.38
493.615	103.38
493.833	103.38
494.05	94.38
494.268	110.38
494.485	101.38
494.703	97.38
494.92	103.38
495.138	84.38
495.355	93.38
495.573	109.38
495.79	82.38
496.008	92.38
496.225	86.38
496.442	107.38
496.66	87.38
496.877	97.38
497.094	95.38
497.312	89.38
497.529	93.38
497.746	78.38
497.963	107.38
498.181	102.38
498.398	91.38
498.615	119.38
498.832	101.38
499.049	90.38
499.267	98.38
499.484	100.38
499.701	102.38
499.918	89.38
500.135	88.38
500.352	95.38
500.569	96.38
500.786	98.38
501.003	105.38
501.22	89.38
501.437	95.38
501.654	111.38
501.871	95.38
502.088	94.38
502.305	98.38
502.522	81.38
502.739	96.38
502.956	90.38
503.172	97.38
503.389	98.38
503.606	115.38
503.823	82.38
504.04	102.38
504.256	97.38
504.473	89.38
504.69	99.38
504.907	87.38
505.123	101.38
505.34	93.38
505.557	96.38
505.773	97.38
505.99	100.38
506.207	80.38
506.423	83.38
506.64	99.38
506.856	87.38
507.073	101.38
507.289	102.38
507.506	93.38
507.722	107.38
507.939	101.38
508.155	88.38
508.372	104.38
508.588	88.38
508.805	92.38
509.021	92.38
509.238	100.38
509.454	87.38
509.67	103.38
509.887	110.38
510.103	132.38
510.319	182.38
510.536	613.38
510.752	1881.38
510.968	520.38
511.184	147.38
511.401	108.38
511.617	108.38
511.833	96.38
512.049	106.38
512.265	103.38
512.481	89.38
512.698	98.38
512.914	90.38
513.13	102.38
