Data from Uncirc_1987_H10_HRD10591_00065.txt Node
Date: Wed Jan 03 12:09:01 EST 2024
User: Yrep
Spectrometer: HR+D1059
Trigger mode: 1
Integration Time (sec): 1.000000E-1
Scans to average: 1
Electric dark correction enabled: true
Nonlinearity correction enabled: false
Boxcar width: 0
XAxis mode: Wavelengths
Number of Pixels in Spectrum: 2048
>>>>>Begin Spectral Data<<<<<
223.165	-21.69
223.4	-21.69
223.635	-21.69
223.869	-15.69
224.104	-14.69
224.338	-2.69
224.573	-24.69
224.808	-10.69
225.042	-2.69
225.277	-14.69
225.511	-10.69
225.746	3.31
225.98	1.31
226.215	16.31
226.449	24.31
226.683	11.31
226.918	32.31
227.152	29.31
227.387	40.31
227.621	50.31
227.856	46.31
228.09	36.31
228.324	50.31
228.559	56.31
228.793	63.31
229.027	59.31
229.262	67.31
229.496	72.31
229.73	103.31
229.964	100.31
230.199	70.31
230.433	80.31
230.667	83.31
230.901	88.31
231.136	95.31
231.37	83.31
231.604	82.31
231.838	80.31
232.072	76.31
232.306	74.31
232.541	90.31
232.775	84.31
233.009	91.31
233.243	83.31
233.477	78.31
233.711	75.31
233.945	72.31
234.179	89.31
234.413	82.31
234.647	86.31
234.881	76.31
235.115	81.31
235.349	77.31
235.583	76.31
235.817	74.31
236.051	78.31
236.285	86.31
236.519	87.31
236.753	88.31
236.987	90.31
237.221	92.31
237.455	97.31
237.689	80.31
237.922	66.31
238.156	70.31
238.39	71.31
238.624	93.31
238.858	75.31
239.091	71.31
239.325	74.31
239.559	82.31
239.793	75.31
240.027	88.31
240.26	97.31
240.494	82.31
240.728	72.31
240.961	70.31
241.195	86.31
241.429	76.31
241.662	86.31
241.896	66.31
242.13	80.31
242.363	83.31
242.597	82.31
242.83	72.31
243.064	83.31
243.298	76.31
243.531	83.31
243.765	77.31
243.998	93.31
244.232	77.31
244.465	97.31
244.699	79.31
244.932	78.31
245.166	71.31
245.399	69.31
245.633	75.31
245.866	79.31
246.099	75.31
246.333	85.31
246.566	88.31
246.8	88.31
247.033	71.31
247.266	91.31
247.5	82.31
247.733	86.31
247.966	73.31
248.2	85.31
248.433	74.31
248.666	84.31
248.899	86.31
249.133	85.31
249.366	85.31
249.599	96.31
249.832	89.31
250.066	87.31
250.299	66.31
250.532	88.31
250.765	71.31
250.998	84.31
251.231	91.31
251.465	86.31
251.698	96.31
251.931	83.31
252.164	80.31
252.397	78.31
252.63	68.31
252.863	82.31
253.096	97.31
253.329	99.31
253.562	82.31
253.795	86.31
254.028	97.31
254.261	87.31
254.494	97.31
254.727	106.31
254.96	80.31
255.193	90.31
255.426	100.31
255.659	86.31
255.892	73.31
256.124	86.31
256.357	73.31
256.59	90.31
256.823	94.31
257.056	80.31
257.289	93.31
257.521	80.31
257.754	98.31
257.987	93.31
258.22	84.31
258.452	74.31
258.685	91.31
258.918	92.31
259.151	82.31
259.383	82.31
259.616	82.31
259.849	85.31
260.081	95.31
260.314	87.31
260.547	83.31
260.779	78.31
261.012	82.31
261.244	90.31
261.477	97.31
261.71	101.31
261.942	109.31
262.175	107.31
262.407	87.31
262.64	92.31
262.872	86.31
263.105	70.31
263.337	80.31
263.57	92.31
263.802	97.31
264.035	83.31
264.267	86.31
264.499	80.31
264.732	77.31
264.964	95.31
265.197	89.31
265.429	99.31
265.661	87.31
265.894	89.31
266.126	84.31
266.358	71.31
266.591	88.31
266.823	84.31
267.055	85.31
267.287	93.31
267.52	82.31
267.752	71.31
267.984	71.31
268.216	92.31
268.448	92.31
268.681	91.31
268.913	98.31
269.145	82.31
269.377	84.31
269.609	85.31
269.841	97.31
270.073	96.31
270.306	97.31
270.538	67.31
270.77	89.31
271.002	93.31
271.234	87.31
271.466	96.31
271.698	93.31
271.93	86.31
272.162	95.31
272.394	83.31
272.626	96.31
272.858	88.31
273.09	91.31
273.322	84.31
273.553	83.31
273.785	91.31
274.017	91.31
274.249	85.31
274.481	86.31
274.713	72.31
274.945	83.31
275.176	80.31
275.408	97.31
275.64	89.31
275.872	92.31
276.104	82.31
276.335	100.31
276.567	108.31
276.799	104.31
277.031	110.31
277.262	91.31
277.494	92.31
277.726	66.31
277.957	86.31
278.189	86.31
278.421	92.31
278.652	89.31
278.884	87.31
279.115	83.31
279.347	66.31
279.579	96.31
279.81	95.31
280.042	94.31
280.273	97.31
280.505	84.31
280.736	82.31
280.968	86.31
281.199	100.31
281.431	95.31
281.662	109.31
281.894	99.31
282.125	100.31
282.356	120.31
282.588	136.31
282.819	116.31
283.051	82.31
283.282	84.31
283.513	90.31
283.745	94.31
283.976	81.31
284.207	85.31
284.439	91.31
284.67	89.31
284.901	86.31
285.132	88.31
285.364	88.31
285.595	92.31
285.826	101.31
286.057	97.31
286.288	82.31
286.52	92.31
286.751	98.31
286.982	90.31
287.213	89.31
287.444	97.31
287.675	95.31
287.906	98.31
288.138	110.31
288.369	98.31
288.6	105.31
288.831	76.31
289.062	96.31
289.293	90.31
289.524	104.31
289.755	81.31
289.986	88.31
290.217	88.31
290.448	88.31
290.679	91.31
290.91	76.31
291.141	91.31
291.371	97.31
291.602	76.31
291.833	110.31
292.064	101.31
292.295	88.31
292.526	98.31
292.757	92.31
292.987	81.31
293.218	75.31
293.449	99.31
293.68	86.31
293.91	81.31
294.141	96.31
294.372	89.31
294.603	95.31
294.833	87.31
295.064	86.31
295.295	97.31
295.525	92.31
295.756	90.31
295.987	119.31
296.217	151.31
296.448	121.31
296.679	93.31
296.909	101.31
297.14	68.31
297.37	88.31
297.601	95.31
297.831	98.31
298.062	90.31
298.292	80.31
298.523	81.31
298.753	115.31
298.984	90.31
299.214	88.31
299.445	91.31
299.675	84.31
299.905	97.31
300.136	91.31
300.366	98.31
300.597	92.31
300.827	86.31
301.057	116.31
301.288	101.31
301.518	89.31
301.748	101.31
301.979	100.31
302.209	105.31
302.439	96.31
302.669	92.31
302.9	92.31
303.13	93.31
303.36	91.31
303.59	101.31
303.82	109.31
304.051	87.31
304.281	97.31
304.511	80.31
304.741	76.31
304.971	86.31
305.201	96.31
305.431	95.31
305.661	92.31
305.891	91.31
306.121	100.31
306.352	112.31
306.582	107.31
306.812	102.31
307.042	94.31
307.272	85.31
307.502	88.31
307.731	97.31
307.961	98.31
308.191	93.31
308.421	102.31
308.651	88.31
308.881	84.31
309.111	81.31
309.341	106.31
309.571	106.31
309.8	93.31
310.03	93.31
310.26	109.31
310.49	106.31
310.72	104.31
310.949	107.31
311.179	91.31
311.409	94.31
311.639	88.31
311.868	96.31
312.098	106.31
312.328	110.31
312.557	104.31
312.787	106.31
313.017	91.31
313.246	88.31
313.476	107.31
313.706	88.31
313.935	96.31
314.165	100.31
314.394	114.31
314.624	94.31
314.853	98.31
315.083	90.31
315.312	100.31
315.542	99.31
315.771	98.31
316.001	109.31
316.23	79.31
316.46	97.31
316.689	89.31
316.919	101.31
317.148	121.31
317.377	105.31
317.607	99.31
317.836	101.31
318.065	91.31
318.295	89.31
318.524	90.31
318.753	100.31
318.983	109.31
319.212	92.31
319.441	100.31
319.67	103.31
319.9	86.31
320.129	101.31
320.358	107.31
320.587	98.31
320.816	96.31
321.046	99.31
321.275	99.31
321.504	102.31
321.733	105.31
321.962	107.31
322.191	108.31
322.42	95.31
322.649	113.31
322.878	122.31
323.108	122.31
323.337	128.31
323.566	132.31
323.795	157.31
324.024	206.31
324.253	382.31
324.482	799.31
324.71	1657.31
324.939	2240.31
325.168	808.31
325.397	258.31
325.626	168.31
325.855	128.31
326.084	122.31
326.313	128.31
326.542	154.31
326.77	236.31
326.999	457.31
327.228	915.31
327.457	1722.31
327.686	1366.31
327.914	357.31
328.143	205.31
328.372	157.31
328.6	128.31
328.829	116.31
329.058	133.31
329.287	140.31
329.515	110.31
329.744	105.31
329.972	99.31
330.201	114.31
330.43	121.31
330.658	125.31
330.887	154.31
331.115	116.31
331.344	108.31
331.572	96.31
331.801	106.31
332.03	105.31
332.258	120.31
332.486	110.31
332.715	102.31
332.943	98.31
333.172	93.31
333.4	110.31
333.629	123.31
333.857	115.31
334.085	101.31
334.314	98.31
334.542	105.31
334.771	101.31
334.999	93.31
335.227	90.31
335.455	96.31
335.684	97.31
335.912	103.31
336.14	107.31
336.369	101.31
336.597	81.31
336.825	105.31
337.053	85.31
337.281	89.31
337.51	78.31
337.738	107.31
337.966	93.31
338.194	105.31
338.422	104.31
338.65	94.31
338.878	97.31
339.106	96.31
339.334	92.31
339.562	98.31
339.79	101.31
340.018	88.31
340.246	101.31
340.474	105.31
340.702	103.31
340.93	85.31
341.158	106.31
341.386	99.31
341.614	109.31
341.842	100.31
342.07	88.31
342.298	96.31
342.526	105.31
342.754	112.31
342.981	75.31
343.209	85.31
343.437	100.31
343.665	94.31
343.893	89.31
344.12	86.31
344.348	99.31
344.576	89.31
344.804	104.31
345.031	99.31
345.259	99.31
345.487	92.31
345.714	91.31
345.942	78.31
346.17	92.31
346.397	78.31
346.625	97.31
346.853	107.31
347.08	91.31
347.308	99.31
347.535	101.31
347.763	90.31
347.99	96.31
348.218	110.31
348.445	117.31
348.673	99.31
348.9	105.31
349.128	85.31
349.355	97.31
349.583	96.31
349.81	101.31
350.037	107.31
350.265	116.31
350.492	105.31
350.72	103.31
350.947	115.31
351.174	118.31
351.402	109.31
351.629	102.31
351.856	98.31
352.083	103.31
352.311	110.31
352.538	114.31
352.765	110.31
352.992	112.31
353.22	104.31
353.447	106.31
353.674	103.31
353.901	101.31
354.128	92.31
354.355	97.31
354.583	102.31
354.81	113.31
355.037	88.31
355.264	98.31
355.491	77.31
355.718	111.31
355.945	100.31
356.172	96.31
356.399	102.31
356.626	111.31
356.853	100.31
357.08	97.31
357.307	101.31
357.534	97.31
357.761	102.31
357.988	88.31
358.215	112.31
358.441	104.31
358.668	104.31
358.895	105.31
359.122	99.31
359.349	80.31
359.576	88.31
359.802	99.31
360.029	120.31
360.256	97.31
360.483	102.31
360.709	88.31
360.936	93.31
361.163	101.31
361.39	109.31
361.616	88.31
361.843	96.31
362.07	85.31
362.296	89.31
362.523	105.31
362.749	97.31
362.976	99.31
363.203	97.31
363.429	105.31
363.656	98.31
363.882	101.31
364.109	89.31
364.335	102.31
364.562	88.31
364.788	103.31
365.015	96.31
365.241	108.31
365.468	119.31
365.694	120.31
365.92	107.31
366.147	94.31
366.373	98.31
366.599	80.31
366.826	98.31
367.052	95.31
367.278	90.31
367.505	97.31
367.731	89.31
367.957	97.31
368.184	98.31
368.41	104.31
368.636	104.31
368.862	126.31
369.089	111.31
369.315	81.31
369.541	89.31
369.767	99.31
369.993	88.31
370.219	96.31
370.445	112.31
370.672	90.31
370.898	89.31
371.124	97.31
371.35	85.31
371.576	96.31
371.802	88.31
372.028	86.31
372.254	96.31
372.48	97.31
372.706	89.31
372.932	93.31
373.158	96.31
373.384	88.31
373.61	92.31
373.835	91.31
374.061	100.31
374.287	85.31
374.513	97.31
374.739	84.31
374.965	82.31
375.191	107.31
375.416	86.31
375.642	80.31
375.868	87.31
376.094	103.31
376.319	91.31
376.545	107.31
376.771	98.31
376.997	95.31
377.222	90.31
377.448	89.31
377.674	97.31
377.899	102.31
378.125	98.31
378.35	97.31
378.576	96.31
378.802	83.31
379.027	89.31
379.253	98.31
379.478	102.31
379.704	94.31
379.929	88.31
380.155	82.31
380.38	105.31
380.606	105.31
380.831	106.31
381.057	102.31
381.282	105.31
381.507	88.31
381.733	90.31
381.958	89.31
382.184	98.31
382.409	101.31
382.634	110.31
382.86	112.31
383.085	104.31
383.31	105.31
383.535	108.31
383.761	98.31
383.986	99.31
384.211	104.31
384.436	82.31
384.662	94.31
384.887	106.31
385.112	108.31
385.337	100.31
385.562	105.31
385.787	94.31
386.013	102.31
386.238	109.31
386.463	99.31
386.688	105.31
386.913	96.31
387.138	86.31
387.363	93.31
387.588	105.31
387.813	106.31
388.038	104.31
388.263	112.31
388.488	97.31
388.713	90.31
388.938	99.31
389.163	112.31
389.387	107.31
389.612	93.31
389.837	85.31
390.062	109.31
390.287	95.31
390.512	88.31
390.736	102.31
390.961	90.31
391.186	98.31
391.411	87.31
391.636	102.31
391.86	86.31
392.085	98.31
392.31	96.31
392.534	106.31
392.759	93.31
392.984	102.31
393.208	98.31
393.433	94.31
393.658	91.31
393.882	86.31
394.107	105.31
394.331	91.31
394.556	104.31
394.78	109.31
395.005	81.31
395.229	66.31
395.454	101.31
395.678	79.31
395.903	86.31
396.127	88.31
396.352	98.31
396.576	81.31
396.801	98.31
397.025	93.31
397.249	87.31
397.474	91.31
397.698	89.31
397.922	88.31
398.147	89.31
398.371	84.31
398.595	78.31
398.82	90.31
399.044	89.31
399.268	78.31
399.492	87.31
399.717	105.31
399.941	94.31
400.165	90.31
400.389	82.31
400.613	86.31
400.837	98.31
401.062	121.31
401.286	91.31
401.51	98.31
401.734	95.31
401.958	100.31
402.182	124.31
402.406	164.31
402.63	117.31
402.854	102.31
403.078	88.31
403.302	94.31
403.526	91.31
403.75	90.31
403.974	92.31
404.198	92.31
404.422	94.31
404.645	82.31
404.869	97.31
405.093	101.31
405.317	120.31
405.541	94.31
405.765	98.31
405.988	124.31
406.212	157.31
406.436	245.31
406.66	147.31
406.883	115.31
407.107	99.31
407.331	89.31
407.555	99.31
407.778	103.31
408.002	95.31
408.226	73.31
408.449	93.31
408.673	97.31
408.896	94.31
409.12	94.31
409.344	112.31
409.567	82.31
409.791	97.31
410.014	80.31
410.238	88.31
410.461	85.31
410.685	102.31
410.908	106.31
411.132	101.31
411.355	91.31
411.578	97.31
411.802	97.31
412.025	88.31
412.249	96.31
412.472	94.31
412.695	92.31
412.919	89.31
413.142	97.31
413.365	90.31
413.589	101.31
413.812	107.31
414.035	84.31
414.258	94.31
414.482	96.31
414.705	88.31
414.928	102.31
415.151	91.31
415.374	85.31
415.597	98.31
415.821	83.31
416.044	88.31
416.267	96.31
416.49	86.31
416.713	82.31
416.936	80.31
417.159	94.31
417.382	87.31
417.605	90.31
417.828	107.31
418.051	89.31
418.274	90.31
418.497	89.31
418.72	91.31
418.943	95.31
419.166	74.31
419.389	97.31
419.611	93.31
419.834	92.31
420.057	95.31
420.28	87.31
420.503	89.31
420.726	92.31
420.948	97.31
421.171	99.31
421.394	94.31
421.617	87.31
421.839	94.31
422.062	103.31
422.285	98.31
422.507	92.31
422.73	94.31
422.953	92.31
423.175	87.31
423.398	97.31
423.621	81.31
423.843	77.31
424.066	94.31
424.288	96.31
424.511	102.31
424.733	109.31
424.956	102.31
425.178	108.31
425.401	115.31
425.623	97.31
425.846	94.31
426.068	93.31
426.291	93.31
426.513	90.31
426.735	90.31
426.958	97.31
427.18	104.31
427.402	132.31
427.625	171.31
427.847	132.31
428.069	109.31
428.292	92.31
428.514	95.31
428.736	90.31
428.958	89.31
429.181	93.31
429.403	86.31
429.625	84.31
429.847	118.31
430.069	98.31
430.292	97.31
430.514	83.31
430.736	98.31
430.958	92.31
431.18	94.31
431.402	85.31
431.624	97.31
431.846	96.31
432.068	82.31
432.29	87.31
432.512	89.31
432.734	82.31
432.956	91.31
433.178	104.31
433.4	90.31
433.622	101.31
433.844	91.31
434.066	96.31
434.287	80.31
434.509	97.31
434.731	100.31
434.953	84.31
435.175	88.31
435.397	90.31
435.618	100.31
435.84	107.31
436.062	123.31
436.284	111.31
436.505	93.31
436.727	88.31
436.949	97.31
437.17	92.31
437.392	97.31
437.614	93.31
437.835	118.31
438.057	116.31
438.278	105.31
438.5	98.31
438.721	116.31
438.943	93.31
439.165	104.31
439.386	93.31
439.608	100.31
439.829	116.31
440.05	130.31
440.272	147.31
440.493	99.31
440.715	89.31
440.936	85.31
441.158	91.31
441.379	99.31
441.6	105.31
441.822	85.31
442.043	94.31
442.264	101.31
442.486	111.31
442.707	115.31
442.928	88.31
443.149	143.31
443.371	144.31
443.592	118.31
443.813	106.31
444.034	118.31
444.255	97.31
444.476	96.31
444.698	108.31
444.919	87.31
445.14	125.31
445.361	122.31
445.582	128.31
445.803	142.31
446.024	126.31
446.245	123.31
446.466	115.31
446.687	92.31
446.908	102.31
447.129	107.31
447.35	93.31
447.571	105.31
447.792	98.31
448.013	101.31
448.234	110.31
448.455	107.31
448.675	120.31
448.896	129.31
449.117	114.31
449.338	100.31
449.559	145.31
449.779	146.31
450	90.31
450.221	85.31
450.442	103.31
450.662	107.31
450.883	115.31
451.104	124.31
451.324	97.31
451.545	101.31
451.766	95.31
451.986	60.31
452.207	89.31
452.428	109.31
452.648	91.31
452.869	107.31
453.089	121.31
453.31	128.31
453.53	95.31
453.751	105.31
453.971	107.31
454.192	110.31
454.412	92.31
454.633	82.31
454.853	101.31
455.073	96.31
455.294	96.31
455.514	96.31
455.734	91.31
455.955	89.31
456.175	79.31
456.395	95.31
456.616	77.31
456.836	88.31
457.056	92.31
457.276	80.31
457.497	80.31
457.717	96.31
457.937	98.31
458.157	96.31
458.377	103.31
458.598	102.31
458.818	170.31
459.038	172.31
459.258	125.31
459.478	90.31
459.698	100.31
459.918	89.31
460.138	91.31
460.358	85.31
460.578	94.31
460.798	100.31
461.018	98.31
461.238	86.31
461.458	91.31
461.678	94.31
461.898	86.31
462.118	82.31
462.338	99.31
462.558	87.31
462.777	81.31
462.997	81.31
463.217	85.31
463.437	81.31
463.657	86.31
463.876	99.31
464.096	98.31
464.316	96.31
464.536	99.31
464.755	108.31
464.975	122.31
465.195	168.31
465.414	169.31
465.634	85.31
465.854	85.31
466.073	87.31
466.293	107.31
466.512	77.31
466.732	94.31
466.951	92.31
467.171	103.31
467.391	96.31
467.61	104.31
467.829	85.31
468.049	101.31
468.268	104.31
468.488	95.31
468.707	85.31
468.927	86.31
469.146	92.31
469.365	110.31
469.585	100.31
469.804	99.31
470.023	105.31
470.243	97.31
470.462	108.31
470.681	105.31
470.901	100.31
471.12	85.31
471.339	88.31
471.558	90.31
471.777	89.31
471.997	92.31
472.216	98.31
472.435	112.31
472.654	92.31
472.873	105.31
473.092	94.31
473.311	69.31
473.53	98.31
473.749	102.31
473.968	102.31
474.187	106.31
474.406	102.31
474.625	97.31
474.844	93.31
475.063	96.31
475.282	83.31
475.501	94.31
475.72	105.31
475.939	86.31
476.158	87.31
476.377	99.31
476.596	103.31
476.814	88.31
477.033	97.31
477.252	88.31
477.471	99.31
477.69	85.31
477.908	81.31
478.127	88.31
478.346	93.31
478.564	92.31
478.783	95.31
479.002	98.31
479.22	90.31
479.439	108.31
479.658	117.31
479.876	93.31
480.095	92.31
480.313	97.31
480.532	88.31
480.751	98.31
480.969	122.31
481.188	143.31
481.406	120.31
481.624	88.31
481.843	75.31
482.061	92.31
482.28	100.31
482.498	100.31
482.717	107.31
482.935	99.31
483.153	89.31
483.372	90.31
483.59	98.31
483.808	94.31
484.027	102.31
484.245	100.31
484.463	96.31
484.681	94.31
484.9	97.31
485.118	112.31
485.336	92.31
485.554	106.31
485.772	102.31
485.99	104.31
486.209	92.31
486.427	108.31
486.645	121.31
486.863	116.31
487.081	115.31
487.299	95.31
487.517	106.31
487.735	100.31
487.953	96.31
488.171	94.31
488.389	100.31
488.607	83.31
488.825	100.31
489.043	93.31
489.261	91.31
489.479	86.31
489.696	91.31
489.914	86.31
490.132	86.31
490.35	100.31
490.568	78.31
490.786	99.31
491.003	82.31
491.221	90.31
491.439	103.31
491.657	94.31
491.874	88.31
492.092	85.31
492.31	91.31
492.527	91.31
492.745	99.31
492.963	107.31
493.18	92.31
493.398	85.31
493.615	114.31
493.833	84.31
494.05	93.31
494.268	81.31
494.485	97.31
494.703	92.31
494.92	82.31
495.138	101.31
495.355	102.31
495.573	98.31
495.79	92.31
496.008	99.31
496.225	108.31
496.442	90.31
496.66	92.31
496.877	106.31
497.094	108.31
497.312	101.31
497.529	98.31
497.746	84.31
497.963	98.31
498.181	88.31
498.398	103.31
498.615	117.31
498.832	99.31
499.049	97.31
499.267	113.31
499.484	85.31
499.701	108.31
499.918	94.31
500.135	79.31
500.352	92.31
500.569	96.31
500.786	77.31
501.003	89.31
501.22	92.31
501.437	87.31
501.654	101.31
501.871	123.31
502.088	80.31
502.305	89.31
502.522	81.31
502.739	88.31
502.956	101.31
503.172	108.31
503.389	107.31
503.606	109.31
503.823	101.31
504.04	96.31
504.256	91.31
504.473	98.31
504.69	95.31
504.907	92.31
505.123	85.31
505.34	84.31
505.557	93.31
505.773	89.31
505.99	100.31
506.207	103.31
506.423	86.31
506.64	100.31
506.856	103.31
507.073	88.31
507.289	94.31
507.506	114.31
507.722	103.31
507.939	114.31
508.155	100.31
508.372	96.31
508.588	96.31
508.805	104.31
509.021	95.31
509.238	103.31
509.454	113.31
509.67	104.31
509.887	115.31
510.103	133.31
510.319	206.31
510.536	760.31
510.752	2415.31
510.968	638.31
511.184	160.31
511.401	109.31
511.617	100.31
511.833	92.31
512.049	81.31
512.265	88.31
512.481	101.31
512.698	116.31
512.914	90.31
513.13	96.31
513.346	96.31
513.562	108.31
513.778	102.31
513.994	107.31
