Data from Uncirc_1987_H10_HRD10591_00024.txt Node
Date: Wed Jan 03 12:08:53 EST 2024
User: Yrep
Spectrometer: HR+D1059
Trigger mode: 1
Integration Time (sec): 1.000000E-1
Scans to average: 1
Electric dark correction enabled: true
Nonlinearity correction enabled: false
Boxcar width: 0
XAxis mode: Wavelengths
Number of Pixels in Spectrum: 2048
>>>>>Begin Spectral Data<<<<<
223.165	-14.31
223.4	-14.31
223.635	-14.31
223.869	-26.31
224.104	-20.31
224.338	-17.31
224.573	-9.31
224.808	-13.31
225.042	-9.31
225.277	2.69
225.511	-14.31
225.746	7.69
225.98	-2.31
226.215	14.69
226.449	14.69
226.683	18.69
226.918	34.69
227.152	33.69
227.387	28.69
227.621	54.69
227.856	41.69
228.09	44.69
228.324	45.69
228.559	61.69
228.793	46.69
229.027	65.69
229.262	66.69
229.496	60.69
229.73	88.69
229.964	81.69
230.199	82.69
230.433	80.69
230.667	80.69
230.901	84.69
231.136	88.69
231.37	81.69
231.604	87.69
231.838	85.69
232.072	81.69
232.306	93.69
232.541	78.69
232.775	82.69
233.009	87.69
233.243	65.69
233.477	87.69
233.711	82.69
233.945	96.69
234.179	78.69
234.413	80.69
234.647	81.69
234.881	89.69
235.115	88.69
235.349	75.69
235.583	84.69
235.817	73.69
236.051	77.69
236.285	68.69
236.519	72.69
236.753	92.69
236.987	84.69
237.221	88.69
237.455	82.69
237.689	88.69
237.922	72.69
238.156	93.69
238.39	89.69
238.624	77.69
238.858	72.69
239.091	77.69
239.325	72.69
239.559	94.69
239.793	75.69
240.027	84.69
240.26	70.69
240.494	74.69
240.728	84.69
240.961	88.69
241.195	104.69
241.429	91.69
241.662	79.69
241.896	83.69
242.13	76.69
242.363	57.69
242.597	83.69
242.83	90.69
243.064	68.69
243.298	84.69
243.531	85.69
243.765	95.69
243.998	82.69
244.232	80.69
244.465	77.69
244.699	68.69
244.932	98.69
245.166	99.69
245.399	80.69
245.633	76.69
245.866	72.69
246.099	78.69
246.333	86.69
246.566	87.69
246.8	73.69
247.033	78.69
247.266	95.69
247.5	70.69
247.733	94.69
247.966	72.69
248.2	69.69
248.433	72.69
248.666	89.69
248.899	68.69
249.133	80.69
249.366	96.69
249.599	106.69
249.832	78.69
250.066	81.69
250.299	62.69
250.532	80.69
250.765	80.69
250.998	85.69
251.231	102.69
251.465	75.69
251.698	69.69
251.931	93.69
252.164	80.69
252.397	82.69
252.63	92.69
252.863	85.69
253.096	71.69
253.329	86.69
253.562	81.69
253.795	82.69
254.028	76.69
254.261	73.69
254.494	87.69
254.727	88.69
254.96	84.69
255.193	76.69
255.426	90.69
255.659	84.69
255.892	89.69
256.124	77.69
256.357	82.69
256.59	75.69
256.823	86.69
257.056	86.69
257.289	84.69
257.521	87.69
257.754	90.69
257.987	74.69
258.22	91.69
258.452	94.69
258.685	89.69
258.918	96.69
259.151	86.69
259.383	84.69
259.616	83.69
259.849	73.69
260.081	85.69
260.314	86.69
260.547	72.69
260.779	78.69
261.012	88.69
261.244	87.69
261.477	78.69
261.71	101.69
261.942	96.69
262.175	116.69
262.407	92.69
262.64	91.69
262.872	94.69
263.105	72.69
263.337	92.69
263.57	88.69
263.802	86.69
264.035	84.69
264.267	75.69
264.499	90.69
264.732	93.69
264.964	92.69
265.197	88.69
265.429	93.69
265.661	84.69
265.894	87.69
266.126	80.69
266.358	94.69
266.591	105.69
266.823	88.69
267.055	71.69
267.287	92.69
267.52	84.69
267.752	99.69
267.984	77.69
268.216	84.69
268.448	91.69
268.681	83.69
268.913	92.69
269.145	85.69
269.377	96.69
269.609	93.69
269.841	90.69
270.073	85.69
270.306	75.69
270.538	82.69
270.77	96.69
271.002	87.69
271.234	89.69
271.466	92.69
271.698	87.69
271.93	90.69
272.162	74.69
272.394	83.69
272.626	73.69
272.858	93.69
273.09	82.69
273.322	92.69
273.553	94.69
273.785	102.69
274.017	91.69
274.249	62.69
274.481	89.69
274.713	89.69
274.945	84.69
275.176	92.69
275.408	78.69
275.64	89.69
275.872	100.69
276.104	88.69
276.335	90.69
276.567	108.69
276.799	113.69
277.031	84.69
277.262	92.69
277.494	87.69
277.726	90.69
277.957	84.69
278.189	75.69
278.421	78.69
278.652	74.69
278.884	80.69
279.115	98.69
279.347	80.69
279.579	89.69
279.81	90.69
280.042	89.69
280.273	92.69
280.505	80.69
280.736	101.69
280.968	99.69
281.199	92.69
281.431	86.69
281.662	86.69
281.894	91.69
282.125	107.69
282.356	105.69
282.588	125.69
282.819	103.69
283.051	84.69
283.282	84.69
283.513	93.69
283.745	96.69
283.976	97.69
284.207	113.69
284.439	101.69
284.67	87.69
284.901	96.69
285.132	73.69
285.364	93.69
285.595	90.69
285.826	94.69
286.057	78.69
286.288	87.69
286.52	102.69
286.751	87.69
286.982	76.69
287.213	77.69
287.444	77.69
287.675	105.69
287.906	84.69
288.138	89.69
288.369	103.69
288.6	84.69
288.831	73.69
289.062	95.69
289.293	104.69
289.524	93.69
289.755	94.69
289.986	73.69
290.217	81.69
290.448	87.69
290.679	99.69
290.91	89.69
291.141	80.69
291.371	84.69
291.602	84.69
291.833	88.69
292.064	92.69
292.295	87.69
292.526	77.69
292.757	106.69
292.987	91.69
293.218	100.69
293.449	95.69
293.68	110.69
293.91	84.69
294.141	107.69
294.372	87.69
294.603	98.69
294.833	87.69
295.064	80.69
295.295	77.69
295.525	93.69
295.756	117.69
295.987	104.69
296.217	125.69
296.448	129.69
296.679	96.69
296.909	102.69
297.14	94.69
297.37	88.69
297.601	92.69
297.831	86.69
298.062	91.69
298.292	88.69
298.523	86.69
298.753	95.69
298.984	87.69
299.214	85.69
299.445	109.69
299.675	92.69
299.905	100.69
300.136	99.69
300.366	93.69
300.597	98.69
300.827	70.69
301.057	91.69
301.288	98.69
301.518	90.69
301.748	89.69
301.979	85.69
302.209	88.69
302.439	78.69
302.669	94.69
302.9	91.69
303.13	90.69
303.36	85.69
303.59	95.69
303.82	100.69
304.051	103.69
304.281	99.69
304.511	94.69
304.741	76.69
304.971	85.69
305.201	97.69
305.431	92.69
305.661	98.69
305.891	82.69
306.121	102.69
306.352	89.69
306.582	98.69
306.812	102.69
307.042	88.69
307.272	75.69
307.502	97.69
307.731	89.69
307.961	95.69
308.191	88.69
308.421	80.69
308.651	77.69
308.881	96.69
309.111	88.69
309.341	89.69
309.571	98.69
309.8	85.69
310.03	90.69
310.26	95.69
310.49	93.69
310.72	81.69
310.949	109.69
311.179	79.69
311.409	104.69
311.639	109.69
311.868	100.69
312.098	109.69
312.328	116.69
312.557	86.69
312.787	104.69
313.017	112.69
313.246	95.69
313.476	84.69
313.706	98.69
313.935	91.69
314.165	103.69
314.394	104.69
314.624	89.69
314.853	97.69
315.083	88.69
315.312	84.69
315.542	97.69
315.771	99.69
316.001	104.69
316.23	82.69
316.46	88.69
316.689	93.69
316.919	90.69
317.148	104.69
317.377	94.69
317.607	95.69
317.836	98.69
318.065	99.69
318.295	85.69
318.524	99.69
318.753	104.69
318.983	100.69
319.212	107.69
319.441	110.69
319.67	90.69
319.9	104.69
320.129	96.69
320.358	84.69
320.587	93.69
320.816	97.69
321.046	115.69
321.275	107.69
321.504	90.69
321.733	103.69
321.962	92.69
322.191	90.69
322.42	100.69
322.649	96.69
322.878	117.69
323.108	116.69
323.337	117.69
323.566	115.69
323.795	132.69
324.024	192.69
324.253	324.69
324.482	663.69
324.71	1396.69
324.939	1799.69
325.168	684.69
325.397	215.69
325.626	122.69
325.855	123.69
326.084	119.69
326.313	129.69
326.542	160.69
326.77	212.69
326.999	389.69
327.228	785.69
327.457	1437.69
327.686	1173.69
327.914	323.69
328.143	161.69
328.372	140.69
328.6	119.69
328.829	108.69
329.058	122.69
329.287	125.69
329.515	100.69
329.744	97.69
329.972	97.69
330.201	104.69
330.43	113.69
330.658	122.69
330.887	125.69
331.115	110.69
331.344	103.69
331.572	99.69
331.801	88.69
332.03	106.69
332.258	97.69
332.486	104.69
332.715	90.69
332.943	88.69
333.172	94.69
333.4	86.69
333.629	106.69
333.857	109.69
334.085	106.69
334.314	83.69
334.542	93.69
334.771	100.69
334.999	103.69
335.227	114.69
335.455	89.69
335.684	94.69
335.912	109.69
336.14	101.69
336.369	109.69
336.597	109.69
336.825	103.69
337.053	108.69
337.281	101.69
337.51	90.69
337.738	88.69
337.966	84.69
338.194	99.69
338.422	96.69
338.65	110.69
338.878	91.69
339.106	87.69
339.334	104.69
339.562	81.69
339.79	91.69
340.018	89.69
340.246	90.69
340.474	92.69
340.702	109.69
340.93	93.69
341.158	77.69
341.386	87.69
341.614	107.69
341.842	83.69
342.07	99.69
342.298	97.69
342.526	84.69
342.754	97.69
342.981	90.69
343.209	91.69
343.437	98.69
343.665	109.69
343.893	94.69
344.12	88.69
344.348	90.69
344.576	99.69
344.804	97.69
345.031	93.69
345.259	83.69
345.487	102.69
345.714	106.69
345.942	77.69
346.17	89.69
346.397	91.69
346.625	90.69
346.853	76.69
347.08	93.69
347.308	103.69
347.535	84.69
347.763	110.69
347.99	102.69
348.218	90.69
348.445	109.69
348.673	105.69
348.9	99.69
349.128	101.69
349.355	89.69
349.583	99.69
349.81	102.69
350.037	92.69
350.265	97.69
350.492	89.69
350.72	103.69
350.947	97.69
351.174	100.69
351.402	101.69
351.629	104.69
351.856	100.69
352.083	98.69
352.311	97.69
352.538	98.69
352.765	99.69
352.992	104.69
353.22	107.69
353.447	95.69
353.674	98.69
353.901	93.69
354.128	97.69
354.355	100.69
354.583	105.69
354.81	100.69
355.037	94.69
355.264	102.69
355.491	97.69
355.718	98.69
355.945	97.69
356.172	91.69
356.399	107.69
356.626	106.69
356.853	100.69
357.08	96.69
357.307	109.69
357.534	80.69
357.761	84.69
357.988	113.69
358.215	85.69
358.441	93.69
358.668	113.69
358.895	103.69
359.122	67.69
359.349	87.69
359.576	92.69
359.802	103.69
360.029	93.69
360.256	112.69
360.483	96.69
360.709	84.69
360.936	112.69
361.163	97.69
361.39	97.69
361.616	90.69
361.843	78.69
362.07	85.69
362.296	86.69
362.523	95.69
362.749	113.69
362.976	86.69
363.203	84.69
363.429	98.69
363.656	97.69
363.882	99.69
364.109	96.69
364.335	85.69
364.562	87.69
364.788	91.69
365.015	90.69
365.241	93.69
365.468	109.69
365.694	101.69
365.92	95.69
366.147	90.69
366.373	94.69
366.599	86.69
366.826	92.69
367.052	92.69
367.278	93.69
367.505	108.69
367.731	96.69
367.957	84.69
368.184	93.69
368.41	99.69
368.636	103.69
368.862	104.69
369.089	110.69
369.315	89.69
369.541	88.69
369.767	87.69
369.993	97.69
370.219	89.69
370.445	96.69
370.672	86.69
370.898	97.69
371.124	75.69
371.35	89.69
371.576	98.69
371.802	86.69
372.028	95.69
372.254	97.69
372.48	105.69
372.706	91.69
372.932	86.69
373.158	86.69
373.384	84.69
373.61	78.69
373.835	89.69
374.061	105.69
374.287	84.69
374.513	98.69
374.739	82.69
374.965	99.69
375.191	92.69
375.416	94.69
375.642	96.69
375.868	95.69
376.094	94.69
376.319	93.69
376.545	92.69
376.771	103.69
376.997	93.69
377.222	102.69
377.448	101.69
377.674	102.69
377.899	90.69
378.125	84.69
378.35	90.69
378.576	88.69
378.802	94.69
379.027	109.69
379.253	88.69
379.478	93.69
379.704	79.69
379.929	97.69
380.155	101.69
380.38	86.69
380.606	98.69
380.831	93.69
381.057	78.69
381.282	96.69
381.507	107.69
381.733	95.69
381.958	99.69
382.184	96.69
382.409	92.69
382.634	97.69
382.86	108.69
383.085	93.69
383.31	112.69
383.535	107.69
383.761	111.69
383.986	105.69
384.211	101.69
384.436	90.69
384.662	101.69
384.887	101.69
385.112	105.69
385.337	109.69
385.562	106.69
385.787	91.69
386.013	118.69
386.238	122.69
386.463	95.69
386.688	113.69
386.913	101.69
387.138	94.69
387.363	102.69
387.588	106.69
387.813	111.69
388.038	109.69
388.263	99.69
388.488	101.69
388.713	92.69
388.938	91.69
389.163	90.69
389.387	103.69
389.612	102.69
389.837	101.69
390.062	94.69
390.287	100.69
390.512	94.69
390.736	92.69
390.961	96.69
391.186	95.69
391.411	97.69
391.636	91.69
391.86	90.69
392.085	96.69
392.31	98.69
392.534	103.69
392.759	88.69
392.984	95.69
393.208	97.69
393.433	97.69
393.658	93.69
393.882	85.69
394.107	88.69
394.331	85.69
394.556	88.69
394.78	92.69
395.005	102.69
395.229	88.69
395.454	86.69
395.678	94.69
395.903	99.69
396.127	88.69
396.352	82.69
396.576	82.69
396.801	80.69
397.025	103.69
397.249	92.69
397.474	105.69
397.698	93.69
397.922	78.69
398.147	85.69
398.371	88.69
398.595	102.69
398.82	77.69
399.044	81.69
399.268	90.69
399.492	92.69
399.717	100.69
399.941	95.69
400.165	93.69
400.389	95.69
400.613	98.69
400.837	90.69
401.062	96.69
401.286	75.69
401.51	79.69
401.734	102.69
401.958	110.69
402.182	126.69
402.406	134.69
402.63	102.69
402.854	71.69
403.078	84.69
403.302	86.69
403.526	95.69
403.75	105.69
403.974	101.69
404.198	101.69
404.422	95.69
404.645	93.69
404.869	90.69
405.093	91.69
405.317	91.69
405.541	96.69
405.765	101.69
405.988	107.69
406.212	161.69
406.436	190.69
406.66	125.69
406.883	100.69
407.107	90.69
407.331	89.69
407.555	106.69
407.778	98.69
408.002	104.69
408.226	83.69
408.449	82.69
408.673	92.69
408.896	88.69
409.12	93.69
409.344	78.69
409.567	104.69
409.791	86.69
410.014	98.69
410.238	88.69
410.461	88.69
410.685	101.69
410.908	96.69
411.132	100.69
411.355	100.69
411.578	106.69
411.802	91.69
412.025	96.69
412.249	86.69
412.472	84.69
412.695	84.69
412.919	98.69
413.142	88.69
413.365	100.69
413.589	94.69
413.812	96.69
414.035	94.69
414.258	100.69
414.482	101.69
414.705	102.69
414.928	86.69
415.151	92.69
415.374	113.69
415.597	97.69
415.821	90.69
416.044	91.69
416.267	80.69
416.49	84.69
416.713	94.69
416.936	83.69
417.159	85.69
417.382	98.69
417.605	93.69
417.828	92.69
418.051	96.69
418.274	105.69
418.497	101.69
418.72	98.69
418.943	104.69
419.166	88.69
419.389	95.69
419.611	101.69
419.834	97.69
420.057	91.69
420.28	100.69
420.503	82.69
420.726	91.69
420.948	88.69
421.171	74.69
421.394	96.69
421.617	90.69
421.839	85.69
422.062	113.69
422.285	90.69
422.507	102.69
422.73	87.69
422.953	96.69
423.175	87.69
423.398	90.69
423.621	88.69
423.843	102.69
424.066	92.69
424.288	88.69
424.511	82.69
424.733	104.69
424.956	95.69
425.178	97.69
425.401	106.69
425.623	107.69
425.846	92.69
426.068	82.69
426.291	92.69
426.513	84.69
426.735	108.69
426.958	81.69
427.18	93.69
427.402	110.69
427.625	154.69
427.847	129.69
428.069	92.69
428.292	101.69
428.514	70.69
428.736	90.69
428.958	95.69
429.181	88.69
429.403	94.69
429.625	76.69
429.847	90.69
430.069	96.69
430.292	98.69
430.514	98.69
430.736	96.69
430.958	80.69
431.18	82.69
431.402	86.69
431.624	88.69
431.846	96.69
432.068	88.69
432.29	87.69
432.512	92.69
432.734	93.69
432.956	82.69
433.178	93.69
433.4	89.69
433.622	107.69
433.844	90.69
434.066	102.69
434.287	93.69
434.509	92.69
434.731	93.69
434.953	81.69
435.175	81.69
435.397	90.69
435.618	88.69
435.84	108.69
436.062	110.69
436.284	101.69
436.505	98.69
436.727	104.69
436.949	101.69
437.17	91.69
437.392	76.69
437.614	99.69
437.835	104.69
438.057	99.69
438.278	96.69
438.5	90.69
438.721	105.69
438.943	89.69
439.165	94.69
439.386	90.69
439.608	97.69
439.829	110.69
440.05	109.69
440.272	134.69
440.493	93.69
440.715	83.69
440.936	98.69
441.158	96.69
441.379	81.69
441.6	100.69
441.822	84.69
442.043	92.69
442.264	101.69
442.486	103.69
442.707	92.69
442.928	101.69
443.149	132.69
443.371	105.69
443.592	106.69
443.813	98.69
444.034	99.69
444.255	103.69
444.476	85.69
444.698	93.69
444.919	90.69
445.14	144.69
445.361	133.69
445.582	100.69
445.803	119.69
446.024	133.69
446.245	123.69
446.466	105.69
446.687	92.69
446.908	94.69
447.129	107.69
447.35	93.69
447.571	93.69
447.792	101.69
448.013	88.69
448.234	98.69
448.455	102.69
448.675	110.69
448.896	114.69
449.117	102.69
449.338	97.69
449.559	127.69
449.779	127.69
450	95.69
450.221	89.69
450.442	78.69
450.662	97.69
450.883	98.69
451.104	105.69
451.324	85.69
451.545	78.69
451.766	88.69
451.986	91.69
452.207	87.69
452.428	94.69
452.648	103.69
452.869	124.69
453.089	98.69
453.31	107.69
453.53	88.69
453.751	80.69
453.971	92.69
454.192	94.69
454.412	90.69
454.633	93.69
454.853	96.69
455.073	78.69
455.294	101.69
455.514	88.69
455.734	86.69
455.955	107.69
456.175	82.69
456.395	87.69
456.616	93.69
456.836	99.69
457.056	95.69
457.276	78.69
457.497	86.69
457.717	90.69
457.937	97.69
458.157	104.69
458.377	110.69
458.598	100.69
458.818	153.69
459.038	149.69
459.258	128.69
459.478	92.69
459.698	94.69
459.918	76.69
460.138	82.69
460.358	99.69
460.578	98.69
460.798	92.69
461.018	106.69
461.238	82.69
461.458	81.69
461.678	78.69
461.898	80.69
462.118	92.69
462.338	73.69
462.558	96.69
462.777	88.69
462.997	78.69
463.217	92.69
463.437	93.69
463.657	85.69
463.876	95.69
464.096	81.69
464.316	97.69
464.536	102.69
464.755	88.69
464.975	97.69
465.195	136.69
465.414	142.69
465.634	100.69
465.854	82.69
466.073	96.69
466.293	90.69
466.512	104.69
466.732	98.69
466.951	96.69
467.171	93.69
467.391	98.69
467.61	104.69
467.829	102.69
468.049	94.69
468.268	78.69
468.488	97.69
468.707	84.69
468.927	83.69
469.146	84.69
469.365	85.69
469.585	86.69
469.804	100.69
470.023	97.69
470.243	89.69
470.462	99.69
470.681	101.69
470.901	74.69
471.12	96.69
471.339	81.69
471.558	87.69
471.777	81.69
471.997	96.69
472.216	91.69
472.435	96.69
472.654	93.69
472.873	95.69
473.092	94.69
473.311	87.69
473.53	88.69
473.749	99.69
473.968	105.69
474.187	101.69
474.406	93.69
474.625	79.69
474.844	81.69
475.063	91.69
475.282	87.69
475.501	82.69
475.72	90.69
475.939	85.69
476.158	95.69
476.377	93.69
476.596	89.69
476.814	73.69
477.033	89.69
477.252	88.69
477.471	88.69
477.69	89.69
477.908	88.69
478.127	113.69
478.346	89.69
478.564	96.69
478.783	87.69
479.002	107.69
479.22	91.69
479.439	85.69
479.658	100.69
479.876	102.69
480.095	90.69
480.313	100.69
480.532	88.69
480.751	88.69
480.969	98.69
481.188	109.69
481.406	97.69
481.624	100.69
481.843	96.69
482.061	81.69
482.28	97.69
482.498	82.69
482.717	85.69
482.935	100.69
483.153	97.69
483.372	96.69
483.59	85.69
483.808	92.69
484.027	95.69
484.245	94.69
484.463	97.69
484.681	102.69
484.9	97.69
485.118	77.69
485.336	105.69
485.554	102.69
485.772	106.69
485.99	110.69
486.209	102.69
486.427	105.69
486.645	102.69
486.863	93.69
487.081	86.69
487.299	100.69
487.517	86.69
487.735	90.69
487.953	90.69
488.171	93.69
488.389	98.69
488.607	96.69
488.825	92.69
489.043	90.69
489.261	102.69
489.479	91.69
489.696	94.69
489.914	88.69
490.132	89.69
490.35	76.69
490.568	91.69
490.786	90.69
491.003	99.69
491.221	88.69
491.439	100.69
491.657	98.69
491.874	97.69
492.092	104.69
492.31	85.69
492.527	79.69
492.745	86.69
492.963	99.69
493.18	95.69
493.398	93.69
493.615	93.69
493.833	87.69
494.05	84.69
494.268	83.69
494.485	114.69
494.703	89.69
494.92	89.69
495.138	103.69
495.355	93.69
495.573	97.69
495.79	96.69
496.008	101.69
496.225	93.69
496.442	106.69
496.66	91.69
496.877	101.69
497.094	104.69
497.312	98.69
497.529	88.69
497.746	94.69
497.963	87.69
498.181	89.69
498.398	80.69
498.615	113.69
498.832	110.69
499.049	88.69
499.267	94.69
499.484	97.69
499.701	92.69
499.918	93.69
500.135	90.69
500.352	94.69
500.569	91.69
500.786	86.69
501.003	99.69
501.22	89.69
501.437	94.69
501.654	93.69
501.871	107.69
502.088	92.69
502.305	93.69
502.522	87.69
502.739	75.69
502.956	105.69
503.172	114.69
503.389	86.69
503.606	105.69
503.823	92.69
504.04	98.69
504.256	100.69
504.473	91.69
504.69	94.69
504.907	88.69
505.123	89.69
505.34	89.69
505.557	105.69
505.773	98.69
505.99	93.69
506.207	90.69
506.423	93.69
506.64	93.69
506.856	101.69
507.073	85.69
507.289	84.69
507.506	85.69
507.722	102.69
507.939	110.69
508.155	92.69
508.372	87.69
508.588	82.69
508.805	108.69
509.021	97.69
509.238	112.69
509.454	104.69
509.67	93.69
509.887	110.69
510.103	118.69
510.319	188.69
510.536	597.69
510.752	1764.69
510.968	513.69
511.184	131.69
511.401	106.69
511.617	110.69
511.833	87.69
512.049	100.69
512.265	94.69
512.481	101.69
512.698	88.69
512.914	109.69
513.13	91.69
513.346	83.69
513.562	113.69
513.778	89.69
513.994	97.69
514.21	101.69
514.426	122.69
514.642	128.69
514.858	111.69
515.074	145.69
