Data from Uncirc_1987_H10_HRD10591_00044.txt Node
Date: Wed Jan 03 12:08:57 EST 2024
User: Yrep
Spectrometer: HR+D1059
Trigger mode: 1
Integration Time (sec): 1.000000E-1
Scans to average: 1
Electric dark correction enabled: true
Nonlinearity correction enabled: false
Boxcar width: 0
XAxis mode: Wavelengths
Number of Pixels in Spectrum: 2048
>>>>>Begin Spectral Data<<<<<
223.165	-14.69
223.4	-14.69
223.635	-14.69
223.869	-25.69
224.104	-20.69
224.338	-8.69
224.573	-18.69
224.808	-14.69
225.042	-0.69
225.277	-6.69
225.511	-10.69
225.746	11.31
225.98	15.31
226.215	8.31
226.449	19.31
226.683	19.31
226.918	22.31
227.152	25.31
227.387	45.31
227.621	33.31
227.856	42.31
228.09	30.31
228.324	49.31
228.559	53.31
228.793	65.31
229.027	63.31
229.262	50.31
229.496	75.31
229.73	82.31
229.964	80.31
230.199	77.31
230.433	72.31
230.667	70.31
230.901	66.31
231.136	73.31
231.37	81.31
231.604	91.31
231.838	64.31
232.072	79.31
232.306	77.31
232.541	92.31
232.775	91.31
233.009	84.31
233.243	80.31
233.477	82.31
233.711	78.31
233.945	84.31
234.179	84.31
234.413	82.31
234.647	79.31
234.881	59.31
235.115	79.31
235.349	64.31
235.583	77.31
235.817	89.31
236.051	77.31
236.285	55.31
236.519	84.31
236.753	71.31
236.987	91.31
237.221	72.31
237.455	84.31
237.689	73.31
237.922	74.31
238.156	68.31
238.39	64.31
238.624	93.31
238.858	80.31
239.091	77.31
239.325	76.31
239.559	77.31
239.793	81.31
240.027	87.31
240.26	77.31
240.494	77.31
240.728	81.31
240.961	77.31
241.195	86.31
241.429	65.31
241.662	63.31
241.896	55.31
242.13	84.31
242.363	73.31
242.597	69.31
242.83	93.31
243.064	85.31
243.298	84.31
243.531	72.31
243.765	85.31
243.998	80.31
244.232	82.31
244.465	78.31
244.699	85.31
244.932	83.31
245.166	102.31
245.399	61.31
245.633	76.31
245.866	76.31
246.099	62.31
246.333	71.31
246.566	84.31
246.8	70.31
247.033	85.31
247.266	75.31
247.5	68.31
247.733	86.31
247.966	67.31
248.2	65.31
248.433	68.31
248.666	77.31
248.899	89.31
249.133	84.31
249.366	102.31
249.599	89.31
249.832	84.31
250.066	81.31
250.299	81.31
250.532	97.31
250.765	85.31
250.998	79.31
251.231	64.31
251.465	82.31
251.698	83.31
251.931	87.31
252.164	85.31
252.397	78.31
252.63	65.31
252.863	77.31
253.096	75.31
253.329	69.31
253.562	92.31
253.795	75.31
254.028	79.31
254.261	87.31
254.494	78.31
254.727	82.31
254.96	81.31
255.193	86.31
255.426	75.31
255.659	79.31
255.892	83.31
256.124	79.31
256.357	71.31
256.59	84.31
256.823	87.31
257.056	81.31
257.289	81.31
257.521	80.31
257.754	65.31
257.987	72.31
258.22	84.31
258.452	77.31
258.685	89.31
258.918	90.31
259.151	87.31
259.383	83.31
259.616	80.31
259.849	77.31
260.081	77.31
260.314	69.31
260.547	82.31
260.779	83.31
261.012	92.31
261.244	81.31
261.477	98.31
261.71	79.31
261.942	108.31
262.175	120.31
262.407	84.31
262.64	88.31
262.872	87.31
263.105	70.31
263.337	91.31
263.57	83.31
263.802	81.31
264.035	83.31
264.267	78.31
264.499	85.31
264.732	87.31
264.964	95.31
265.197	83.31
265.429	80.31
265.661	77.31
265.894	87.31
266.126	82.31
266.358	81.31
266.591	83.31
266.823	88.31
267.055	82.31
267.287	80.31
267.52	83.31
267.752	77.31
267.984	71.31
268.216	82.31
268.448	83.31
268.681	80.31
268.913	85.31
269.145	78.31
269.377	84.31
269.609	86.31
269.841	86.31
270.073	73.31
270.306	75.31
270.538	77.31
270.77	89.31
271.002	79.31
271.234	78.31
271.466	83.31
271.698	89.31
271.93	83.31
272.162	60.31
272.394	79.31
272.626	85.31
272.858	77.31
273.09	86.31
273.322	86.31
273.553	79.31
273.785	81.31
274.017	86.31
274.249	67.31
274.481	82.31
274.713	86.31
274.945	76.31
275.176	88.31
275.408	81.31
275.64	73.31
275.872	88.31
276.104	91.31
276.335	77.31
276.567	92.31
276.799	105.31
277.031	92.31
277.262	87.31
277.494	87.31
277.726	86.31
277.957	78.31
278.189	75.31
278.421	81.31
278.652	88.31
278.884	60.31
279.115	86.31
279.347	85.31
279.579	86.31
279.81	76.31
280.042	80.31
280.273	88.31
280.505	94.31
280.736	84.31
280.968	75.31
281.199	94.31
281.431	96.31
281.662	82.31
281.894	83.31
282.125	93.31
282.356	112.31
282.588	133.31
282.819	98.31
283.051	94.31
283.282	81.31
283.513	105.31
283.745	85.31
283.976	84.31
284.207	92.31
284.439	92.31
284.67	86.31
284.901	85.31
285.132	84.31
285.364	86.31
285.595	83.31
285.826	87.31
286.057	98.31
286.288	79.31
286.52	93.31
286.751	80.31
286.982	90.31
287.213	96.31
287.444	93.31
287.675	96.31
287.906	100.31
288.138	96.31
288.369	83.31
288.6	104.31
288.831	79.31
289.062	84.31
289.293	80.31
289.524	84.31
289.755	72.31
289.986	78.31
290.217	87.31
290.448	88.31
290.679	76.31
290.91	78.31
291.141	100.31
291.371	82.31
291.602	78.31
291.833	90.31
292.064	80.31
292.295	98.31
292.526	91.31
292.757	78.31
292.987	79.31
293.218	89.31
293.449	98.31
293.68	99.31
293.91	80.31
294.141	91.31
294.372	95.31
294.603	84.31
294.833	98.31
295.064	80.31
295.295	81.31
295.525	98.31
295.756	85.31
295.987	98.31
296.217	124.31
296.448	118.31
296.679	95.31
296.909	70.31
297.14	82.31
297.37	91.31
297.601	87.31
297.831	87.31
298.062	82.31
298.292	87.31
298.523	86.31
298.753	84.31
298.984	92.31
299.214	90.31
299.445	100.31
299.675	98.31
299.905	85.31
300.136	83.31
300.366	78.31
300.597	105.31
300.827	102.31
301.057	95.31
301.288	102.31
301.518	89.31
301.748	87.31
301.979	109.31
302.209	85.31
302.439	75.31
302.669	83.31
302.9	85.31
303.13	86.31
303.36	106.31
303.59	98.31
303.82	105.31
304.051	87.31
304.281	105.31
304.511	79.31
304.741	85.31
304.971	98.31
305.201	91.31
305.431	92.31
305.661	84.31
305.891	67.31
306.121	87.31
306.352	99.31
306.582	95.31
306.812	95.31
307.042	89.31
307.272	98.31
307.502	82.31
307.731	95.31
307.961	87.31
308.191	92.31
308.421	97.31
308.651	92.31
308.881	99.31
309.111	85.31
309.341	91.31
309.571	95.31
309.8	85.31
310.03	99.31
310.26	95.31
310.49	86.31
310.72	103.31
310.949	94.31
311.179	91.31
311.409	85.31
311.639	87.31
311.868	88.31
312.098	85.31
312.328	105.31
312.557	110.31
312.787	108.31
313.017	100.31
313.246	92.31
313.476	86.31
313.706	76.31
313.935	94.31
314.165	93.31
314.394	92.31
314.624	102.31
314.853	100.31
315.083	92.31
315.312	102.31
315.542	95.31
315.771	89.31
316.001	100.31
316.23	88.31
316.46	86.31
316.689	98.31
316.919	91.31
317.148	91.31
317.377	95.31
317.607	96.31
317.836	92.31
318.065	103.31
318.295	87.31
318.524	93.31
318.753	86.31
318.983	113.31
319.212	100.31
319.441	121.31
319.67	105.31
319.9	75.31
320.129	101.31
320.358	83.31
320.587	89.31
320.816	105.31
321.046	94.31
321.275	101.31
321.504	92.31
321.733	89.31
321.962	95.31
322.191	95.31
322.42	76.31
322.649	106.31
322.878	102.31
323.108	109.31
323.337	117.31
323.566	123.31
323.795	142.31
324.024	186.31
324.253	383.31
324.482	785.31
324.71	1580.31
324.939	2159.31
325.168	809.31
325.397	236.31
325.626	144.31
325.855	116.31
326.084	104.31
326.313	123.31
326.542	135.31
326.77	199.31
326.999	438.31
327.228	894.31
327.457	1652.31
327.686	1332.31
327.914	369.31
328.143	178.31
328.372	125.31
328.6	119.31
328.829	111.31
329.058	127.31
329.287	115.31
329.515	98.31
329.744	100.31
329.972	104.31
330.201	94.31
330.43	102.31
330.658	118.31
330.887	137.31
331.115	120.31
331.344	92.31
331.572	110.31
331.801	95.31
332.03	100.31
332.258	91.31
332.486	82.31
332.715	97.31
332.943	96.31
333.172	92.31
333.4	85.31
333.629	87.31
333.857	102.31
334.085	105.31
334.314	101.31
334.542	112.31
334.771	115.31
334.999	105.31
335.227	93.31
335.455	92.31
335.684	95.31
335.912	89.31
336.14	90.31
336.369	106.31
336.597	88.31
336.825	102.31
337.053	93.31
337.281	83.31
337.51	82.31
337.738	103.31
337.966	98.31
338.194	103.31
338.422	109.31
338.65	84.31
338.878	92.31
339.106	83.31
339.334	93.31
339.562	72.31
339.79	92.31
340.018	97.31
340.246	94.31
340.474	91.31
340.702	88.31
340.93	100.31
341.158	98.31
341.386	90.31
341.614	100.31
341.842	91.31
342.07	82.31
342.298	92.31
342.526	89.31
342.754	84.31
342.981	91.31
343.209	80.31
343.437	103.31
343.665	102.31
343.893	77.31
344.12	99.31
344.348	77.31
344.576	88.31
344.804	85.31
345.031	106.31
345.259	91.31
345.487	95.31
345.714	101.31
345.942	95.31
346.17	100.31
346.397	99.31
346.625	77.31
346.853	90.31
347.08	91.31
347.308	103.31
347.535	102.31
347.763	92.31
347.99	95.31
348.218	89.31
348.445	97.31
348.673	101.31
348.9	112.31
349.128	97.31
349.355	99.31
349.583	93.31
349.81	83.31
350.037	87.31
350.265	89.31
350.492	86.31
350.72	92.31
350.947	91.31
351.174	91.31
351.402	99.31
351.629	96.31
351.856	92.31
352.083	98.31
352.311	82.31
352.538	118.31
352.765	101.31
352.992	110.31
353.22	105.31
353.447	93.31
353.674	104.31
353.901	89.31
354.128	93.31
354.355	97.31
354.583	120.31
354.81	82.31
355.037	95.31
355.264	96.31
355.491	94.31
355.718	93.31
355.945	92.31
356.172	95.31
356.399	88.31
356.626	98.31
356.853	81.31
357.08	87.31
357.307	90.31
357.534	95.31
357.761	88.31
357.988	91.31
358.215	85.31
358.441	89.31
358.668	95.31
358.895	102.31
359.122	97.31
359.349	81.31
359.576	101.31
359.802	102.31
360.029	95.31
360.256	98.31
360.483	85.31
360.709	90.31
360.936	112.31
361.163	102.31
361.39	88.31
361.616	93.31
361.843	90.31
362.07	95.31
362.296	89.31
362.523	87.31
362.749	83.31
362.976	81.31
363.203	88.31
363.429	84.31
363.656	111.31
363.882	85.31
364.109	95.31
364.335	96.31
364.562	87.31
364.788	93.31
365.015	95.31
365.241	101.31
365.468	97.31
365.694	102.31
365.92	101.31
366.147	102.31
366.373	92.31
366.599	86.31
366.826	89.31
367.052	79.31
367.278	91.31
367.505	107.31
367.731	97.31
367.957	94.31
368.184	94.31
368.41	85.31
368.636	116.31
368.862	104.31
369.089	93.31
369.315	102.31
369.541	102.31
369.767	91.31
369.993	100.31
370.219	104.31
370.445	91.31
370.672	72.31
370.898	77.31
371.124	92.31
371.35	92.31
371.576	79.31
371.802	88.31
372.028	91.31
372.254	83.31
372.48	85.31
372.706	87.31
372.932	89.31
373.158	86.31
373.384	84.31
373.61	87.31
373.835	78.31
374.061	85.31
374.287	93.31
374.513	90.31
374.739	97.31
374.965	83.31
375.191	87.31
375.416	89.31
375.642	90.31
375.868	85.31
376.094	103.31
376.319	97.31
376.545	99.31
376.771	104.31
376.997	80.31
377.222	80.31
377.448	86.31
377.674	87.31
377.899	98.31
378.125	91.31
378.35	84.31
378.576	79.31
378.802	79.31
379.027	89.31
379.253	85.31
379.478	92.31
379.704	94.31
379.929	104.31
380.155	103.31
380.38	85.31
380.606	89.31
380.831	102.31
381.057	92.31
381.282	96.31
381.507	89.31
381.733	84.31
381.958	96.31
382.184	100.31
382.409	90.31
382.634	100.31
382.86	97.31
383.085	92.31
383.31	100.31
383.535	110.31
383.761	104.31
383.986	99.31
384.211	80.31
384.436	109.31
384.662	88.31
384.887	98.31
385.112	87.31
385.337	87.31
385.562	98.31
385.787	96.31
386.013	113.31
386.238	107.31
386.463	101.31
386.688	109.31
386.913	90.31
387.138	87.31
387.363	91.31
387.588	99.31
387.813	94.31
388.038	92.31
388.263	101.31
388.488	107.31
388.713	93.31
388.938	83.31
389.163	80.31
389.387	91.31
389.612	96.31
389.837	91.31
390.062	107.31
390.287	96.31
390.512	87.31
390.736	81.31
390.961	84.31
391.186	93.31
391.411	85.31
391.636	91.31
391.86	93.31
392.085	75.31
392.31	87.31
392.534	86.31
392.759	91.31
392.984	90.31
393.208	84.31
393.433	95.31
393.658	86.31
393.882	83.31
394.107	80.31
394.331	87.31
394.556	73.31
394.78	87.31
395.005	91.31
395.229	78.31
395.454	97.31
395.678	99.31
395.903	89.31
396.127	78.31
396.352	102.31
396.576	88.31
396.801	97.31
397.025	96.31
397.249	94.31
397.474	72.31
397.698	70.31
397.922	97.31
398.147	93.31
398.371	80.31
398.595	70.31
398.82	95.31
399.044	89.31
399.268	86.31
399.492	84.31
399.717	84.31
399.941	99.31
400.165	96.31
400.389	78.31
400.613	80.31
400.837	84.31
401.062	94.31
401.286	92.31
401.51	83.31
401.734	72.31
401.958	101.31
402.182	127.31
402.406	145.31
402.63	105.31
402.854	94.31
403.078	88.31
403.302	97.31
403.526	88.31
403.75	80.31
403.974	80.31
404.198	80.31
404.422	71.31
404.645	89.31
404.869	81.31
405.093	92.31
405.317	94.31
405.541	110.31
405.765	91.31
405.988	111.31
406.212	177.31
406.436	211.31
406.66	123.31
406.883	94.31
407.107	88.31
407.331	95.31
407.555	88.31
407.778	87.31
408.002	93.31
408.226	80.31
408.449	86.31
408.673	82.31
408.896	80.31
409.12	92.31
409.344	113.31
409.567	105.31
409.791	86.31
410.014	91.31
410.238	79.31
410.461	103.31
410.685	82.31
410.908	102.31
411.132	109.31
411.355	97.31
411.578	84.31
411.802	84.31
412.025	92.31
412.249	85.31
412.472	86.31
412.695	82.31
412.919	83.31
413.142	93.31
413.365	88.31
413.589	81.31
413.812	95.31
414.035	92.31
414.258	89.31
414.482	70.31
414.705	95.31
414.928	89.31
415.151	84.31
415.374	99.31
415.597	85.31
415.821	89.31
416.044	89.31
416.267	86.31
416.49	75.31
416.713	91.31
416.936	91.31
417.159	99.31
417.382	84.31
417.605	82.31
417.828	81.31
418.051	88.31
418.274	86.31
418.497	79.31
418.72	93.31
418.943	95.31
419.166	88.31
419.389	93.31
419.611	86.31
419.834	99.31
420.057	95.31
420.28	92.31
420.503	79.31
420.726	96.31
420.948	86.31
421.171	80.31
421.394	86.31
421.617	94.31
421.839	77.31
422.062	78.31
422.285	86.31
422.507	95.31
422.73	95.31
422.953	86.31
423.175	90.31
423.398	76.31
423.621	79.31
423.843	71.31
424.066	79.31
424.288	95.31
424.511	85.31
424.733	101.31
424.956	103.31
425.178	87.31
425.401	91.31
425.623	88.31
425.846	79.31
426.068	87.31
426.291	75.31
426.513	104.31
426.735	86.31
426.958	96.31
427.18	106.31
427.402	118.31
427.625	137.31
427.847	121.31
428.069	93.31
428.292	91.31
428.514	80.31
428.736	74.31
428.958	92.31
429.181	81.31
429.403	83.31
429.625	88.31
429.847	86.31
430.069	92.31
430.292	86.31
430.514	94.31
430.736	80.31
430.958	91.31
431.18	89.31
431.402	85.31
431.624	77.31
431.846	85.31
432.068	94.31
432.29	70.31
432.512	92.31
432.734	81.31
432.956	91.31
433.178	91.31
433.4	91.31
433.622	89.31
433.844	91.31
434.066	80.31
434.287	88.31
434.509	99.31
434.731	77.31
434.953	93.31
435.175	82.31
435.397	86.31
435.618	81.31
435.84	91.31
436.062	108.31
436.284	118.31
436.505	87.31
436.727	91.31
436.949	96.31
437.17	102.31
437.392	94.31
437.614	97.31
437.835	105.31
438.057	116.31
438.278	107.31
438.5	99.31
438.721	128.31
438.943	99.31
439.165	96.31
439.386	86.31
439.608	82.31
439.829	96.31
440.05	127.31
440.272	135.31
440.493	88.31
440.715	101.31
440.936	97.31
441.158	86.31
441.379	83.31
441.6	96.31
441.822	88.31
442.043	91.31
442.264	95.31
442.486	98.31
442.707	92.31
442.928	96.31
443.149	118.31
443.371	120.31
443.592	83.31
443.813	99.31
444.034	95.31
444.255	99.31
444.476	101.31
444.698	94.31
444.919	87.31
445.14	135.31
445.361	116.31
445.582	107.31
445.803	137.31
446.024	133.31
446.245	131.31
446.466	118.31
446.687	90.31
446.908	101.31
447.129	81.31
447.35	81.31
447.571	93.31
447.792	89.31
448.013	95.31
448.234	103.31
448.455	103.31
448.675	111.31
448.896	96.31
449.117	86.31
449.338	100.31
449.559	135.31
449.779	116.31
450	93.31
450.221	81.31
450.442	86.31
450.662	93.31
450.883	109.31
451.104	101.31
451.324	91.31
451.545	87.31
451.766	80.31
451.986	83.31
452.207	95.31
452.428	83.31
452.648	94.31
452.869	109.31
453.089	119.31
453.31	127.31
453.53	82.31
453.751	104.31
453.971	97.31
454.192	97.31
454.412	85.31
454.633	81.31
454.853	77.31
455.073	90.31
455.294	97.31
455.514	94.31
455.734	84.31
455.955	96.31
456.175	88.31
456.395	95.31
456.616	77.31
456.836	87.31
457.056	81.31
457.276	78.31
457.497	73.31
457.717	76.31
457.937	87.31
458.157	96.31
458.377	91.31
458.598	106.31
458.818	152.31
459.038	139.31
459.258	105.31
459.478	91.31
459.698	88.31
459.918	89.31
460.138	95.31
460.358	97.31
460.578	94.31
460.798	84.31
461.018	68.31
461.238	83.31
461.458	81.31
461.678	74.31
461.898	96.31
462.118	87.31
462.338	75.31
462.558	73.31
462.777	87.31
462.997	96.31
463.217	89.31
463.437	84.31
463.657	82.31
463.876	83.31
464.096	80.31
464.316	91.31
464.536	93.31
464.755	80.31
464.975	77.31
465.195	165.31
465.414	153.31
465.634	89.31
465.854	90.31
466.073	86.31
466.293	85.31
466.512	87.31
466.732	88.31
466.951	96.31
467.171	91.31
467.391	83.31
467.61	105.31
467.829	97.31
468.049	104.31
468.268	95.31
468.488	85.31
468.707	80.31
468.927	91.31
469.146	97.31
469.365	93.31
469.585	93.31
469.804	96.31
470.023	93.31
470.243	87.31
470.462	100.31
470.681	100.31
470.901	94.31
471.12	94.31
471.339	85.31
471.558	96.31
471.777	88.31
471.997	84.31
472.216	85.31
472.435	84.31
472.654	86.31
472.873	94.31
473.092	91.31
473.311	87.31
473.53	93.31
473.749	101.31
473.968	83.31
474.187	95.31
474.406	83.31
474.625	95.31
474.844	85.31
475.063	91.31
475.282	82.31
475.501	92.31
475.72	85.31
475.939	81.31
476.158	75.31
476.377	78.31
476.596	87.31
476.814	92.31
477.033	91.31
477.252	96.31
477.471	81.31
477.69	94.31
477.908	91.31
478.127	87.31
478.346	80.31
478.564	89.31
478.783	108.31
479.002	89.31
479.22	95.31
479.439	96.31
479.658	102.31
479.876	92.31
480.095	78.31
480.313	83.31
480.532	90.31
480.751	93.31
480.969	99.31
481.188	111.31
481.406	98.31
481.624	92.31
481.843	77.31
482.061	83.31
482.28	71.31
482.498	96.31
482.717	88.31
482.935	88.31
483.153	104.31
483.372	97.31
483.59	99.31
483.808	93.31
484.027	96.31
484.245	85.31
484.463	85.31
484.681	108.31
484.9	84.31
485.118	81.31
485.336	99.31
485.554	108.31
485.772	105.31
485.99	97.31
486.209	111.31
486.427	107.31
486.645	97.31
486.863	99.31
487.081	106.31
487.299	89.31
487.517	78.31
487.735	81.31
487.953	89.31
488.171	90.31
488.389	87.31
488.607	113.31
488.825	100.31
489.043	105.31
489.261	80.31
489.479	85.31
489.696	90.31
489.914	89.31
490.132	95.31
490.35	85.31
490.568	92.31
490.786	88.31
491.003	78.31
491.221	88.31
491.439	96.31
491.657	80.31
491.874	89.31
492.092	79.31
492.31	97.31
492.527	80.31
492.745	76.31
492.963	94.31
493.18	94.31
493.398	90.31
493.615	98.31
493.833	89.31
494.05	84.31
494.268	69.31
494.485	96.31
494.703	93.31
494.92	79.31
495.138	92.31
495.355	103.31
495.573	84.31
495.79	88.31
496.008	91.31
496.225	96.31
496.442	91.31
496.66	95.31
496.877	93.31
497.094	99.31
497.312	97.31
497.529	70.31
497.746	96.31
497.963	77.31
498.181	93.31
498.398	89.31
498.615	108.31
498.832	101.31
499.049	80.31
499.267	96.31
499.484	77.31
499.701	91.31
499.918	89.31
500.135	95.31
500.352	88.31
500.569	98.31
500.786	91.31
501.003	86.31
501.22	102.31
501.437	72.31
501.654	101.31
501.871	113.31
502.088	104.31
502.305	85.31
502.522	97.31
502.739	101.31
502.956	80.31
503.172	101.31
503.389	88.31
503.606	98.31
503.823	117.31
504.04	88.31
504.256	79.31
504.473	93.31
504.69	88.31
504.907	87.31
505.123	88.31
505.34	91.31
505.557	79.31
505.773	94.31
505.99	99.31
506.207	77.31
506.423	92.31
506.64	87.31
506.856	95.31
507.073	87.31
507.289	93.31
507.506	93.31
507.722	102.31
507.939	117.31
508.155	95.31
508.372	97.31
508.588	89.31
508.805	103.31
509.021	100.31
509.238	94.31
509.454	96.31
509.67	99.31
509.887	98.31
510.103	118.31
510.319	215.31
510.536	755.31
510.752	2393.31
510.968	655.31
511.184	158.31
511.401	102.31
511.617	86.31
511.833	86.31
512.049	85.31
512.265	86.31
512.481	90.31
512.698	88.31
512.914	104.31
513.13	86.31
513.346	92.31
513.562	105.31
513.778	88.31
513.994	93.31
514.21	96.31
514.426	118.31
514.642	126.31
514.858	119.31
515.074	162.31
515.29	456.31
515.506	1468.31
515.721	530.31
515.937	139.31
516.153	93.31
516.369	95.31
516.585	78.31
