Data from Uncirc_1987_H10_HRD10591_00092.txt Node
Date: Wed Jan 03 12:09:06 EST 2024
User: Yrep
Spectrometer: HR+D1059
Trigger mode: 1
Integration Time (sec): 1.000000E-1
Scans to average: 1
Electric dark correction enabled: true
Nonlinearity correction enabled: false
Boxcar width: 0
XAxis mode: Wavelengths
Number of Pixels in Spectrum: 2048
>>>>>Begin Spectral Data<<<<<
223.165	-22.06
223.4	-22.06
223.635	-22.06
223.869	-15.06
224.104	-13.06
224.338	-23.06
224.573	-25.06
224.808	-8.06
225.042	-17.06
225.277	-6.06
225.511	-10.06
225.746	-1.06
225.98	19.94
226.215	23.94
226.449	21.94
226.683	30.94
226.918	18.94
227.152	24.94
227.387	41.94
227.621	43.94
227.856	45.94
228.09	42.94
228.324	51.94
228.559	37.94
228.793	54.94
229.027	62.94
229.262	58.94
229.496	77.94
229.73	85.94
229.964	100.94
230.199	86.94
230.433	78.94
230.667	79.94
230.901	77.94
231.136	88.94
231.37	85.94
231.604	85.94
231.838	85.94
232.072	79.94
232.306	77.94
232.541	79.94
232.775	70.94
233.009	85.94
233.243	86.94
233.477	80.94
233.711	85.94
233.945	82.94
234.179	85.94
234.413	79.94
234.647	73.94
234.881	83.94
235.115	81.94
235.349	91.94
235.583	91.94
235.817	81.94
236.051	81.94
236.285	101.94
236.519	71.94
236.753	83.94
236.987	78.94
237.221	72.94
237.455	79.94
237.689	96.94
237.922	74.94
238.156	84.94
238.39	67.94
238.624	66.94
238.858	75.94
239.091	70.94
239.325	80.94
239.559	64.94
239.793	74.94
240.027	85.94
240.26	77.94
240.494	93.94
240.728	74.94
240.961	75.94
241.195	81.94
241.429	57.94
241.662	69.94
241.896	65.94
242.13	82.94
242.363	87.94
242.597	61.94
242.83	84.94
243.064	72.94
243.298	72.94
243.531	85.94
243.765	83.94
243.998	72.94
244.232	83.94
244.465	81.94
244.699	85.94
244.932	74.94
245.166	85.94
245.399	87.94
245.633	71.94
245.866	87.94
246.099	80.94
246.333	83.94
246.566	75.94
246.8	94.94
247.033	80.94
247.266	67.94
247.5	84.94
247.733	63.94
247.966	77.94
248.2	89.94
248.433	84.94
248.666	84.94
248.899	89.94
249.133	76.94
249.366	97.94
249.599	90.94
249.832	87.94
250.066	93.94
250.299	84.94
250.532	78.94
250.765	88.94
250.998	93.94
251.231	69.94
251.465	71.94
251.698	81.94
251.931	88.94
252.164	89.94
252.397	80.94
252.63	78.94
252.863	82.94
253.096	90.94
253.329	77.94
253.562	73.94
253.795	90.94
254.028	84.94
254.261	84.94
254.494	86.94
254.727	65.94
254.96	73.94
255.193	91.94
255.426	73.94
255.659	69.94
255.892	81.94
256.124	87.94
256.357	74.94
256.59	82.94
256.823	73.94
257.056	83.94
257.289	82.94
257.521	93.94
257.754	75.94
257.987	79.94
258.22	77.94
258.452	79.94
258.685	88.94
258.918	77.94
259.151	81.94
259.383	78.94
259.616	87.94
259.849	94.94
260.081	88.94
260.314	83.94
260.547	80.94
260.779	95.94
261.012	74.94
261.244	94.94
261.477	96.94
261.71	90.94
261.942	111.94
262.175	106.94
262.407	95.94
262.64	80.94
262.872	98.94
263.105	79.94
263.337	87.94
263.57	100.94
263.802	70.94
264.035	80.94
264.267	77.94
264.499	82.94
264.732	86.94
264.964	85.94
265.197	79.94
265.429	82.94
265.661	75.94
265.894	81.94
266.126	75.94
266.358	88.94
266.591	88.94
266.823	82.94
267.055	83.94
267.287	89.94
267.52	87.94
267.752	83.94
267.984	99.94
268.216	78.94
268.448	90.94
268.681	87.94
268.913	81.94
269.145	87.94
269.377	87.94
269.609	62.94
269.841	83.94
270.073	85.94
270.306	81.94
270.538	87.94
270.77	75.94
271.002	74.94
271.234	80.94
271.466	88.94
271.698	81.94
271.93	86.94
272.162	84.94
272.394	96.94
272.626	73.94
272.858	85.94
273.09	82.94
273.322	82.94
273.553	77.94
273.785	82.94
274.017	92.94
274.249	81.94
274.481	84.94
274.713	77.94
274.945	81.94
275.176	88.94
275.408	85.94
275.64	83.94
275.872	73.94
276.104	83.94
276.335	90.94
276.567	112.94
276.799	100.94
277.031	105.94
277.262	90.94
277.494	89.94
277.726	85.94
277.957	68.94
278.189	90.94
278.421	93.94
278.652	94.94
278.884	89.94
279.115	83.94
279.347	82.94
279.579	85.94
279.81	91.94
280.042	80.94
280.273	87.94
280.505	81.94
280.736	98.94
280.968	86.94
281.199	84.94
281.431	86.94
281.662	95.94
281.894	106.94
282.125	88.94
282.356	104.94
282.588	144.94
282.819	111.94
283.051	88.94
283.282	92.94
283.513	82.94
283.745	82.94
283.976	86.94
284.207	87.94
284.439	82.94
284.67	82.94
284.901	71.94
285.132	85.94
285.364	84.94
285.595	110.94
285.826	86.94
286.057	85.94
286.288	87.94
286.52	83.94
286.751	78.94
286.982	82.94
287.213	89.94
287.444	87.94
287.675	105.94
287.906	83.94
288.138	76.94
288.369	85.94
288.6	81.94
288.831	88.94
289.062	79.94
289.293	86.94
289.524	86.94
289.755	92.94
289.986	80.94
290.217	90.94
290.448	100.94
290.679	84.94
290.91	87.94
291.141	79.94
291.371	91.94
291.602	97.94
291.833	73.94
292.064	84.94
292.295	87.94
292.526	93.94
292.757	74.94
292.987	77.94
293.218	89.94
293.449	99.94
293.68	89.94
293.91	79.94
294.141	87.94
294.372	93.94
294.603	98.94
294.833	88.94
295.064	97.94
295.295	83.94
295.525	103.94
295.756	100.94
295.987	113.94
296.217	152.94
296.448	120.94
296.679	89.94
296.909	82.94
297.14	105.94
297.37	87.94
297.601	75.94
297.831	90.94
298.062	102.94
298.292	81.94
298.523	99.94
298.753	96.94
298.984	77.94
299.214	93.94
299.445	93.94
299.675	89.94
299.905	95.94
300.136	88.94
300.366	83.94
300.597	90.94
300.827	81.94
301.057	97.94
301.288	106.94
301.518	89.94
301.748	78.94
301.979	73.94
302.209	95.94
302.439	89.94
302.669	91.94
302.9	89.94
303.13	97.94
303.36	96.94
303.59	105.94
303.82	105.94
304.051	83.94
304.281	94.94
304.511	114.94
304.741	77.94
304.971	106.94
305.201	87.94
305.431	89.94
305.661	85.94
305.891	88.94
306.121	101.94
306.352	99.94
306.582	100.94
306.812	90.94
307.042	89.94
307.272	100.94
307.502	83.94
307.731	79.94
307.961	82.94
308.191	93.94
308.421	111.94
308.651	88.94
308.881	87.94
309.111	105.94
309.341	106.94
309.571	95.94
309.8	97.94
310.03	98.94
310.26	83.94
310.49	94.94
310.72	99.94
310.949	80.94
311.179	93.94
311.409	105.94
311.639	100.94
311.868	93.94
312.098	95.94
312.328	88.94
312.557	104.94
312.787	96.94
313.017	97.94
313.246	96.94
313.476	76.94
313.706	93.94
313.935	85.94
314.165	86.94
314.394	94.94
314.624	89.94
314.853	89.94
315.083	101.94
315.312	102.94
315.542	96.94
315.771	90.94
316.001	88.94
316.23	88.94
316.46	80.94
316.689	92.94
316.919	102.94
317.148	92.94
317.377	96.94
317.607	90.94
317.836	91.94
318.065	97.94
318.295	94.94
318.524	85.94
318.753	96.94
318.983	97.94
319.212	95.94
319.441	100.94
319.67	111.94
319.9	93.94
320.129	91.94
320.358	87.94
320.587	97.94
320.816	96.94
321.046	113.94
321.275	106.94
321.504	95.94
321.733	99.94
321.962	99.94
322.191	95.94
322.42	88.94
322.649	120.94
322.878	107.94
323.108	114.94
323.337	136.94
323.566	125.94
323.795	144.94
324.024	195.94
324.253	365.94
324.482	759.94
324.71	1533.94
324.939	2058.94
325.168	754.94
325.397	242.94
325.626	142.94
325.855	125.94
326.084	117.94
326.313	150.94
326.542	149.94
326.77	199.94
326.999	427.94
327.228	853.94
327.457	1588.94
327.686	1249.94
327.914	335.94
328.143	189.94
328.372	149.94
328.6	123.94
328.829	121.94
329.058	123.94
329.287	122.94
329.515	101.94
329.744	93.94
329.972	103.94
330.201	112.94
330.43	121.94
330.658	131.94
330.887	131.94
331.115	122.94
331.344	70.94
331.572	91.94
331.801	98.94
332.03	93.94
332.258	103.94
332.486	84.94
332.715	105.94
332.943	85.94
333.172	89.94
333.4	105.94
333.629	105.94
333.857	115.94
334.085	102.94
334.314	121.94
334.542	115.94
334.771	113.94
334.999	99.94
335.227	103.94
335.455	84.94
335.684	102.94
335.912	99.94
336.14	87.94
336.369	93.94
336.597	107.94
336.825	95.94
337.053	94.94
337.281	87.94
337.51	77.94
337.738	93.94
337.966	88.94
338.194	105.94
338.422	98.94
338.65	95.94
338.878	90.94
339.106	89.94
339.334	86.94
339.562	94.94
339.79	107.94
340.018	78.94
340.246	83.94
340.474	102.94
340.702	99.94
340.93	99.94
341.158	89.94
341.386	99.94
341.614	113.94
341.842	113.94
342.07	96.94
342.298	86.94
342.526	83.94
342.754	93.94
342.981	84.94
343.209	108.94
343.437	96.94
343.665	84.94
343.893	96.94
344.12	93.94
344.348	94.94
344.576	83.94
344.804	85.94
345.031	103.94
345.259	98.94
345.487	98.94
345.714	105.94
345.942	94.94
346.17	100.94
346.397	96.94
346.625	101.94
346.853	88.94
347.08	90.94
347.308	93.94
347.535	101.94
347.763	98.94
347.99	98.94
348.218	107.94
348.445	105.94
348.673	93.94
348.9	85.94
349.128	95.94
349.355	89.94
349.583	87.94
349.81	86.94
350.037	93.94
350.265	102.94
350.492	96.94
350.72	86.94
350.947	94.94
351.174	101.94
351.402	105.94
351.629	102.94
351.856	109.94
352.083	118.94
352.311	120.94
352.538	115.94
352.765	104.94
352.992	114.94
353.22	94.94
353.447	103.94
353.674	105.94
353.901	97.94
354.128	102.94
354.355	103.94
354.583	101.94
354.81	78.94
355.037	101.94
355.264	85.94
355.491	89.94
355.718	97.94
355.945	99.94
356.172	82.94
356.399	94.94
356.626	73.94
356.853	102.94
357.08	87.94
357.307	98.94
357.534	92.94
357.761	91.94
357.988	110.94
358.215	96.94
358.441	91.94
358.668	83.94
358.895	80.94
359.122	92.94
359.349	79.94
359.576	86.94
359.802	101.94
360.029	99.94
360.256	103.94
360.483	85.94
360.709	95.94
360.936	98.94
361.163	86.94
361.39	89.94
361.616	82.94
361.843	81.94
362.07	103.94
362.296	88.94
362.523	75.94
362.749	98.94
362.976	94.94
363.203	93.94
363.429	85.94
363.656	85.94
363.882	85.94
364.109	81.94
364.335	87.94
364.562	97.94
364.788	93.94
365.015	96.94
365.241	102.94
365.468	103.94
365.694	93.94
365.92	104.94
366.147	92.94
366.373	85.94
366.599	94.94
366.826	73.94
367.052	79.94
367.278	86.94
367.505	98.94
367.731	83.94
367.957	85.94
368.184	81.94
368.41	85.94
368.636	104.94
368.862	133.94
369.089	96.94
369.315	93.94
369.541	95.94
369.767	73.94
369.993	85.94
370.219	101.94
370.445	104.94
370.672	86.94
370.898	86.94
371.124	107.94
371.35	86.94
371.576	98.94
371.802	100.94
372.028	95.94
372.254	89.94
372.48	81.94
372.706	87.94
372.932	94.94
373.158	86.94
373.384	93.94
373.61	95.94
373.835	84.94
374.061	85.94
374.287	83.94
374.513	83.94
374.739	79.94
374.965	84.94
375.191	84.94
375.416	80.94
375.642	85.94
375.868	83.94
376.094	98.94
376.319	78.94
376.545	94.94
376.771	95.94
376.997	97.94
377.222	91.94
377.448	101.94
377.674	82.94
377.899	87.94
378.125	83.94
378.35	95.94
378.576	97.94
378.802	82.94
379.027	98.94
379.253	92.94
379.478	90.94
379.704	107.94
379.929	94.94
380.155	94.94
380.38	97.94
380.606	86.94
380.831	82.94
381.057	97.94
381.282	87.94
381.507	103.94
381.733	91.94
381.958	92.94
382.184	94.94
382.409	95.94
382.634	92.94
382.86	93.94
383.085	98.94
383.31	111.94
383.535	113.94
383.761	103.94
383.986	116.94
384.211	92.94
384.436	102.94
384.662	107.94
384.887	106.94
385.112	109.94
385.337	105.94
385.562	90.94
385.787	93.94
386.013	83.94
386.238	111.94
386.463	104.94
386.688	90.94
386.913	95.94
387.138	90.94
387.363	100.94
387.588	103.94
387.813	97.94
388.038	107.94
388.263	105.94
388.488	106.94
388.713	99.94
388.938	95.94
389.163	87.94
389.387	103.94
389.612	90.94
389.837	83.94
390.062	93.94
390.287	85.94
390.512	88.94
390.736	82.94
390.961	94.94
391.186	81.94
391.411	94.94
391.636	94.94
391.86	79.94
392.085	93.94
392.31	82.94
392.534	95.94
392.759	88.94
392.984	102.94
393.208	97.94
393.433	85.94
393.658	80.94
393.882	88.94
394.107	85.94
394.331	71.94
394.556	95.94
394.78	89.94
395.005	99.94
395.229	93.94
395.454	96.94
395.678	83.94
395.903	86.94
396.127	100.94
396.352	90.94
396.576	93.94
396.801	89.94
397.025	95.94
397.249	68.94
397.474	78.94
397.698	68.94
397.922	97.94
398.147	94.94
398.371	81.94
398.595	77.94
398.82	85.94
399.044	73.94
399.268	95.94
399.492	89.94
399.717	97.94
399.941	79.94
400.165	88.94
400.389	82.94
400.613	91.94
400.837	96.94
401.062	77.94
401.286	79.94
401.51	95.94
401.734	97.94
401.958	93.94
402.182	109.94
402.406	153.94
402.63	96.94
402.854	99.94
403.078	94.94
403.302	85.94
403.526	87.94
403.75	86.94
403.974	80.94
404.198	98.94
404.422	79.94
404.645	98.94
404.869	83.94
405.093	107.94
405.317	106.94
405.541	104.94
405.765	94.94
405.988	105.94
406.212	152.94
406.436	225.94
406.66	136.94
406.883	103.94
407.107	105.94
407.331	90.94
407.555	104.94
407.778	100.94
408.002	69.94
408.226	79.94
408.449	89.94
408.673	81.94
408.896	103.94
409.12	99.94
409.344	81.94
409.567	93.94
409.791	98.94
410.014	93.94
410.238	98.94
410.461	98.94
410.685	96.94
410.908	95.94
411.132	101.94
411.355	93.94
411.578	90.94
411.802	79.94
412.025	97.94
412.249	93.94
412.472	100.94
412.695	105.94
412.919	99.94
413.142	99.94
413.365	97.94
413.589	93.94
413.812	81.94
414.035	83.94
414.258	85.94
414.482	86.94
414.705	90.94
414.928	94.94
415.151	93.94
415.374	101.94
415.597	82.94
415.821	84.94
416.044	89.94
416.267	79.94
416.49	89.94
416.713	86.94
416.936	87.94
417.159	94.94
417.382	91.94
417.605	81.94
417.828	107.94
418.051	106.94
418.274	85.94
418.497	105.94
418.72	86.94
418.943	94.94
419.166	92.94
419.389	91.94
419.611	94.94
419.834	93.94
420.057	79.94
420.28	95.94
420.503	77.94
420.726	97.94
420.948	85.94
421.171	96.94
421.394	85.94
421.617	105.94
421.839	101.94
422.062	85.94
422.285	98.94
422.507	95.94
422.73	125.94
422.953	82.94
423.175	80.94
423.398	87.94
423.621	85.94
423.843	79.94
424.066	90.94
424.288	82.94
424.511	103.94
424.733	101.94
424.956	113.94
425.178	99.94
425.401	102.94
425.623	89.94
425.846	86.94
426.068	84.94
426.291	94.94
426.513	89.94
426.735	97.94
426.958	93.94
427.18	106.94
427.402	133.94
427.625	157.94
427.847	123.94
428.069	106.94
428.292	89.94
428.514	83.94
428.736	77.94
428.958	87.94
429.181	95.94
429.403	86.94
429.625	86.94
429.847	92.94
430.069	97.94
430.292	94.94
430.514	83.94
430.736	87.94
430.958	80.94
431.18	80.94
431.402	79.94
431.624	88.94
431.846	85.94
432.068	89.94
432.29	78.94
432.512	95.94
432.734	102.94
432.956	96.94
433.178	87.94
433.4	97.94
433.622	87.94
433.844	96.94
434.066	87.94
434.287	95.94
434.509	83.94
434.731	91.94
434.953	104.94
435.175	90.94
435.397	104.94
435.618	90.94
435.84	91.94
436.062	117.94
436.284	112.94
436.505	117.94
436.727	93.94
436.949	104.94
437.17	103.94
437.392	87.94
437.614	99.94
437.835	101.94
438.057	102.94
438.278	119.94
438.5	97.94
438.721	120.94
438.943	114.94
439.165	101.94
439.386	80.94
439.608	96.94
439.829	92.94
440.05	124.94
440.272	127.94
440.493	95.94
440.715	88.94
440.936	91.94
441.158	102.94
441.379	88.94
441.6	84.94
441.822	93.94
442.043	98.94
442.264	102.94
442.486	103.94
442.707	79.94
442.928	106.94
443.149	132.94
443.371	107.94
443.592	104.94
443.813	105.94
444.034	107.94
444.255	89.94
444.476	80.94
444.698	91.94
444.919	94.94
445.14	130.94
445.361	124.94
445.582	114.94
445.803	134.94
446.024	132.94
446.245	114.94
446.466	102.94
446.687	105.94
446.908	94.94
447.129	77.94
447.35	79.94
447.571	89.94
447.792	95.94
448.013	95.94
448.234	87.94
448.455	106.94
448.675	116.94
448.896	110.94
449.117	88.94
449.338	97.94
449.559	124.94
449.779	130.94
450	93.94
450.221	99.94
450.442	87.94
450.662	106.94
450.883	89.94
451.104	106.94
451.324	97.94
451.545	103.94
451.766	88.94
451.986	77.94
452.207	103.94
452.428	92.94
452.648	87.94
452.869	94.94
453.089	97.94
453.31	108.94
453.53	96.94
453.751	89.94
453.971	110.94
454.192	99.94
454.412	94.94
454.633	97.94
454.853	92.94
455.073	97.94
455.294	93.94
455.514	95.94
455.734	90.94
455.955	87.94
456.175	79.94
456.395	98.94
456.616	79.94
456.836	83.94
457.056	99.94
457.276	85.94
457.497	96.94
457.717	87.94
457.937	95.94
458.157	81.94
458.377	86.94
458.598	103.94
458.818	138.94
459.038	155.94
459.258	108.94
459.478	79.94
459.698	93.94
459.918	85.94
460.138	89.94
460.358	75.94
460.578	83.94
460.798	75.94
461.018	65.94
461.238	78.94
461.458	86.94
461.678	94.94
461.898	105.94
462.118	72.94
462.338	93.94
462.558	93.94
462.777	91.94
462.997	94.94
463.217	81.94
463.437	97.94
463.657	95.94
463.876	84.94
464.096	94.94
464.316	78.94
464.536	81.94
464.755	87.94
464.975	89.94
465.195	157.94
465.414	151.94
465.634	77.94
465.854	89.94
466.073	99.94
466.293	92.94
466.512	95.94
466.732	97.94
466.951	106.94
467.171	85.94
467.391	93.94
467.61	99.94
467.829	105.94
468.049	94.94
468.268	104.94
468.488	80.94
468.707	77.94
468.927	85.94
469.146	75.94
469.365	91.94
469.585	102.94
469.804	114.94
470.023	90.94
470.243	96.94
470.462	107.94
470.681	110.94
470.901	109.94
471.12	91.94
471.339	75.94
471.558	97.94
471.777	89.94
471.997	93.94
472.216	90.94
472.435	138.94
472.654	90.94
472.873	95.94
473.092	77.94
473.311	78.94
473.53	74.94
473.749	84.94
473.968	93.94
474.187	87.94
474.406	87.94
474.625	94.94
474.844	84.94
475.063	86.94
475.282	94.94
475.501	85.94
475.72	94.94
475.939	80.94
476.158	96.94
476.377	72.94
476.596	97.94
476.814	88.94
477.033	94.94
477.252	87.94
477.471	84.94
477.69	85.94
477.908	96.94
478.127	81.94
478.346	93.94
478.564	92.94
478.783	101.94
479.002	97.94
479.22	89.94
479.439	96.94
479.658	96.94
479.876	90.94
480.095	86.94
480.313	99.94
480.532	91.94
480.751	101.94
480.969	113.94
481.188	166.94
481.406	150.94
481.624	100.94
481.843	90.94
482.061	89.94
482.28	83.94
482.498	104.94
482.717	88.94
482.935	88.94
483.153	94.94
483.372	86.94
483.59	87.94
483.808	71.94
484.027	69.94
484.245	97.94
484.463	93.94
484.681	98.94
484.9	81.94
485.118	102.94
485.336	100.94
485.554	99.94
485.772	92.94
485.99	116.94
486.209	113.94
486.427	108.94
486.645	104.94
486.863	119.94
487.081	99.94
487.299	106.94
487.517	101.94
487.735	95.94
487.953	106.94
488.171	96.94
488.389	106.94
488.607	98.94
488.825	93.94
489.043	81.94
489.261	98.94
489.479	81.94
489.696	96.94
489.914	85.94
490.132	87.94
490.35	86.94
490.568	84.94
490.786	94.94
491.003	86.94
491.221	87.94
491.439	82.94
491.657	100.94
491.874	97.94
492.092	96.94
492.31	95.94
492.527	81.94
492.745	101.94
492.963	89.94
493.18	93.94
493.398	95.94
493.615	105.94
493.833	94.94
494.05	93.94
494.268	92.94
494.485	91.94
494.703	102.94
494.92	91.94
495.138	87.94
495.355	84.94
495.573	88.94
495.79	102.94
496.008	89.94
496.225	89.94
496.442	87.94
496.66	99.94
496.877	91.94
497.094	101.94
497.312	87.94
497.529	89.94
497.746	101.94
497.963	84.94
498.181	80.94
498.398	92.94
498.615	99.94
498.832	102.94
499.049	78.94
499.267	82.94
499.484	84.94
499.701	90.94
499.918	105.94
500.135	89.94
500.352	107.94
500.569	103.94
500.786	98.94
501.003	102.94
501.22	102.94
501.437	84.94
501.654	88.94
501.871	112.94
502.088	98.94
502.305	99.94
502.522	74.94
502.739	93.94
502.956	91.94
503.172	93.94
503.389	99.94
503.606	98.94
503.823	95.94
504.04	85.94
504.256	96.94
504.473	87.94
504.69	80.94
504.907	87.94
505.123	85.94
505.34	93.94
505.557	98.94
505.773	85.94
505.99	95.94
506.207	97.94
506.423	90.94
506.64	90.94
506.856	93.94
507.073	102.94
507.289	101.94
507.506	95.94
507.722	117.94
507.939	111.94
508.155	83.94
508.372	97.94
508.588	88.94
508.805	83.94
509.021	93.94
509.238	98.94
509.454	90.94
509.67	107.94
509.887	107.94
510.103	129.94
510.319	209.94
510.536	725.94
510.752	2305.94
510.968	614.94
511.184	141.94
511.401	106.94
511.617	104.94
511.833	95.94
512.049	92.94
512.265	89.94
512.481	95.94
512.698	92.94
512.914	93.94
513.13	86.94
513.346	85.94
513.562	97.94
513.778	87.94
513.994	102.94
514.21	90.94
514.426	115.94
514.642	117.94
514.858	130.94
515.074	159.94
515.29	430.94
515.506	1412.94
515.721	504.94
