Data from Uncirc_1987_H10_HRD10591_00016.txt Node
Date: Wed Jan 03 12:08:51 EST 2024
User: Yrep
Spectrometer: HR+D1059
Trigger mode: 1
Integration Time (sec): 1.000000E-1
Scans to average: 1
Electric dark correction enabled: true
Nonlinearity correction enabled: false
Boxcar width: 0
XAxis mode: Wavelengths
Number of Pixels in Spectrum: 2048
>>>>>Begin Spectral Data<<<<<
223.165	-25.44
223.4	-25.44
223.635	-25.44
223.869	-17.44
224.104	-27.44
224.338	-21.44
224.573	-17.44
224.808	-18.44
225.042	-5.44
225.277	3.56
225.511	-5.44
225.746	-3.44
225.98	2.56
226.215	17.56
226.449	18.56
226.683	24.56
226.918	39.56
227.152	35.56
227.387	39.56
227.621	34.56
227.856	47.56
228.09	32.56
228.324	52.56
228.559	37.56
228.793	65.56
229.027	63.56
229.262	60.56
229.496	48.56
229.73	83.56
229.964	84.56
230.199	77.56
230.433	81.56
230.667	77.56
230.901	77.56
231.136	70.56
231.37	84.56
231.604	81.56
231.838	71.56
232.072	72.56
232.306	64.56
232.541	70.56
232.775	85.56
233.009	85.56
233.243	88.56
233.477	68.56
233.711	76.56
233.945	72.56
234.179	76.56
234.413	80.56
234.647	72.56
234.881	66.56
235.115	80.56
235.349	87.56
235.583	81.56
235.817	76.56
236.051	80.56
236.285	87.56
236.519	69.56
236.753	84.56
236.987	82.56
237.221	87.56
237.455	87.56
237.689	79.56
237.922	69.56
238.156	90.56
238.39	78.56
238.624	63.56
238.858	81.56
239.091	65.56
239.325	80.56
239.559	86.56
239.793	77.56
240.027	85.56
240.26	94.56
240.494	81.56
240.728	74.56
240.961	69.56
241.195	89.56
241.429	79.56
241.662	69.56
241.896	82.56
242.13	74.56
242.363	78.56
242.597	74.56
242.83	70.56
243.064	67.56
243.298	82.56
243.531	71.56
243.765	76.56
243.998	78.56
244.232	91.56
244.465	86.56
244.699	76.56
244.932	73.56
245.166	68.56
245.399	77.56
245.633	63.56
245.866	76.56
246.099	73.56
246.333	65.56
246.566	83.56
246.8	82.56
247.033	72.56
247.266	66.56
247.5	75.56
247.733	74.56
247.966	70.56
248.2	87.56
248.433	86.56
248.666	76.56
248.899	86.56
249.133	83.56
249.366	81.56
249.599	89.56
249.832	73.56
250.066	68.56
250.299	84.56
250.532	93.56
250.765	65.56
250.998	72.56
251.231	71.56
251.465	76.56
251.698	92.56
251.931	66.56
252.164	92.56
252.397	78.56
252.63	72.56
252.863	80.56
253.096	65.56
253.329	68.56
253.562	84.56
253.795	78.56
254.028	89.56
254.261	91.56
254.494	69.56
254.727	82.56
254.96	85.56
255.193	81.56
255.426	78.56
255.659	83.56
255.892	76.56
256.124	73.56
256.357	74.56
256.59	76.56
256.823	76.56
257.056	84.56
257.289	78.56
257.521	65.56
257.754	85.56
257.987	73.56
258.22	76.56
258.452	82.56
258.685	84.56
258.918	86.56
259.151	82.56
259.383	88.56
259.616	79.56
259.849	87.56
260.081	85.56
260.314	82.56
260.547	72.56
260.779	78.56
261.012	78.56
261.244	67.56
261.477	94.56
261.71	87.56
261.942	101.56
262.175	100.56
262.407	85.56
262.64	83.56
262.872	69.56
263.105	95.56
263.337	89.56
263.57	83.56
263.802	84.56
264.035	75.56
264.267	69.56
264.499	88.56
264.732	90.56
264.964	69.56
265.197	96.56
265.429	60.56
265.661	78.56
265.894	82.56
266.126	77.56
266.358	98.56
266.591	72.56
266.823	79.56
267.055	88.56
267.287	75.56
267.52	88.56
267.752	76.56
267.984	88.56
268.216	86.56
268.448	96.56
268.681	81.56
268.913	82.56
269.145	77.56
269.377	88.56
269.609	79.56
269.841	72.56
270.073	67.56
270.306	97.56
270.538	80.56
270.77	89.56
271.002	82.56
271.234	94.56
271.466	85.56
271.698	87.56
271.93	77.56
272.162	85.56
272.394	71.56
272.626	82.56
272.858	86.56
273.09	80.56
273.322	80.56
273.553	84.56
273.785	82.56
274.017	80.56
274.249	75.56
274.481	67.56
274.713	70.56
274.945	84.56
275.176	64.56
275.408	73.56
275.64	74.56
275.872	85.56
276.104	90.56
276.335	87.56
276.567	98.56
276.799	98.56
277.031	93.56
277.262	99.56
277.494	73.56
277.726	88.56
277.957	82.56
278.189	85.56
278.421	97.56
278.652	90.56
278.884	95.56
279.115	85.56
279.347	69.56
279.579	76.56
279.81	84.56
280.042	82.56
280.273	71.56
280.505	81.56
280.736	92.56
280.968	74.56
281.199	76.56
281.431	80.56
281.662	82.56
281.894	101.56
282.125	90.56
282.356	99.56
282.588	119.56
282.819	94.56
283.051	85.56
283.282	73.56
283.513	87.56
283.745	82.56
283.976	79.56
284.207	80.56
284.439	81.56
284.67	86.56
284.901	84.56
285.132	95.56
285.364	89.56
285.595	83.56
285.826	83.56
286.057	86.56
286.288	81.56
286.52	74.56
286.751	86.56
286.982	81.56
287.213	81.56
287.444	83.56
287.675	78.56
287.906	87.56
288.138	66.56
288.369	90.56
288.6	82.56
288.831	84.56
289.062	94.56
289.293	78.56
289.524	88.56
289.755	97.56
289.986	86.56
290.217	78.56
290.448	76.56
290.679	70.56
290.91	95.56
291.141	100.56
291.371	89.56
291.602	90.56
291.833	87.56
292.064	101.56
292.295	81.56
292.526	89.56
292.757	93.56
292.987	97.56
293.218	79.56
293.449	92.56
293.68	68.56
293.91	80.56
294.141	87.56
294.372	88.56
294.603	93.56
294.833	90.56
295.064	76.56
295.295	92.56
295.525	88.56
295.756	114.56
295.987	99.56
296.217	126.56
296.448	110.56
296.679	90.56
296.909	83.56
297.14	89.56
297.37	84.56
297.601	81.56
297.831	76.56
298.062	88.56
298.292	81.56
298.523	103.56
298.753	76.56
298.984	84.56
299.214	91.56
299.445	93.56
299.675	114.56
299.905	104.56
300.136	96.56
300.366	94.56
300.597	96.56
300.827	93.56
301.057	87.56
301.288	94.56
301.518	93.56
301.748	78.56
301.979	70.56
302.209	85.56
302.439	87.56
302.669	103.56
302.9	82.56
303.13	85.56
303.36	94.56
303.59	102.56
303.82	100.56
304.051	88.56
304.281	109.56
304.511	95.56
304.741	79.56
304.971	88.56
305.201	94.56
305.431	83.56
305.661	81.56
305.891	85.56
306.121	95.56
306.352	101.56
306.582	95.56
306.812	91.56
307.042	91.56
307.272	82.56
307.502	78.56
307.731	83.56
307.961	94.56
308.191	81.56
308.421	98.56
308.651	105.56
308.881	87.56
309.111	87.56
309.341	89.56
309.571	106.56
309.8	101.56
310.03	84.56
310.26	104.56
310.49	100.56
310.72	82.56
310.949	88.56
311.179	111.56
311.409	98.56
311.639	92.56
311.868	82.56
312.098	88.56
312.328	84.56
312.557	93.56
312.787	97.56
313.017	95.56
313.246	88.56
313.476	108.56
313.706	89.56
313.935	83.56
314.165	96.56
314.394	100.56
314.624	89.56
314.853	97.56
315.083	96.56
315.312	80.56
315.542	89.56
315.771	90.56
316.001	95.56
316.23	85.56
316.46	81.56
316.689	98.56
316.919	89.56
317.148	101.56
317.377	93.56
317.607	97.56
317.836	86.56
318.065	96.56
318.295	85.56
318.524	93.56
318.753	99.56
318.983	84.56
319.212	97.56
319.441	100.56
319.67	90.56
319.9	81.56
320.129	84.56
320.358	86.56
320.587	77.56
320.816	98.56
321.046	95.56
321.275	111.56
321.504	106.56
321.733	87.56
321.962	96.56
322.191	93.56
322.42	101.56
322.649	100.56
322.878	103.56
323.108	108.56
323.337	121.56
323.566	116.56
323.795	137.56
324.024	168.56
324.253	327.56
324.482	644.56
324.71	1328.56
324.939	1784.56
325.168	684.56
325.397	202.56
325.626	126.56
325.855	113.56
326.084	113.56
326.313	112.56
326.542	144.56
326.77	184.56
326.999	385.56
327.228	756.56
327.457	1391.56
327.686	1116.56
327.914	294.56
328.143	169.56
328.372	127.56
328.6	109.56
328.829	116.56
329.058	112.56
329.287	113.56
329.515	102.56
329.744	90.56
329.972	98.56
330.201	103.56
330.43	98.56
330.658	108.56
330.887	135.56
331.115	119.56
331.344	101.56
331.572	87.56
331.801	96.56
332.03	96.56
332.258	98.56
332.486	99.56
332.715	86.56
332.943	99.56
333.172	100.56
333.4	104.56
333.629	118.56
333.857	105.56
334.085	102.56
334.314	103.56
334.542	100.56
334.771	88.56
334.999	108.56
335.227	96.56
335.455	85.56
335.684	101.56
335.912	96.56
336.14	100.56
336.369	105.56
336.597	94.56
336.825	107.56
337.053	90.56
337.281	89.56
337.51	82.56
337.738	93.56
337.966	96.56
338.194	85.56
338.422	97.56
338.65	90.56
338.878	78.56
339.106	105.56
339.334	96.56
339.562	87.56
339.79	81.56
340.018	84.56
340.246	92.56
340.474	99.56
340.702	86.56
340.93	88.56
341.158	88.56
341.386	96.56
341.614	102.56
341.842	99.56
342.07	104.56
342.298	84.56
342.526	101.56
342.754	78.56
342.981	76.56
343.209	92.56
343.437	102.56
343.665	101.56
343.893	95.56
344.12	100.56
344.348	87.56
344.576	93.56
344.804	84.56
345.031	87.56
345.259	98.56
345.487	90.56
345.714	98.56
345.942	85.56
346.17	94.56
346.397	72.56
346.625	80.56
346.853	88.56
347.08	85.56
347.308	101.56
347.535	93.56
347.763	111.56
347.99	87.56
348.218	103.56
348.445	106.56
348.673	96.56
348.9	83.56
349.128	99.56
349.355	97.56
349.583	88.56
349.81	90.56
350.037	84.56
350.265	82.56
350.492	99.56
350.72	101.56
350.947	95.56
351.174	89.56
351.402	114.56
351.629	105.56
351.856	98.56
352.083	98.56
352.311	100.56
352.538	99.56
352.765	89.56
352.992	108.56
353.22	119.56
353.447	104.56
353.674	108.56
353.901	90.56
354.128	102.56
354.355	97.56
354.583	113.56
354.81	104.56
355.037	111.56
355.264	101.56
355.491	96.56
355.718	80.56
355.945	80.56
356.172	87.56
356.399	95.56
356.626	93.56
356.853	104.56
357.08	101.56
357.307	105.56
357.534	84.56
357.761	98.56
357.988	96.56
358.215	98.56
358.441	94.56
358.668	93.56
358.895	84.56
359.122	87.56
359.349	88.56
359.576	101.56
359.802	94.56
360.029	104.56
360.256	93.56
360.483	85.56
360.709	79.56
360.936	99.56
361.163	94.56
361.39	88.56
361.616	92.56
361.843	93.56
362.07	92.56
362.296	88.56
362.523	90.56
362.749	86.56
362.976	79.56
363.203	97.56
363.429	97.56
363.656	85.56
363.882	101.56
364.109	99.56
364.335	85.56
364.562	97.56
364.788	106.56
365.015	83.56
365.241	82.56
365.468	92.56
365.694	105.56
365.92	84.56
366.147	89.56
366.373	96.56
366.599	108.56
366.826	107.56
367.052	88.56
367.278	82.56
367.505	79.56
367.731	86.56
367.957	78.56
368.184	103.56
368.41	101.56
368.636	90.56
368.862	119.56
369.089	95.56
369.315	93.56
369.541	98.56
369.767	95.56
369.993	87.56
370.219	86.56
370.445	81.56
370.672	90.56
370.898	77.56
371.124	89.56
371.35	71.56
371.576	82.56
371.802	69.56
372.028	78.56
372.254	80.56
372.48	95.56
372.706	88.56
372.932	84.56
373.158	94.56
373.384	88.56
373.61	94.56
373.835	96.56
374.061	84.56
374.287	91.56
374.513	98.56
374.739	91.56
374.965	82.56
375.191	96.56
375.416	98.56
375.642	94.56
375.868	74.56
376.094	93.56
376.319	96.56
376.545	93.56
376.771	84.56
376.997	95.56
377.222	87.56
377.448	86.56
377.674	98.56
377.899	76.56
378.125	85.56
378.35	93.56
378.576	89.56
378.802	95.56
379.027	96.56
379.253	90.56
379.478	98.56
379.704	100.56
379.929	105.56
380.155	92.56
380.38	88.56
380.606	84.56
380.831	96.56
381.057	101.56
381.282	92.56
381.507	97.56
381.733	87.56
381.958	100.56
382.184	89.56
382.409	101.56
382.634	99.56
382.86	100.56
383.085	101.56
383.31	93.56
383.535	115.56
383.761	102.56
383.986	110.56
384.211	98.56
384.436	103.56
384.662	104.56
384.887	102.56
385.112	101.56
385.337	100.56
385.562	102.56
385.787	116.56
386.013	110.56
386.238	103.56
386.463	100.56
386.688	106.56
386.913	93.56
387.138	108.56
387.363	96.56
387.588	101.56
387.813	111.56
388.038	97.56
388.263	91.56
388.488	101.56
388.713	108.56
388.938	99.56
389.163	102.56
389.387	98.56
389.612	86.56
389.837	86.56
390.062	100.56
390.287	88.56
390.512	89.56
390.736	103.56
390.961	88.56
391.186	96.56
391.411	96.56
391.636	89.56
391.86	78.56
392.085	83.56
392.31	77.56
392.534	83.56
392.759	81.56
392.984	84.56
393.208	96.56
393.433	92.56
393.658	88.56
393.882	81.56
394.107	84.56
394.331	94.56
394.556	79.56
394.78	97.56
395.005	84.56
395.229	77.56
395.454	76.56
395.678	95.56
395.903	82.56
396.127	84.56
396.352	93.56
396.576	81.56
396.801	99.56
397.025	94.56
397.249	68.56
397.474	76.56
397.698	92.56
397.922	87.56
398.147	88.56
398.371	89.56
398.595	81.56
398.82	92.56
399.044	84.56
399.268	94.56
399.492	85.56
399.717	102.56
399.941	84.56
400.165	103.56
400.389	97.56
400.613	97.56
400.837	97.56
401.062	87.56
401.286	76.56
401.51	88.56
401.734	82.56
401.958	102.56
402.182	135.56
402.406	145.56
402.63	106.56
402.854	90.56
403.078	94.56
403.302	85.56
403.526	82.56
403.75	106.56
403.974	82.56
404.198	89.56
404.422	94.56
404.645	98.56
404.869	86.56
405.093	88.56
405.317	100.56
405.541	93.56
405.765	92.56
405.988	112.56
406.212	143.56
406.436	177.56
406.66	120.56
406.883	96.56
407.107	89.56
407.331	95.56
407.555	84.56
407.778	92.56
408.002	88.56
408.226	84.56
408.449	95.56
408.673	82.56
408.896	107.56
409.12	108.56
409.344	101.56
409.567	92.56
409.791	82.56
410.014	80.56
410.238	94.56
410.461	104.56
410.685	84.56
410.908	83.56
411.132	104.56
411.355	114.56
411.578	87.56
411.802	98.56
412.025	88.56
412.249	70.56
412.472	92.56
412.695	92.56
412.919	89.56
413.142	98.56
413.365	96.56
413.589	94.56
413.812	90.56
414.035	97.56
414.258	72.56
414.482	71.56
414.705	79.56
414.928	96.56
415.151	95.56
415.374	83.56
415.597	82.56
415.821	90.56
416.044	94.56
416.267	93.56
416.49	85.56
416.713	94.56
416.936	94.56
417.159	82.56
417.382	86.56
417.605	100.56
417.828	85.56
418.051	77.56
418.274	93.56
418.497	90.56
418.72	77.56
418.943	84.56
419.166	100.56
419.389	87.56
419.611	104.56
419.834	87.56
420.057	86.56
420.28	73.56
420.503	88.56
420.726	76.56
420.948	94.56
421.171	86.56
421.394	93.56
421.617	87.56
421.839	86.56
422.062	88.56
422.285	85.56
422.507	90.56
422.73	103.56
422.953	89.56
423.175	94.56
423.398	79.56
423.621	85.56
423.843	86.56
424.066	87.56
424.288	87.56
424.511	87.56
424.733	106.56
424.956	105.56
425.178	97.56
425.401	95.56
425.623	92.56
425.846	95.56
426.068	101.56
426.291	94.56
426.513	95.56
426.735	90.56
426.958	86.56
427.18	93.56
427.402	116.56
427.625	142.56
427.847	112.56
428.069	108.56
428.292	82.56
428.514	87.56
428.736	87.56
428.958	83.56
429.181	82.56
429.403	95.56
429.625	87.56
429.847	92.56
430.069	109.56
430.292	98.56
430.514	84.56
430.736	88.56
430.958	80.56
431.18	86.56
431.402	90.56
431.624	83.56
431.846	81.56
432.068	86.56
432.29	83.56
432.512	75.56
432.734	93.56
432.956	80.56
433.178	85.56
433.4	87.56
433.622	91.56
433.844	89.56
434.066	100.56
434.287	87.56
434.509	90.56
434.731	89.56
434.953	101.56
435.175	94.56
435.397	92.56
435.618	88.56
435.84	90.56
436.062	112.56
436.284	108.56
436.505	98.56
436.727	93.56
436.949	79.56
437.17	83.56
437.392	99.56
437.614	83.56
437.835	96.56
438.057	108.56
438.278	104.56
438.5	110.56
438.721	119.56
438.943	97.56
439.165	96.56
439.386	85.56
439.608	79.56
439.829	102.56
440.05	112.56
440.272	122.56
440.493	87.56
440.715	86.56
440.936	83.56
441.158	76.56
441.379	92.56
441.6	93.56
441.822	87.56
442.043	80.56
442.264	87.56
442.486	96.56
442.707	86.56
442.928	104.56
443.149	113.56
443.371	121.56
443.592	101.56
443.813	95.56
444.034	87.56
444.255	73.56
444.476	90.56
444.698	83.56
444.919	93.56
445.14	115.56
445.361	123.56
445.582	104.56
445.803	110.56
446.024	135.56
446.245	129.56
446.466	120.56
446.687	88.56
446.908	89.56
447.129	86.56
447.35	84.56
447.571	78.56
447.792	100.56
448.013	89.56
448.234	116.56
448.455	110.56
448.675	106.56
448.896	111.56
449.117	102.56
449.338	90.56
449.559	125.56
449.779	122.56
450	86.56
450.221	86.56
450.442	83.56
450.662	94.56
450.883	104.56
451.104	100.56
451.324	85.56
451.545	92.56
451.766	74.56
451.986	88.56
452.207	80.56
452.428	95.56
452.648	94.56
452.869	111.56
453.089	110.56
453.31	106.56
453.53	86.56
453.751	93.56
453.971	94.56
454.192	90.56
454.412	94.56
454.633	81.56
454.853	97.56
455.073	100.56
455.294	85.56
455.514	106.56
455.734	97.56
455.955	94.56
456.175	80.56
456.395	69.56
456.616	89.56
456.836	84.56
457.056	77.56
457.276	93.56
457.497	78.56
457.717	79.56
457.937	102.56
458.157	88.56
458.377	91.56
458.598	93.56
458.818	128.56
459.038	156.56
459.258	108.56
459.478	76.56
459.698	88.56
459.918	84.56
460.138	89.56
460.358	87.56
460.578	80.56
460.798	95.56
461.018	99.56
461.238	92.56
461.458	71.56
461.678	93.56
461.898	88.56
462.118	89.56
462.338	61.56
462.558	83.56
462.777	90.56
462.997	76.56
463.217	79.56
463.437	92.56
463.657	89.56
463.876	71.56
464.096	77.56
464.316	92.56
464.536	92.56
464.755	92.56
464.975	83.56
465.195	132.56
465.414	138.56
465.634	85.56
465.854	86.56
466.073	85.56
466.293	87.56
466.512	79.56
466.732	93.56
466.951	88.56
467.171	84.56
467.391	86.56
467.61	103.56
467.829	80.56
468.049	74.56
468.268	92.56
468.488	102.56
468.707	77.56
468.927	80.56
469.146	87.56
469.365	84.56
469.585	84.56
469.804	96.56
470.023	80.56
470.243	89.56
470.462	100.56
470.681	94.56
470.901	86.56
471.12	84.56
471.339	93.56
471.558	88.56
471.777	86.56
471.997	84.56
472.216	80.56
472.435	87.56
472.654	91.56
472.873	99.56
473.092	103.56
473.311	90.56
473.53	85.56
473.749	89.56
473.968	64.56
474.187	100.56
474.406	90.56
474.625	95.56
474.844	89.56
475.063	76.56
475.282	79.56
475.501	70.56
475.72	88.56
475.939	86.56
476.158	81.56
476.377	95.56
476.596	95.56
476.814	87.56
477.033	95.56
477.252	87.56
477.471	68.56
477.69	86.56
477.908	69.56
478.127	78.56
478.346	85.56
478.564	96.56
478.783	78.56
479.002	92.56
479.22	82.56
479.439	87.56
479.658	97.56
479.876	80.56
480.095	76.56
480.313	90.56
480.532	94.56
480.751	86.56
480.969	99.56
481.188	93.56
481.406	83.56
481.624	99.56
481.843	89.56
482.061	81.56
482.28	98.56
482.498	93.56
482.717	89.56
482.935	92.56
483.153	105.56
483.372	82.56
483.59	96.56
483.808	93.56
484.027	96.56
484.245	97.56
484.463	94.56
484.681	84.56
484.9	85.56
485.118	90.56
485.336	86.56
485.554	98.56
485.772	101.56
485.99	95.56
486.209	94.56
486.427	92.56
486.645	97.56
486.863	109.56
487.081	91.56
487.299	84.56
487.517	97.56
487.735	76.56
487.953	99.56
488.171	90.56
488.389	92.56
488.607	99.56
488.825	107.56
489.043	96.56
489.261	93.56
489.479	81.56
489.696	88.56
489.914	88.56
490.132	98.56
490.35	84.56
490.568	90.56
490.786	87.56
491.003	81.56
491.221	82.56
491.439	80.56
491.657	89.56
491.874	95.56
492.092	79.56
492.31	86.56
492.527	96.56
492.745	90.56
492.963	97.56
493.18	81.56
493.398	88.56
493.615	95.56
493.833	87.56
494.05	88.56
494.268	89.56
494.485	100.56
494.703	83.56
494.92	83.56
495.138	75.56
495.355	87.56
495.573	96.56
495.79	81.56
496.008	82.56
496.225	87.56
496.442	94.56
496.66	90.56
496.877	82.56
497.094	99.56
497.312	95.56
497.529	89.56
497.746	68.56
497.963	82.56
498.181	79.56
498.398	97.56
498.615	96.56
498.832	100.56
499.049	92.56
499.267	71.56
499.484	92.56
499.701	90.56
499.918	77.56
500.135	84.56
500.352	83.56
500.569	90.56
500.786	84.56
501.003	98.56
501.22	108.56
501.437	82.56
501.654	87.56
501.871	100.56
502.088	96.56
502.305	97.56
502.522	85.56
502.739	100.56
502.956	80.56
503.172	78.56
503.389	105.56
503.606	97.56
503.823	97.56
504.04	95.56
504.256	86.56
504.473	76.56
504.69	72.56
504.907	86.56
505.123	76.56
505.34	90.56
505.557	93.56
505.773	80.56
505.99	97.56
506.207	91.56
506.423	81.56
506.64	93.56
506.856	82.56
507.073	86.56
507.289	92.56
507.506	89.56
507.722	105.56
507.939	98.56
508.155	92.56
508.372	93.56
508.588	85.56
508.805	81.56
509.021	99.56
509.238	112.56
509.454	97.56
509.67	84.56
509.887	82.56
510.103	110.56
510.319	184.56
510.536	630.56
510.752	1857.56
510.968	523.56
511.184	142.56
511.401	121.56
511.617	104.56
511.833	93.56
512.049	102.56
512.265	88.56
512.481	81.56
512.698	96.56
512.914	90.56
513.13	102.56
513.346	93.56
513.562	100.56
513.778	105.56
513.994	100.56
514.21	100.56
514.426	105.56
514.642	108.56
514.858	115.56
515.074	141.56
515.29	357.56
515.506	1130.56
515.721	424.56
515.937	140.56
516.153	96.56
516.369	99.56
