Data from Uncirc_1987_H10_HRD10591_00079.txt Node
Date: Wed Jan 03 12:09:04 EST 2024
User: Yrep
Spectrometer: HR+D1059
Trigger mode: 1
Integration Time (sec): 1.000000E-1
Scans to average: 1
Electric dark correction enabled: true
Nonlinearity correction enabled: false
Boxcar width: 0
XAxis mode: Wavelengths
Number of Pixels in Spectrum: 2048
>>>>>Begin Spectral Data<<<<<
223.165	-34.06
223.4	-34.06
223.635	-34.06
223.869	-29.06
224.104	-15.06
224.338	-14.06
224.573	-26.06
224.808	0.94
225.042	4.94
225.277	-12.06
225.511	1.94
225.746	0.94
225.98	4.94
226.215	19.94
226.449	18.94
226.683	21.94
226.918	27.94
227.152	27.94
227.387	38.94
227.621	38.94
227.856	54.94
228.09	53.94
228.324	41.94
228.559	52.94
228.793	51.94
229.027	54.94
229.262	59.94
229.496	70.94
229.73	93.94
229.964	81.94
230.199	72.94
230.433	67.94
230.667	86.94
230.901	91.94
231.136	73.94
231.37	80.94
231.604	81.94
231.838	78.94
232.072	83.94
232.306	78.94
232.541	76.94
232.775	79.94
233.009	91.94
233.243	83.94
233.477	78.94
233.711	71.94
233.945	88.94
234.179	63.94
234.413	90.94
234.647	70.94
234.881	71.94
235.115	82.94
235.349	71.94
235.583	68.94
235.817	87.94
236.051	72.94
236.285	72.94
236.519	75.94
236.753	82.94
236.987	81.94
237.221	99.94
237.455	86.94
237.689	69.94
237.922	70.94
238.156	71.94
238.39	87.94
238.624	76.94
238.858	66.94
239.091	57.94
239.325	77.94
239.559	81.94
239.793	70.94
240.027	88.94
240.26	63.94
240.494	73.94
240.728	83.94
240.961	77.94
241.195	72.94
241.429	94.94
241.662	80.94
241.896	62.94
242.13	71.94
242.363	86.94
242.597	79.94
242.83	79.94
243.064	78.94
243.298	73.94
243.531	87.94
243.765	96.94
243.998	78.94
244.232	83.94
244.465	80.94
244.699	64.94
244.932	69.94
245.166	69.94
245.399	72.94
245.633	77.94
245.866	70.94
246.099	71.94
246.333	81.94
246.566	67.94
246.8	61.94
247.033	72.94
247.266	67.94
247.5	64.94
247.733	75.94
247.966	76.94
248.2	68.94
248.433	87.94
248.666	79.94
248.899	59.94
249.133	91.94
249.366	86.94
249.599	91.94
249.832	84.94
250.066	102.94
250.299	73.94
250.532	75.94
250.765	81.94
250.998	84.94
251.231	76.94
251.465	72.94
251.698	79.94
251.931	80.94
252.164	87.94
252.397	93.94
252.63	84.94
252.863	67.94
253.096	93.94
253.329	79.94
253.562	82.94
253.795	82.94
254.028	81.94
254.261	72.94
254.494	73.94
254.727	84.94
254.96	78.94
255.193	91.94
255.426	87.94
255.659	80.94
255.892	70.94
256.124	82.94
256.357	92.94
256.59	78.94
256.823	84.94
257.056	71.94
257.289	88.94
257.521	81.94
257.754	71.94
257.987	80.94
258.22	88.94
258.452	81.94
258.685	76.94
258.918	86.94
259.151	82.94
259.383	75.94
259.616	80.94
259.849	80.94
260.081	79.94
260.314	81.94
260.547	86.94
260.779	72.94
261.012	79.94
261.244	83.94
261.477	78.94
261.71	80.94
261.942	124.94
262.175	110.94
262.407	84.94
262.64	87.94
262.872	73.94
263.105	70.94
263.337	67.94
263.57	73.94
263.802	72.94
264.035	77.94
264.267	79.94
264.499	83.94
264.732	84.94
264.964	82.94
265.197	91.94
265.429	97.94
265.661	80.94
265.894	77.94
266.126	76.94
266.358	87.94
266.591	85.94
266.823	89.94
267.055	84.94
267.287	87.94
267.52	83.94
267.752	97.94
267.984	89.94
268.216	84.94
268.448	67.94
268.681	93.94
268.913	81.94
269.145	77.94
269.377	79.94
269.609	73.94
269.841	75.94
270.073	80.94
270.306	76.94
270.538	85.94
270.77	83.94
271.002	76.94
271.234	76.94
271.466	88.94
271.698	88.94
271.93	77.94
272.162	81.94
272.394	83.94
272.626	72.94
272.858	72.94
273.09	79.94
273.322	79.94
273.553	81.94
273.785	63.94
274.017	86.94
274.249	72.94
274.481	60.94
274.713	77.94
274.945	86.94
275.176	89.94
275.408	82.94
275.64	79.94
275.872	92.94
276.104	92.94
276.335	96.94
276.567	101.94
276.799	103.94
277.031	95.94
277.262	83.94
277.494	82.94
277.726	73.94
277.957	88.94
278.189	73.94
278.421	82.94
278.652	85.94
278.884	82.94
279.115	85.94
279.347	92.94
279.579	73.94
279.81	77.94
280.042	79.94
280.273	80.94
280.505	82.94
280.736	92.94
280.968	81.94
281.199	80.94
281.431	88.94
281.662	96.94
281.894	100.94
282.125	88.94
282.356	110.94
282.588	141.94
282.819	107.94
283.051	96.94
283.282	90.94
283.513	84.94
283.745	91.94
283.976	74.94
284.207	76.94
284.439	99.94
284.67	89.94
284.901	95.94
285.132	91.94
285.364	88.94
285.595	88.94
285.826	86.94
286.057	76.94
286.288	79.94
286.52	88.94
286.751	79.94
286.982	84.94
287.213	78.94
287.444	97.94
287.675	83.94
287.906	91.94
288.138	91.94
288.369	76.94
288.6	77.94
288.831	74.94
289.062	94.94
289.293	85.94
289.524	85.94
289.755	70.94
289.986	83.94
290.217	97.94
290.448	87.94
290.679	81.94
290.91	94.94
291.141	67.94
291.371	81.94
291.602	96.94
291.833	87.94
292.064	80.94
292.295	86.94
292.526	89.94
292.757	75.94
292.987	83.94
293.218	87.94
293.449	84.94
293.68	92.94
293.91	77.94
294.141	88.94
294.372	95.94
294.603	95.94
294.833	75.94
295.064	85.94
295.295	74.94
295.525	82.94
295.756	98.94
295.987	113.94
296.217	127.94
296.448	114.94
296.679	85.94
296.909	89.94
297.14	89.94
297.37	108.94
297.601	83.94
297.831	85.94
298.062	80.94
298.292	86.94
298.523	88.94
298.753	97.94
298.984	84.94
299.214	91.94
299.445	87.94
299.675	89.94
299.905	92.94
300.136	75.94
300.366	85.94
300.597	70.94
300.827	75.94
301.057	109.94
301.288	102.94
301.518	84.94
301.748	86.94
301.979	100.94
302.209	76.94
302.439	78.94
302.669	91.94
302.9	88.94
303.13	77.94
303.36	94.94
303.59	95.94
303.82	87.94
304.051	92.94
304.281	87.94
304.511	90.94
304.741	77.94
304.971	84.94
305.201	83.94
305.431	87.94
305.661	85.94
305.891	86.94
306.121	91.94
306.352	87.94
306.582	99.94
306.812	97.94
307.042	98.94
307.272	89.94
307.502	96.94
307.731	81.94
307.961	82.94
308.191	72.94
308.421	79.94
308.651	93.94
308.881	84.94
309.111	93.94
309.341	91.94
309.571	102.94
309.8	92.94
310.03	87.94
310.26	96.94
310.49	80.94
310.72	105.94
310.949	82.94
311.179	101.94
311.409	89.94
311.639	95.94
311.868	99.94
312.098	89.94
312.328	100.94
312.557	88.94
312.787	83.94
313.017	90.94
313.246	109.94
313.476	94.94
313.706	75.94
313.935	93.94
314.165	85.94
314.394	104.94
314.624	96.94
314.853	90.94
315.083	75.94
315.312	96.94
315.542	78.94
315.771	91.94
316.001	92.94
316.23	93.94
316.46	97.94
316.689	83.94
316.919	85.94
317.148	95.94
317.377	97.94
317.607	89.94
317.836	85.94
318.065	86.94
318.295	97.94
318.524	90.94
318.753	87.94
318.983	91.94
319.212	114.94
319.441	109.94
319.67	109.94
319.9	88.94
320.129	83.94
320.358	85.94
320.587	89.94
320.816	84.94
321.046	97.94
321.275	93.94
321.504	93.94
321.733	98.94
321.962	97.94
322.191	95.94
322.42	107.94
322.649	112.94
322.878	105.94
323.108	127.94
323.337	110.94
323.566	119.94
323.795	155.94
324.024	193.94
324.253	386.94
324.482	799.94
324.71	1627.94
324.939	2257.94
325.168	815.94
325.397	238.94
325.626	153.94
325.855	139.94
326.084	125.94
326.313	132.94
326.542	139.94
326.77	205.94
326.999	452.94
327.228	945.94
327.457	1717.94
327.686	1395.94
327.914	370.94
328.143	168.94
328.372	147.94
328.6	125.94
328.829	107.94
329.058	128.94
329.287	131.94
329.515	103.94
329.744	106.94
329.972	97.94
330.201	88.94
330.43	116.94
330.658	102.94
330.887	120.94
331.115	121.94
331.344	98.94
331.572	93.94
331.801	101.94
332.03	99.94
332.258	88.94
332.486	100.94
332.715	81.94
332.943	104.94
333.172	108.94
333.4	84.94
333.629	94.94
333.857	107.94
334.085	96.94
334.314	100.94
334.542	128.94
334.771	110.94
334.999	100.94
335.227	95.94
335.455	101.94
335.684	91.94
335.912	109.94
336.14	99.94
336.369	78.94
336.597	94.94
336.825	92.94
337.053	92.94
337.281	96.94
337.51	84.94
337.738	89.94
337.966	88.94
338.194	115.94
338.422	91.94
338.65	83.94
338.878	85.94
339.106	82.94
339.334	86.94
339.562	98.94
339.79	80.94
340.018	75.94
340.246	95.94
340.474	86.94
340.702	85.94
340.93	88.94
341.158	91.94
341.386	102.94
341.614	94.94
341.842	100.94
342.07	84.94
342.298	102.94
342.526	96.94
342.754	84.94
342.981	84.94
343.209	92.94
343.437	98.94
343.665	85.94
343.893	85.94
344.12	99.94
344.348	75.94
344.576	89.94
344.804	90.94
345.031	91.94
345.259	87.94
345.487	105.94
345.714	100.94
345.942	95.94
346.17	81.94
346.397	101.94
346.625	80.94
346.853	88.94
347.08	90.94
347.308	94.94
347.535	88.94
347.763	111.94
347.99	99.94
348.218	95.94
348.445	97.94
348.673	96.94
348.9	88.94
349.128	99.94
349.355	103.94
349.583	100.94
349.81	94.94
350.037	96.94
350.265	110.94
350.492	96.94
350.72	96.94
350.947	103.94
351.174	100.94
351.402	105.94
351.629	108.94
351.856	99.94
352.083	91.94
352.311	81.94
352.538	101.94
352.765	116.94
352.992	108.94
353.22	105.94
353.447	111.94
353.674	93.94
353.901	95.94
354.128	93.94
354.355	87.94
354.583	103.94
354.81	95.94
355.037	96.94
355.264	93.94
355.491	92.94
355.718	97.94
355.945	100.94
356.172	89.94
356.399	101.94
356.626	88.94
356.853	87.94
357.08	93.94
357.307	95.94
357.534	84.94
357.761	94.94
357.988	81.94
358.215	95.94
358.441	105.94
358.668	92.94
358.895	84.94
359.122	88.94
359.349	91.94
359.576	88.94
359.802	102.94
360.029	113.94
360.256	97.94
360.483	103.94
360.709	88.94
360.936	97.94
361.163	104.94
361.39	66.94
361.616	90.94
361.843	87.94
362.07	84.94
362.296	84.94
362.523	82.94
362.749	103.94
362.976	107.94
363.203	101.94
363.429	81.94
363.656	84.94
363.882	87.94
364.109	91.94
364.335	93.94
364.562	83.94
364.788	87.94
365.015	96.94
365.241	100.94
365.468	112.94
365.694	100.94
365.92	85.94
366.147	81.94
366.373	92.94
366.599	75.94
366.826	88.94
367.052	85.94
367.278	82.94
367.505	86.94
367.731	86.94
367.957	88.94
368.184	91.94
368.41	89.94
368.636	99.94
368.862	113.94
369.089	100.94
369.315	83.94
369.541	88.94
369.767	93.94
369.993	79.94
370.219	84.94
370.445	103.94
370.672	67.94
370.898	89.94
371.124	100.94
371.35	89.94
371.576	81.94
371.802	85.94
372.028	95.94
372.254	91.94
372.48	99.94
372.706	84.94
372.932	75.94
373.158	89.94
373.384	92.94
373.61	68.94
373.835	88.94
374.061	85.94
374.287	81.94
374.513	79.94
374.739	91.94
374.965	81.94
375.191	80.94
375.416	80.94
375.642	72.94
375.868	93.94
376.094	87.94
376.319	81.94
376.545	85.94
376.771	80.94
376.997	94.94
377.222	89.94
377.448	86.94
377.674	96.94
377.899	96.94
378.125	92.94
378.35	86.94
378.576	71.94
378.802	99.94
379.027	88.94
379.253	85.94
379.478	92.94
379.704	87.94
379.929	91.94
380.155	84.94
380.38	91.94
380.606	91.94
380.831	90.94
381.057	108.94
381.282	94.94
381.507	111.94
381.733	101.94
381.958	85.94
382.184	83.94
382.409	101.94
382.634	96.94
382.86	105.94
383.085	102.94
383.31	101.94
383.535	97.94
383.761	106.94
383.986	87.94
384.211	91.94
384.436	86.94
384.662	94.94
384.887	97.94
385.112	92.94
385.337	91.94
385.562	105.94
385.787	88.94
386.013	112.94
386.238	106.94
386.463	116.94
386.688	102.94
386.913	103.94
387.138	100.94
387.363	96.94
387.588	96.94
387.813	102.94
388.038	81.94
388.263	96.94
388.488	99.94
388.713	100.94
388.938	95.94
389.163	101.94
389.387	98.94
389.612	100.94
389.837	104.94
390.062	85.94
390.287	78.94
390.512	90.94
390.736	91.94
390.961	77.94
391.186	88.94
391.411	99.94
391.636	89.94
391.86	72.94
392.085	93.94
392.31	81.94
392.534	89.94
392.759	92.94
392.984	77.94
393.208	100.94
393.433	80.94
393.658	79.94
393.882	89.94
394.107	79.94
394.331	82.94
394.556	97.94
394.78	90.94
395.005	80.94
395.229	85.94
395.454	73.94
395.678	79.94
395.903	91.94
396.127	98.94
396.352	83.94
396.576	87.94
396.801	79.94
397.025	77.94
397.249	94.94
397.474	105.94
397.698	90.94
397.922	81.94
398.147	76.94
398.371	99.94
398.595	87.94
398.82	84.94
399.044	79.94
399.268	91.94
399.492	79.94
399.717	83.94
399.941	102.94
400.165	96.94
400.389	83.94
400.613	83.94
400.837	88.94
401.062	105.94
401.286	72.94
401.51	88.94
401.734	100.94
401.958	104.94
402.182	120.94
402.406	159.94
402.63	119.94
402.854	72.94
403.078	84.94
403.302	71.94
403.526	103.94
403.75	99.94
403.974	94.94
404.198	79.94
404.422	85.94
404.645	91.94
404.869	95.94
405.093	84.94
405.317	104.94
405.541	91.94
405.765	93.94
405.988	103.94
406.212	167.94
406.436	231.94
406.66	144.94
406.883	97.94
407.107	101.94
407.331	90.94
407.555	101.94
407.778	98.94
408.002	93.94
408.226	85.94
408.449	84.94
408.673	95.94
408.896	91.94
409.12	88.94
409.344	95.94
409.567	79.94
409.791	74.94
410.014	86.94
410.238	96.94
410.461	103.94
410.685	89.94
410.908	98.94
411.132	93.94
411.355	101.94
411.578	85.94
411.802	101.94
412.025	90.94
412.249	94.94
412.472	97.94
412.695	100.94
412.919	103.94
413.142	97.94
413.365	92.94
413.589	78.94
413.812	83.94
414.035	83.94
414.258	83.94
414.482	96.94
414.705	80.94
414.928	94.94
415.151	96.94
415.374	93.94
415.597	76.94
415.821	88.94
416.044	101.94
416.267	93.94
416.49	89.94
416.713	71.94
416.936	91.94
417.159	88.94
417.382	95.94
417.605	76.94
417.828	72.94
418.051	86.94
418.274	80.94
418.497	85.94
418.72	86.94
418.943	79.94
419.166	79.94
419.389	82.94
419.611	94.94
419.834	93.94
420.057	93.94
420.28	76.94
420.503	69.94
420.726	71.94
420.948	89.94
421.171	100.94
421.394	94.94
421.617	81.94
421.839	84.94
422.062	82.94
422.285	96.94
422.507	101.94
422.73	101.94
422.953	99.94
423.175	80.94
423.398	75.94
423.621	73.94
423.843	97.94
424.066	94.94
424.288	92.94
424.511	91.94
424.733	96.94
424.956	105.94
425.178	105.94
425.401	107.94
425.623	105.94
425.846	97.94
426.068	92.94
426.291	107.94
426.513	96.94
426.735	91.94
426.958	99.94
427.18	101.94
427.402	105.94
427.625	156.94
427.847	130.94
428.069	115.94
428.292	87.94
428.514	77.94
428.736	79.94
428.958	81.94
429.181	83.94
429.403	87.94
429.625	84.94
429.847	88.94
430.069	86.94
430.292	91.94
430.514	77.94
430.736	84.94
430.958	86.94
431.18	93.94
431.402	85.94
431.624	86.94
431.846	83.94
432.068	79.94
432.29	86.94
432.512	86.94
432.734	78.94
432.956	78.94
433.178	88.94
433.4	96.94
433.622	98.94
433.844	87.94
434.066	82.94
434.287	80.94
434.509	82.94
434.731	79.94
434.953	98.94
435.175	85.94
435.397	97.94
435.618	81.94
435.84	92.94
436.062	119.94
436.284	117.94
436.505	100.94
436.727	93.94
436.949	88.94
437.17	89.94
437.392	77.94
437.614	91.94
437.835	99.94
438.057	96.94
438.278	111.94
438.5	107.94
438.721	114.94
438.943	103.94
439.165	92.94
439.386	94.94
439.608	96.94
439.829	102.94
440.05	125.94
440.272	155.94
440.493	105.94
440.715	78.94
440.936	78.94
441.158	91.94
441.379	76.94
441.6	87.94
441.822	87.94
442.043	86.94
442.264	110.94
442.486	98.94
442.707	93.94
442.928	93.94
443.149	127.94
443.371	120.94
443.592	101.94
443.813	104.94
444.034	107.94
444.255	100.94
444.476	83.94
444.698	107.94
444.919	95.94
445.14	141.94
445.361	116.94
445.582	116.94
445.803	124.94
446.024	142.94
446.245	132.94
446.466	108.94
446.687	90.94
446.908	73.94
447.129	83.94
447.35	95.94
447.571	88.94
447.792	96.94
448.013	99.94
448.234	99.94
448.455	98.94
448.675	124.94
448.896	113.94
449.117	108.94
449.338	93.94
449.559	132.94
449.779	136.94
450	79.94
450.221	89.94
450.442	88.94
450.662	91.94
450.883	101.94
451.104	109.94
451.324	102.94
451.545	86.94
451.766	91.94
451.986	81.94
452.207	87.94
452.428	93.94
452.648	93.94
452.869	100.94
453.089	100.94
453.31	99.94
453.53	88.94
453.751	88.94
453.971	119.94
454.192	97.94
454.412	91.94
454.633	92.94
454.853	84.94
455.073	90.94
455.294	88.94
455.514	96.94
455.734	88.94
455.955	79.94
456.175	76.94
456.395	80.94
456.616	91.94
456.836	75.94
457.056	88.94
457.276	92.94
457.497	86.94
457.717	84.94
457.937	87.94
458.157	73.94
458.377	89.94
458.598	92.94
458.818	132.94
459.038	131.94
459.258	101.94
459.478	84.94
459.698	85.94
459.918	80.94
460.138	82.94
460.358	87.94
460.578	87.94
460.798	96.94
461.018	104.94
461.238	93.94
461.458	96.94
461.678	73.94
461.898	82.94
462.118	78.94
462.338	69.94
462.558	93.94
462.777	76.94
462.997	86.94
463.217	97.94
463.437	91.94
463.657	92.94
463.876	88.94
464.096	95.94
464.316	99.94
464.536	97.94
464.755	97.94
464.975	100.94
465.195	157.94
465.414	143.94
465.634	96.94
465.854	89.94
466.073	85.94
466.293	80.94
466.512	95.94
466.732	100.94
466.951	97.94
467.171	90.94
467.391	98.94
467.61	102.94
467.829	100.94
468.049	100.94
468.268	85.94
468.488	86.94
468.707	85.94
468.927	89.94
469.146	92.94
469.365	93.94
469.585	72.94
469.804	101.94
470.023	102.94
470.243	93.94
470.462	98.94
470.681	104.94
470.901	93.94
471.12	100.94
471.339	81.94
471.558	84.94
471.777	84.94
471.997	91.94
472.216	93.94
472.435	120.94
472.654	97.94
472.873	84.94
473.092	85.94
473.311	82.94
473.53	101.94
473.749	86.94
473.968	87.94
474.187	105.94
474.406	92.94
474.625	91.94
474.844	97.94
475.063	94.94
475.282	92.94
475.501	80.94
475.72	73.94
475.939	91.94
476.158	87.94
476.377	81.94
476.596	73.94
476.814	91.94
477.033	87.94
477.252	93.94
477.471	88.94
477.69	87.94
477.908	91.94
478.127	73.94
478.346	81.94
478.564	99.94
478.783	89.94
479.002	79.94
479.22	104.94
479.439	92.94
479.658	102.94
479.876	91.94
480.095	67.94
480.313	78.94
480.532	89.94
480.751	88.94
480.969	93.94
481.188	143.94
481.406	122.94
481.624	88.94
481.843	84.94
482.061	98.94
482.28	80.94
482.498	87.94
482.717	99.94
482.935	103.94
483.153	78.94
483.372	91.94
483.59	68.94
483.808	89.94
484.027	95.94
484.245	88.94
484.463	92.94
484.681	100.94
484.9	85.94
485.118	98.94
485.336	78.94
485.554	79.94
485.772	92.94
485.99	96.94
486.209	113.94
486.427	102.94
486.645	113.94
486.863	111.94
487.081	97.94
487.299	93.94
487.517	97.94
487.735	95.94
487.953	97.94
488.171	108.94
488.389	78.94
488.607	99.94
488.825	89.94
489.043	85.94
489.261	87.94
489.479	66.94
489.696	95.94
489.914	100.94
490.132	109.94
490.35	102.94
490.568	77.94
490.786	79.94
491.003	97.94
491.221	78.94
491.439	78.94
491.657	94.94
491.874	93.94
492.092	83.94
492.31	97.94
492.527	85.94
492.745	95.94
492.963	81.94
493.18	89.94
493.398	94.94
493.615	109.94
493.833	97.94
494.05	73.94
494.268	78.94
494.485	93.94
494.703	92.94
494.92	93.94
495.138	98.94
495.355	84.94
495.573	84.94
495.79	101.94
496.008	93.94
496.225	87.94
496.442	97.94
496.66	79.94
496.877	71.94
497.094	84.94
497.312	103.94
497.529	107.94
497.746	95.94
497.963	89.94
498.181	83.94
498.398	93.94
498.615	99.94
498.832	101.94
499.049	95.94
499.267	94.94
499.484	91.94
499.701	94.94
499.918	101.94
500.135	87.94
500.352	97.94
500.569	78.94
500.786	91.94
501.003	79.94
501.22	104.94
501.437	96.94
501.654	95.94
501.871	98.94
502.088	87.94
502.305	90.94
502.522	78.94
502.739	76.94
502.956	103.94
503.172	102.94
503.389	98.94
503.606	109.94
503.823	84.94
504.04	86.94
504.256	88.94
504.473	95.94
504.69	79.94
504.907	84.94
505.123	92.94
505.34	88.94
505.557	93.94
505.773	86.94
505.99	91.94
506.207	75.94
506.423	86.94
506.64	87.94
506.856	82.94
507.073	98.94
507.289	88.94
507.506	96.94
507.722	110.94
507.939	107.94
508.155	89.94
508.372	88.94
508.588	94.94
508.805	93.94
509.021	91.94
509.238	95.94
509.454	88.94
509.67	112.94
509.887	113.94
510.103	130.94
510.319	194.94
510.536	709.94
510.752	2264.94
510.968	619.94
511.184	151.94
511.401	105.94
511.617	95.94
511.833	88.94
512.049	96.94
512.265	88.94
512.481	100.94
512.698	88.94
512.914	108.94
513.13	116.94
513.346	95.94
513.562	103.94
513.778	83.94
513.994	84.94
514.21	104.94
514.426	129.94
514.642	139.94
514.858	117.94
515.074	168.94
515.29	422.94
515.506	1422.94
515.721	524.94
515.937	155.94
516.153	108.94
