Data from Uncirc_1987_H10_HRD10591_00052.txt Node
Date: Wed Jan 03 12:08:58 EST 2024
User: Yrep
Spectrometer: HR+D1059
Trigger mode: 1
Integration Time (sec): 1.000000E-1
Scans to average: 1
Electric dark correction enabled: true
Nonlinearity correction enabled: false
Boxcar width: 0
XAxis mode: Wavelengths
Number of Pixels in Spectrum: 2048
>>>>>Begin Spectral Data<<<<<
223.165	-10
223.4	-10
223.635	-10
223.869	-14
224.104	-20
224.338	-11
224.573	-4
224.808	-18
225.042	-19
225.277	-26
225.511	6
225.746	7
225.98	21
226.215	-1
226.449	16
226.683	10
226.918	25
227.152	38
227.387	38
227.621	34
227.856	42
228.09	49
228.324	67
228.559	61
228.793	62
229.027	65
229.262	74
229.496	73
229.73	96
229.964	88
230.199	74
230.433	75
230.667	86
230.901	81
231.136	69
231.37	84
231.604	83
231.838	86
232.072	77
232.306	80
232.541	84
232.775	78
233.009	68
233.243	108
233.477	78
233.711	69
233.945	70
234.179	69
234.413	82
234.647	88
234.881	103
235.115	74
235.349	84
235.583	82
235.817	77
236.051	87
236.285	72
236.519	76
236.753	78
236.987	85
237.221	77
237.455	80
237.689	82
237.922	84
238.156	83
238.39	72
238.624	71
238.858	77
239.091	81
239.325	80
239.559	64
239.793	80
240.027	85
240.26	81
240.494	87
240.728	82
240.961	77
241.195	68
241.429	82
241.662	86
241.896	88
242.13	74
242.363	79
242.597	82
242.83	74
243.064	82
243.298	82
243.531	69
243.765	62
243.998	75
244.232	93
244.465	88
244.699	96
244.932	84
245.166	76
245.399	77
245.633	81
245.866	64
246.099	90
246.333	90
246.566	81
246.8	98
247.033	91
247.266	88
247.5	80
247.733	83
247.966	68
248.2	67
248.433	74
248.666	88
248.899	82
249.133	74
249.366	87
249.599	84
249.832	91
250.066	84
250.299	93
250.532	88
250.765	78
250.998	89
251.231	72
251.465	85
251.698	84
251.931	89
252.164	84
252.397	72
252.63	70
252.863	89
253.096	74
253.329	84
253.562	91
253.795	77
254.028	96
254.261	82
254.494	70
254.727	91
254.96	85
255.193	75
255.426	86
255.659	83
255.892	79
256.124	78
256.357	92
256.59	90
256.823	86
257.056	79
257.289	85
257.521	90
257.754	86
257.987	72
258.22	83
258.452	95
258.685	84
258.918	76
259.151	93
259.383	86
259.616	90
259.849	94
260.081	85
260.314	73
260.547	75
260.779	88
261.012	82
261.244	75
261.477	79
261.71	95
261.942	102
262.175	111
262.407	93
262.64	77
262.872	85
263.105	85
263.337	89
263.57	84
263.802	89
264.035	75
264.267	79
264.499	88
264.732	97
264.964	80
265.197	97
265.429	89
265.661	80
265.894	82
266.126	93
266.358	63
266.591	89
266.823	80
267.055	84
267.287	83
267.52	71
267.752	92
267.984	72
268.216	92
268.448	108
268.681	94
268.913	86
269.145	93
269.377	80
269.609	84
269.841	91
270.073	85
270.306	83
270.538	69
270.77	89
271.002	90
271.234	88
271.466	84
271.698	86
271.93	78
272.162	96
272.394	92
272.626	84
272.858	96
273.09	88
273.322	90
273.553	83
273.785	91
274.017	87
274.249	91
274.481	85
274.713	81
274.945	84
275.176	81
275.408	90
275.64	88
275.872	84
276.104	87
276.335	102
276.567	94
276.799	96
277.031	96
277.262	87
277.494	91
277.726	85
277.957	91
278.189	98
278.421	86
278.652	100
278.884	86
279.115	91
279.347	92
279.579	98
279.81	97
280.042	101
280.273	89
280.505	82
280.736	103
280.968	79
281.199	85
281.431	82
281.662	87
281.894	94
282.125	103
282.356	108
282.588	132
282.819	108
283.051	94
283.282	95
283.513	85
283.745	94
283.976	80
284.207	96
284.439	86
284.67	95
284.901	87
285.132	91
285.364	87
285.595	93
285.826	105
286.057	86
286.288	89
286.52	87
286.751	89
286.982	90
287.213	94
287.444	81
287.675	91
287.906	99
288.138	100
288.369	96
288.6	92
288.831	75
289.062	90
289.293	77
289.524	99
289.755	97
289.986	91
290.217	80
290.448	100
290.679	89
290.91	81
291.141	96
291.371	86
291.602	74
291.833	104
292.064	77
292.295	100
292.526	90
292.757	91
292.987	90
293.218	86
293.449	73
293.68	85
293.91	92
294.141	83
294.372	69
294.603	91
294.833	90
295.064	90
295.295	91
295.525	84
295.756	101
295.987	108
296.217	129
296.448	111
296.679	101
296.909	98
297.14	88
297.37	92
297.601	90
297.831	85
298.062	99
298.292	101
298.523	84
298.753	80
298.984	93
299.214	80
299.445	98
299.675	90
299.905	102
300.136	100
300.366	96
300.597	97
300.827	86
301.057	101
301.288	102
301.518	94
301.748	96
301.979	94
302.209	96
302.439	98
302.669	101
302.9	103
303.13	103
303.36	102
303.59	91
303.82	117
304.051	90
304.281	100
304.511	93
304.741	84
304.971	84
305.201	84
305.431	86
305.661	94
305.891	93
306.121	90
306.352	92
306.582	100
306.812	96
307.042	74
307.272	84
307.502	105
307.731	115
307.961	90
308.191	92
308.421	108
308.651	101
308.881	100
309.111	96
309.341	94
309.571	89
309.8	81
310.03	94
310.26	99
310.49	94
310.72	104
310.949	84
311.179	94
311.409	93
311.639	100
311.868	86
312.098	102
312.328	103
312.557	97
312.787	98
313.017	89
313.246	84
313.476	91
313.706	94
313.935	81
314.165	98
314.394	105
314.624	97
314.853	94
315.083	96
315.312	99
315.542	96
315.771	82
316.001	83
316.23	93
316.46	108
316.689	94
316.919	90
317.148	102
317.377	94
317.607	87
317.836	108
318.065	99
318.295	99
318.524	88
318.753	94
318.983	94
319.212	93
319.441	108
319.67	109
319.9	108
320.129	96
320.358	94
320.587	102
320.816	80
321.046	92
321.275	101
321.504	88
321.733	96
321.962	91
322.191	97
322.42	102
322.649	108
322.878	105
323.108	120
323.337	119
323.566	130
323.795	152
324.024	195
324.253	355
324.482	724
324.71	1490
324.939	1979
325.168	746
325.397	230
325.626	146
325.855	104
326.084	117
326.313	126
326.542	141
326.77	219
326.999	428
327.228	820
327.457	1556
327.686	1236
327.914	342
328.143	188
328.372	132
328.6	120
328.829	119
329.058	112
329.287	121
329.515	118
329.744	95
329.972	116
330.201	110
330.43	118
330.658	128
330.887	132
331.115	122
331.344	96
331.572	107
331.801	101
332.03	108
332.258	108
332.486	93
332.715	107
332.943	101
333.172	107
333.4	101
333.629	102
333.857	85
334.085	101
334.314	106
334.542	114
334.771	116
334.999	98
335.227	90
335.455	102
335.684	103
335.912	102
336.14	93
336.369	97
336.597	100
336.825	104
337.053	94
337.281	93
337.51	111
337.738	99
337.966	93
338.194	81
338.422	104
338.65	94
338.878	86
339.106	91
339.334	103
339.562	100
339.79	93
340.018	99
340.246	100
340.474	93
340.702	96
340.93	95
341.158	87
341.386	118
341.614	100
341.842	87
342.07	92
342.298	92
342.526	105
342.754	83
342.981	86
343.209	103
343.437	105
343.665	97
343.893	98
344.12	89
344.348	100
344.576	98
344.804	92
345.031	88
345.259	102
345.487	88
345.714	93
345.942	91
346.17	107
346.397	88
346.625	92
346.853	100
347.08	75
347.308	75
347.535	96
347.763	98
347.99	102
348.218	94
348.445	94
348.673	90
348.9	104
349.128	102
349.355	90
349.583	100
349.81	90
350.037	106
350.265	91
350.492	107
350.72	97
350.947	105
351.174	118
351.402	102
351.629	92
351.856	106
352.083	105
352.311	88
352.538	110
352.765	101
352.992	113
353.22	105
353.447	103
353.674	108
353.901	84
354.128	95
354.355	92
354.583	107
354.81	100
355.037	94
355.264	103
355.491	90
355.718	91
355.945	97
356.172	87
356.399	105
356.626	102
356.853	96
357.08	100
357.307	90
357.534	86
357.761	93
357.988	102
358.215	101
358.441	108
358.668	98
358.895	102
359.122	90
359.349	85
359.576	104
359.802	97
360.029	114
360.256	87
360.483	82
360.709	103
360.936	91
361.163	96
361.39	92
361.616	94
361.843	115
362.07	92
362.296	104
362.523	86
362.749	92
362.976	95
363.203	115
363.429	101
363.656	100
363.882	86
364.109	87
364.335	95
364.562	96
364.788	98
365.015	89
365.241	86
365.468	108
365.694	107
365.92	103
366.147	92
366.373	88
366.599	89
366.826	96
367.052	106
367.278	101
367.505	104
367.731	103
367.957	100
368.184	97
368.41	93
368.636	111
368.862	109
369.089	106
369.315	93
369.541	93
369.767	101
369.993	100
370.219	80
370.445	106
370.672	93
370.898	97
371.124	86
371.35	89
371.576	90
371.802	89
372.028	83
372.254	97
372.48	91
372.706	85
372.932	94
373.158	96
373.384	108
373.61	96
373.835	80
374.061	102
374.287	100
374.513	93
374.739	72
374.965	100
375.191	83
375.416	81
375.642	110
375.868	103
376.094	90
376.319	96
376.545	96
376.771	91
376.997	80
377.222	97
377.448	93
377.674	104
377.899	101
378.125	85
378.35	98
378.576	88
378.802	94
379.027	84
379.253	97
379.478	109
379.704	91
379.929	82
380.155	98
380.38	107
380.606	104
380.831	89
381.057	116
381.282	101
381.507	96
381.733	109
381.958	109
382.184	96
382.409	98
382.634	92
382.86	104
383.085	106
383.31	101
383.535	100
383.761	100
383.986	110
384.211	84
384.436	104
384.662	101
384.887	100
385.112	105
385.337	88
385.562	102
385.787	106
386.013	115
386.238	108
386.463	110
386.688	95
386.913	88
387.138	102
387.363	90
387.588	86
387.813	103
388.038	112
388.263	98
388.488	108
388.713	92
388.938	96
389.163	104
389.387	97
389.612	92
389.837	107
390.062	111
390.287	108
390.512	100
390.736	80
390.961	82
391.186	98
391.411	106
391.636	103
391.86	105
392.085	95
392.31	93
392.534	86
392.759	91
392.984	90
393.208	98
393.433	88
393.658	82
393.882	93
394.107	98
394.331	99
394.556	89
394.78	87
395.005	116
395.229	97
395.454	93
395.678	93
395.903	86
396.127	88
396.352	90
396.576	87
396.801	97
397.025	89
397.249	83
397.474	89
397.698	98
397.922	93
398.147	84
398.371	91
398.595	90
398.82	84
399.044	94
399.268	87
399.492	85
399.717	84
399.941	101
400.165	96
400.389	92
400.613	88
400.837	78
401.062	85
401.286	84
401.51	80
401.734	100
401.958	98
402.182	119
402.406	154
402.63	105
402.854	99
403.078	88
403.302	92
403.526	97
403.75	94
403.974	93
404.198	95
404.422	95
404.645	80
404.869	83
405.093	101
405.317	95
405.541	98
405.765	92
405.988	116
406.212	164
406.436	210
406.66	150
406.883	112
407.107	92
407.331	91
407.555	97
407.778	109
408.002	102
408.226	95
408.449	93
408.673	88
408.896	90
409.12	106
409.344	85
409.567	108
409.791	97
410.014	113
410.238	94
410.461	97
410.685	102
410.908	110
411.132	95
411.355	106
411.578	91
411.802	96
412.025	96
412.249	98
412.472	84
412.695	94
412.919	90
413.142	101
413.365	104
413.589	86
413.812	100
414.035	86
414.258	93
414.482	92
414.705	98
414.928	94
415.151	86
415.374	85
415.597	90
415.821	86
416.044	91
416.267	96
416.49	98
416.713	90
416.936	87
417.159	99
417.382	80
417.605	84
417.828	94
418.051	86
418.274	96
418.497	81
418.72	85
418.943	98
419.166	108
419.389	88
419.611	92
419.834	88
420.057	101
420.28	89
420.503	88
420.726	98
420.948	94
421.171	110
421.394	90
421.617	102
421.839	103
422.062	115
422.285	112
422.507	92
422.73	108
422.953	91
423.175	85
423.398	100
423.621	100
423.843	83
424.066	90
424.288	90
424.511	75
424.733	110
424.956	107
425.178	91
425.401	86
425.623	101
425.846	93
426.068	99
426.291	96
426.513	80
426.735	102
426.958	98
427.18	100
427.402	122
427.625	164
427.847	122
428.069	98
428.292	97
428.514	87
428.736	81
428.958	87
429.181	86
429.403	100
429.625	98
429.847	81
430.069	93
430.292	103
430.514	82
430.736	96
430.958	85
431.18	78
431.402	91
431.624	94
431.846	87
432.068	101
432.29	101
432.512	86
432.734	91
432.956	96
433.178	104
433.4	89
433.622	83
433.844	88
434.066	94
434.287	99
434.509	87
434.731	97
434.953	103
435.175	93
435.397	95
435.618	97
435.84	113
436.062	130
436.284	134
436.505	98
436.727	98
436.949	84
437.17	117
437.392	80
437.614	84
437.835	94
438.057	114
438.278	111
438.5	81
438.721	110
438.943	96
439.165	89
439.386	84
439.608	107
439.829	92
440.05	115
440.272	132
440.493	101
440.715	88
440.936	87
441.158	77
441.379	93
441.6	109
441.822	101
442.043	80
442.264	114
442.486	98
442.707	94
442.928	107
443.149	133
443.371	121
443.592	118
443.813	104
444.034	95
444.255	94
444.476	85
444.698	77
444.919	86
445.14	123
445.361	110
445.582	105
445.803	125
446.024	125
446.245	128
446.466	110
446.687	88
446.908	81
447.129	110
447.35	87
447.571	90
447.792	82
448.013	93
448.234	107
448.455	100
448.675	107
448.896	122
449.117	100
449.338	100
449.559	130
449.779	144
450	88
450.221	106
450.442	98
450.662	107
450.883	109
451.104	113
451.324	92
451.545	119
451.766	93
451.986	82
452.207	94
452.428	92
452.648	102
452.869	104
453.089	102
453.31	116
453.53	99
453.751	101
453.971	102
454.192	122
454.412	87
454.633	98
454.853	91
455.073	82
455.294	105
455.514	92
455.734	98
455.955	89
456.175	95
456.395	98
456.616	100
456.836	96
457.056	98
457.276	96
457.497	84
457.717	93
457.937	71
458.157	95
458.377	88
458.598	108
458.818	138
459.038	152
459.258	108
459.478	69
459.698	91
459.918	105
460.138	104
460.358	77
460.578	82
460.798	82
461.018	89
461.238	92
461.458	73
461.678	90
461.898	92
462.118	100
462.338	95
462.558	80
462.777	88
462.997	91
463.217	91
463.437	86
463.657	104
463.876	96
464.096	89
464.316	84
464.536	92
464.755	86
464.975	104
465.195	144
465.414	146
465.634	97
465.854	102
466.073	85
466.293	103
466.512	90
466.732	77
466.951	76
467.171	96
467.391	79
467.61	96
467.829	95
468.049	90
468.268	96
468.488	89
468.707	92
468.927	88
469.146	102
469.365	83
469.585	92
469.804	91
470.023	110
470.243	93
470.462	105
470.681	109
470.901	92
471.12	87
471.339	85
471.558	90
471.777	92
471.997	100
472.216	73
472.435	107
472.654	91
472.873	96
473.092	104
473.311	88
473.53	90
473.749	101
473.968	100
474.187	100
474.406	106
474.625	86
474.844	75
475.063	89
475.282	96
475.501	98
475.72	97
475.939	80
476.158	75
476.377	103
476.596	93
476.814	92
477.033	87
477.252	86
477.471	84
477.69	83
477.908	80
478.127	105
478.346	94
478.564	101
478.783	89
479.002	88
479.22	84
479.439	99
479.658	82
479.876	98
480.095	94
480.313	92
480.532	88
480.751	102
480.969	101
481.188	127
481.406	116
481.624	80
481.843	94
482.061	85
482.28	93
482.498	78
482.717	101
482.935	87
483.153	100
483.372	102
483.59	89
483.808	85
484.027	106
484.245	105
484.463	94
484.681	103
484.9	93
485.118	115
485.336	91
485.554	109
485.772	102
485.99	102
486.209	99
486.427	103
486.645	114
486.863	123
487.081	116
487.299	79
487.517	87
487.735	91
487.953	97
488.171	93
488.389	89
488.607	106
488.825	92
489.043	78
489.261	82
489.479	82
489.696	87
489.914	92
490.132	92
490.35	88
490.568	104
490.786	96
491.003	88
491.221	102
491.439	93
491.657	101
491.874	86
492.092	90
492.31	81
492.527	91
492.745	94
492.963	91
493.18	96
493.398	102
493.615	97
493.833	104
494.05	81
494.268	91
494.485	89
494.703	102
494.92	82
495.138	88
495.355	95
495.573	98
495.79	85
496.008	100
496.225	102
496.442	92
496.66	92
496.877	105
497.094	100
497.312	75
497.529	90
497.746	98
497.963	86
498.181	103
498.398	100
498.615	102
498.832	109
499.049	85
499.267	88
499.484	86
499.701	84
499.918	89
500.135	93
500.352	89
500.569	83
500.786	92
501.003	104
501.22	99
501.437	92
501.654	83
501.871	106
502.088	90
502.305	112
502.522	83
502.739	100
502.956	75
503.172	98
503.389	101
503.606	103
503.823	94
504.04	84
504.256	88
504.473	101
504.69	99
504.907	80
505.123	87
505.34	86
505.557	95
505.773	70
505.99	85
506.207	82
506.423	101
506.64	80
506.856	99
507.073	90
507.289	100
507.506	100
507.722	109
507.939	101
508.155	110
508.372	108
508.588	96
508.805	102
509.021	94
509.238	100
509.454	87
509.67	84
509.887	109
510.103	141
510.319	209
510.536	632
510.752	1995
510.968	556
511.184	124
511.401	97
511.617	114
511.833	100
512.049	98
512.265	89
512.481	100
512.698	101
512.914	98
513.13	83
513.346	92
513.562	94
513.778	98
513.994	103
514.21	108
514.426	124
514.642	125
514.858	116
515.074	149
515.29	366
515.506	1236
515.721	465
515.937	133
516.153	101
516.369	105
516.585	106
516.801	88
517.016	83
517.232	93
517.448	93
517.664	96
517.879	93
518.095	81
518.311	88
518.527	90
518.742	93
518.958	100
519.173	109
519.389	99
519.605	100
519.82	85
520.036	104
520.251	114
520.467	112
520.682	112
520.898	96
521.113	120
521.329	117
521.544	171
521.76	475
521.975	2001
522.19	1221
522.406	266
522.621	113
522.836	103
523.052	118
523.267	99
523.482	92
523.698	92
523.913	125
524.128	101
524.343	82
524.559	102
524.774	96
524.989	97
525.204	97
525.419	85
525.634	105
525.849	105
526.064	85
526.28	88
526.495	92
526.71	90
526.925	87
527.14	87
527.355	100
527.57	100
527.785	106
527.999	101
528.214	90
528.429	94
528.644	88
528.859	96
529.074	94
529.289	107
529.503	163
529.718	122
529.933	96
530.148	86
530.363	101
530.577	84
530.792	91
531.007	101
531.221	100
531.436	88
531.651	106
531.865	96
532.08	98
532.295	84
532.509	79
532.724	95
532.938	110
533.153	101
533.367	94
533.582	99
533.796	92
534.011	105
534.225	98
534.44	86
534.654	93
534.868	96
535.083	90
535.297	86
535.511	101
535.726	106
535.94	81
536.154	103
536.369	96
536.583	85
536.797	104
537.011	97
537.225	97
537.44	91
537.654	85
537.868	86
538.082	86
538.296	91
538.51	87
538.724	100
538.938	90
539.153	91
539.367	116
539.581	100
539.795	94
540.009	95
540.222	89
540.436	96
540.65	89
540.864	104
541.078	88
541.292	88
541.506	93
541.72	101
541.934	88
542.147	100
542.361	94
542.575	101
542.789	92
543.002	90
543.216	101
543.43	101
543.644	76
543.857	102
544.071	101
544.285	93
544.498	81
544.712	100
544.925	89
545.139	91
545.352	102
545.566	105
545.779	85
545.993	86
546.206	91
546.42	96
546.633	101
546.847	86
547.06	99
547.274	82
547.487	80
547.7	95
547.914	94
548.127	94
548.34	104
548.554	104
548.767	102
548.98	104
549.193	86
549.407	77
549.62	83
549.833	81
550.046	92
550.259	94
550.473	88
550.686	90
550.899	97
551.112	85
551.325	88
551.538	98
551.751	98
551.964	84
552.177	90
552.39	82
552.603	105
552.816	78
553.029	87
553.242	82
553.455	91
553.667	110
553.88	104
554.093	92
554.306	91
554.519	89
554.732	89
554.944	92
555.157	91
555.37	89
555.583	93
555.795	94
556.008	87
556.221	97
556.433	94
556.646	101
556.859	100
557.071	94
557.284	100
557.496	97
557.709	100
557.921	88
558.134	86
558.346	82
558.559	73
558.771	84
558.984	82
559.196	97
559.409	94
559.621	91
559.833	81
560.046	102
560.258	88
560.47	97
560.683	100
560.895	90
561.107	92
561.32	94
561.532	115
561.744	89
561.956	107
562.168	91
562.381	93
562.593	102
562.805	101
563.017	85
563.229	101
563.441	97
563.653	89
563.865	80
564.077	95
564.289	98
564.501	99
564.713	89
564.925	92
565.137	113
565.349	88
565.561	94
565.773	82
565.985	86
566.197	83
566.408	80
566.62	83
566.832	105
567.044	99
567.255	94
567.467	90
567.679	86
567.891	95
568.102	92
568.314	81
568.526	94
568.737	105
568.949	100
569.161	85
569.372	92
569.584	90
569.795	97
570.007	121
570.218	225
570.43	125
570.641	96
570.853	87
571.064	84
571.276	82
571.487	88
571.698	92
571.91	83
572.121	105
572.333	92
572.544	82
572.755	90
572.966	96
573.178	82
573.389	89
573.6	83
573.811	94
574.023	83
574.234	98
574.445	96
574.656	89
574.867	86
575.078	99
575.289	78
575.501	92
575.712	91
575.923	101
576.134	93
576.345	88
576.556	93
576.767	102
576.978	109
577.188	90
577.399	94
577.61	105
577.821	100
578.032	109
578.243	261
578.454	653
578.665	200
578.875	96
579.086	91
579.297	80
579.508	82
579.718	84
579.929	99
580.14	84
580.35	93
580.561	85
580.772	89
580.982	85
581.193	89
581.403	94
581.614	98
581.825	88
582.035	86
