Data from Uncirc_1987_H10_HRD10591_00084.txt Node
Date: Wed Jan 03 12:09:05 EST 2024
User: Yrep
Spectrometer: HR+D1059
Trigger mode: 1
Integration Time (sec): 1.000000E-1
Scans to average: 1
Electric dark correction enabled: true
Nonlinearity correction enabled: false
Boxcar width: 0
XAxis mode: Wavelengths
Number of Pixels in Spectrum: 2048
>>>>>Begin Spectral Data<<<<<
223.165	-12.44
223.4	-12.44
223.635	-12.44
223.869	-16.44
224.104	-5.44
224.338	-11.44
224.573	-16.44
224.808	-26.44
225.042	-16.44
225.277	-17.44
225.511	6.56
225.746	6.56
225.98	-3.44
226.215	16.56
226.449	0.56
226.683	22.56
226.918	39.56
227.152	33.56
227.387	38.56
227.621	45.56
227.856	49.56
228.09	44.56
228.324	54.56
228.559	63.56
228.793	73.56
229.027	69.56
229.262	70.56
229.496	43.56
229.73	75.56
229.964	83.56
230.199	70.56
230.433	93.56
230.667	83.56
230.901	77.56
231.136	76.56
231.37	80.56
231.604	77.56
231.838	70.56
232.072	87.56
232.306	82.56
232.541	88.56
232.775	83.56
233.009	79.56
233.243	75.56
233.477	65.56
233.711	88.56
233.945	76.56
234.179	75.56
234.413	76.56
234.647	74.56
234.881	64.56
235.115	67.56
235.349	80.56
235.583	62.56
235.817	86.56
236.051	72.56
236.285	81.56
236.519	77.56
236.753	91.56
236.987	85.56
237.221	86.56
237.455	80.56
237.689	75.56
237.922	85.56
238.156	59.56
238.39	77.56
238.624	87.56
238.858	80.56
239.091	63.56
239.325	75.56
239.559	91.56
239.793	76.56
240.027	76.56
240.26	75.56
240.494	68.56
240.728	67.56
240.961	62.56
241.195	77.56
241.429	78.56
241.662	70.56
241.896	68.56
242.13	58.56
242.363	88.56
242.597	77.56
242.83	74.56
243.064	87.56
243.298	86.56
243.531	81.56
243.765	86.56
243.998	71.56
244.232	79.56
244.465	81.56
244.699	82.56
244.932	70.56
245.166	73.56
245.399	81.56
245.633	76.56
245.866	68.56
246.099	77.56
246.333	75.56
246.566	73.56
246.8	68.56
247.033	72.56
247.266	76.56
247.5	77.56
247.733	77.56
247.966	73.56
248.2	86.56
248.433	69.56
248.666	79.56
248.899	87.56
249.133	97.56
249.366	94.56
249.599	97.56
249.832	72.56
250.066	77.56
250.299	81.56
250.532	97.56
250.765	82.56
250.998	83.56
251.231	82.56
251.465	81.56
251.698	82.56
251.931	73.56
252.164	79.56
252.397	85.56
252.63	74.56
252.863	77.56
253.096	72.56
253.329	91.56
253.562	68.56
253.795	76.56
254.028	79.56
254.261	80.56
254.494	91.56
254.727	96.56
254.96	71.56
255.193	87.56
255.426	83.56
255.659	79.56
255.892	76.56
256.124	91.56
256.357	75.56
256.59	74.56
256.823	87.56
257.056	86.56
257.289	82.56
257.521	92.56
257.754	74.56
257.987	80.56
258.22	73.56
258.452	88.56
258.685	89.56
258.918	92.56
259.151	97.56
259.383	91.56
259.616	88.56
259.849	80.56
260.081	96.56
260.314	83.56
260.547	86.56
260.779	72.56
261.012	72.56
261.244	78.56
261.477	82.56
261.71	96.56
261.942	102.56
262.175	115.56
262.407	93.56
262.64	75.56
262.872	82.56
263.105	91.56
263.337	84.56
263.57	72.56
263.802	96.56
264.035	79.56
264.267	72.56
264.499	86.56
264.732	73.56
264.964	67.56
265.197	91.56
265.429	71.56
265.661	72.56
265.894	87.56
266.126	87.56
266.358	66.56
266.591	78.56
266.823	82.56
267.055	71.56
267.287	77.56
267.52	70.56
267.752	93.56
267.984	87.56
268.216	82.56
268.448	93.56
268.681	93.56
268.913	79.56
269.145	68.56
269.377	74.56
269.609	76.56
269.841	89.56
270.073	75.56
270.306	85.56
270.538	73.56
270.77	71.56
271.002	78.56
271.234	80.56
271.466	79.56
271.698	96.56
271.93	69.56
272.162	91.56
272.394	95.56
272.626	77.56
272.858	102.56
273.09	75.56
273.322	82.56
273.553	85.56
273.785	78.56
274.017	84.56
274.249	93.56
274.481	84.56
274.713	88.56
274.945	98.56
275.176	79.56
275.408	85.56
275.64	75.56
275.872	80.56
276.104	74.56
276.335	98.56
276.567	105.56
276.799	109.56
277.031	99.56
277.262	89.56
277.494	82.56
277.726	94.56
277.957	90.56
278.189	87.56
278.421	91.56
278.652	60.56
278.884	90.56
279.115	75.56
279.347	73.56
279.579	88.56
279.81	88.56
280.042	79.56
280.273	77.56
280.505	89.56
280.736	91.56
280.968	88.56
281.199	77.56
281.431	76.56
281.662	90.56
281.894	87.56
282.125	99.56
282.356	114.56
282.588	145.56
282.819	121.56
283.051	90.56
283.282	74.56
283.513	88.56
283.745	95.56
283.976	71.56
284.207	102.56
284.439	86.56
284.67	79.56
284.901	88.56
285.132	86.56
285.364	68.56
285.595	93.56
285.826	98.56
286.057	79.56
286.288	88.56
286.52	84.56
286.751	79.56
286.982	64.56
287.213	92.56
287.444	88.56
287.675	80.56
287.906	91.56
288.138	97.56
288.369	96.56
288.6	97.56
288.831	88.56
289.062	101.56
289.293	84.56
289.524	91.56
289.755	99.56
289.986	87.56
290.217	97.56
290.448	87.56
290.679	87.56
290.91	86.56
291.141	89.56
291.371	95.56
291.602	81.56
291.833	84.56
292.064	99.56
292.295	82.56
292.526	94.56
292.757	81.56
292.987	96.56
293.218	87.56
293.449	81.56
293.68	69.56
293.91	82.56
294.141	90.56
294.372	87.56
294.603	80.56
294.833	89.56
295.064	87.56
295.295	74.56
295.525	100.56
295.756	105.56
295.987	127.56
296.217	143.56
296.448	131.56
296.679	104.56
296.909	80.56
297.14	79.56
297.37	76.56
297.601	84.56
297.831	94.56
298.062	104.56
298.292	91.56
298.523	89.56
298.753	77.56
298.984	97.56
299.214	93.56
299.445	87.56
299.675	87.56
299.905	96.56
300.136	92.56
300.366	89.56
300.597	95.56
300.827	99.56
301.057	87.56
301.288	96.56
301.518	77.56
301.748	99.56
301.979	99.56
302.209	93.56
302.439	90.56
302.669	79.56
302.9	81.56
303.13	83.56
303.36	92.56
303.59	113.56
303.82	94.56
304.051	90.56
304.281	79.56
304.511	101.56
304.741	77.56
304.971	87.56
305.201	83.56
305.431	78.56
305.661	102.56
305.891	102.56
306.121	97.56
306.352	93.56
306.582	93.56
306.812	97.56
307.042	89.56
307.272	92.56
307.502	86.56
307.731	100.56
307.961	87.56
308.191	89.56
308.421	94.56
308.651	81.56
308.881	100.56
309.111	87.56
309.341	88.56
309.571	104.56
309.8	97.56
310.03	92.56
310.26	102.56
310.49	100.56
310.72	109.56
310.949	105.56
311.179	99.56
311.409	87.56
311.639	103.56
311.868	105.56
312.098	95.56
312.328	97.56
312.557	110.56
312.787	104.56
313.017	102.56
313.246	110.56
313.476	86.56
313.706	85.56
313.935	113.56
314.165	105.56
314.394	112.56
314.624	93.56
314.853	83.56
315.083	84.56
315.312	89.56
315.542	84.56
315.771	105.56
316.001	94.56
316.23	89.56
316.46	98.56
316.689	91.56
316.919	96.56
317.148	108.56
317.377	107.56
317.607	85.56
317.836	104.56
318.065	94.56
318.295	99.56
318.524	93.56
318.753	81.56
318.983	98.56
319.212	106.56
319.441	103.56
319.67	104.56
319.9	94.56
320.129	114.56
320.358	97.56
320.587	87.56
320.816	100.56
321.046	93.56
321.275	92.56
321.504	88.56
321.733	82.56
321.962	93.56
322.191	101.56
322.42	102.56
322.649	110.56
322.878	98.56
323.108	127.56
323.337	125.56
323.566	134.56
323.795	155.56
324.024	219.56
324.253	406.56
324.482	868.56
324.71	1759.56
324.939	2396.56
325.168	851.56
325.397	271.56
325.626	161.56
325.855	124.56
326.084	124.56
326.313	128.56
326.542	135.56
326.77	239.56
326.999	463.56
327.228	965.56
327.457	1817.56
327.686	1401.56
327.914	387.56
328.143	205.56
328.372	161.56
328.6	134.56
328.829	113.56
329.058	116.56
329.287	124.56
329.515	109.56
329.744	110.56
329.972	113.56
330.201	115.56
330.43	136.56
330.658	129.56
330.887	156.56
331.115	126.56
331.344	89.56
331.572	94.56
331.801	103.56
332.03	99.56
332.258	89.56
332.486	100.56
332.715	90.56
332.943	94.56
333.172	89.56
333.4	88.56
333.629	103.56
333.857	100.56
334.085	112.56
334.314	119.56
334.542	111.56
334.771	117.56
334.999	105.56
335.227	95.56
335.455	91.56
335.684	93.56
335.912	102.56
336.14	87.56
336.369	96.56
336.597	117.56
336.825	93.56
337.053	87.56
337.281	92.56
337.51	93.56
337.738	101.56
337.966	94.56
338.194	84.56
338.422	95.56
338.65	93.56
338.878	80.56
339.106	87.56
339.334	88.56
339.562	86.56
339.79	100.56
340.018	89.56
340.246	86.56
340.474	90.56
340.702	97.56
340.93	95.56
341.158	94.56
341.386	100.56
341.614	81.56
341.842	83.56
342.07	85.56
342.298	80.56
342.526	88.56
342.754	95.56
342.981	85.56
343.209	75.56
343.437	80.56
343.665	89.56
343.893	83.56
344.12	102.56
344.348	102.56
344.576	91.56
344.804	88.56
345.031	101.56
345.259	104.56
345.487	91.56
345.714	102.56
345.942	102.56
346.17	92.56
346.397	92.56
346.625	86.56
346.853	92.56
347.08	99.56
347.308	98.56
347.535	106.56
347.763	87.56
347.99	95.56
348.218	84.56
348.445	97.56
348.673	88.56
348.9	94.56
349.128	106.56
349.355	93.56
349.583	91.56
349.81	88.56
350.037	102.56
350.265	84.56
350.492	109.56
350.72	95.56
350.947	105.56
351.174	104.56
351.402	108.56
351.629	86.56
351.856	92.56
352.083	89.56
352.311	97.56
352.538	106.56
352.765	107.56
352.992	114.56
353.22	108.56
353.447	96.56
353.674	99.56
353.901	89.56
354.128	107.56
354.355	85.56
354.583	107.56
354.81	100.56
355.037	100.56
355.264	98.56
355.491	94.56
355.718	92.56
355.945	97.56
356.172	93.56
356.399	105.56
356.626	75.56
356.853	83.56
357.08	85.56
357.307	94.56
357.534	109.56
357.761	104.56
357.988	97.56
358.215	97.56
358.441	82.56
358.668	85.56
358.895	90.56
359.122	84.56
359.349	102.56
359.576	100.56
359.802	104.56
360.029	115.56
360.256	91.56
360.483	98.56
360.709	98.56
360.936	88.56
361.163	95.56
361.39	108.56
361.616	109.56
361.843	92.56
362.07	84.56
362.296	97.56
362.523	87.56
362.749	89.56
362.976	90.56
363.203	100.56
363.429	83.56
363.656	85.56
363.882	86.56
364.109	97.56
364.335	79.56
364.562	91.56
364.788	92.56
365.015	92.56
365.241	101.56
365.468	111.56
365.694	106.56
365.92	98.56
366.147	82.56
366.373	91.56
366.599	71.56
366.826	81.56
367.052	89.56
367.278	103.56
367.505	102.56
367.731	92.56
367.957	83.56
368.184	98.56
368.41	98.56
368.636	110.56
368.862	107.56
369.089	115.56
369.315	79.56
369.541	89.56
369.767	102.56
369.993	84.56
370.219	89.56
370.445	100.56
370.672	91.56
370.898	103.56
371.124	77.56
371.35	79.56
371.576	89.56
371.802	84.56
372.028	92.56
372.254	86.56
372.48	85.56
372.706	86.56
372.932	86.56
373.158	103.56
373.384	101.56
373.61	81.56
373.835	81.56
374.061	91.56
374.287	101.56
374.513	98.56
374.739	86.56
374.965	109.56
375.191	101.56
375.416	87.56
375.642	93.56
375.868	91.56
376.094	92.56
376.319	79.56
376.545	81.56
376.771	88.56
376.997	93.56
377.222	79.56
377.448	87.56
377.674	83.56
377.899	108.56
378.125	99.56
378.35	102.56
378.576	88.56
378.802	92.56
379.027	93.56
379.253	93.56
379.478	88.56
379.704	93.56
379.929	96.56
380.155	96.56
380.38	77.56
380.606	93.56
380.831	81.56
381.057	100.56
381.282	94.56
381.507	79.56
381.733	105.56
381.958	84.56
382.184	91.56
382.409	88.56
382.634	111.56
382.86	93.56
383.085	59.56
383.31	96.56
383.535	80.56
383.761	104.56
383.986	92.56
384.211	101.56
384.436	94.56
384.662	95.56
384.887	69.56
385.112	89.56
385.337	102.56
385.562	91.56
385.787	101.56
386.013	107.56
386.238	102.56
386.463	111.56
386.688	92.56
386.913	90.56
387.138	88.56
387.363	95.56
387.588	92.56
387.813	93.56
388.038	91.56
388.263	103.56
388.488	102.56
388.713	81.56
388.938	104.56
389.163	96.56
389.387	86.56
389.612	81.56
389.837	91.56
390.062	103.56
390.287	86.56
390.512	92.56
390.736	93.56
390.961	87.56
391.186	83.56
391.411	80.56
391.636	81.56
391.86	79.56
392.085	74.56
392.31	94.56
392.534	95.56
392.759	91.56
392.984	82.56
393.208	94.56
393.433	84.56
393.658	93.56
393.882	92.56
394.107	86.56
394.331	86.56
394.556	68.56
394.78	91.56
395.005	101.56
395.229	83.56
395.454	93.56
395.678	100.56
395.903	95.56
396.127	95.56
396.352	94.56
396.576	73.56
396.801	89.56
397.025	97.56
397.249	77.56
397.474	85.56
397.698	86.56
397.922	101.56
398.147	85.56
398.371	87.56
398.595	80.56
398.82	82.56
399.044	99.56
399.268	91.56
399.492	76.56
399.717	93.56
399.941	103.56
400.165	90.56
400.389	92.56
400.613	93.56
400.837	84.56
401.062	85.56
401.286	82.56
401.51	100.56
401.734	87.56
401.958	115.56
402.182	124.56
402.406	168.56
402.63	124.56
402.854	97.56
403.078	95.56
403.302	96.56
403.526	93.56
403.75	84.56
403.974	89.56
404.198	81.56
404.422	91.56
404.645	97.56
404.869	98.56
405.093	88.56
405.317	124.56
405.541	109.56
405.765	106.56
405.988	112.56
406.212	183.56
406.436	222.56
406.66	143.56
406.883	98.56
407.107	89.56
407.331	83.56
407.555	87.56
407.778	101.56
408.002	95.56
408.226	92.56
408.449	94.56
408.673	87.56
408.896	72.56
409.12	110.56
409.344	79.56
409.567	93.56
409.791	94.56
410.014	90.56
410.238	103.56
410.461	92.56
410.685	97.56
410.908	97.56
411.132	101.56
411.355	103.56
411.578	98.56
411.802	101.56
412.025	96.56
412.249	89.56
412.472	86.56
412.695	86.56
412.919	84.56
413.142	81.56
413.365	83.56
413.589	84.56
413.812	83.56
414.035	82.56
414.258	85.56
414.482	88.56
414.705	91.56
414.928	98.56
415.151	88.56
415.374	92.56
415.597	92.56
415.821	87.56
416.044	78.56
416.267	94.56
416.49	83.56
416.713	82.56
416.936	91.56
417.159	89.56
417.382	92.56
417.605	85.56
417.828	83.56
418.051	76.56
418.274	79.56
418.497	80.56
418.72	75.56
418.943	80.56
419.166	73.56
419.389	91.56
419.611	85.56
419.834	88.56
420.057	84.56
420.28	87.56
420.503	90.56
420.726	81.56
420.948	95.56
421.171	93.56
421.394	87.56
421.617	92.56
421.839	96.56
422.062	86.56
422.285	94.56
422.507	95.56
422.73	95.56
422.953	91.56
423.175	86.56
423.398	81.56
423.621	66.56
423.843	95.56
424.066	96.56
424.288	81.56
424.511	91.56
424.733	95.56
424.956	107.56
425.178	100.56
425.401	103.56
425.623	102.56
425.846	92.56
426.068	91.56
426.291	99.56
426.513	96.56
426.735	109.56
426.958	87.56
427.18	123.56
427.402	131.56
427.625	174.56
427.847	125.56
428.069	85.56
428.292	76.56
428.514	86.56
428.736	92.56
428.958	93.56
429.181	93.56
429.403	99.56
429.625	79.56
429.847	89.56
430.069	104.56
430.292	93.56
430.514	83.56
430.736	85.56
430.958	83.56
431.18	94.56
431.402	90.56
431.624	90.56
431.846	89.56
432.068	75.56
432.29	86.56
432.512	83.56
432.734	87.56
432.956	94.56
433.178	96.56
433.4	87.56
433.622	82.56
433.844	87.56
434.066	83.56
434.287	83.56
434.509	88.56
434.731	82.56
434.953	86.56
435.175	105.56
435.397	77.56
435.618	107.56
435.84	100.56
436.062	120.56
436.284	131.56
436.505	109.56
436.727	77.56
436.949	91.56
437.17	85.56
437.392	87.56
437.614	82.56
437.835	117.56
438.057	124.56
438.278	110.56
438.5	108.56
438.721	128.56
438.943	109.56
439.165	105.56
439.386	87.56
439.608	102.56
439.829	102.56
440.05	116.56
440.272	142.56
440.493	105.56
440.715	91.56
440.936	81.56
441.158	93.56
441.379	88.56
441.6	102.56
441.822	87.56
442.043	102.56
442.264	99.56
442.486	103.56
442.707	86.56
442.928	105.56
443.149	121.56
443.371	140.56
443.592	116.56
443.813	132.56
444.034	106.56
444.255	96.56
444.476	104.56
444.698	84.56
444.919	93.56
445.14	125.56
445.361	124.56
445.582	110.56
445.803	155.56
446.024	143.56
446.245	148.56
446.466	107.56
446.687	72.56
446.908	81.56
447.129	100.56
447.35	80.56
447.571	89.56
447.792	96.56
448.013	89.56
448.234	98.56
448.455	105.56
448.675	123.56
448.896	124.56
449.117	109.56
449.338	105.56
449.559	108.56
449.779	132.56
450	107.56
450.221	88.56
450.442	103.56
450.662	95.56
450.883	108.56
451.104	105.56
451.324	103.56
451.545	92.56
451.766	92.56
451.986	89.56
452.207	110.56
452.428	105.56
452.648	97.56
452.869	114.56
453.089	112.56
453.31	107.56
453.53	81.56
453.751	75.56
453.971	92.56
454.192	119.56
454.412	89.56
454.633	95.56
454.853	79.56
455.073	84.56
455.294	99.56
455.514	99.56
455.734	96.56
455.955	89.56
456.175	75.56
456.395	72.56
456.616	83.56
456.836	88.56
457.056	75.56
457.276	90.56
457.497	72.56
457.717	81.56
457.937	94.56
458.157	90.56
458.377	96.56
458.598	111.56
458.818	155.56
459.038	165.56
459.258	116.56
459.478	96.56
459.698	89.56
459.918	75.56
460.138	82.56
460.358	87.56
460.578	100.56
460.798	98.56
461.018	79.56
461.238	87.56
461.458	56.56
461.678	86.56
461.898	82.56
462.118	93.56
462.338	85.56
462.558	92.56
462.777	81.56
462.997	82.56
463.217	81.56
463.437	85.56
463.657	85.56
463.876	88.56
464.096	85.56
464.316	93.56
464.536	102.56
464.755	94.56
464.975	108.56
465.195	185.56
465.414	171.56
465.634	98.56
465.854	107.56
466.073	101.56
466.293	87.56
466.512	80.56
466.732	76.56
466.951	95.56
467.171	89.56
467.391	92.56
467.61	96.56
467.829	95.56
468.049	92.56
468.268	92.56
468.488	82.56
468.707	102.56
468.927	78.56
469.146	100.56
469.365	83.56
469.585	71.56
469.804	105.56
470.023	95.56
470.243	87.56
470.462	92.56
470.681	119.56
470.901	83.56
471.12	86.56
471.339	77.56
471.558	85.56
471.777	85.56
471.997	93.56
472.216	106.56
472.435	115.56
472.654	81.56
472.873	101.56
473.092	99.56
473.311	86.56
473.53	88.56
473.749	91.56
473.968	90.56
474.187	98.56
474.406	109.56
474.625	94.56
474.844	77.56
475.063	79.56
475.282	81.56
475.501	76.56
475.72	87.56
475.939	87.56
476.158	77.56
476.377	86.56
476.596	90.56
476.814	78.56
477.033	97.56
477.252	93.56
477.471	85.56
477.69	89.56
477.908	91.56
478.127	79.56
478.346	100.56
478.564	95.56
478.783	92.56
479.002	96.56
479.22	92.56
479.439	98.56
479.658	92.56
479.876	93.56
480.095	94.56
480.313	81.56
480.532	93.56
480.751	91.56
480.969	104.56
481.188	162.56
481.406	109.56
481.624	91.56
481.843	83.56
482.061	87.56
482.28	93.56
482.498	80.56
482.717	84.56
482.935	95.56
483.153	95.56
483.372	91.56
483.59	88.56
483.808	80.56
484.027	79.56
484.245	90.56
484.463	83.56
484.681	91.56
484.9	93.56
485.118	79.56
485.336	73.56
485.554	96.56
485.772	103.56
485.99	96.56
486.209	93.56
486.427	92.56
486.645	112.56
486.863	101.56
487.081	105.56
487.299	83.56
487.517	83.56
487.735	97.56
487.953	96.56
488.171	101.56
488.389	109.56
488.607	105.56
488.825	86.56
489.043	83.56
489.261	88.56
489.479	92.56
489.696	81.56
489.914	88.56
490.132	91.56
490.35	80.56
490.568	72.56
490.786	79.56
491.003	99.56
491.221	88.56
491.439	91.56
491.657	80.56
491.874	92.56
492.092	73.56
492.31	101.56
492.527	103.56
492.745	90.56
492.963	84.56
493.18	87.56
493.398	90.56
493.615	104.56
493.833	99.56
494.05	94.56
494.268	83.56
494.485	90.56
494.703	85.56
494.92	94.56
495.138	91.56
495.355	108.56
495.573	93.56
495.79	83.56
496.008	72.56
496.225	97.56
496.442	80.56
496.66	83.56
496.877	108.56
497.094	92.56
497.312	67.56
497.529	89.56
497.746	89.56
497.963	85.56
498.181	96.56
498.398	97.56
498.615	108.56
498.832	113.56
499.049	98.56
499.267	82.56
499.484	89.56
499.701	88.56
499.918	76.56
500.135	91.56
500.352	84.56
500.569	90.56
500.786	87.56
501.003	82.56
501.22	84.56
501.437	86.56
501.654	86.56
501.871	106.56
502.088	84.56
502.305	90.56
502.522	81.56
502.739	91.56
502.956	85.56
503.172	94.56
503.389	86.56
503.606	98.56
503.823	93.56
504.04	89.56
504.256	96.56
504.473	108.56
504.69	87.56
504.907	94.56
505.123	73.56
505.34	87.56
505.557	79.56
505.773	91.56
505.99	70.56
506.207	83.56
506.423	88.56
506.64	77.56
506.856	80.56
507.073	94.56
507.289	102.56
507.506	86.56
507.722	109.56
507.939	118.56
508.155	95.56
508.372	88.56
508.588	95.56
508.805	98.56
509.021	99.56
509.238	91.56
509.454	99.56
509.67	94.56
509.887	103.56
510.103	140.56
510.319	227.56
510.536	781.56
510.752	2527.56
510.968	679.56
511.184	151.56
511.401	119.56
511.617	95.56
511.833	85.56
512.049	79.56
512.265	116.56
512.481	97.56
512.698	91.56
512.914	84.56
513.13	88.56
513.346	98.56
513.562	83.56
513.778	97.56
513.994	101.56
514.21	100.56
514.426	123.56
514.642	147.56
514.858	121.56
515.074	176.56
515.29	495.56
515.506	1599.56
515.721	579.56
