Data from Uncirc_1987_H10_HRD10591_00009.txt Node
Date: Wed Jan 03 12:08:50 EST 2024
User: Yrep
Spectrometer: HR+D1059
Trigger mode: 1
Integration Time (sec): 1.000000E-1
Scans to average: 1
Electric dark correction enabled: true
Nonlinearity correction enabled: false
Boxcar width: 0
XAxis mode: Wavelengths
Number of Pixels in Spectrum: 2048
>>>>>Begin Spectral Data<<<<<
223.165	-23.88
223.4	-23.88
223.635	-23.88
223.869	-16.88
224.104	-24.88
224.338	-9.88
224.573	-9.88
224.808	-23.88
225.042	-6.88
225.277	-6.88
225.511	3.12
225.746	17.12
225.98	13.12
226.215	17.12
226.449	18.12
226.683	19.12
226.918	8.12
227.152	27.12
227.387	42.12
227.621	33.12
227.856	55.12
228.09	44.12
228.324	39.12
228.559	57.12
228.793	57.12
229.027	70.12
229.262	64.12
229.496	75.12
229.73	83.12
229.964	87.12
230.199	77.12
230.433	72.12
230.667	64.12
230.901	81.12
231.136	76.12
231.37	76.12
231.604	65.12
231.838	69.12
232.072	78.12
232.306	84.12
232.541	86.12
232.775	95.12
233.009	79.12
233.243	83.12
233.477	86.12
233.711	81.12
233.945	77.12
234.179	78.12
234.413	80.12
234.647	86.12
234.881	80.12
235.115	61.12
235.349	88.12
235.583	81.12
235.817	79.12
236.051	81.12
236.285	81.12
236.519	73.12
236.753	62.12
236.987	70.12
237.221	79.12
237.455	78.12
237.689	84.12
237.922	78.12
238.156	79.12
238.39	73.12
238.624	79.12
238.858	70.12
239.091	71.12
239.325	70.12
239.559	84.12
239.793	80.12
240.027	81.12
240.26	84.12
240.494	69.12
240.728	79.12
240.961	76.12
241.195	95.12
241.429	61.12
241.662	60.12
241.896	83.12
242.13	79.12
242.363	77.12
242.597	75.12
242.83	93.12
243.064	78.12
243.298	84.12
243.531	69.12
243.765	77.12
243.998	82.12
244.232	89.12
244.465	73.12
244.699	68.12
244.932	72.12
245.166	91.12
245.399	74.12
245.633	85.12
245.866	61.12
246.099	77.12
246.333	63.12
246.566	84.12
246.8	78.12
247.033	85.12
247.266	79.12
247.5	77.12
247.733	78.12
247.966	72.12
248.2	63.12
248.433	76.12
248.666	81.12
248.899	82.12
249.133	86.12
249.366	87.12
249.599	97.12
249.832	67.12
250.066	87.12
250.299	86.12
250.532	79.12
250.765	82.12
250.998	84.12
251.231	86.12
251.465	80.12
251.698	83.12
251.931	84.12
252.164	76.12
252.397	73.12
252.63	77.12
252.863	68.12
253.096	71.12
253.329	83.12
253.562	72.12
253.795	89.12
254.028	91.12
254.261	77.12
254.494	79.12
254.727	75.12
254.96	79.12
255.193	76.12
255.426	91.12
255.659	72.12
255.892	86.12
256.124	91.12
256.357	73.12
256.59	81.12
256.823	72.12
257.056	85.12
257.289	88.12
257.521	99.12
257.754	77.12
257.987	72.12
258.22	85.12
258.452	75.12
258.685	87.12
258.918	76.12
259.151	69.12
259.383	77.12
259.616	73.12
259.849	77.12
260.081	80.12
260.314	95.12
260.547	80.12
260.779	68.12
261.012	89.12
261.244	88.12
261.477	86.12
261.71	98.12
261.942	90.12
262.175	97.12
262.407	96.12
262.64	87.12
262.872	76.12
263.105	76.12
263.337	78.12
263.57	72.12
263.802	88.12
264.035	79.12
264.267	81.12
264.499	78.12
264.732	93.12
264.964	95.12
265.197	75.12
265.429	63.12
265.661	77.12
265.894	66.12
266.126	59.12
266.358	83.12
266.591	97.12
266.823	81.12
267.055	87.12
267.287	84.12
267.52	85.12
267.752	81.12
267.984	86.12
268.216	65.12
268.448	69.12
268.681	76.12
268.913	93.12
269.145	71.12
269.377	83.12
269.609	69.12
269.841	91.12
270.073	86.12
270.306	72.12
270.538	79.12
270.77	83.12
271.002	91.12
271.234	82.12
271.466	88.12
271.698	77.12
271.93	67.12
272.162	75.12
272.394	85.12
272.626	101.12
272.858	79.12
273.09	78.12
273.322	78.12
273.553	75.12
273.785	88.12
274.017	80.12
274.249	75.12
274.481	84.12
274.713	85.12
274.945	71.12
275.176	77.12
275.408	83.12
275.64	68.12
275.872	87.12
276.104	77.12
276.335	76.12
276.567	82.12
276.799	95.12
277.031	102.12
277.262	89.12
277.494	85.12
277.726	92.12
277.957	77.12
278.189	85.12
278.421	84.12
278.652	92.12
278.884	94.12
279.115	78.12
279.347	87.12
279.579	71.12
279.81	82.12
280.042	87.12
280.273	102.12
280.505	84.12
280.736	85.12
280.968	83.12
281.199	70.12
281.431	87.12
281.662	80.12
281.894	100.12
282.125	102.12
282.356	104.12
282.588	122.12
282.819	110.12
283.051	96.12
283.282	92.12
283.513	96.12
283.745	92.12
283.976	78.12
284.207	79.12
284.439	80.12
284.67	73.12
284.901	99.12
285.132	86.12
285.364	80.12
285.595	84.12
285.826	95.12
286.057	78.12
286.288	77.12
286.52	83.12
286.751	91.12
286.982	86.12
287.213	73.12
287.444	88.12
287.675	105.12
287.906	95.12
288.138	97.12
288.369	84.12
288.6	83.12
288.831	77.12
289.062	93.12
289.293	83.12
289.524	81.12
289.755	73.12
289.986	81.12
290.217	83.12
290.448	76.12
290.679	95.12
290.91	86.12
291.141	98.12
291.371	85.12
291.602	83.12
291.833	87.12
292.064	94.12
292.295	83.12
292.526	77.12
292.757	89.12
292.987	83.12
293.218	71.12
293.449	79.12
293.68	93.12
293.91	83.12
294.141	99.12
294.372	96.12
294.603	86.12
294.833	84.12
295.064	77.12
295.295	97.12
295.525	85.12
295.756	97.12
295.987	89.12
296.217	116.12
296.448	113.12
296.679	90.12
296.909	97.12
297.14	97.12
297.37	84.12
297.601	79.12
297.831	84.12
298.062	82.12
298.292	94.12
298.523	88.12
298.753	98.12
298.984	81.12
299.214	94.12
299.445	96.12
299.675	86.12
299.905	74.12
300.136	85.12
300.366	94.12
300.597	86.12
300.827	98.12
301.057	90.12
301.288	93.12
301.518	90.12
301.748	78.12
301.979	99.12
302.209	81.12
302.439	83.12
302.669	95.12
302.9	81.12
303.13	91.12
303.36	90.12
303.59	92.12
303.82	94.12
304.051	96.12
304.281	75.12
304.511	91.12
304.741	89.12
304.971	80.12
305.201	84.12
305.431	97.12
305.661	91.12
305.891	91.12
306.121	94.12
306.352	95.12
306.582	94.12
306.812	94.12
307.042	102.12
307.272	97.12
307.502	89.12
307.731	84.12
307.961	90.12
308.191	99.12
308.421	89.12
308.651	69.12
308.881	97.12
309.111	95.12
309.341	90.12
309.571	105.12
309.8	98.12
310.03	100.12
310.26	89.12
310.49	104.12
310.72	81.12
310.949	104.12
311.179	79.12
311.409	92.12
311.639	95.12
311.868	97.12
312.098	91.12
312.328	92.12
312.557	91.12
312.787	101.12
313.017	89.12
313.246	89.12
313.476	89.12
313.706	83.12
313.935	81.12
314.165	91.12
314.394	94.12
314.624	91.12
314.853	94.12
315.083	75.12
315.312	91.12
315.542	91.12
315.771	94.12
316.001	87.12
316.23	79.12
316.46	96.12
316.689	101.12
316.919	90.12
317.148	91.12
317.377	89.12
317.607	83.12
317.836	88.12
318.065	88.12
318.295	96.12
318.524	76.12
318.753	95.12
318.983	88.12
319.212	84.12
319.441	100.12
319.67	100.12
319.9	86.12
320.129	91.12
320.358	91.12
320.587	94.12
320.816	95.12
321.046	89.12
321.275	99.12
321.504	97.12
321.733	104.12
321.962	95.12
322.191	100.12
322.42	91.12
322.649	101.12
322.878	118.12
323.108	113.12
323.337	120.12
323.566	117.12
323.795	140.12
324.024	184.12
324.253	340.12
324.482	663.12
324.71	1329.12
324.939	1810.12
325.168	672.12
325.397	211.12
325.626	133.12
325.855	126.12
326.084	111.12
326.313	125.12
326.542	136.12
326.77	182.12
326.999	378.12
327.228	737.12
327.457	1375.12
327.686	1096.12
327.914	301.12
328.143	160.12
328.372	133.12
328.6	122.12
328.829	112.12
329.058	115.12
329.287	117.12
329.515	94.12
329.744	108.12
329.972	105.12
330.201	100.12
330.43	89.12
330.658	110.12
330.887	109.12
331.115	116.12
331.344	106.12
331.572	113.12
331.801	112.12
332.03	95.12
332.258	83.12
332.486	103.12
332.715	92.12
332.943	83.12
333.172	95.12
333.4	80.12
333.629	97.12
333.857	100.12
334.085	102.12
334.314	87.12
334.542	105.12
334.771	87.12
334.999	88.12
335.227	78.12
335.455	85.12
335.684	106.12
335.912	88.12
336.14	97.12
336.369	95.12
336.597	99.12
336.825	86.12
337.053	86.12
337.281	83.12
337.51	83.12
337.738	85.12
337.966	84.12
338.194	87.12
338.422	80.12
338.65	86.12
338.878	93.12
339.106	83.12
339.334	80.12
339.562	85.12
339.79	88.12
340.018	90.12
340.246	80.12
340.474	70.12
340.702	96.12
340.93	77.12
341.158	84.12
341.386	84.12
341.614	95.12
341.842	76.12
342.07	88.12
342.298	89.12
342.526	86.12
342.754	78.12
342.981	86.12
343.209	89.12
343.437	103.12
343.665	84.12
343.893	85.12
344.12	99.12
344.348	88.12
344.576	68.12
344.804	87.12
345.031	86.12
345.259	101.12
345.487	81.12
345.714	91.12
345.942	83.12
346.17	99.12
346.397	87.12
346.625	83.12
346.853	90.12
347.08	95.12
347.308	92.12
347.535	86.12
347.763	96.12
347.99	107.12
348.218	112.12
348.445	99.12
348.673	73.12
348.9	98.12
349.128	104.12
349.355	104.12
349.583	105.12
349.81	104.12
350.037	101.12
350.265	102.12
350.492	91.12
350.72	92.12
350.947	105.12
351.174	109.12
351.402	103.12
351.629	97.12
351.856	93.12
352.083	96.12
352.311	92.12
352.538	98.12
352.765	110.12
352.992	100.12
353.22	100.12
353.447	103.12
353.674	93.12
353.901	114.12
354.128	93.12
354.355	89.12
354.583	82.12
354.81	97.12
355.037	95.12
355.264	97.12
355.491	89.12
355.718	84.12
355.945	85.12
356.172	87.12
356.399	91.12
356.626	88.12
356.853	87.12
357.08	78.12
357.307	100.12
357.534	92.12
357.761	100.12
357.988	91.12
358.215	89.12
358.441	87.12
358.668	94.12
358.895	89.12
359.122	85.12
359.349	91.12
359.576	100.12
359.802	89.12
360.029	119.12
360.256	85.12
360.483	91.12
360.709	82.12
360.936	83.12
361.163	90.12
361.39	85.12
361.616	84.12
361.843	77.12
362.07	98.12
362.296	95.12
362.523	78.12
362.749	91.12
362.976	75.12
363.203	86.12
363.429	82.12
363.656	74.12
363.882	70.12
364.109	95.12
364.335	96.12
364.562	83.12
364.788	84.12
365.015	84.12
365.241	98.12
365.468	78.12
365.694	91.12
365.92	97.12
366.147	80.12
366.373	85.12
366.599	82.12
366.826	85.12
367.052	89.12
367.278	92.12
367.505	93.12
367.731	77.12
367.957	86.12
368.184	88.12
368.41	92.12
368.636	97.12
368.862	88.12
369.089	110.12
369.315	83.12
369.541	83.12
369.767	91.12
369.993	104.12
370.219	82.12
370.445	75.12
370.672	78.12
370.898	89.12
371.124	83.12
371.35	84.12
371.576	74.12
371.802	81.12
372.028	82.12
372.254	91.12
372.48	72.12
372.706	87.12
372.932	103.12
373.158	94.12
373.384	89.12
373.61	92.12
373.835	76.12
374.061	82.12
374.287	109.12
374.513	89.12
374.739	77.12
374.965	84.12
375.191	88.12
375.416	108.12
375.642	81.12
375.868	88.12
376.094	87.12
376.319	81.12
376.545	78.12
376.771	70.12
376.997	106.12
377.222	84.12
377.448	88.12
377.674	80.12
377.899	86.12
378.125	97.12
378.35	91.12
378.576	80.12
378.802	75.12
379.027	92.12
379.253	100.12
379.478	92.12
379.704	91.12
379.929	99.12
380.155	69.12
380.38	87.12
380.606	92.12
380.831	95.12
381.057	91.12
381.282	103.12
381.507	100.12
381.733	104.12
381.958	92.12
382.184	91.12
382.409	85.12
382.634	98.12
382.86	86.12
383.085	97.12
383.31	91.12
383.535	103.12
383.761	104.12
383.986	92.12
384.211	82.12
384.436	79.12
384.662	87.12
384.887	89.12
385.112	91.12
385.337	100.12
385.562	103.12
385.787	96.12
386.013	83.12
386.238	102.12
386.463	90.12
386.688	100.12
386.913	102.12
387.138	110.12
387.363	101.12
387.588	106.12
387.813	95.12
388.038	83.12
388.263	111.12
388.488	100.12
388.713	100.12
388.938	104.12
389.163	93.12
389.387	92.12
389.612	95.12
389.837	96.12
390.062	90.12
390.287	77.12
390.512	95.12
390.736	88.12
390.961	97.12
391.186	91.12
391.411	87.12
391.636	89.12
391.86	87.12
392.085	95.12
392.31	77.12
392.534	70.12
392.759	67.12
392.984	80.12
393.208	79.12
393.433	82.12
393.658	88.12
393.882	94.12
394.107	92.12
394.331	79.12
394.556	70.12
394.78	95.12
395.005	85.12
395.229	85.12
395.454	67.12
395.678	86.12
395.903	84.12
396.127	77.12
396.352	86.12
396.576	105.12
396.801	95.12
397.025	92.12
397.249	86.12
397.474	79.12
397.698	90.12
397.922	79.12
398.147	81.12
398.371	89.12
398.595	84.12
398.82	89.12
399.044	84.12
399.268	70.12
399.492	88.12
399.717	87.12
399.941	88.12
400.165	84.12
400.389	91.12
400.613	89.12
400.837	81.12
401.062	79.12
401.286	85.12
401.51	84.12
401.734	94.12
401.958	98.12
402.182	96.12
402.406	128.12
402.63	103.12
402.854	78.12
403.078	88.12
403.302	92.12
403.526	78.12
403.75	68.12
403.974	85.12
404.198	86.12
404.422	88.12
404.645	92.12
404.869	81.12
405.093	82.12
405.317	102.12
405.541	92.12
405.765	94.12
405.988	92.12
406.212	146.12
406.436	175.12
406.66	119.12
406.883	81.12
407.107	83.12
407.331	90.12
407.555	96.12
407.778	100.12
408.002	78.12
408.226	93.12
408.449	95.12
408.673	101.12
408.896	85.12
409.12	93.12
409.344	83.12
409.567	80.12
409.791	93.12
410.014	94.12
410.238	86.12
410.461	86.12
410.685	109.12
410.908	105.12
411.132	100.12
411.355	111.12
411.578	87.12
411.802	94.12
412.025	92.12
412.249	67.12
412.472	92.12
412.695	79.12
412.919	99.12
413.142	86.12
413.365	82.12
413.589	70.12
413.812	78.12
414.035	100.12
414.258	91.12
414.482	85.12
414.705	79.12
414.928	97.12
415.151	95.12
415.374	100.12
415.597	71.12
415.821	68.12
416.044	98.12
416.267	93.12
416.49	81.12
416.713	83.12
416.936	91.12
417.159	85.12
417.382	80.12
417.605	81.12
417.828	78.12
418.051	66.12
418.274	93.12
418.497	90.12
418.72	92.12
418.943	79.12
419.166	92.12
419.389	88.12
419.611	87.12
419.834	80.12
420.057	100.12
420.28	92.12
420.503	83.12
420.726	77.12
420.948	79.12
421.171	79.12
421.394	89.12
421.617	87.12
421.839	88.12
422.062	83.12
422.285	95.12
422.507	108.12
422.73	97.12
422.953	105.12
423.175	88.12
423.398	94.12
423.621	85.12
423.843	68.12
424.066	80.12
424.288	88.12
424.511	92.12
424.733	88.12
424.956	99.12
425.178	95.12
425.401	93.12
425.623	87.12
425.846	79.12
426.068	81.12
426.291	101.12
426.513	83.12
426.735	86.12
426.958	100.12
427.18	100.12
427.402	133.12
427.625	137.12
427.847	110.12
428.069	95.12
428.292	88.12
428.514	84.12
428.736	75.12
428.958	75.12
429.181	87.12
429.403	88.12
429.625	68.12
429.847	77.12
430.069	86.12
430.292	98.12
430.514	86.12
430.736	85.12
430.958	93.12
431.18	76.12
431.402	77.12
431.624	76.12
431.846	96.12
432.068	88.12
432.29	79.12
432.512	92.12
432.734	85.12
432.956	79.12
433.178	84.12
433.4	87.12
433.622	91.12
433.844	82.12
434.066	83.12
434.287	84.12
434.509	90.12
434.731	92.12
434.953	91.12
435.175	64.12
435.397	75.12
435.618	88.12
435.84	95.12
436.062	105.12
436.284	103.12
436.505	112.12
436.727	105.12
436.949	97.12
437.17	86.12
437.392	93.12
437.614	91.12
437.835	88.12
438.057	106.12
438.278	110.12
438.5	104.12
438.721	113.12
438.943	90.12
439.165	84.12
439.386	94.12
439.608	100.12
439.829	92.12
440.05	97.12
440.272	110.12
440.493	103.12
440.715	85.12
440.936	77.12
441.158	90.12
441.379	75.12
441.6	77.12
441.822	83.12
442.043	97.12
442.264	114.12
442.486	96.12
442.707	83.12
442.928	101.12
443.149	115.12
443.371	107.12
443.592	97.12
443.813	102.12
444.034	97.12
444.255	96.12
444.476	96.12
444.698	88.12
444.919	83.12
445.14	129.12
445.361	109.12
445.582	108.12
445.803	119.12
446.024	112.12
446.245	121.12
446.466	95.12
446.687	88.12
446.908	95.12
447.129	79.12
447.35	84.12
447.571	85.12
447.792	74.12
448.013	93.12
448.234	97.12
448.455	102.12
448.675	113.12
448.896	107.12
449.117	92.12
449.338	94.12
449.559	112.12
449.779	122.12
450	74.12
450.221	82.12
450.442	94.12
450.662	82.12
450.883	91.12
451.104	108.12
451.324	87.12
451.545	81.12
451.766	83.12
451.986	92.12
452.207	82.12
452.428	93.12
452.648	99.12
452.869	89.12
453.089	105.12
453.31	108.12
453.53	87.12
453.751	101.12
453.971	105.12
454.192	109.12
454.412	107.12
454.633	90.12
454.853	80.12
455.073	83.12
455.294	83.12
455.514	83.12
455.734	85.12
455.955	76.12
456.175	88.12
456.395	97.12
456.616	96.12
456.836	77.12
457.056	80.12
457.276	84.12
457.497	76.12
457.717	85.12
457.937	87.12
458.157	91.12
458.377	87.12
458.598	108.12
458.818	130.12
459.038	143.12
459.258	89.12
459.478	78.12
459.698	81.12
459.918	77.12
460.138	79.12
460.358	92.12
460.578	87.12
460.798	91.12
461.018	87.12
461.238	85.12
461.458	83.12
461.678	91.12
461.898	90.12
462.118	93.12
462.338	77.12
462.558	89.12
462.777	81.12
462.997	86.12
463.217	78.12
463.437	78.12
463.657	84.12
463.876	94.12
464.096	76.12
464.316	93.12
464.536	97.12
464.755	91.12
464.975	100.12
465.195	132.12
465.414	126.12
465.634	96.12
465.854	93.12
466.073	92.12
466.293	71.12
466.512	101.12
466.732	83.12
466.951	90.12
467.171	93.12
467.391	78.12
467.61	89.12
467.829	92.12
468.049	90.12
468.268	71.12
468.488	91.12
468.707	86.12
468.927	79.12
469.146	77.12
469.365	97.12
469.585	83.12
469.804	84.12
470.023	95.12
470.243	80.12
470.462	101.12
470.681	107.12
470.901	83.12
471.12	89.12
471.339	86.12
471.558	83.12
471.777	87.12
471.997	91.12
472.216	88.12
472.435	77.12
472.654	87.12
472.873	79.12
473.092	96.12
473.311	79.12
473.53	101.12
473.749	91.12
473.968	84.12
474.187	88.12
474.406	85.12
474.625	80.12
474.844	73.12
475.063	79.12
475.282	90.12
475.501	92.12
475.72	92.12
475.939	89.12
476.158	75.12
476.377	80.12
476.596	100.12
476.814	87.12
477.033	87.12
477.252	89.12
477.471	81.12
477.69	79.12
477.908	81.12
478.127	89.12
478.346	84.12
478.564	81.12
478.783	77.12
479.002	84.12
479.22	89.12
479.439	94.12
479.658	103.12
479.876	87.12
480.095	77.12
480.313	77.12
480.532	85.12
480.751	99.12
480.969	82.12
481.188	115.12
481.406	105.12
481.624	92.12
481.843	90.12
482.061	92.12
482.28	90.12
482.498	79.12
482.717	93.12
482.935	89.12
483.153	89.12
483.372	90.12
483.59	79.12
483.808	91.12
484.027	80.12
484.245	80.12
484.463	96.12
484.681	103.12
484.9	97.12
485.118	94.12
485.336	86.12
485.554	99.12
485.772	89.12
485.99	105.12
486.209	87.12
486.427	90.12
486.645	105.12
486.863	101.12
487.081	92.12
487.299	87.12
487.517	93.12
487.735	87.12
487.953	91.12
488.171	104.12
488.389	94.12
488.607	82.12
488.825	71.12
489.043	95.12
489.261	91.12
489.479	104.12
489.696	83.12
489.914	64.12
490.132	88.12
490.35	98.12
490.568	77.12
490.786	84.12
491.003	94.12
491.221	84.12
491.439	94.12
491.657	86.12
491.874	85.12
492.092	93.12
492.31	97.12
492.527	102.12
492.745	98.12
492.963	84.12
493.18	71.12
493.398	75.12
493.615	93.12
493.833	93.12
494.05	96.12
494.268	91.12
494.485	95.12
494.703	85.12
494.92	84.12
495.138	84.12
495.355	90.12
495.573	92.12
495.79	97.12
496.008	79.12
496.225	95.12
496.442	71.12
496.66	85.12
496.877	92.12
497.094	101.12
497.312	76.12
497.529	81.12
497.746	77.12
497.963	88.12
498.181	101.12
498.398	87.12
498.615	85.12
498.832	80.12
499.049	70.12
499.267	78.12
499.484	100.12
499.701	91.12
499.918	88.12
500.135	81.12
500.352	100.12
500.569	73.12
500.786	76.12
501.003	83.12
501.22	76.12
501.437	83.12
501.654	80.12
501.871	91.12
502.088	75.12
502.305	86.12
502.522	96.12
502.739	87.12
502.956	95.12
503.172	79.12
503.389	77.12
503.606	100.12
503.823	85.12
504.04	103.12
504.256	102.12
504.473	86.12
504.69	84.12
504.907	97.12
505.123	90.12
505.34	88.12
505.557	70.12
505.773	87.12
505.99	81.12
506.207	81.12
506.423	94.12
506.64	80.12
506.856	91.12
507.073	91.12
507.289	91.12
507.506	105.12
507.722	95.12
507.939	111.12
508.155	104.12
508.372	95.12
508.588	92.12
508.805	91.12
509.021	102.12
509.238	102.12
509.454	110.12
509.67	107.12
509.887	92.12
510.103	128.12
510.319	191.12
510.536	593.12
510.752	1732.12
510.968	475.12
511.184	130.12
511.401	111.12
511.617	95.12
511.833	92.12
512.049	92.12
512.265	91.12
512.481	100.12
512.698	88.12
512.914	95.12
513.13	91.12
513.346	100.12
513.562	96.12
513.778	91.12
513.994	80.12
514.21	95.12
514.426	96.12
514.642	108.12
514.858	102.12
515.074	137.12
515.29	332.12
515.506	1058.12
515.721	398.12
515.937	131.12
516.153	104.12
516.369	91.12
516.585	104.12
516.801	97.12
517.016	86.12
