Data from Uncirc_1987_H10_HRD10591_00087.txt Node
Date: Wed Jan 03 12:09:05 EST 2024
User: Yrep
Spectrometer: HR+D1059
Trigger mode: 1
Integration Time (sec): 1.000000E-1
Scans to average: 1
Electric dark correction enabled: true
Nonlinearity correction enabled: false
Boxcar width: 0
XAxis mode: Wavelengths
Number of Pixels in Spectrum: 2048
>>>>>Begin Spectral Data<<<<<
223.165	-20.25
223.4	-20.25
223.635	-20.25
223.869	-28.25
224.104	-15.25
224.338	-3.25
224.573	-5.25
224.808	-0.25
225.042	-6.25
225.277	-2.25
225.511	-0.25
225.746	1.75
225.98	1.75
226.215	-0.25
226.449	12.75
226.683	21.75
226.918	19.75
227.152	23.75
227.387	41.75
227.621	51.75
227.856	31.75
228.09	52.75
228.324	57.75
228.559	44.75
228.793	56.75
229.027	82.75
229.262	74.75
229.496	87.75
229.73	66.75
229.964	75.75
230.199	80.75
230.433	74.75
230.667	91.75
230.901	73.75
231.136	86.75
231.37	83.75
231.604	87.75
231.838	84.75
232.072	68.75
232.306	83.75
232.541	75.75
232.775	82.75
233.009	72.75
233.243	90.75
233.477	102.75
233.711	85.75
233.945	95.75
234.179	82.75
234.413	79.75
234.647	72.75
234.881	80.75
235.115	81.75
235.349	83.75
235.583	77.75
235.817	68.75
236.051	84.75
236.285	101.75
236.519	84.75
236.753	74.75
236.987	91.75
237.221	95.75
237.455	80.75
237.689	77.75
237.922	88.75
238.156	81.75
238.39	73.75
238.624	72.75
238.858	74.75
239.091	64.75
239.325	71.75
239.559	90.75
239.793	72.75
240.027	83.75
240.26	76.75
240.494	98.75
240.728	83.75
240.961	80.75
241.195	75.75
241.429	76.75
241.662	67.75
241.896	76.75
242.13	86.75
242.363	81.75
242.597	81.75
242.83	71.75
243.064	89.75
243.298	73.75
243.531	89.75
243.765	75.75
243.998	75.75
244.232	82.75
244.465	81.75
244.699	73.75
244.932	83.75
245.166	89.75
245.399	74.75
245.633	69.75
245.866	95.75
246.099	81.75
246.333	86.75
246.566	82.75
246.8	92.75
247.033	68.75
247.266	96.75
247.5	82.75
247.733	71.75
247.966	88.75
248.2	93.75
248.433	77.75
248.666	75.75
248.899	96.75
249.133	79.75
249.366	103.75
249.599	101.75
249.832	89.75
250.066	81.75
250.299	91.75
250.532	80.75
250.765	82.75
250.998	74.75
251.231	83.75
251.465	88.75
251.698	79.75
251.931	88.75
252.164	90.75
252.397	91.75
252.63	79.75
252.863	89.75
253.096	76.75
253.329	87.75
253.562	79.75
253.795	77.75
254.028	87.75
254.261	91.75
254.494	95.75
254.727	93.75
254.96	77.75
255.193	78.75
255.426	88.75
255.659	90.75
255.892	89.75
256.124	92.75
256.357	75.75
256.59	85.75
256.823	59.75
257.056	75.75
257.289	87.75
257.521	73.75
257.754	87.75
257.987	87.75
258.22	85.75
258.452	81.75
258.685	82.75
258.918	81.75
259.151	79.75
259.383	85.75
259.616	82.75
259.849	82.75
260.081	86.75
260.314	76.75
260.547	88.75
260.779	81.75
261.012	86.75
261.244	94.75
261.477	95.75
261.71	87.75
261.942	116.75
262.175	130.75
262.407	83.75
262.64	83.75
262.872	80.75
263.105	83.75
263.337	88.75
263.57	99.75
263.802	88.75
264.035	74.75
264.267	88.75
264.499	71.75
264.732	84.75
264.964	85.75
265.197	76.75
265.429	89.75
265.661	75.75
265.894	68.75
266.126	83.75
266.358	97.75
266.591	92.75
266.823	86.75
267.055	86.75
267.287	80.75
267.52	85.75
267.752	86.75
267.984	81.75
268.216	82.75
268.448	95.75
268.681	85.75
268.913	71.75
269.145	89.75
269.377	83.75
269.609	87.75
269.841	90.75
270.073	90.75
270.306	99.75
270.538	83.75
270.77	95.75
271.002	79.75
271.234	103.75
271.466	92.75
271.698	86.75
271.93	93.75
272.162	97.75
272.394	89.75
272.626	84.75
272.858	80.75
273.09	92.75
273.322	75.75
273.553	76.75
273.785	82.75
274.017	78.75
274.249	94.75
274.481	81.75
274.713	98.75
274.945	84.75
275.176	74.75
275.408	85.75
275.64	79.75
275.872	81.75
276.104	91.75
276.335	82.75
276.567	109.75
276.799	101.75
277.031	99.75
277.262	83.75
277.494	75.75
277.726	97.75
277.957	93.75
278.189	87.75
278.421	80.75
278.652	75.75
278.884	81.75
279.115	82.75
279.347	73.75
279.579	95.75
279.81	99.75
280.042	82.75
280.273	93.75
280.505	83.75
280.736	90.75
280.968	87.75
281.199	94.75
281.431	106.75
281.662	84.75
281.894	95.75
282.125	88.75
282.356	116.75
282.588	137.75
282.819	119.75
283.051	94.75
283.282	92.75
283.513	84.75
283.745	95.75
283.976	83.75
284.207	84.75
284.439	85.75
284.67	90.75
284.901	95.75
285.132	84.75
285.364	73.75
285.595	79.75
285.826	75.75
286.057	101.75
286.288	87.75
286.52	86.75
286.751	85.75
286.982	93.75
287.213	81.75
287.444	116.75
287.675	91.75
287.906	102.75
288.138	104.75
288.369	95.75
288.6	106.75
288.831	103.75
289.062	97.75
289.293	92.75
289.524	99.75
289.755	90.75
289.986	97.75
290.217	87.75
290.448	91.75
290.679	93.75
290.91	87.75
291.141	93.75
291.371	101.75
291.602	99.75
291.833	75.75
292.064	87.75
292.295	102.75
292.526	96.75
292.757	77.75
292.987	82.75
293.218	83.75
293.449	90.75
293.68	90.75
293.91	100.75
294.141	96.75
294.372	98.75
294.603	83.75
294.833	90.75
295.064	85.75
295.295	91.75
295.525	91.75
295.756	103.75
295.987	130.75
296.217	123.75
296.448	130.75
296.679	100.75
296.909	101.75
297.14	90.75
297.37	92.75
297.601	70.75
297.831	81.75
298.062	90.75
298.292	99.75
298.523	88.75
298.753	97.75
298.984	85.75
299.214	91.75
299.445	98.75
299.675	89.75
299.905	102.75
300.136	97.75
300.366	102.75
300.597	98.75
300.827	98.75
301.057	93.75
301.288	99.75
301.518	99.75
301.748	92.75
301.979	101.75
302.209	94.75
302.439	91.75
302.669	83.75
302.9	95.75
303.13	89.75
303.36	100.75
303.59	105.75
303.82	92.75
304.051	98.75
304.281	91.75
304.511	95.75
304.741	81.75
304.971	90.75
305.201	91.75
305.431	88.75
305.661	90.75
305.891	95.75
306.121	95.75
306.352	108.75
306.582	109.75
306.812	88.75
307.042	94.75
307.272	92.75
307.502	96.75
307.731	91.75
307.961	85.75
308.191	92.75
308.421	77.75
308.651	90.75
308.881	109.75
309.111	93.75
309.341	104.75
309.571	93.75
309.8	89.75
310.03	104.75
310.26	113.75
310.49	100.75
310.72	101.75
310.949	112.75
311.179	97.75
311.409	85.75
311.639	80.75
311.868	97.75
312.098	86.75
312.328	100.75
312.557	85.75
312.787	102.75
313.017	112.75
313.246	99.75
313.476	98.75
313.706	103.75
313.935	101.75
314.165	99.75
314.394	89.75
314.624	114.75
314.853	90.75
315.083	90.75
315.312	85.75
315.542	100.75
315.771	102.75
316.001	97.75
316.23	106.75
316.46	76.75
316.689	108.75
316.919	100.75
317.148	99.75
317.377	100.75
317.607	102.75
317.836	95.75
318.065	98.75
318.295	88.75
318.524	99.75
318.753	85.75
318.983	92.75
319.212	104.75
319.441	108.75
319.67	112.75
319.9	75.75
320.129	89.75
320.358	94.75
320.587	101.75
320.816	112.75
321.046	99.75
321.275	83.75
321.504	92.75
321.733	86.75
321.962	92.75
322.191	109.75
322.42	104.75
322.649	109.75
322.878	102.75
323.108	119.75
323.337	119.75
323.566	131.75
323.795	138.75
324.024	193.75
324.253	362.75
324.482	787.75
324.71	1645.75
324.939	2122.75
325.168	793.75
325.397	243.75
325.626	161.75
325.855	119.75
326.084	130.75
326.313	128.75
326.542	138.75
326.77	222.75
326.999	433.75
327.228	911.75
327.457	1640.75
327.686	1351.75
327.914	346.75
328.143	193.75
328.372	155.75
328.6	119.75
328.829	124.75
329.058	127.75
329.287	124.75
329.515	98.75
329.744	107.75
329.972	98.75
330.201	117.75
330.43	117.75
330.658	125.75
330.887	142.75
331.115	116.75
331.344	87.75
331.572	102.75
331.801	105.75
332.03	102.75
332.258	97.75
332.486	103.75
332.715	92.75
332.943	101.75
333.172	92.75
333.4	99.75
333.629	105.75
333.857	99.75
334.085	104.75
334.314	89.75
334.542	111.75
334.771	113.75
334.999	91.75
335.227	84.75
335.455	109.75
335.684	100.75
335.912	98.75
336.14	101.75
336.369	88.75
336.597	91.75
336.825	103.75
337.053	101.75
337.281	96.75
337.51	101.75
337.738	90.75
337.966	91.75
338.194	110.75
338.422	92.75
338.65	105.75
338.878	96.75
339.106	83.75
339.334	104.75
339.562	89.75
339.79	93.75
340.018	95.75
340.246	84.75
340.474	102.75
340.702	94.75
340.93	86.75
341.158	110.75
341.386	81.75
341.614	85.75
341.842	91.75
342.07	87.75
342.298	95.75
342.526	90.75
342.754	92.75
342.981	96.75
343.209	80.75
343.437	103.75
343.665	92.75
343.893	95.75
344.12	99.75
344.348	102.75
344.576	93.75
344.804	84.75
345.031	105.75
345.259	97.75
345.487	113.75
345.714	87.75
345.942	98.75
346.17	81.75
346.397	103.75
346.625	107.75
346.853	100.75
347.08	101.75
347.308	97.75
347.535	95.75
347.763	106.75
347.99	102.75
348.218	114.75
348.445	102.75
348.673	101.75
348.9	92.75
349.128	91.75
349.355	105.75
349.583	107.75
349.81	104.75
350.037	90.75
350.265	94.75
350.492	98.75
350.72	88.75
350.947	93.75
351.174	103.75
351.402	114.75
351.629	107.75
351.856	88.75
352.083	104.75
352.311	110.75
352.538	113.75
352.765	97.75
352.992	107.75
353.22	117.75
353.447	118.75
353.674	107.75
353.901	102.75
354.128	95.75
354.355	91.75
354.583	84.75
354.81	108.75
355.037	108.75
355.264	99.75
355.491	111.75
355.718	89.75
355.945	91.75
356.172	98.75
356.399	98.75
356.626	96.75
356.853	97.75
357.08	105.75
357.307	80.75
357.534	93.75
357.761	105.75
357.988	93.75
358.215	89.75
358.441	91.75
358.668	103.75
358.895	94.75
359.122	97.75
359.349	102.75
359.576	101.75
359.802	86.75
360.029	103.75
360.256	105.75
360.483	121.75
360.709	81.75
360.936	111.75
361.163	81.75
361.39	95.75
361.616	85.75
361.843	101.75
362.07	81.75
362.296	87.75
362.523	90.75
362.749	100.75
362.976	101.75
363.203	105.75
363.429	86.75
363.656	81.75
363.882	87.75
364.109	91.75
364.335	98.75
364.562	87.75
364.788	118.75
365.015	105.75
365.241	104.75
365.468	105.75
365.694	112.75
365.92	93.75
366.147	89.75
366.373	97.75
366.599	102.75
366.826	84.75
367.052	94.75
367.278	103.75
367.505	101.75
367.731	99.75
367.957	98.75
368.184	84.75
368.41	95.75
368.636	112.75
368.862	119.75
369.089	100.75
369.315	102.75
369.541	92.75
369.767	86.75
369.993	87.75
370.219	77.75
370.445	83.75
370.672	92.75
370.898	89.75
371.124	84.75
371.35	82.75
371.576	79.75
371.802	90.75
372.028	87.75
372.254	84.75
372.48	91.75
372.706	95.75
372.932	103.75
373.158	100.75
373.384	92.75
373.61	92.75
373.835	91.75
374.061	97.75
374.287	87.75
374.513	79.75
374.739	108.75
374.965	95.75
375.191	87.75
375.416	109.75
375.642	94.75
375.868	85.75
376.094	85.75
376.319	90.75
376.545	96.75
376.771	80.75
376.997	99.75
377.222	98.75
377.448	93.75
377.674	93.75
377.899	86.75
378.125	97.75
378.35	92.75
378.576	95.75
378.802	102.75
379.027	85.75
379.253	95.75
379.478	88.75
379.704	87.75
379.929	92.75
380.155	116.75
380.38	88.75
380.606	93.75
380.831	101.75
381.057	88.75
381.282	94.75
381.507	90.75
381.733	102.75
381.958	98.75
382.184	104.75
382.409	102.75
382.634	93.75
382.86	88.75
383.085	105.75
383.31	109.75
383.535	114.75
383.761	112.75
383.986	88.75
384.211	104.75
384.436	92.75
384.662	103.75
384.887	96.75
385.112	99.75
385.337	103.75
385.562	96.75
385.787	108.75
386.013	100.75
386.238	100.75
386.463	106.75
386.688	107.75
386.913	104.75
387.138	99.75
387.363	87.75
387.588	85.75
387.813	95.75
388.038	93.75
388.263	101.75
388.488	115.75
388.713	92.75
388.938	100.75
389.163	103.75
389.387	93.75
389.612	89.75
389.837	93.75
390.062	101.75
390.287	95.75
390.512	95.75
390.736	100.75
390.961	88.75
391.186	99.75
391.411	100.75
391.636	83.75
391.86	87.75
392.085	106.75
392.31	100.75
392.534	98.75
392.759	89.75
392.984	91.75
393.208	110.75
393.433	93.75
393.658	103.75
393.882	90.75
394.107	99.75
394.331	88.75
394.556	96.75
394.78	104.75
395.005	91.75
395.229	97.75
395.454	83.75
395.678	74.75
395.903	76.75
396.127	94.75
396.352	95.75
396.576	104.75
396.801	91.75
397.025	87.75
397.249	81.75
397.474	97.75
397.698	99.75
397.922	84.75
398.147	108.75
398.371	105.75
398.595	93.75
398.82	98.75
399.044	97.75
399.268	96.75
399.492	94.75
399.717	79.75
399.941	81.75
400.165	92.75
400.389	97.75
400.613	91.75
400.837	93.75
401.062	105.75
401.286	81.75
401.51	96.75
401.734	88.75
401.958	93.75
402.182	108.75
402.406	152.75
402.63	103.75
402.854	99.75
403.078	95.75
403.302	91.75
403.526	85.75
403.75	86.75
403.974	92.75
404.198	95.75
404.422	81.75
404.645	80.75
404.869	87.75
405.093	91.75
405.317	96.75
405.541	103.75
405.765	104.75
405.988	115.75
406.212	164.75
406.436	198.75
406.66	136.75
406.883	90.75
407.107	85.75
407.331	90.75
407.555	91.75
407.778	90.75
408.002	98.75
408.226	89.75
408.449	104.75
408.673	90.75
408.896	98.75
409.12	97.75
409.344	94.75
409.567	92.75
409.791	95.75
410.014	100.75
410.238	98.75
410.461	94.75
410.685	108.75
410.908	107.75
411.132	99.75
411.355	114.75
411.578	100.75
411.802	84.75
412.025	94.75
412.249	99.75
412.472	98.75
412.695	87.75
412.919	84.75
413.142	95.75
413.365	70.75
413.589	85.75
413.812	91.75
414.035	86.75
414.258	99.75
414.482	94.75
414.705	107.75
414.928	112.75
415.151	80.75
415.374	103.75
415.597	80.75
415.821	89.75
416.044	91.75
416.267	100.75
416.49	101.75
416.713	88.75
416.936	91.75
417.159	86.75
417.382	78.75
417.605	97.75
417.828	102.75
418.051	87.75
418.274	98.75
418.497	94.75
418.72	103.75
418.943	95.75
419.166	86.75
419.389	95.75
419.611	83.75
419.834	82.75
420.057	99.75
420.28	74.75
420.503	106.75
420.726	101.75
420.948	101.75
421.171	98.75
421.394	99.75
421.617	88.75
421.839	90.75
422.062	94.75
422.285	97.75
422.507	94.75
422.73	108.75
422.953	100.75
423.175	82.75
423.398	96.75
423.621	91.75
423.843	91.75
424.066	93.75
424.288	101.75
424.511	99.75
424.733	73.75
424.956	107.75
425.178	108.75
425.401	103.75
425.623	91.75
425.846	92.75
426.068	95.75
426.291	90.75
426.513	103.75
426.735	98.75
426.958	88.75
427.18	108.75
427.402	136.75
427.625	164.75
427.847	127.75
428.069	119.75
428.292	87.75
428.514	95.75
428.736	88.75
428.958	77.75
429.181	95.75
429.403	97.75
429.625	89.75
429.847	94.75
430.069	99.75
430.292	97.75
430.514	89.75
430.736	89.75
430.958	82.75
431.18	88.75
431.402	96.75
431.624	99.75
431.846	81.75
432.068	84.75
432.29	76.75
432.512	107.75
432.734	83.75
432.956	86.75
433.178	89.75
433.4	107.75
433.622	92.75
433.844	75.75
434.066	86.75
434.287	76.75
434.509	79.75
434.731	99.75
434.953	85.75
435.175	90.75
435.397	91.75
435.618	89.75
435.84	108.75
436.062	123.75
436.284	118.75
436.505	98.75
436.727	100.75
436.949	103.75
437.17	75.75
437.392	83.75
437.614	96.75
437.835	100.75
438.057	118.75
438.278	116.75
438.5	101.75
438.721	123.75
438.943	93.75
439.165	85.75
439.386	89.75
439.608	96.75
439.829	98.75
440.05	120.75
440.272	138.75
440.493	98.75
440.715	92.75
440.936	90.75
441.158	92.75
441.379	97.75
441.6	92.75
441.822	100.75
442.043	103.75
442.264	112.75
442.486	105.75
442.707	94.75
442.928	99.75
443.149	133.75
443.371	100.75
443.592	114.75
443.813	109.75
444.034	111.75
444.255	106.75
444.476	98.75
444.698	88.75
444.919	95.75
445.14	124.75
445.361	107.75
445.582	117.75
445.803	141.75
446.024	140.75
446.245	125.75
446.466	115.75
446.687	90.75
446.908	86.75
447.129	94.75
447.35	101.75
447.571	106.75
447.792	97.75
448.013	110.75
448.234	111.75
448.455	105.75
448.675	112.75
448.896	118.75
449.117	90.75
449.338	121.75
449.559	122.75
449.779	136.75
450	104.75
450.221	91.75
450.442	99.75
450.662	93.75
450.883	115.75
451.104	111.75
451.324	84.75
451.545	96.75
451.766	74.75
451.986	100.75
452.207	84.75
452.428	79.75
452.648	97.75
452.869	112.75
453.089	113.75
453.31	107.75
453.53	103.75
453.751	100.75
453.971	104.75
454.192	101.75
454.412	98.75
454.633	95.75
454.853	102.75
455.073	92.75
455.294	99.75
455.514	111.75
455.734	102.75
455.955	101.75
456.175	85.75
456.395	91.75
456.616	94.75
456.836	79.75
457.056	89.75
457.276	88.75
457.497	80.75
457.717	80.75
457.937	100.75
458.157	92.75
458.377	104.75
458.598	109.75
458.818	151.75
459.038	155.75
459.258	125.75
459.478	92.75
459.698	90.75
459.918	99.75
460.138	81.75
460.358	83.75
460.578	81.75
460.798	106.75
461.018	88.75
461.238	83.75
461.458	85.75
461.678	95.75
461.898	89.75
462.118	97.75
462.338	91.75
462.558	96.75
462.777	88.75
462.997	95.75
463.217	84.75
463.437	91.75
463.657	79.75
463.876	91.75
464.096	69.75
464.316	77.75
464.536	114.75
464.755	96.75
464.975	100.75
465.195	162.75
465.414	162.75
465.634	105.75
465.854	87.75
466.073	97.75
466.293	86.75
466.512	91.75
466.732	83.75
466.951	85.75
467.171	87.75
467.391	90.75
467.61	98.75
467.829	98.75
468.049	96.75
468.268	108.75
468.488	82.75
468.707	81.75
468.927	80.75
469.146	87.75
469.365	96.75
469.585	74.75
469.804	89.75
470.023	93.75
470.243	98.75
470.462	113.75
470.681	96.75
470.901	105.75
471.12	80.75
471.339	82.75
471.558	95.75
471.777	91.75
471.997	84.75
472.216	95.75
472.435	119.75
472.654	92.75
472.873	100.75
473.092	97.75
473.311	76.75
473.53	90.75
473.749	71.75
473.968	99.75
474.187	109.75
474.406	97.75
474.625	90.75
474.844	84.75
475.063	102.75
475.282	85.75
475.501	95.75
475.72	76.75
475.939	85.75
476.158	101.75
476.377	96.75
476.596	98.75
476.814	87.75
477.033	99.75
477.252	85.75
477.471	81.75
477.69	97.75
477.908	96.75
478.127	83.75
478.346	82.75
478.564	100.75
478.783	91.75
479.002	99.75
479.22	86.75
479.439	93.75
479.658	96.75
479.876	86.75
480.095	92.75
480.313	92.75
480.532	93.75
480.751	92.75
480.969	115.75
481.188	147.75
481.406	121.75
481.624	99.75
481.843	92.75
482.061	98.75
482.28	93.75
482.498	84.75
482.717	95.75
482.935	86.75
483.153	90.75
483.372	98.75
483.59	88.75
483.808	100.75
484.027	96.75
484.245	91.75
484.463	79.75
484.681	85.75
484.9	89.75
485.118	80.75
485.336	89.75
485.554	88.75
485.772	98.75
485.99	113.75
486.209	110.75
486.427	101.75
486.645	114.75
486.863	83.75
487.081	98.75
487.299	100.75
487.517	96.75
487.735	91.75
487.953	108.75
488.171	90.75
488.389	74.75
488.607	101.75
488.825	92.75
489.043	87.75
489.261	89.75
489.479	100.75
489.696	83.75
489.914	93.75
490.132	82.75
490.35	91.75
490.568	89.75
490.786	95.75
491.003	73.75
491.221	92.75
491.439	84.75
491.657	83.75
491.874	101.75
492.092	108.75
492.31	88.75
492.527	93.75
492.745	86.75
492.963	74.75
493.18	105.75
493.398	98.75
493.615	92.75
493.833	94.75
494.05	100.75
494.268	89.75
494.485	101.75
494.703	104.75
494.92	91.75
495.138	104.75
495.355	106.75
495.573	92.75
495.79	82.75
496.008	96.75
496.225	103.75
496.442	89.75
496.66	104.75
496.877	93.75
497.094	100.75
497.312	69.75
497.529	94.75
497.746	99.75
497.963	102.75
498.181	103.75
498.398	86.75
498.615	123.75
498.832	117.75
499.049	88.75
499.267	93.75
499.484	83.75
499.701	92.75
499.918	97.75
500.135	98.75
500.352	96.75
500.569	99.75
500.786	92.75
501.003	107.75
501.22	76.75
501.437	101.75
501.654	85.75
501.871	99.75
502.088	89.75
502.305	99.75
502.522	106.75
502.739	77.75
502.956	92.75
503.172	83.75
503.389	95.75
503.606	96.75
503.823	101.75
504.04	98.75
504.256	73.75
504.473	89.75
504.69	97.75
504.907	103.75
505.123	95.75
505.34	81.75
505.557	83.75
505.773	83.75
505.99	80.75
506.207	85.75
506.423	90.75
506.64	96.75
506.856	96.75
507.073	101.75
507.289	104.75
507.506	105.75
507.722	103.75
507.939	105.75
508.155	92.75
508.372	96.75
508.588	113.75
508.805	103.75
509.021	105.75
509.238	97.75
509.454	105.75
509.67	86.75
509.887	114.75
510.103	121.75
510.319	208.75
510.536	722.75
510.752	2184.75
510.968	625.75
511.184	138.75
511.401	111.75
511.617	89.75
511.833	105.75
512.049	81.75
512.265	99.75
512.481	94.75
512.698	85.75
512.914	89.75
513.13	93.75
513.346	87.75
513.562	90.75
513.778	97.75
513.994	107.75
514.21	93.75
514.426	114.75
514.642	138.75
