Data from Uncirc_1987_H10_HRD10591_00076.txt Node
Date: Wed Jan 03 12:09:03 EST 2024
User: Yrep
Spectrometer: HR+D1059
Trigger mode: 1
Integration Time (sec): 1.000000E-1
Scans to average: 1
Electric dark correction enabled: true
Nonlinearity correction enabled: false
Boxcar width: 0
XAxis mode: Wavelengths
Number of Pixels in Spectrum: 2048
>>>>>Begin Spectral Data<<<<<
223.165	-11.06
223.4	-11.06
223.635	-11.06
223.869	-19.06
224.104	-18.06
224.338	-25.06
224.573	-16.06
224.808	-26.06
225.042	-9.06
225.277	-12.06
225.511	-0.06
225.746	8.94
225.98	28.94
226.215	10.94
226.449	13.94
226.683	15.94
226.918	32.94
227.152	24.94
227.387	30.94
227.621	35.94
227.856	54.94
228.09	53.94
228.324	54.94
228.559	63.94
228.793	42.94
229.027	64.94
229.262	78.94
229.496	88.94
229.73	88.94
229.964	74.94
230.199	76.94
230.433	90.94
230.667	88.94
230.901	90.94
231.136	71.94
231.37	67.94
231.604	91.94
231.838	80.94
232.072	78.94
232.306	85.94
232.541	76.94
232.775	82.94
233.009	84.94
233.243	94.94
233.477	75.94
233.711	82.94
233.945	85.94
234.179	84.94
234.413	83.94
234.647	82.94
234.881	79.94
235.115	84.94
235.349	76.94
235.583	86.94
235.817	76.94
236.051	83.94
236.285	72.94
236.519	74.94
236.753	81.94
236.987	77.94
237.221	88.94
237.455	102.94
237.689	87.94
237.922	100.94
238.156	75.94
238.39	80.94
238.624	80.94
238.858	72.94
239.091	82.94
239.325	82.94
239.559	86.94
239.793	93.94
240.027	77.94
240.26	74.94
240.494	90.94
240.728	75.94
240.961	84.94
241.195	73.94
241.429	73.94
241.662	72.94
241.896	74.94
242.13	88.94
242.363	75.94
242.597	90.94
242.83	80.94
243.064	92.94
243.298	87.94
243.531	99.94
243.765	84.94
243.998	85.94
244.232	96.94
244.465	84.94
244.699	82.94
244.932	81.94
245.166	78.94
245.399	92.94
245.633	75.94
245.866	82.94
246.099	85.94
246.333	88.94
246.566	59.94
246.8	82.94
247.033	84.94
247.266	73.94
247.5	62.94
247.733	88.94
247.966	75.94
248.2	80.94
248.433	93.94
248.666	77.94
248.899	85.94
249.133	82.94
249.366	98.94
249.599	98.94
249.832	82.94
250.066	90.94
250.299	90.94
250.532	82.94
250.765	78.94
250.998	77.94
251.231	82.94
251.465	86.94
251.698	90.94
251.931	91.94
252.164	81.94
252.397	82.94
252.63	88.94
252.863	84.94
253.096	73.94
253.329	82.94
253.562	86.94
253.795	90.94
254.028	93.94
254.261	77.94
254.494	77.94
254.727	87.94
254.96	69.94
255.193	74.94
255.426	96.94
255.659	70.94
255.892	78.94
256.124	90.94
256.357	83.94
256.59	100.94
256.823	88.94
257.056	85.94
257.289	82.94
257.521	74.94
257.754	76.94
257.987	84.94
258.22	88.94
258.452	88.94
258.685	84.94
258.918	76.94
259.151	73.94
259.383	73.94
259.616	82.94
259.849	85.94
260.081	82.94
260.314	77.94
260.547	88.94
260.779	82.94
261.012	95.94
261.244	93.94
261.477	97.94
261.71	93.94
261.942	115.94
262.175	101.94
262.407	98.94
262.64	98.94
262.872	72.94
263.105	70.94
263.337	97.94
263.57	75.94
263.802	82.94
264.035	86.94
264.267	71.94
264.499	84.94
264.732	92.94
264.964	84.94
265.197	66.94
265.429	78.94
265.661	74.94
265.894	72.94
266.126	101.94
266.358	90.94
266.591	84.94
266.823	80.94
267.055	84.94
267.287	96.94
267.52	93.94
267.752	83.94
267.984	87.94
268.216	87.94
268.448	83.94
268.681	85.94
268.913	80.94
269.145	80.94
269.377	80.94
269.609	99.94
269.841	94.94
270.073	87.94
270.306	100.94
270.538	108.94
270.77	77.94
271.002	85.94
271.234	83.94
271.466	82.94
271.698	77.94
271.93	90.94
272.162	97.94
272.394	72.94
272.626	93.94
272.858	84.94
273.09	86.94
273.322	92.94
273.553	87.94
273.785	100.94
274.017	91.94
274.249	91.94
274.481	85.94
274.713	95.94
274.945	85.94
275.176	80.94
275.408	78.94
275.64	80.94
275.872	89.94
276.104	94.94
276.335	101.94
276.567	91.94
276.799	117.94
277.031	90.94
277.262	95.94
277.494	80.94
277.726	83.94
277.957	86.94
278.189	91.94
278.421	86.94
278.652	80.94
278.884	84.94
279.115	85.94
279.347	92.94
279.579	83.94
279.81	80.94
280.042	73.94
280.273	77.94
280.505	87.94
280.736	92.94
280.968	94.94
281.199	85.94
281.431	74.94
281.662	93.94
281.894	86.94
282.125	94.94
282.356	124.94
282.588	122.94
282.819	117.94
283.051	95.94
283.282	105.94
283.513	93.94
283.745	89.94
283.976	89.94
284.207	92.94
284.439	88.94
284.67	96.94
284.901	93.94
285.132	94.94
285.364	96.94
285.595	88.94
285.826	81.94
286.057	92.94
286.288	96.94
286.52	91.94
286.751	96.94
286.982	84.94
287.213	84.94
287.444	86.94
287.675	104.94
287.906	91.94
288.138	97.94
288.369	80.94
288.6	85.94
288.831	94.94
289.062	99.94
289.293	103.94
289.524	99.94
289.755	86.94
289.986	79.94
290.217	82.94
290.448	82.94
290.679	96.94
290.91	96.94
291.141	66.94
291.371	94.94
291.602	80.94
291.833	83.94
292.064	92.94
292.295	86.94
292.526	102.94
292.757	81.94
292.987	95.94
293.218	96.94
293.449	97.94
293.68	101.94
293.91	99.94
294.141	104.94
294.372	87.94
294.603	88.94
294.833	91.94
295.064	99.94
295.295	99.94
295.525	102.94
295.756	108.94
295.987	114.94
296.217	133.94
296.448	117.94
296.679	96.94
296.909	96.94
297.14	97.94
297.37	92.94
297.601	86.94
297.831	97.94
298.062	97.94
298.292	98.94
298.523	90.94
298.753	82.94
298.984	95.94
299.214	88.94
299.445	98.94
299.675	81.94
299.905	98.94
300.136	98.94
300.366	93.94
300.597	93.94
300.827	93.94
301.057	102.94
301.288	107.94
301.518	98.94
301.748	94.94
301.979	99.94
302.209	91.94
302.439	100.94
302.669	97.94
302.9	107.94
303.13	104.94
303.36	92.94
303.59	104.94
303.82	101.94
304.051	102.94
304.281	100.94
304.511	87.94
304.741	100.94
304.971	93.94
305.201	107.94
305.431	98.94
305.661	106.94
305.891	94.94
306.121	105.94
306.352	104.94
306.582	109.94
306.812	88.94
307.042	106.94
307.272	92.94
307.502	86.94
307.731	100.94
307.961	82.94
308.191	86.94
308.421	98.94
308.651	94.94
308.881	87.94
309.111	94.94
309.341	93.94
309.571	91.94
309.8	90.94
310.03	94.94
310.26	91.94
310.49	90.94
310.72	85.94
310.949	104.94
311.179	102.94
311.409	77.94
311.639	99.94
311.868	97.94
312.098	108.94
312.328	84.94
312.557	100.94
312.787	107.94
313.017	103.94
313.246	114.94
313.476	95.94
313.706	90.94
313.935	97.94
314.165	103.94
314.394	107.94
314.624	111.94
314.853	101.94
315.083	84.94
315.312	108.94
315.542	91.94
315.771	87.94
316.001	92.94
316.23	92.94
316.46	83.94
316.689	110.94
316.919	106.94
317.148	98.94
317.377	100.94
317.607	102.94
317.836	96.94
318.065	92.94
318.295	88.94
318.524	90.94
318.753	94.94
318.983	95.94
319.212	96.94
319.441	107.94
319.67	101.94
319.9	98.94
320.129	85.94
320.358	96.94
320.587	95.94
320.816	116.94
321.046	108.94
321.275	94.94
321.504	93.94
321.733	93.94
321.962	92.94
322.191	101.94
322.42	107.94
322.649	108.94
322.878	114.94
323.108	109.94
323.337	125.94
323.566	132.94
323.795	147.94
324.024	203.94
324.253	371.94
324.482	766.94
324.71	1564.94
324.939	2069.94
325.168	771.94
325.397	233.94
325.626	137.94
325.855	127.94
326.084	122.94
326.313	133.94
326.542	147.94
326.77	218.94
326.999	425.94
327.228	881.94
327.457	1624.94
327.686	1294.94
327.914	372.94
328.143	181.94
328.372	146.94
328.6	133.94
328.829	101.94
329.058	129.94
329.287	117.94
329.515	106.94
329.744	115.94
329.972	101.94
330.201	111.94
330.43	128.94
330.658	108.94
330.887	140.94
331.115	113.94
331.344	88.94
331.572	105.94
331.801	108.94
332.03	100.94
332.258	105.94
332.486	101.94
332.715	76.94
332.943	117.94
333.172	114.94
333.4	94.94
333.629	110.94
333.857	114.94
334.085	105.94
334.314	84.94
334.542	117.94
334.771	113.94
334.999	106.94
335.227	97.94
335.455	91.94
335.684	104.94
335.912	101.94
336.14	89.94
336.369	97.94
336.597	96.94
336.825	103.94
337.053	82.94
337.281	95.94
337.51	100.94
337.738	90.94
337.966	94.94
338.194	99.94
338.422	105.94
338.65	106.94
338.878	104.94
339.106	100.94
339.334	92.94
339.562	106.94
339.79	104.94
340.018	101.94
340.246	99.94
340.474	96.94
340.702	90.94
340.93	90.94
341.158	104.94
341.386	96.94
341.614	112.94
341.842	99.94
342.07	88.94
342.298	97.94
342.526	117.94
342.754	103.94
342.981	107.94
343.209	113.94
343.437	108.94
343.665	110.94
343.893	104.94
344.12	99.94
344.348	110.94
344.576	86.94
344.804	103.94
345.031	90.94
345.259	90.94
345.487	113.94
345.714	105.94
345.942	96.94
346.17	103.94
346.397	95.94
346.625	106.94
346.853	98.94
347.08	96.94
347.308	94.94
347.535	105.94
347.763	102.94
347.99	86.94
348.218	100.94
348.445	102.94
348.673	91.94
348.9	99.94
349.128	108.94
349.355	104.94
349.583	88.94
349.81	99.94
350.037	84.94
350.265	101.94
350.492	91.94
350.72	98.94
350.947	112.94
351.174	116.94
351.402	125.94
351.629	110.94
351.856	110.94
352.083	103.94
352.311	94.94
352.538	99.94
352.765	105.94
352.992	124.94
353.22	118.94
353.447	122.94
353.674	109.94
353.901	100.94
354.128	105.94
354.355	96.94
354.583	104.94
354.81	108.94
355.037	103.94
355.264	98.94
355.491	105.94
355.718	97.94
355.945	106.94
356.172	111.94
356.399	102.94
356.626	110.94
356.853	98.94
357.08	92.94
357.307	108.94
357.534	96.94
357.761	99.94
357.988	93.94
358.215	96.94
358.441	96.94
358.668	106.94
358.895	100.94
359.122	96.94
359.349	100.94
359.576	88.94
359.802	107.94
360.029	110.94
360.256	104.94
360.483	99.94
360.709	109.94
360.936	110.94
361.163	101.94
361.39	109.94
361.616	107.94
361.843	88.94
362.07	93.94
362.296	108.94
362.523	100.94
362.749	101.94
362.976	86.94
363.203	89.94
363.429	99.94
363.656	97.94
363.882	101.94
364.109	108.94
364.335	103.94
364.562	96.94
364.788	90.94
365.015	113.94
365.241	110.94
365.468	119.94
365.694	104.94
365.92	99.94
366.147	102.94
366.373	104.94
366.599	91.94
366.826	94.94
367.052	88.94
367.278	102.94
367.505	97.94
367.731	97.94
367.957	85.94
368.184	91.94
368.41	113.94
368.636	98.94
368.862	116.94
369.089	98.94
369.315	93.94
369.541	88.94
369.767	109.94
369.993	99.94
370.219	88.94
370.445	107.94
370.672	96.94
370.898	87.94
371.124	105.94
371.35	91.94
371.576	86.94
371.802	103.94
372.028	90.94
372.254	99.94
372.48	82.94
372.706	74.94
372.932	83.94
373.158	88.94
373.384	106.94
373.61	93.94
373.835	95.94
374.061	86.94
374.287	90.94
374.513	86.94
374.739	89.94
374.965	108.94
375.191	92.94
375.416	90.94
375.642	95.94
375.868	101.94
376.094	101.94
376.319	96.94
376.545	104.94
376.771	89.94
376.997	90.94
377.222	88.94
377.448	92.94
377.674	97.94
377.899	93.94
378.125	91.94
378.35	100.94
378.576	91.94
378.802	96.94
379.027	89.94
379.253	89.94
379.478	87.94
379.704	102.94
379.929	104.94
380.155	97.94
380.38	98.94
380.606	98.94
380.831	104.94
381.057	89.94
381.282	81.94
381.507	103.94
381.733	98.94
381.958	108.94
382.184	102.94
382.409	101.94
382.634	97.94
382.86	108.94
383.085	103.94
383.31	100.94
383.535	94.94
383.761	118.94
383.986	86.94
384.211	96.94
384.436	102.94
384.662	93.94
384.887	102.94
385.112	96.94
385.337	101.94
385.562	99.94
385.787	92.94
386.013	113.94
386.238	126.94
386.463	107.94
386.688	102.94
386.913	96.94
387.138	107.94
387.363	96.94
387.588	87.94
387.813	110.94
388.038	89.94
388.263	119.94
388.488	113.94
388.713	97.94
388.938	96.94
389.163	100.94
389.387	98.94
389.612	104.94
389.837	90.94
390.062	98.94
390.287	90.94
390.512	99.94
390.736	92.94
390.961	104.94
391.186	96.94
391.411	102.94
391.636	93.94
391.86	98.94
392.085	62.94
392.31	84.94
392.534	97.94
392.759	87.94
392.984	89.94
393.208	84.94
393.433	97.94
393.658	86.94
393.882	101.94
394.107	72.94
394.331	94.94
394.556	96.94
394.78	97.94
395.005	94.94
395.229	96.94
395.454	100.94
395.678	83.94
395.903	90.94
396.127	81.94
396.352	98.94
396.576	84.94
396.801	82.94
397.025	94.94
397.249	104.94
397.474	86.94
397.698	91.94
397.922	103.94
398.147	84.94
398.371	82.94
398.595	90.94
398.82	74.94
399.044	94.94
399.268	96.94
399.492	93.94
399.717	96.94
399.941	99.94
400.165	88.94
400.389	90.94
400.613	89.94
400.837	76.94
401.062	88.94
401.286	83.94
401.51	95.94
401.734	86.94
401.958	104.94
402.182	126.94
402.406	168.94
402.63	126.94
402.854	99.94
403.078	85.94
403.302	98.94
403.526	82.94
403.75	92.94
403.974	100.94
404.198	97.94
404.422	85.94
404.645	101.94
404.869	79.94
405.093	114.94
405.317	129.94
405.541	86.94
405.765	98.94
405.988	122.94
406.212	169.94
406.436	228.94
406.66	146.94
406.883	112.94
407.107	105.94
407.331	104.94
407.555	106.94
407.778	108.94
408.002	87.94
408.226	97.94
408.449	85.94
408.673	80.94
408.896	99.94
409.12	97.94
409.344	90.94
409.567	101.94
409.791	84.94
410.014	113.94
410.238	95.94
410.461	99.94
410.685	107.94
410.908	92.94
411.132	111.94
411.355	99.94
411.578	96.94
411.802	83.94
412.025	95.94
412.249	96.94
412.472	88.94
412.695	97.94
412.919	75.94
413.142	108.94
413.365	92.94
413.589	81.94
413.812	79.94
414.035	93.94
414.258	96.94
414.482	102.94
414.705	90.94
414.928	93.94
415.151	93.94
415.374	92.94
415.597	86.94
415.821	89.94
416.044	75.94
416.267	97.94
416.49	84.94
416.713	88.94
416.936	91.94
417.159	90.94
417.382	93.94
417.605	75.94
417.828	93.94
418.051	98.94
418.274	98.94
418.497	76.94
418.72	90.94
418.943	92.94
419.166	81.94
419.389	86.94
419.611	92.94
419.834	105.94
420.057	101.94
420.28	106.94
420.503	91.94
420.726	90.94
420.948	87.94
421.171	98.94
421.394	94.94
421.617	88.94
421.839	92.94
422.062	74.94
422.285	80.94
422.507	90.94
422.73	100.94
422.953	93.94
423.175	103.94
423.398	92.94
423.621	107.94
423.843	82.94
424.066	85.94
424.288	101.94
424.511	88.94
424.733	98.94
424.956	112.94
425.178	97.94
425.401	107.94
425.623	105.94
425.846	82.94
426.068	90.94
426.291	89.94
426.513	82.94
426.735	109.94
426.958	90.94
427.18	104.94
427.402	113.94
427.625	160.94
427.847	123.94
428.069	108.94
428.292	103.94
428.514	91.94
428.736	94.94
428.958	91.94
429.181	82.94
429.403	78.94
429.625	91.94
429.847	97.94
430.069	98.94
430.292	101.94
430.514	94.94
430.736	90.94
430.958	96.94
431.18	80.94
431.402	69.94
431.624	91.94
431.846	82.94
432.068	91.94
432.29	91.94
432.512	88.94
432.734	82.94
432.956	90.94
433.178	106.94
433.4	104.94
433.622	98.94
433.844	85.94
434.066	108.94
434.287	86.94
434.509	93.94
434.731	95.94
434.953	91.94
435.175	86.94
435.397	88.94
435.618	86.94
435.84	113.94
436.062	116.94
436.284	107.94
436.505	106.94
436.727	118.94
436.949	94.94
437.17	98.94
437.392	78.94
437.614	96.94
437.835	108.94
438.057	119.94
438.278	98.94
438.5	107.94
438.721	110.94
438.943	92.94
439.165	92.94
439.386	89.94
439.608	106.94
439.829	95.94
440.05	124.94
440.272	120.94
440.493	112.94
440.715	87.94
440.936	78.94
441.158	94.94
441.379	95.94
441.6	98.94
441.822	106.94
442.043	102.94
442.264	100.94
442.486	113.94
442.707	92.94
442.928	108.94
443.149	119.94
443.371	119.94
443.592	92.94
443.813	104.94
444.034	114.94
444.255	91.94
444.476	93.94
444.698	106.94
444.919	88.94
445.14	143.94
445.361	124.94
445.582	105.94
445.803	136.94
446.024	135.94
446.245	121.94
446.466	112.94
446.687	102.94
446.908	92.94
447.129	84.94
447.35	85.94
447.571	104.94
447.792	87.94
448.013	99.94
448.234	97.94
448.455	105.94
448.675	109.94
448.896	103.94
449.117	114.94
449.338	109.94
449.559	134.94
449.779	118.94
450	98.94
450.221	101.94
450.442	74.94
450.662	96.94
450.883	96.94
451.104	100.94
451.324	95.94
451.545	92.94
451.766	98.94
451.986	88.94
452.207	90.94
452.428	98.94
452.648	112.94
452.869	101.94
453.089	108.94
453.31	108.94
453.53	103.94
453.751	87.94
453.971	107.94
454.192	102.94
454.412	109.94
454.633	101.94
454.853	80.94
455.073	88.94
455.294	89.94
455.514	96.94
455.734	90.94
455.955	87.94
456.175	82.94
456.395	92.94
456.616	89.94
456.836	84.94
457.056	75.94
457.276	82.94
457.497	90.94
457.717	85.94
457.937	106.94
458.157	82.94
458.377	84.94
458.598	106.94
458.818	148.94
459.038	161.94
459.258	126.94
459.478	84.94
459.698	79.94
459.918	88.94
460.138	92.94
460.358	84.94
460.578	85.94
460.798	105.94
461.018	96.94
461.238	89.94
461.458	106.94
461.678	105.94
461.898	88.94
462.118	86.94
462.338	76.94
462.558	80.94
462.777	64.94
462.997	102.94
463.217	86.94
463.437	93.94
463.657	79.94
463.876	96.94
464.096	104.94
464.316	93.94
464.536	92.94
464.755	105.94
464.975	114.94
465.195	154.94
465.414	158.94
465.634	99.94
465.854	96.94
466.073	80.94
466.293	86.94
466.512	106.94
466.732	87.94
466.951	88.94
467.171	92.94
467.391	100.94
467.61	105.94
467.829	92.94
468.049	99.94
468.268	100.94
468.488	81.94
468.707	95.94
468.927	84.94
469.146	86.94
469.365	91.94
469.585	101.94
469.804	87.94
470.023	94.94
470.243	100.94
470.462	96.94
470.681	111.94
470.901	90.94
471.12	89.94
471.339	88.94
471.558	96.94
471.777	80.94
471.997	101.94
472.216	104.94
472.435	130.94
472.654	97.94
472.873	95.94
473.092	86.94
473.311	88.94
473.53	91.94
473.749	97.94
473.968	107.94
474.187	98.94
474.406	89.94
474.625	92.94
474.844	99.94
475.063	98.94
475.282	97.94
475.501	89.94
475.72	76.94
475.939	78.94
476.158	91.94
476.377	95.94
476.596	83.94
476.814	93.94
477.033	90.94
477.252	89.94
477.471	85.94
477.69	98.94
477.908	96.94
478.127	96.94
478.346	82.94
478.564	87.94
478.783	100.94
479.002	91.94
479.22	107.94
479.439	101.94
479.658	109.94
479.876	97.94
480.095	102.94
480.313	100.94
480.532	107.94
480.751	92.94
480.969	103.94
481.188	159.94
481.406	120.94
481.624	98.94
481.843	84.94
482.061	91.94
482.28	89.94
482.498	90.94
482.717	89.94
482.935	107.94
483.153	96.94
483.372	90.94
483.59	82.94
483.808	93.94
484.027	92.94
484.245	104.94
484.463	99.94
484.681	109.94
484.9	102.94
485.118	102.94
485.336	91.94
485.554	93.94
485.772	96.94
485.99	117.94
486.209	117.94
486.427	119.94
486.645	107.94
486.863	112.94
487.081	108.94
487.299	104.94
487.517	101.94
487.735	92.94
487.953	102.94
488.171	94.94
488.389	98.94
488.607	95.94
488.825	77.94
489.043	93.94
489.261	91.94
489.479	78.94
489.696	89.94
489.914	81.94
490.132	85.94
490.35	88.94
490.568	97.94
490.786	76.94
491.003	75.94
491.221	87.94
491.439	77.94
491.657	108.94
491.874	97.94
492.092	88.94
492.31	98.94
492.527	96.94
492.745	81.94
492.963	99.94
493.18	107.94
493.398	100.94
493.615	99.94
493.833	88.94
494.05	91.94
494.268	91.94
494.485	92.94
494.703	81.94
494.92	97.94
495.138	105.94
495.355	88.94
495.573	85.94
495.79	107.94
496.008	104.94
496.225	89.94
496.442	91.94
496.66	88.94
496.877	89.94
497.094	94.94
497.312	90.94
497.529	93.94
497.746	109.94
497.963	105.94
498.181	85.94
498.398	108.94
498.615	107.94
498.832	103.94
499.049	89.94
499.267	103.94
499.484	93.94
499.701	90.94
499.918	76.94
500.135	96.94
500.352	80.94
500.569	90.94
500.786	91.94
501.003	94.94
501.22	87.94
501.437	96.94
501.654	101.94
501.871	117.94
502.088	102.94
502.305	100.94
502.522	85.94
502.739	100.94
502.956	94.94
503.172	87.94
503.389	85.94
503.606	110.94
503.823	97.94
504.04	103.94
504.256	88.94
504.473	80.94
504.69	76.94
504.907	86.94
505.123	86.94
505.34	90.94
505.557	102.94
505.773	99.94
505.99	106.94
506.207	87.94
506.423	90.94
506.64	87.94
506.856	90.94
507.073	90.94
507.289	95.94
507.506	92.94
507.722	105.94
507.939	123.94
508.155	105.94
508.372	91.94
508.588	89.94
508.805	94.94
509.021	101.94
509.238	85.94
509.454	109.94
509.67	100.94
509.887	110.94
510.103	126.94
510.319	197.94
510.536	701.94
510.752	2228.94
510.968	592.94
511.184	143.94
511.401	96.94
511.617	110.94
511.833	84.94
512.049	95.94
512.265	92.94
512.481	93.94
512.698	102.94
512.914	109.94
513.13	107.94
513.346	93.94
513.562	105.94
513.778	81.94
513.994	92.94
