Data from Uncirc_1987_H10_HRD10591_00043.txt Node
Date: Wed Jan 03 12:08:57 EST 2024
User: Yrep
Spectrometer: HR+D1059
Trigger mode: 1
Integration Time (sec): 1.000000E-1
Scans to average: 1
Electric dark correction enabled: true
Nonlinearity correction enabled: false
Boxcar width: 0
XAxis mode: Wavelengths
Number of Pixels in Spectrum: 2048
>>>>>Begin Spectral Data<<<<<
223.165	-21.75
223.4	-21.75
223.635	-21.75
223.869	-31.75
224.104	-16.75
224.338	-15.75
224.573	-14.75
224.808	-24.75
225.042	-10.75
225.277	10.25
225.511	17.25
225.746	11.25
225.98	3.25
226.215	6.25
226.449	25.25
226.683	8.25
226.918	23.25
227.152	31.25
227.387	35.25
227.621	41.25
227.856	39.25
228.09	48.25
228.324	57.25
228.559	63.25
228.793	60.25
229.027	54.25
229.262	52.25
229.496	66.25
229.73	85.25
229.964	83.25
230.199	71.25
230.433	81.25
230.667	85.25
230.901	81.25
231.136	82.25
231.37	91.25
231.604	86.25
231.838	77.25
232.072	74.25
232.306	72.25
232.541	80.25
232.775	94.25
233.009	85.25
233.243	89.25
233.477	74.25
233.711	75.25
233.945	81.25
234.179	85.25
234.413	81.25
234.647	88.25
234.881	89.25
235.115	93.25
235.349	70.25
235.583	85.25
235.817	86.25
236.051	77.25
236.285	81.25
236.519	90.25
236.753	74.25
236.987	66.25
237.221	84.25
237.455	90.25
237.689	64.25
237.922	88.25
238.156	77.25
238.39	73.25
238.624	66.25
238.858	66.25
239.091	81.25
239.325	79.25
239.559	71.25
239.793	68.25
240.027	75.25
240.26	72.25
240.494	69.25
240.728	88.25
240.961	87.25
241.195	73.25
241.429	79.25
241.662	71.25
241.896	74.25
242.13	79.25
242.363	74.25
242.597	79.25
242.83	63.25
243.064	78.25
243.298	83.25
243.531	91.25
243.765	72.25
243.998	87.25
244.232	83.25
244.465	81.25
244.699	67.25
244.932	93.25
245.166	89.25
245.399	74.25
245.633	80.25
245.866	79.25
246.099	79.25
246.333	78.25
246.566	81.25
246.8	78.25
247.033	85.25
247.266	96.25
247.5	77.25
247.733	69.25
247.966	79.25
248.2	83.25
248.433	71.25
248.666	89.25
248.899	99.25
249.133	80.25
249.366	88.25
249.599	90.25
249.832	80.25
250.066	84.25
250.299	75.25
250.532	68.25
250.765	69.25
250.998	80.25
251.231	84.25
251.465	85.25
251.698	80.25
251.931	84.25
252.164	70.25
252.397	83.25
252.63	77.25
252.863	81.25
253.096	79.25
253.329	82.25
253.562	84.25
253.795	79.25
254.028	84.25
254.261	73.25
254.494	75.25
254.727	85.25
254.96	89.25
255.193	69.25
255.426	91.25
255.659	67.25
255.892	81.25
256.124	67.25
256.357	70.25
256.59	72.25
256.823	84.25
257.056	103.25
257.289	84.25
257.521	79.25
257.754	95.25
257.987	82.25
258.22	82.25
258.452	82.25
258.685	80.25
258.918	81.25
259.151	77.25
259.383	74.25
259.616	81.25
259.849	87.25
260.081	89.25
260.314	71.25
260.547	79.25
260.779	91.25
261.012	88.25
261.244	82.25
261.477	95.25
261.71	94.25
261.942	107.25
262.175	98.25
262.407	94.25
262.64	83.25
262.872	77.25
263.105	80.25
263.337	91.25
263.57	84.25
263.802	81.25
264.035	80.25
264.267	91.25
264.499	83.25
264.732	86.25
264.964	83.25
265.197	81.25
265.429	83.25
265.661	94.25
265.894	85.25
266.126	77.25
266.358	82.25
266.591	82.25
266.823	78.25
267.055	91.25
267.287	82.25
267.52	71.25
267.752	81.25
267.984	74.25
268.216	65.25
268.448	83.25
268.681	85.25
268.913	74.25
269.145	83.25
269.377	106.25
269.609	90.25
269.841	85.25
270.073	81.25
270.306	85.25
270.538	89.25
270.77	87.25
271.002	87.25
271.234	103.25
271.466	90.25
271.698	80.25
271.93	85.25
272.162	86.25
272.394	77.25
272.626	91.25
272.858	80.25
273.09	87.25
273.322	89.25
273.553	79.25
273.785	86.25
274.017	106.25
274.249	98.25
274.481	96.25
274.713	90.25
274.945	94.25
275.176	81.25
275.408	71.25
275.64	86.25
275.872	86.25
276.104	89.25
276.335	73.25
276.567	97.25
276.799	102.25
277.031	93.25
277.262	96.25
277.494	91.25
277.726	83.25
277.957	90.25
278.189	90.25
278.421	90.25
278.652	78.25
278.884	85.25
279.115	90.25
279.347	81.25
279.579	69.25
279.81	79.25
280.042	75.25
280.273	97.25
280.505	77.25
280.736	92.25
280.968	82.25
281.199	85.25
281.431	81.25
281.662	77.25
281.894	91.25
282.125	103.25
282.356	101.25
282.588	121.25
282.819	92.25
283.051	97.25
283.282	89.25
283.513	81.25
283.745	71.25
283.976	87.25
284.207	80.25
284.439	78.25
284.67	79.25
284.901	84.25
285.132	88.25
285.364	93.25
285.595	77.25
285.826	90.25
286.057	95.25
286.288	80.25
286.52	85.25
286.751	90.25
286.982	83.25
287.213	77.25
287.444	78.25
287.675	86.25
287.906	79.25
288.138	79.25
288.369	88.25
288.6	105.25
288.831	103.25
289.062	80.25
289.293	78.25
289.524	81.25
289.755	85.25
289.986	78.25
290.217	93.25
290.448	82.25
290.679	100.25
290.91	85.25
291.141	77.25
291.371	73.25
291.602	83.25
291.833	71.25
292.064	91.25
292.295	81.25
292.526	79.25
292.757	94.25
292.987	95.25
293.218	84.25
293.449	78.25
293.68	86.25
293.91	70.25
294.141	90.25
294.372	105.25
294.603	69.25
294.833	94.25
295.064	93.25
295.295	93.25
295.525	86.25
295.756	93.25
295.987	101.25
296.217	126.25
296.448	109.25
296.679	96.25
296.909	73.25
297.14	90.25
297.37	83.25
297.601	93.25
297.831	82.25
298.062	79.25
298.292	75.25
298.523	90.25
298.753	93.25
298.984	96.25
299.214	83.25
299.445	84.25
299.675	95.25
299.905	86.25
300.136	80.25
300.366	89.25
300.597	90.25
300.827	84.25
301.057	102.25
301.288	85.25
301.518	91.25
301.748	80.25
301.979	86.25
302.209	90.25
302.439	99.25
302.669	86.25
302.9	77.25
303.13	93.25
303.36	96.25
303.59	105.25
303.82	88.25
304.051	76.25
304.281	91.25
304.511	88.25
304.741	99.25
304.971	90.25
305.201	79.25
305.431	98.25
305.661	97.25
305.891	86.25
306.121	81.25
306.352	85.25
306.582	105.25
306.812	90.25
307.042	71.25
307.272	103.25
307.502	94.25
307.731	98.25
307.961	90.25
308.191	91.25
308.421	87.25
308.651	91.25
308.881	96.25
309.111	108.25
309.341	97.25
309.571	101.25
309.8	94.25
310.03	96.25
310.26	88.25
310.49	92.25
310.72	111.25
310.949	87.25
311.179	91.25
311.409	86.25
311.639	101.25
311.868	94.25
312.098	88.25
312.328	88.25
312.557	84.25
312.787	113.25
313.017	107.25
313.246	95.25
313.476	70.25
313.706	101.25
313.935	91.25
314.165	101.25
314.394	99.25
314.624	84.25
314.853	87.25
315.083	84.25
315.312	81.25
315.542	86.25
315.771	86.25
316.001	88.25
316.23	109.25
316.46	68.25
316.689	107.25
316.919	93.25
317.148	104.25
317.377	98.25
317.607	86.25
317.836	80.25
318.065	79.25
318.295	94.25
318.524	97.25
318.753	87.25
318.983	97.25
319.212	94.25
319.441	95.25
319.67	105.25
319.9	99.25
320.129	91.25
320.358	90.25
320.587	95.25
320.816	102.25
321.046	102.25
321.275	88.25
321.504	97.25
321.733	99.25
321.962	85.25
322.191	97.25
322.42	98.25
322.649	107.25
322.878	106.25
323.108	113.25
323.337	127.25
323.566	141.25
323.795	135.25
324.024	167.25
324.253	345.25
324.482	738.25
324.71	1524.25
324.939	1967.25
325.168	715.25
325.397	225.25
325.626	157.25
325.855	120.25
326.084	129.25
326.313	131.25
326.542	144.25
326.77	219.25
326.999	423.25
327.228	848.25
327.457	1566.25
327.686	1233.25
327.914	345.25
328.143	165.25
328.372	123.25
328.6	110.25
328.829	96.25
329.058	116.25
329.287	119.25
329.515	111.25
329.744	100.25
329.972	93.25
330.201	103.25
330.43	103.25
330.658	123.25
330.887	106.25
331.115	113.25
331.344	93.25
331.572	95.25
331.801	100.25
332.03	117.25
332.258	89.25
332.486	95.25
332.715	91.25
332.943	91.25
333.172	95.25
333.4	107.25
333.629	98.25
333.857	118.25
334.085	110.25
334.314	90.25
334.542	101.25
334.771	107.25
334.999	84.25
335.227	87.25
335.455	91.25
335.684	109.25
335.912	99.25
336.14	106.25
336.369	97.25
336.597	96.25
336.825	95.25
337.053	98.25
337.281	92.25
337.51	83.25
337.738	93.25
337.966	87.25
338.194	85.25
338.422	102.25
338.65	87.25
338.878	91.25
339.106	102.25
339.334	102.25
339.562	88.25
339.79	85.25
340.018	85.25
340.246	94.25
340.474	74.25
340.702	79.25
340.93	83.25
341.158	92.25
341.386	82.25
341.614	96.25
341.842	99.25
342.07	80.25
342.298	91.25
342.526	83.25
342.754	85.25
342.981	81.25
343.209	96.25
343.437	99.25
343.665	90.25
343.893	86.25
344.12	78.25
344.348	86.25
344.576	92.25
344.804	95.25
345.031	98.25
345.259	105.25
345.487	85.25
345.714	92.25
345.942	87.25
346.17	74.25
346.397	87.25
346.625	94.25
346.853	75.25
347.08	84.25
347.308	106.25
347.535	85.25
347.763	97.25
347.99	87.25
348.218	93.25
348.445	113.25
348.673	94.25
348.9	86.25
349.128	89.25
349.355	93.25
349.583	96.25
349.81	70.25
350.037	82.25
350.265	105.25
350.492	89.25
350.72	95.25
350.947	99.25
351.174	106.25
351.402	95.25
351.629	98.25
351.856	90.25
352.083	94.25
352.311	97.25
352.538	95.25
352.765	102.25
352.992	104.25
353.22	109.25
353.447	92.25
353.674	93.25
353.901	92.25
354.128	116.25
354.355	104.25
354.583	101.25
354.81	103.25
355.037	99.25
355.264	96.25
355.491	87.25
355.718	102.25
355.945	95.25
356.172	86.25
356.399	101.25
356.626	91.25
356.853	98.25
357.08	104.25
357.307	87.25
357.534	94.25
357.761	105.25
357.988	94.25
358.215	86.25
358.441	89.25
358.668	98.25
358.895	103.25
359.122	100.25
359.349	96.25
359.576	74.25
359.802	85.25
360.029	98.25
360.256	99.25
360.483	91.25
360.709	78.25
360.936	111.25
361.163	93.25
361.39	86.25
361.616	86.25
361.843	83.25
362.07	94.25
362.296	97.25
362.523	105.25
362.749	81.25
362.976	93.25
363.203	91.25
363.429	99.25
363.656	73.25
363.882	84.25
364.109	85.25
364.335	94.25
364.562	104.25
364.788	88.25
365.015	89.25
365.241	99.25
365.468	102.25
365.694	91.25
365.92	102.25
366.147	75.25
366.373	69.25
366.599	78.25
366.826	89.25
367.052	81.25
367.278	103.25
367.505	72.25
367.731	98.25
367.957	92.25
368.184	87.25
368.41	105.25
368.636	100.25
368.862	117.25
369.089	117.25
369.315	81.25
369.541	88.25
369.767	91.25
369.993	94.25
370.219	97.25
370.445	91.25
370.672	103.25
370.898	94.25
371.124	85.25
371.35	93.25
371.576	78.25
371.802	73.25
372.028	79.25
372.254	97.25
372.48	89.25
372.706	85.25
372.932	89.25
373.158	83.25
373.384	81.25
373.61	100.25
373.835	86.25
374.061	91.25
374.287	91.25
374.513	104.25
374.739	93.25
374.965	85.25
375.191	94.25
375.416	89.25
375.642	88.25
375.868	86.25
376.094	89.25
376.319	101.25
376.545	89.25
376.771	79.25
376.997	96.25
377.222	90.25
377.448	84.25
377.674	93.25
377.899	93.25
378.125	77.25
378.35	103.25
378.576	104.25
378.802	75.25
379.027	106.25
379.253	98.25
379.478	83.25
379.704	96.25
379.929	81.25
380.155	94.25
380.38	96.25
380.606	101.25
380.831	101.25
381.057	107.25
381.282	107.25
381.507	85.25
381.733	85.25
381.958	93.25
382.184	90.25
382.409	97.25
382.634	95.25
382.86	98.25
383.085	106.25
383.31	98.25
383.535	93.25
383.761	104.25
383.986	91.25
384.211	92.25
384.436	86.25
384.662	87.25
384.887	103.25
385.112	93.25
385.337	97.25
385.562	96.25
385.787	98.25
386.013	106.25
386.238	121.25
386.463	110.25
386.688	109.25
386.913	105.25
387.138	114.25
387.363	95.25
387.588	102.25
387.813	94.25
388.038	103.25
388.263	99.25
388.488	104.25
388.713	97.25
388.938	91.25
389.163	79.25
389.387	88.25
389.612	90.25
389.837	96.25
390.062	82.25
390.287	100.25
390.512	94.25
390.736	72.25
390.961	96.25
391.186	104.25
391.411	95.25
391.636	90.25
391.86	79.25
392.085	89.25
392.31	100.25
392.534	99.25
392.759	80.25
392.984	89.25
393.208	85.25
393.433	90.25
393.658	99.25
393.882	78.25
394.107	86.25
394.331	86.25
394.556	78.25
394.78	71.25
395.005	79.25
395.229	91.25
395.454	95.25
395.678	93.25
395.903	102.25
396.127	89.25
396.352	90.25
396.576	90.25
396.801	92.25
397.025	93.25
397.249	90.25
397.474	102.25
397.698	78.25
397.922	86.25
398.147	92.25
398.371	86.25
398.595	92.25
398.82	74.25
399.044	72.25
399.268	81.25
399.492	87.25
399.717	90.25
399.941	93.25
400.165	74.25
400.389	79.25
400.613	78.25
400.837	85.25
401.062	75.25
401.286	90.25
401.51	84.25
401.734	79.25
401.958	104.25
402.182	116.25
402.406	146.25
402.63	120.25
402.854	97.25
403.078	78.25
403.302	81.25
403.526	89.25
403.75	83.25
403.974	82.25
404.198	87.25
404.422	97.25
404.645	88.25
404.869	97.25
405.093	86.25
405.317	99.25
405.541	104.25
405.765	104.25
405.988	118.25
406.212	162.25
406.436	201.25
406.66	126.25
406.883	112.25
407.107	91.25
407.331	92.25
407.555	101.25
407.778	80.25
408.002	91.25
408.226	106.25
408.449	81.25
408.673	87.25
408.896	101.25
409.12	94.25
409.344	85.25
409.567	87.25
409.791	99.25
410.014	97.25
410.238	90.25
410.461	100.25
410.685	94.25
410.908	101.25
411.132	102.25
411.355	89.25
411.578	98.25
411.802	85.25
412.025	72.25
412.249	87.25
412.472	99.25
412.695	87.25
412.919	82.25
413.142	84.25
413.365	80.25
413.589	94.25
413.812	99.25
414.035	82.25
414.258	88.25
414.482	98.25
414.705	80.25
414.928	79.25
415.151	99.25
415.374	110.25
415.597	94.25
415.821	84.25
416.044	97.25
416.267	88.25
416.49	104.25
416.713	84.25
416.936	84.25
417.159	90.25
417.382	93.25
417.605	99.25
417.828	98.25
418.051	93.25
418.274	97.25
418.497	90.25
418.72	97.25
418.943	95.25
419.166	79.25
419.389	82.25
419.611	105.25
419.834	82.25
420.057	81.25
420.28	93.25
420.503	106.25
420.726	76.25
420.948	85.25
421.171	92.25
421.394	81.25
421.617	98.25
421.839	82.25
422.062	86.25
422.285	98.25
422.507	94.25
422.73	106.25
422.953	85.25
423.175	97.25
423.398	99.25
423.621	94.25
423.843	105.25
424.066	73.25
424.288	101.25
424.511	83.25
424.733	94.25
424.956	103.25
425.178	104.25
425.401	103.25
425.623	90.25
425.846	90.25
426.068	85.25
426.291	98.25
426.513	101.25
426.735	96.25
426.958	86.25
427.18	93.25
427.402	125.25
427.625	141.25
427.847	115.25
428.069	98.25
428.292	86.25
428.514	84.25
428.736	74.25
428.958	72.25
429.181	95.25
429.403	86.25
429.625	89.25
429.847	98.25
430.069	90.25
430.292	99.25
430.514	86.25
430.736	85.25
430.958	88.25
431.18	89.25
431.402	88.25
431.624	97.25
431.846	96.25
432.068	85.25
432.29	78.25
432.512	105.25
432.734	96.25
432.956	95.25
433.178	88.25
433.4	98.25
433.622	93.25
433.844	96.25
434.066	96.25
434.287	91.25
434.509	93.25
434.731	85.25
434.953	94.25
435.175	93.25
435.397	101.25
435.618	94.25
435.84	89.25
436.062	113.25
436.284	122.25
436.505	98.25
436.727	94.25
436.949	91.25
437.17	93.25
437.392	85.25
437.614	87.25
437.835	104.25
438.057	113.25
438.278	97.25
438.5	103.25
438.721	106.25
438.943	101.25
439.165	94.25
439.386	74.25
439.608	95.25
439.829	90.25
440.05	117.25
440.272	122.25
440.493	105.25
440.715	90.25
440.936	88.25
441.158	85.25
441.379	81.25
441.6	93.25
441.822	99.25
442.043	98.25
442.264	129.25
442.486	83.25
442.707	81.25
442.928	97.25
443.149	124.25
443.371	132.25
443.592	95.25
443.813	100.25
444.034	97.25
444.255	85.25
444.476	81.25
444.698	77.25
444.919	85.25
445.14	133.25
445.361	116.25
445.582	122.25
445.803	137.25
446.024	135.25
446.245	128.25
446.466	117.25
446.687	91.25
446.908	90.25
447.129	96.25
447.35	87.25
447.571	102.25
447.792	78.25
448.013	89.25
448.234	92.25
448.455	114.25
448.675	88.25
448.896	105.25
449.117	92.25
449.338	117.25
449.559	120.25
449.779	105.25
450	97.25
450.221	89.25
450.442	85.25
450.662	95.25
450.883	84.25
451.104	105.25
451.324	74.25
451.545	81.25
451.766	81.25
451.986	89.25
452.207	97.25
452.428	83.25
452.648	89.25
452.869	101.25
453.089	89.25
453.31	126.25
453.53	90.25
453.751	98.25
453.971	97.25
454.192	109.25
454.412	83.25
454.633	83.25
454.853	91.25
455.073	87.25
455.294	97.25
455.514	95.25
455.734	90.25
455.955	74.25
456.175	81.25
456.395	86.25
456.616	90.25
456.836	82.25
457.056	91.25
457.276	89.25
457.497	86.25
457.717	93.25
457.937	84.25
458.157	72.25
458.377	93.25
458.598	107.25
458.818	143.25
459.038	138.25
459.258	112.25
459.478	85.25
459.698	91.25
459.918	88.25
460.138	95.25
460.358	101.25
460.578	88.25
460.798	78.25
461.018	93.25
461.238	86.25
461.458	90.25
461.678	94.25
461.898	101.25
462.118	99.25
462.338	82.25
462.558	80.25
462.777	83.25
462.997	83.25
463.217	91.25
463.437	111.25
463.657	89.25
463.876	101.25
464.096	80.25
464.316	83.25
464.536	82.25
464.755	101.25
464.975	93.25
465.195	143.25
465.414	131.25
465.634	85.25
465.854	74.25
466.073	95.25
466.293	85.25
466.512	89.25
466.732	87.25
466.951	90.25
467.171	101.25
467.391	102.25
467.61	80.25
467.829	113.25
468.049	96.25
468.268	89.25
468.488	97.25
468.707	82.25
468.927	76.25
469.146	92.25
469.365	93.25
469.585	89.25
469.804	92.25
470.023	87.25
470.243	88.25
470.462	96.25
470.681	109.25
470.901	109.25
471.12	89.25
471.339	91.25
471.558	97.25
471.777	70.25
471.997	102.25
472.216	92.25
472.435	111.25
472.654	91.25
472.873	95.25
473.092	95.25
473.311	85.25
473.53	77.25
473.749	99.25
473.968	84.25
474.187	111.25
474.406	79.25
474.625	83.25
474.844	94.25
475.063	98.25
475.282	93.25
475.501	78.25
475.72	85.25
475.939	94.25
476.158	79.25
476.377	88.25
476.596	89.25
476.814	102.25
477.033	83.25
477.252	84.25
477.471	96.25
477.69	83.25
477.908	102.25
478.127	93.25
478.346	72.25
478.564	96.25
478.783	95.25
479.002	105.25
479.22	100.25
479.439	88.25
479.658	84.25
479.876	86.25
480.095	96.25
480.313	97.25
480.532	97.25
480.751	96.25
480.969	99.25
481.188	91.25
481.406	94.25
481.624	74.25
481.843	87.25
482.061	87.25
482.28	88.25
482.498	89.25
482.717	93.25
482.935	96.25
483.153	88.25
483.372	91.25
483.59	87.25
483.808	94.25
484.027	95.25
484.245	105.25
484.463	93.25
484.681	105.25
484.9	90.25
485.118	85.25
485.336	94.25
485.554	99.25
485.772	91.25
485.99	94.25
486.209	110.25
486.427	115.25
486.645	115.25
486.863	102.25
487.081	102.25
487.299	92.25
487.517	109.25
487.735	83.25
487.953	100.25
488.171	114.25
488.389	92.25
488.607	101.25
488.825	88.25
489.043	85.25
489.261	86.25
489.479	91.25
489.696	85.25
489.914	87.25
490.132	94.25
490.35	81.25
490.568	82.25
490.786	94.25
491.003	93.25
491.221	93.25
491.439	96.25
491.657	99.25
491.874	77.25
492.092	82.25
492.31	99.25
492.527	87.25
492.745	82.25
492.963	73.25
493.18	90.25
493.398	108.25
493.615	107.25
493.833	91.25
494.05	101.25
494.268	88.25
494.485	85.25
494.703	92.25
494.92	98.25
495.138	86.25
495.355	101.25
495.573	104.25
495.79	98.25
496.008	98.25
496.225	89.25
496.442	85.25
496.66	106.25
496.877	93.25
497.094	90.25
497.312	77.25
497.529	88.25
497.746	101.25
497.963	105.25
498.181	101.25
498.398	96.25
498.615	108.25
498.832	103.25
499.049	82.25
499.267	92.25
499.484	98.25
499.701	85.25
499.918	91.25
500.135	95.25
500.352	94.25
500.569	91.25
500.786	83.25
501.003	102.25
501.22	99.25
501.437	101.25
501.654	94.25
501.871	116.25
502.088	98.25
502.305	101.25
502.522	89.25
502.739	85.25
502.956	82.25
503.172	98.25
503.389	82.25
503.606	92.25
503.823	109.25
504.04	87.25
504.256	89.25
504.473	87.25
504.69	88.25
504.907	83.25
505.123	95.25
505.34	98.25
505.557	86.25
505.773	90.25
505.99	93.25
506.207	98.25
506.423	94.25
506.64	85.25
506.856	89.25
507.073	93.25
507.289	83.25
507.506	103.25
507.722	103.25
507.939	98.25
508.155	100.25
508.372	93.25
508.588	94.25
508.805	102.25
509.021	89.25
509.238	98.25
509.454	92.25
509.67	105.25
509.887	101.25
510.103	122.25
510.319	199.25
510.536	644.25
510.752	1921.25
510.968	539.25
511.184	130.25
511.401	111.25
511.617	101.25
511.833	95.25
512.049	101.25
512.265	92.25
512.481	96.25
512.698	83.25
512.914	104.25
513.13	100.25
513.346	91.25
513.562	97.25
513.778	95.25
513.994	85.25
514.21	103.25
514.426	96.25
514.642	128.25
514.858	131.25
515.074	157.25
515.29	367.25
515.506	1165.25
515.721	444.25
515.937	137.25
516.153	103.25
