Data from Uncirc_1987_H10_HRD10591_00081.txt Node
Date: Wed Jan 03 12:09:04 EST 2024
User: Yrep
Spectrometer: HR+D1059
Trigger mode: 1
Integration Time (sec): 1.000000E-1
Scans to average: 1
Electric dark correction enabled: true
Nonlinearity correction enabled: false
Boxcar width: 0
XAxis mode: Wavelengths
Number of Pixels in Spectrum: 2048
>>>>>Begin Spectral Data<<<<<
223.165	-20.94
223.4	-20.94
223.635	-20.94
223.869	-13.94
224.104	-25.94
224.338	-12.94
224.573	-15.94
224.808	-18.94
225.042	-20.94
225.277	2.06
225.511	-1.94
225.746	11.06
225.98	4.06
226.215	16.06
226.449	19.06
226.683	22.06
226.918	30.06
227.152	27.06
227.387	21.06
227.621	45.06
227.856	43.06
228.09	45.06
228.324	61.06
228.559	66.06
228.793	67.06
229.027	61.06
229.262	64.06
229.496	86.06
229.73	59.06
229.964	81.06
230.199	74.06
230.433	86.06
230.667	90.06
230.901	85.06
231.136	81.06
231.37	82.06
231.604	83.06
231.838	90.06
232.072	75.06
232.306	87.06
232.541	95.06
232.775	86.06
233.009	88.06
233.243	85.06
233.477	96.06
233.711	93.06
233.945	87.06
234.179	82.06
234.413	88.06
234.647	79.06
234.881	82.06
235.115	88.06
235.349	84.06
235.583	65.06
235.817	87.06
236.051	86.06
236.285	76.06
236.519	91.06
236.753	78.06
236.987	80.06
237.221	82.06
237.455	90.06
237.689	81.06
237.922	73.06
238.156	74.06
238.39	91.06
238.624	81.06
238.858	72.06
239.091	72.06
239.325	83.06
239.559	77.06
239.793	92.06
240.027	76.06
240.26	73.06
240.494	74.06
240.728	100.06
240.961	87.06
241.195	85.06
241.429	75.06
241.662	77.06
241.896	77.06
242.13	79.06
242.363	79.06
242.597	83.06
242.83	99.06
243.064	82.06
243.298	81.06
243.531	71.06
243.765	73.06
243.998	88.06
244.232	81.06
244.465	89.06
244.699	93.06
244.932	79.06
245.166	77.06
245.399	82.06
245.633	73.06
245.866	88.06
246.099	85.06
246.333	72.06
246.566	82.06
246.8	75.06
247.033	85.06
247.266	83.06
247.5	87.06
247.733	85.06
247.966	85.06
248.2	84.06
248.433	107.06
248.666	79.06
248.899	95.06
249.133	86.06
249.366	88.06
249.599	92.06
249.832	82.06
250.066	88.06
250.299	73.06
250.532	76.06
250.765	77.06
250.998	96.06
251.231	81.06
251.465	88.06
251.698	77.06
251.931	73.06
252.164	89.06
252.397	97.06
252.63	72.06
252.863	72.06
253.096	78.06
253.329	74.06
253.562	92.06
253.795	79.06
254.028	97.06
254.261	93.06
254.494	79.06
254.727	87.06
254.96	72.06
255.193	99.06
255.426	86.06
255.659	89.06
255.892	84.06
256.124	76.06
256.357	79.06
256.59	99.06
256.823	95.06
257.056	81.06
257.289	91.06
257.521	89.06
257.754	75.06
257.987	84.06
258.22	96.06
258.452	80.06
258.685	81.06
258.918	86.06
259.151	78.06
259.383	87.06
259.616	87.06
259.849	79.06
260.081	88.06
260.314	74.06
260.547	79.06
260.779	85.06
261.012	68.06
261.244	83.06
261.477	86.06
261.71	92.06
261.942	108.06
262.175	124.06
262.407	94.06
262.64	84.06
262.872	92.06
263.105	86.06
263.337	77.06
263.57	87.06
263.802	90.06
264.035	88.06
264.267	86.06
264.499	101.06
264.732	93.06
264.964	76.06
265.197	77.06
265.429	88.06
265.661	97.06
265.894	90.06
266.126	81.06
266.358	83.06
266.591	93.06
266.823	75.06
267.055	87.06
267.287	91.06
267.52	90.06
267.752	87.06
267.984	88.06
268.216	98.06
268.448	96.06
268.681	83.06
268.913	94.06
269.145	81.06
269.377	81.06
269.609	85.06
269.841	87.06
270.073	87.06
270.306	86.06
270.538	100.06
270.77	83.06
271.002	87.06
271.234	83.06
271.466	102.06
271.698	92.06
271.93	80.06
272.162	84.06
272.394	91.06
272.626	86.06
272.858	108.06
273.09	83.06
273.322	88.06
273.553	89.06
273.785	97.06
274.017	90.06
274.249	83.06
274.481	83.06
274.713	87.06
274.945	101.06
275.176	89.06
275.408	88.06
275.64	89.06
275.872	93.06
276.104	89.06
276.335	109.06
276.567	99.06
276.799	108.06
277.031	107.06
277.262	86.06
277.494	98.06
277.726	92.06
277.957	79.06
278.189	76.06
278.421	89.06
278.652	69.06
278.884	91.06
279.115	87.06
279.347	84.06
279.579	85.06
279.81	95.06
280.042	81.06
280.273	100.06
280.505	85.06
280.736	83.06
280.968	95.06
281.199	100.06
281.431	97.06
281.662	83.06
281.894	87.06
282.125	93.06
282.356	123.06
282.588	155.06
282.819	108.06
283.051	88.06
283.282	79.06
283.513	93.06
283.745	81.06
283.976	98.06
284.207	83.06
284.439	92.06
284.67	81.06
284.901	76.06
285.132	93.06
285.364	91.06
285.595	92.06
285.826	90.06
286.057	84.06
286.288	83.06
286.52	87.06
286.751	90.06
286.982	108.06
287.213	91.06
287.444	85.06
287.675	85.06
287.906	81.06
288.138	88.06
288.369	87.06
288.6	88.06
288.831	96.06
289.062	91.06
289.293	98.06
289.524	89.06
289.755	90.06
289.986	90.06
290.217	100.06
290.448	88.06
290.679	83.06
290.91	85.06
291.141	89.06
291.371	83.06
291.602	99.06
291.833	89.06
292.064	86.06
292.295	83.06
292.526	93.06
292.757	82.06
292.987	88.06
293.218	88.06
293.449	97.06
293.68	98.06
293.91	93.06
294.141	87.06
294.372	87.06
294.603	97.06
294.833	91.06
295.064	89.06
295.295	104.06
295.525	83.06
295.756	94.06
295.987	113.06
296.217	142.06
296.448	130.06
296.679	93.06
296.909	91.06
297.14	84.06
297.37	85.06
297.601	91.06
297.831	93.06
298.062	104.06
298.292	96.06
298.523	91.06
298.753	82.06
298.984	97.06
299.214	88.06
299.445	96.06
299.675	98.06
299.905	95.06
300.136	95.06
300.366	90.06
300.597	89.06
300.827	88.06
301.057	100.06
301.288	92.06
301.518	95.06
301.748	85.06
301.979	107.06
302.209	93.06
302.439	92.06
302.669	100.06
302.9	95.06
303.13	87.06
303.36	103.06
303.59	121.06
303.82	100.06
304.051	101.06
304.281	101.06
304.511	91.06
304.741	88.06
304.971	75.06
305.201	101.06
305.431	95.06
305.661	103.06
305.891	95.06
306.121	94.06
306.352	106.06
306.582	111.06
306.812	84.06
307.042	92.06
307.272	92.06
307.502	98.06
307.731	105.06
307.961	73.06
308.191	92.06
308.421	100.06
308.651	92.06
308.881	103.06
309.111	98.06
309.341	107.06
309.571	94.06
309.8	105.06
310.03	93.06
310.26	84.06
310.49	101.06
310.72	100.06
310.949	102.06
311.179	104.06
311.409	92.06
311.639	87.06
311.868	90.06
312.098	98.06
312.328	92.06
312.557	111.06
312.787	113.06
313.017	107.06
313.246	89.06
313.476	94.06
313.706	97.06
313.935	90.06
314.165	105.06
314.394	106.06
314.624	92.06
314.853	98.06
315.083	91.06
315.312	104.06
315.542	91.06
315.771	95.06
316.001	80.06
316.23	108.06
316.46	81.06
316.689	75.06
316.919	97.06
317.148	93.06
317.377	100.06
317.607	108.06
317.836	92.06
318.065	89.06
318.295	98.06
318.524	95.06
318.753	82.06
318.983	90.06
319.212	86.06
319.441	101.06
319.67	108.06
319.9	116.06
320.129	90.06
320.358	107.06
320.587	101.06
320.816	96.06
321.046	107.06
321.275	94.06
321.504	103.06
321.733	98.06
321.962	107.06
322.191	103.06
322.42	118.06
322.649	115.06
322.878	111.06
323.108	105.06
323.337	107.06
323.566	129.06
323.795	160.06
324.024	206.06
324.253	385.06
324.482	796.06
324.71	1612.06
324.939	2155.06
325.168	783.06
325.397	257.06
325.626	141.06
325.855	124.06
326.084	140.06
326.313	128.06
326.542	161.06
326.77	221.06
326.999	433.06
327.228	920.06
327.457	1615.06
327.686	1282.06
327.914	348.06
328.143	213.06
328.372	159.06
328.6	127.06
328.829	122.06
329.058	119.06
329.287	125.06
329.515	98.06
329.744	109.06
329.972	109.06
330.201	119.06
330.43	118.06
330.658	129.06
330.887	149.06
331.115	117.06
331.344	92.06
331.572	104.06
331.801	96.06
332.03	114.06
332.258	105.06
332.486	93.06
332.715	96.06
332.943	90.06
333.172	82.06
333.4	102.06
333.629	105.06
333.857	121.06
334.085	108.06
334.314	112.06
334.542	127.06
334.771	125.06
334.999	112.06
335.227	103.06
335.455	99.06
335.684	101.06
335.912	92.06
336.14	98.06
336.369	96.06
336.597	98.06
336.825	99.06
337.053	101.06
337.281	89.06
337.51	104.06
337.738	94.06
337.966	85.06
338.194	94.06
338.422	96.06
338.65	98.06
338.878	74.06
339.106	83.06
339.334	96.06
339.562	86.06
339.79	87.06
340.018	91.06
340.246	87.06
340.474	93.06
340.702	94.06
340.93	96.06
341.158	104.06
341.386	91.06
341.614	103.06
341.842	95.06
342.07	81.06
342.298	100.06
342.526	98.06
342.754	81.06
342.981	92.06
343.209	96.06
343.437	88.06
343.665	84.06
343.893	89.06
344.12	102.06
344.348	98.06
344.576	97.06
344.804	96.06
345.031	100.06
345.259	95.06
345.487	94.06
345.714	86.06
345.942	107.06
346.17	101.06
346.397	83.06
346.625	94.06
346.853	85.06
347.08	107.06
347.308	97.06
347.535	101.06
347.763	104.06
347.99	107.06
348.218	109.06
348.445	97.06
348.673	101.06
348.9	100.06
349.128	102.06
349.355	107.06
349.583	79.06
349.81	93.06
350.037	98.06
350.265	83.06
350.492	91.06
350.72	106.06
350.947	89.06
351.174	119.06
351.402	105.06
351.629	95.06
351.856	100.06
352.083	99.06
352.311	115.06
352.538	90.06
352.765	113.06
352.992	109.06
353.22	114.06
353.447	108.06
353.674	107.06
353.901	104.06
354.128	91.06
354.355	110.06
354.583	104.06
354.81	95.06
355.037	98.06
355.264	86.06
355.491	103.06
355.718	104.06
355.945	91.06
356.172	89.06
356.399	85.06
356.626	94.06
356.853	98.06
357.08	93.06
357.307	83.06
357.534	104.06
357.761	101.06
357.988	100.06
358.215	103.06
358.441	90.06
358.668	92.06
358.895	92.06
359.122	98.06
359.349	99.06
359.576	86.06
359.802	91.06
360.029	96.06
360.256	99.06
360.483	97.06
360.709	85.06
360.936	95.06
361.163	98.06
361.39	75.06
361.616	92.06
361.843	96.06
362.07	100.06
362.296	96.06
362.523	96.06
362.749	84.06
362.976	75.06
363.203	107.06
363.429	102.06
363.656	104.06
363.882	92.06
364.109	91.06
364.335	82.06
364.562	103.06
364.788	96.06
365.015	98.06
365.241	112.06
365.468	99.06
365.694	103.06
365.92	113.06
366.147	95.06
366.373	101.06
366.599	87.06
366.826	93.06
367.052	73.06
367.278	89.06
367.505	86.06
367.731	97.06
367.957	91.06
368.184	88.06
368.41	90.06
368.636	109.06
368.862	118.06
369.089	99.06
369.315	92.06
369.541	90.06
369.767	106.06
369.993	92.06
370.219	76.06
370.445	91.06
370.672	93.06
370.898	98.06
371.124	96.06
371.35	96.06
371.576	97.06
371.802	88.06
372.028	92.06
372.254	85.06
372.48	83.06
372.706	94.06
372.932	83.06
373.158	77.06
373.384	91.06
373.61	95.06
373.835	112.06
374.061	87.06
374.287	92.06
374.513	98.06
374.739	85.06
374.965	97.06
375.191	83.06
375.416	93.06
375.642	83.06
375.868	85.06
376.094	88.06
376.319	91.06
376.545	96.06
376.771	103.06
376.997	100.06
377.222	88.06
377.448	87.06
377.674	91.06
377.899	97.06
378.125	72.06
378.35	99.06
378.576	87.06
378.802	94.06
379.027	90.06
379.253	100.06
379.478	90.06
379.704	104.06
379.929	98.06
380.155	104.06
380.38	82.06
380.606	99.06
380.831	82.06
381.057	95.06
381.282	90.06
381.507	81.06
381.733	99.06
381.958	95.06
382.184	96.06
382.409	93.06
382.634	83.06
382.86	95.06
383.085	96.06
383.31	82.06
383.535	93.06
383.761	108.06
383.986	93.06
384.211	98.06
384.436	98.06
384.662	96.06
384.887	93.06
385.112	95.06
385.337	78.06
385.562	108.06
385.787	115.06
386.013	103.06
386.238	116.06
386.463	101.06
386.688	117.06
386.913	96.06
387.138	88.06
387.363	106.06
387.588	106.06
387.813	102.06
388.038	103.06
388.263	102.06
388.488	116.06
388.713	109.06
388.938	92.06
389.163	99.06
389.387	107.06
389.612	101.06
389.837	98.06
390.062	80.06
390.287	93.06
390.512	102.06
390.736	87.06
390.961	75.06
391.186	99.06
391.411	90.06
391.636	101.06
391.86	92.06
392.085	75.06
392.31	87.06
392.534	103.06
392.759	97.06
392.984	84.06
393.208	100.06
393.433	92.06
393.658	95.06
393.882	98.06
394.107	84.06
394.331	93.06
394.556	83.06
394.78	93.06
395.005	83.06
395.229	87.06
395.454	104.06
395.678	80.06
395.903	84.06
396.127	89.06
396.352	77.06
396.576	91.06
396.801	88.06
397.025	75.06
397.249	84.06
397.474	104.06
397.698	87.06
397.922	90.06
398.147	87.06
398.371	87.06
398.595	93.06
398.82	92.06
399.044	85.06
399.268	75.06
399.492	97.06
399.717	104.06
399.941	90.06
400.165	100.06
400.389	102.06
400.613	91.06
400.837	96.06
401.062	83.06
401.286	90.06
401.51	94.06
401.734	93.06
401.958	101.06
402.182	124.06
402.406	164.06
402.63	118.06
402.854	95.06
403.078	97.06
403.302	74.06
403.526	93.06
403.75	112.06
403.974	82.06
404.198	80.06
404.422	90.06
404.645	95.06
404.869	98.06
405.093	102.06
405.317	102.06
405.541	113.06
405.765	96.06
405.988	104.06
406.212	180.06
406.436	236.06
406.66	157.06
406.883	99.06
407.107	87.06
407.331	92.06
407.555	89.06
407.778	91.06
408.002	84.06
408.226	88.06
408.449	86.06
408.673	91.06
408.896	103.06
409.12	92.06
409.344	102.06
409.567	101.06
409.791	93.06
410.014	80.06
410.238	100.06
410.461	101.06
410.685	101.06
410.908	109.06
411.132	114.06
411.355	88.06
411.578	95.06
411.802	99.06
412.025	100.06
412.249	96.06
412.472	97.06
412.695	97.06
412.919	104.06
413.142	88.06
413.365	91.06
413.589	104.06
413.812	92.06
414.035	96.06
414.258	92.06
414.482	97.06
414.705	97.06
414.928	91.06
415.151	109.06
415.374	92.06
415.597	100.06
415.821	99.06
416.044	86.06
416.267	95.06
416.49	74.06
416.713	92.06
416.936	90.06
417.159	112.06
417.382	79.06
417.605	92.06
417.828	103.06
418.051	97.06
418.274	98.06
418.497	97.06
418.72	105.06
418.943	97.06
419.166	89.06
419.389	91.06
419.611	85.06
419.834	86.06
420.057	84.06
420.28	97.06
420.503	88.06
420.726	79.06
420.948	88.06
421.171	99.06
421.394	102.06
421.617	81.06
421.839	106.06
422.062	96.06
422.285	76.06
422.507	97.06
422.73	101.06
422.953	105.06
423.175	92.06
423.398	105.06
423.621	91.06
423.843	93.06
424.066	90.06
424.288	93.06
424.511	94.06
424.733	94.06
424.956	112.06
425.178	96.06
425.401	96.06
425.623	109.06
425.846	110.06
426.068	97.06
426.291	99.06
426.513	79.06
426.735	93.06
426.958	101.06
427.18	93.06
427.402	136.06
427.625	169.06
427.847	130.06
428.069	116.06
428.292	90.06
428.514	95.06
428.736	92.06
428.958	72.06
429.181	77.06
429.403	85.06
429.625	103.06
429.847	90.06
430.069	108.06
430.292	93.06
430.514	83.06
430.736	85.06
430.958	83.06
431.18	98.06
431.402	89.06
431.624	92.06
431.846	74.06
432.068	76.06
432.29	89.06
432.512	83.06
432.734	92.06
432.956	106.06
433.178	106.06
433.4	86.06
433.622	86.06
433.844	104.06
434.066	91.06
434.287	85.06
434.509	93.06
434.731	104.06
434.953	86.06
435.175	92.06
435.397	81.06
435.618	70.06
435.84	112.06
436.062	134.06
436.284	125.06
436.505	101.06
436.727	101.06
436.949	102.06
437.17	106.06
437.392	79.06
437.614	81.06
437.835	107.06
438.057	121.06
438.278	98.06
438.5	109.06
438.721	132.06
438.943	98.06
439.165	87.06
439.386	92.06
439.608	87.06
439.829	100.06
440.05	130.06
440.272	138.06
440.493	91.06
440.715	87.06
440.936	86.06
441.158	77.06
441.379	111.06
441.6	99.06
441.822	98.06
442.043	86.06
442.264	100.06
442.486	116.06
442.707	92.06
442.928	102.06
443.149	136.06
443.371	129.06
443.592	111.06
443.813	106.06
444.034	95.06
444.255	94.06
444.476	86.06
444.698	77.06
444.919	84.06
445.14	124.06
445.361	122.06
445.582	123.06
445.803	146.06
446.024	138.06
446.245	140.06
446.466	113.06
446.687	86.06
446.908	79.06
447.129	90.06
447.35	92.06
447.571	91.06
447.792	91.06
448.013	102.06
448.234	103.06
448.455	87.06
448.675	115.06
448.896	112.06
449.117	97.06
449.338	109.06
449.559	130.06
449.779	119.06
450	99.06
450.221	90.06
450.442	100.06
450.662	93.06
450.883	115.06
451.104	104.06
451.324	80.06
451.545	93.06
451.766	98.06
451.986	83.06
452.207	89.06
452.428	92.06
452.648	100.06
452.869	115.06
453.089	116.06
453.31	121.06
453.53	108.06
453.751	89.06
453.971	115.06
454.192	119.06
454.412	118.06
454.633	86.06
454.853	90.06
455.073	91.06
455.294	86.06
455.514	103.06
455.734	89.06
455.955	89.06
456.175	85.06
456.395	105.06
456.616	93.06
456.836	98.06
457.056	99.06
457.276	89.06
457.497	89.06
457.717	89.06
457.937	97.06
458.157	89.06
458.377	91.06
458.598	109.06
458.818	163.06
459.038	147.06
459.258	105.06
459.478	84.06
459.698	86.06
459.918	88.06
460.138	109.06
460.358	89.06
460.578	91.06
460.798	96.06
461.018	93.06
461.238	100.06
461.458	90.06
461.678	79.06
461.898	95.06
462.118	92.06
462.338	79.06
462.558	92.06
462.777	88.06
462.997	71.06
463.217	83.06
463.437	80.06
463.657	91.06
463.876	79.06
464.096	97.06
464.316	95.06
464.536	86.06
464.755	87.06
464.975	101.06
465.195	155.06
465.414	155.06
465.634	93.06
465.854	85.06
466.073	96.06
466.293	93.06
466.512	91.06
466.732	91.06
466.951	76.06
467.171	85.06
467.391	100.06
467.61	92.06
467.829	102.06
468.049	97.06
468.268	90.06
468.488	88.06
468.707	95.06
468.927	100.06
469.146	79.06
469.365	75.06
469.585	103.06
469.804	96.06
470.023	92.06
470.243	81.06
470.462	115.06
470.681	100.06
470.901	90.06
471.12	78.06
471.339	92.06
471.558	94.06
471.777	79.06
471.997	81.06
472.216	101.06
472.435	117.06
472.654	88.06
472.873	84.06
473.092	95.06
473.311	77.06
473.53	83.06
473.749	92.06
473.968	99.06
474.187	99.06
474.406	96.06
474.625	97.06
474.844	83.06
475.063	79.06
475.282	91.06
475.501	87.06
475.72	91.06
475.939	84.06
476.158	91.06
476.377	95.06
476.596	83.06
476.814	95.06
477.033	96.06
477.252	102.06
477.471	84.06
477.69	96.06
477.908	102.06
478.127	91.06
478.346	87.06
478.564	87.06
478.783	99.06
479.002	80.06
479.22	97.06
479.439	86.06
479.658	90.06
479.876	91.06
480.095	99.06
480.313	97.06
480.532	73.06
480.751	93.06
480.969	109.06
481.188	166.06
481.406	132.06
481.624	81.06
481.843	97.06
482.061	91.06
482.28	88.06
482.498	85.06
482.717	80.06
482.935	93.06
483.153	83.06
483.372	78.06
483.59	75.06
483.808	87.06
484.027	99.06
484.245	118.06
484.463	95.06
484.681	100.06
484.9	106.06
485.118	108.06
485.336	90.06
485.554	100.06
485.772	102.06
485.99	95.06
486.209	99.06
486.427	106.06
486.645	100.06
486.863	117.06
487.081	97.06
487.299	101.06
487.517	102.06
487.735	103.06
487.953	105.06
488.171	95.06
488.389	100.06
488.607	94.06
488.825	92.06
489.043	91.06
489.261	82.06
489.479	103.06
489.696	98.06
489.914	102.06
490.132	99.06
490.35	85.06
490.568	96.06
490.786	97.06
491.003	95.06
491.221	93.06
491.439	90.06
491.657	80.06
491.874	92.06
492.092	83.06
492.31	103.06
492.527	86.06
492.745	79.06
492.963	93.06
493.18	89.06
493.398	108.06
493.615	91.06
493.833	91.06
494.05	101.06
494.268	91.06
494.485	91.06
494.703	86.06
494.92	87.06
495.138	83.06
495.355	95.06
495.573	91.06
495.79	104.06
496.008	85.06
496.225	84.06
496.442	80.06
496.66	102.06
496.877	91.06
497.094	92.06
497.312	94.06
497.529	98.06
497.746	92.06
497.963	98.06
498.181	108.06
498.398	90.06
498.615	116.06
498.832	94.06
499.049	93.06
499.267	101.06
499.484	99.06
499.701	99.06
499.918	85.06
500.135	89.06
500.352	90.06
500.569	97.06
500.786	83.06
501.003	80.06
501.22	101.06
501.437	95.06
501.654	80.06
501.871	117.06
502.088	93.06
502.305	83.06
502.522	97.06
502.739	101.06
502.956	97.06
503.172	89.06
503.389	95.06
503.606	97.06
503.823	95.06
504.04	102.06
504.256	95.06
504.473	91.06
504.69	102.06
504.907	88.06
505.123	86.06
505.34	99.06
505.557	93.06
505.773	92.06
505.99	99.06
506.207	92.06
506.423	106.06
506.64	101.06
506.856	86.06
507.073	96.06
507.289	100.06
507.506	93.06
507.722	112.06
507.939	98.06
508.155	103.06
508.372	88.06
508.588	84.06
508.805	109.06
509.021	95.06
509.238	95.06
509.454	90.06
509.67	117.06
509.887	112.06
510.103	135.06
510.319	201.06
510.536	789.06
510.752	2465.06
510.968	644.06
511.184	157.06
511.401	100.06
511.617	95.06
511.833	90.06
512.049	86.06
512.265	92.06
512.481	101.06
512.698	91.06
512.914	106.06
513.13	92.06
513.346	99.06
513.562	101.06
513.778	102.06
513.994	91.06
514.21	100.06
514.426	123.06
514.642	138.06
514.858	125.06
