Data from Uncirc_1987_H10_HRD10591_00091.txt Node
Date: Wed Jan 03 12:09:06 EST 2024
User: Yrep
Spectrometer: HR+D1059
Trigger mode: 1
Integration Time (sec): 1.000000E-1
Scans to average: 1
Electric dark correction enabled: true
Nonlinearity correction enabled: false
Boxcar width: 0
XAxis mode: Wavelengths
Number of Pixels in Spectrum: 2048
>>>>>Begin Spectral Data<<<<<
223.165	-21.19
223.4	-21.19
223.635	-21.19
223.869	-17.19
224.104	-25.19
224.338	-28.19
224.573	-2.19
224.808	-18.19
225.042	-11.19
225.277	-2.19
225.511	-4.19
225.746	7.81
225.98	4.81
226.215	11.81
226.449	14.81
226.683	25.81
226.918	34.81
227.152	29.81
227.387	39.81
227.621	29.81
227.856	45.81
228.09	45.81
228.324	56.81
228.559	42.81
228.793	65.81
229.027	73.81
229.262	43.81
229.496	77.81
229.73	66.81
229.964	71.81
230.199	68.81
230.433	75.81
230.667	81.81
230.901	73.81
231.136	88.81
231.37	86.81
231.604	92.81
231.838	80.81
232.072	92.81
232.306	72.81
232.541	79.81
232.775	77.81
233.009	80.81
233.243	87.81
233.477	78.81
233.711	91.81
233.945	81.81
234.179	77.81
234.413	77.81
234.647	63.81
234.881	67.81
235.115	60.81
235.349	89.81
235.583	80.81
235.817	91.81
236.051	75.81
236.285	67.81
236.519	74.81
236.753	71.81
236.987	79.81
237.221	84.81
237.455	77.81
237.689	67.81
237.922	71.81
238.156	68.81
238.39	68.81
238.624	66.81
238.858	93.81
239.091	67.81
239.325	91.81
239.559	68.81
239.793	83.81
240.027	74.81
240.26	73.81
240.494	82.81
240.728	81.81
240.961	64.81
241.195	61.81
241.429	80.81
241.662	73.81
241.896	72.81
242.13	83.81
242.363	71.81
242.597	70.81
242.83	78.81
243.064	69.81
243.298	93.81
243.531	77.81
243.765	77.81
243.998	83.81
244.232	87.81
244.465	96.81
244.699	71.81
244.932	64.81
245.166	84.81
245.399	70.81
245.633	78.81
245.866	86.81
246.099	79.81
246.333	76.81
246.566	84.81
246.8	86.81
247.033	67.81
247.266	70.81
247.5	73.81
247.733	72.81
247.966	70.81
248.2	63.81
248.433	78.81
248.666	76.81
248.899	86.81
249.133	91.81
249.366	100.81
249.599	88.81
249.832	79.81
250.066	78.81
250.299	65.81
250.532	77.81
250.765	74.81
250.998	69.81
251.231	70.81
251.465	81.81
251.698	83.81
251.931	66.81
252.164	86.81
252.397	90.81
252.63	78.81
252.863	75.81
253.096	60.81
253.329	72.81
253.562	83.81
253.795	78.81
254.028	67.81
254.261	75.81
254.494	79.81
254.727	77.81
254.96	65.81
255.193	72.81
255.426	76.81
255.659	79.81
255.892	71.81
256.124	63.81
256.357	78.81
256.59	90.81
256.823	84.81
257.056	94.81
257.289	76.81
257.521	76.81
257.754	83.81
257.987	81.81
258.22	79.81
258.452	81.81
258.685	71.81
258.918	83.81
259.151	79.81
259.383	96.81
259.616	76.81
259.849	73.81
260.081	64.81
260.314	88.81
260.547	68.81
260.779	73.81
261.012	97.81
261.244	73.81
261.477	93.81
261.71	93.81
261.942	103.81
262.175	111.81
262.407	78.81
262.64	77.81
262.872	81.81
263.105	78.81
263.337	93.81
263.57	83.81
263.802	79.81
264.035	72.81
264.267	85.81
264.499	100.81
264.732	76.81
264.964	71.81
265.197	89.81
265.429	70.81
265.661	96.81
265.894	81.81
266.126	85.81
266.358	91.81
266.591	92.81
266.823	83.81
267.055	81.81
267.287	59.81
267.52	84.81
267.752	83.81
267.984	90.81
268.216	79.81
268.448	73.81
268.681	77.81
268.913	85.81
269.145	80.81
269.377	92.81
269.609	76.81
269.841	85.81
270.073	80.81
270.306	75.81
270.538	71.81
270.77	87.81
271.002	72.81
271.234	82.81
271.466	64.81
271.698	79.81
271.93	74.81
272.162	78.81
272.394	70.81
272.626	77.81
272.858	77.81
273.09	82.81
273.322	89.81
273.553	80.81
273.785	83.81
274.017	84.81
274.249	93.81
274.481	80.81
274.713	81.81
274.945	89.81
275.176	82.81
275.408	79.81
275.64	82.81
275.872	86.81
276.104	79.81
276.335	91.81
276.567	88.81
276.799	107.81
277.031	91.81
277.262	70.81
277.494	80.81
277.726	79.81
277.957	74.81
278.189	87.81
278.421	80.81
278.652	79.81
278.884	87.81
279.115	83.81
279.347	72.81
279.579	100.81
279.81	75.81
280.042	86.81
280.273	70.81
280.505	101.81
280.736	81.81
280.968	75.81
281.199	89.81
281.431	67.81
281.662	87.81
281.894	82.81
282.125	81.81
282.356	105.81
282.588	154.81
282.819	101.81
283.051	91.81
283.282	85.81
283.513	91.81
283.745	101.81
283.976	87.81
284.207	86.81
284.439	87.81
284.67	95.81
284.901	79.81
285.132	84.81
285.364	76.81
285.595	96.81
285.826	76.81
286.057	99.81
286.288	95.81
286.52	90.81
286.751	99.81
286.982	74.81
287.213	91.81
287.444	99.81
287.675	70.81
287.906	85.81
288.138	81.81
288.369	90.81
288.6	77.81
288.831	91.81
289.062	76.81
289.293	79.81
289.524	88.81
289.755	80.81
289.986	79.81
290.217	75.81
290.448	100.81
290.679	77.81
290.91	100.81
291.141	91.81
291.371	95.81
291.602	91.81
291.833	102.81
292.064	94.81
292.295	97.81
292.526	78.81
292.757	79.81
292.987	86.81
293.218	85.81
293.449	88.81
293.68	92.81
293.91	76.81
294.141	86.81
294.372	83.81
294.603	91.81
294.833	81.81
295.064	95.81
295.295	96.81
295.525	93.81
295.756	98.81
295.987	129.81
296.217	140.81
296.448	133.81
296.679	88.81
296.909	92.81
297.14	84.81
297.37	101.81
297.601	86.81
297.831	86.81
298.062	98.81
298.292	78.81
298.523	87.81
298.753	89.81
298.984	87.81
299.214	82.81
299.445	93.81
299.675	87.81
299.905	105.81
300.136	93.81
300.366	100.81
300.597	87.81
300.827	98.81
301.057	100.81
301.288	100.81
301.518	95.81
301.748	87.81
301.979	90.81
302.209	86.81
302.439	98.81
302.669	84.81
302.9	96.81
303.13	89.81
303.36	100.81
303.59	83.81
303.82	99.81
304.051	98.81
304.281	93.81
304.511	85.81
304.741	81.81
304.971	103.81
305.201	98.81
305.431	92.81
305.661	96.81
305.891	84.81
306.121	87.81
306.352	92.81
306.582	93.81
306.812	89.81
307.042	81.81
307.272	83.81
307.502	95.81
307.731	96.81
307.961	85.81
308.191	81.81
308.421	88.81
308.651	102.81
308.881	95.81
309.111	72.81
309.341	84.81
309.571	96.81
309.8	91.81
310.03	105.81
310.26	88.81
310.49	102.81
310.72	93.81
310.949	97.81
311.179	100.81
311.409	89.81
311.639	84.81
311.868	99.81
312.098	85.81
312.328	88.81
312.557	93.81
312.787	101.81
313.017	83.81
313.246	96.81
313.476	98.81
313.706	91.81
313.935	90.81
314.165	89.81
314.394	85.81
314.624	89.81
314.853	110.81
315.083	69.81
315.312	92.81
315.542	87.81
315.771	93.81
316.001	89.81
316.23	88.81
316.46	83.81
316.689	97.81
316.919	83.81
317.148	93.81
317.377	101.81
317.607	94.81
317.836	91.81
318.065	92.81
318.295	83.81
318.524	96.81
318.753	91.81
318.983	98.81
319.212	99.81
319.441	96.81
319.67	83.81
319.9	93.81
320.129	86.81
320.358	96.81
320.587	94.81
320.816	93.81
321.046	111.81
321.275	97.81
321.504	100.81
321.733	99.81
321.962	103.81
322.191	103.81
322.42	94.81
322.649	105.81
322.878	124.81
323.108	116.81
323.337	116.81
323.566	143.81
323.795	155.81
324.024	188.81
324.253	377.81
324.482	805.81
324.71	1667.81
324.939	2229.81
325.168	801.81
325.397	233.81
325.626	149.81
325.855	111.81
326.084	107.81
326.313	124.81
326.542	148.81
326.77	221.81
326.999	424.81
327.228	903.81
327.457	1755.81
327.686	1393.81
327.914	358.81
328.143	197.81
328.372	145.81
328.6	133.81
328.829	118.81
329.058	130.81
329.287	131.81
329.515	103.81
329.744	89.81
329.972	107.81
330.201	120.81
330.43	130.81
330.658	130.81
330.887	157.81
331.115	109.81
331.344	98.81
331.572	102.81
331.801	110.81
332.03	93.81
332.258	93.81
332.486	88.81
332.715	94.81
332.943	96.81
333.172	97.81
333.4	102.81
333.629	105.81
333.857	109.81
334.085	94.81
334.314	113.81
334.542	128.81
334.771	121.81
334.999	102.81
335.227	89.81
335.455	84.81
335.684	103.81
335.912	101.81
336.14	100.81
336.369	107.81
336.597	100.81
336.825	96.81
337.053	97.81
337.281	94.81
337.51	84.81
337.738	93.81
337.966	83.81
338.194	95.81
338.422	96.81
338.65	92.81
338.878	84.81
339.106	83.81
339.334	89.81
339.562	92.81
339.79	93.81
340.018	85.81
340.246	84.81
340.474	100.81
340.702	99.81
340.93	83.81
341.158	89.81
341.386	97.81
341.614	91.81
341.842	86.81
342.07	103.81
342.298	101.81
342.526	101.81
342.754	79.81
342.981	98.81
343.209	82.81
343.437	84.81
343.665	93.81
343.893	104.81
344.12	90.81
344.348	85.81
344.576	99.81
344.804	85.81
345.031	91.81
345.259	90.81
345.487	88.81
345.714	95.81
345.942	100.81
346.17	96.81
346.397	87.81
346.625	94.81
346.853	94.81
347.08	88.81
347.308	96.81
347.535	104.81
347.763	91.81
347.99	97.81
348.218	90.81
348.445	109.81
348.673	87.81
348.9	95.81
349.128	99.81
349.355	86.81
349.583	98.81
349.81	88.81
350.037	76.81
350.265	88.81
350.492	112.81
350.72	104.81
350.947	92.81
351.174	92.81
351.402	111.81
351.629	111.81
351.856	102.81
352.083	103.81
352.311	100.81
352.538	113.81
352.765	102.81
352.992	112.81
353.22	117.81
353.447	95.81
353.674	105.81
353.901	88.81
354.128	88.81
354.355	90.81
354.583	104.81
354.81	80.81
355.037	86.81
355.264	98.81
355.491	103.81
355.718	97.81
355.945	99.81
356.172	91.81
356.399	96.81
356.626	87.81
356.853	96.81
357.08	95.81
357.307	85.81
357.534	104.81
357.761	99.81
357.988	74.81
358.215	93.81
358.441	97.81
358.668	95.81
358.895	80.81
359.122	79.81
359.349	75.81
359.576	100.81
359.802	85.81
360.029	93.81
360.256	117.81
360.483	91.81
360.709	85.81
360.936	92.81
361.163	104.81
361.39	86.81
361.616	77.81
361.843	95.81
362.07	79.81
362.296	93.81
362.523	100.81
362.749	88.81
362.976	81.81
363.203	91.81
363.429	73.81
363.656	100.81
363.882	94.81
364.109	94.81
364.335	101.81
364.562	93.81
364.788	92.81
365.015	95.81
365.241	98.81
365.468	111.81
365.694	98.81
365.92	94.81
366.147	101.81
366.373	88.81
366.599	85.81
366.826	82.81
367.052	89.81
367.278	91.81
367.505	79.81
367.731	75.81
367.957	88.81
368.184	93.81
368.41	105.81
368.636	101.81
368.862	102.81
369.089	109.81
369.315	95.81
369.541	106.81
369.767	81.81
369.993	86.81
370.219	104.81
370.445	102.81
370.672	94.81
370.898	81.81
371.124	68.81
371.35	82.81
371.576	84.81
371.802	88.81
372.028	82.81
372.254	72.81
372.48	88.81
372.706	86.81
372.932	97.81
373.158	100.81
373.384	88.81
373.61	93.81
373.835	77.81
374.061	86.81
374.287	81.81
374.513	82.81
374.739	86.81
374.965	76.81
375.191	88.81
375.416	89.81
375.642	84.81
375.868	79.81
376.094	84.81
376.319	86.81
376.545	84.81
376.771	87.81
376.997	71.81
377.222	94.81
377.448	90.81
377.674	95.81
377.899	84.81
378.125	95.81
378.35	84.81
378.576	82.81
378.802	105.81
379.027	82.81
379.253	79.81
379.478	91.81
379.704	94.81
379.929	99.81
380.155	82.81
380.38	100.81
380.606	94.81
380.831	87.81
381.057	104.81
381.282	93.81
381.507	92.81
381.733	81.81
381.958	88.81
382.184	100.81
382.409	92.81
382.634	89.81
382.86	92.81
383.085	110.81
383.31	100.81
383.535	85.81
383.761	100.81
383.986	93.81
384.211	93.81
384.436	99.81
384.662	102.81
384.887	86.81
385.112	93.81
385.337	93.81
385.562	88.81
385.787	97.81
386.013	114.81
386.238	102.81
386.463	101.81
386.688	105.81
386.913	94.81
387.138	103.81
387.363	89.81
387.588	85.81
387.813	91.81
388.038	102.81
388.263	98.81
388.488	110.81
388.713	77.81
388.938	79.81
389.163	99.81
389.387	100.81
389.612	82.81
389.837	99.81
390.062	104.81
390.287	93.81
390.512	86.81
390.736	97.81
390.961	72.81
391.186	88.81
391.411	96.81
391.636	93.81
391.86	87.81
392.085	79.81
392.31	72.81
392.534	81.81
392.759	78.81
392.984	84.81
393.208	79.81
393.433	94.81
393.658	99.81
393.882	95.81
394.107	91.81
394.331	94.81
394.556	89.81
394.78	83.81
395.005	76.81
395.229	84.81
395.454	110.81
395.678	91.81
395.903	69.81
396.127	87.81
396.352	72.81
396.576	73.81
396.801	91.81
397.025	83.81
397.249	78.81
397.474	69.81
397.698	91.81
397.922	87.81
398.147	79.81
398.371	84.81
398.595	91.81
398.82	84.81
399.044	91.81
399.268	81.81
399.492	81.81
399.717	87.81
399.941	81.81
400.165	92.81
400.389	99.81
400.613	96.81
400.837	90.81
401.062	103.81
401.286	97.81
401.51	89.81
401.734	100.81
401.958	101.81
402.182	133.81
402.406	151.81
402.63	114.81
402.854	84.81
403.078	85.81
403.302	75.81
403.526	94.81
403.75	92.81
403.974	99.81
404.198	93.81
404.422	90.81
404.645	94.81
404.869	85.81
405.093	97.81
405.317	101.81
405.541	88.81
405.765	96.81
405.988	133.81
406.212	162.81
406.436	227.81
406.66	132.81
406.883	105.81
407.107	81.81
407.331	91.81
407.555	98.81
407.778	105.81
408.002	100.81
408.226	87.81
408.449	79.81
408.673	96.81
408.896	98.81
409.12	89.81
409.344	85.81
409.567	93.81
409.791	88.81
410.014	96.81
410.238	112.81
410.461	97.81
410.685	103.81
410.908	102.81
411.132	109.81
411.355	111.81
411.578	97.81
411.802	90.81
412.025	85.81
412.249	94.81
412.472	97.81
412.695	62.81
412.919	72.81
413.142	71.81
413.365	93.81
413.589	96.81
413.812	85.81
414.035	103.81
414.258	79.81
414.482	83.81
414.705	76.81
414.928	97.81
415.151	96.81
415.374	92.81
415.597	87.81
415.821	79.81
416.044	77.81
416.267	91.81
416.49	79.81
416.713	77.81
416.936	89.81
417.159	83.81
417.382	109.81
417.605	91.81
417.828	86.81
418.051	91.81
418.274	103.81
418.497	96.81
418.72	87.81
418.943	81.81
419.166	80.81
419.389	96.81
419.611	85.81
419.834	94.81
420.057	107.81
420.28	85.81
420.503	86.81
420.726	89.81
420.948	84.81
421.171	107.81
421.394	113.81
421.617	94.81
421.839	89.81
422.062	85.81
422.285	99.81
422.507	88.81
422.73	95.81
422.953	95.81
423.175	95.81
423.398	98.81
423.621	94.81
423.843	73.81
424.066	66.81
424.288	91.81
424.511	88.81
424.733	106.81
424.956	101.81
425.178	92.81
425.401	100.81
425.623	105.81
425.846	87.81
426.068	93.81
426.291	87.81
426.513	75.81
426.735	98.81
426.958	97.81
427.18	99.81
427.402	135.81
427.625	152.81
427.847	147.81
428.069	108.81
428.292	81.81
428.514	98.81
428.736	82.81
428.958	87.81
429.181	85.81
429.403	88.81
429.625	86.81
429.847	78.81
430.069	103.81
430.292	103.81
430.514	89.81
430.736	79.81
430.958	88.81
431.18	93.81
431.402	85.81
431.624	84.81
431.846	85.81
432.068	78.81
432.29	88.81
432.512	82.81
432.734	89.81
432.956	97.81
433.178	102.81
433.4	88.81
433.622	96.81
433.844	95.81
434.066	85.81
434.287	72.81
434.509	82.81
434.731	88.81
434.953	87.81
435.175	95.81
435.397	90.81
435.618	85.81
435.84	99.81
436.062	121.81
436.284	120.81
436.505	96.81
436.727	89.81
436.949	103.81
437.17	70.81
437.392	89.81
437.614	80.81
437.835	117.81
438.057	119.81
438.278	125.81
438.5	107.81
438.721	120.81
438.943	99.81
439.165	86.81
439.386	94.81
439.608	87.81
439.829	99.81
440.05	124.81
440.272	143.81
440.493	101.81
440.715	107.81
440.936	76.81
441.158	93.81
441.379	96.81
441.6	80.81
441.822	95.81
442.043	100.81
442.264	108.81
442.486	103.81
442.707	98.81
442.928	99.81
443.149	107.81
443.371	136.81
443.592	107.81
443.813	117.81
444.034	112.81
444.255	97.81
444.476	78.81
444.698	91.81
444.919	94.81
445.14	145.81
445.361	120.81
445.582	109.81
445.803	125.81
446.024	117.81
446.245	129.81
446.466	114.81
446.687	93.81
446.908	85.81
447.129	91.81
447.35	88.81
447.571	96.81
447.792	102.81
448.013	115.81
448.234	113.81
448.455	105.81
448.675	119.81
448.896	96.81
449.117	107.81
449.338	101.81
449.559	130.81
449.779	126.81
450	95.81
450.221	100.81
450.442	99.81
450.662	86.81
450.883	96.81
451.104	86.81
451.324	91.81
451.545	79.81
451.766	91.81
451.986	87.81
452.207	85.81
452.428	75.81
452.648	84.81
452.869	105.81
453.089	115.81
453.31	121.81
453.53	85.81
453.751	91.81
453.971	89.81
454.192	116.81
454.412	98.81
454.633	87.81
454.853	80.81
455.073	83.81
455.294	88.81
455.514	103.81
455.734	69.81
455.955	87.81
456.175	69.81
456.395	91.81
456.616	85.81
456.836	77.81
457.056	70.81
457.276	85.81
457.497	71.81
457.717	90.81
457.937	83.81
458.157	77.81
458.377	89.81
458.598	111.81
458.818	144.81
459.038	165.81
459.258	115.81
459.478	85.81
459.698	97.81
459.918	92.81
460.138	68.81
460.358	72.81
460.578	83.81
460.798	90.81
461.018	85.81
461.238	87.81
461.458	84.81
461.678	78.81
461.898	66.81
462.118	87.81
462.338	89.81
462.558	86.81
462.777	87.81
462.997	82.81
463.217	84.81
463.437	82.81
463.657	96.81
463.876	85.81
464.096	103.81
464.316	75.81
464.536	86.81
464.755	91.81
464.975	105.81
465.195	162.81
465.414	150.81
465.634	105.81
465.854	92.81
466.073	91.81
466.293	86.81
466.512	84.81
466.732	77.81
466.951	82.81
467.171	83.81
467.391	91.81
467.61	93.81
467.829	94.81
468.049	93.81
468.268	96.81
468.488	79.81
468.707	76.81
468.927	87.81
469.146	79.81
469.365	84.81
469.585	85.81
469.804	89.81
470.023	98.81
470.243	99.81
470.462	97.81
470.681	112.81
470.901	88.81
471.12	63.81
471.339	78.81
471.558	92.81
471.777	97.81
471.997	87.81
472.216	96.81
472.435	126.81
472.654	106.81
472.873	78.81
473.092	100.81
473.311	108.81
473.53	75.81
473.749	89.81
473.968	100.81
474.187	92.81
474.406	84.81
474.625	80.81
474.844	96.81
475.063	76.81
475.282	88.81
475.501	95.81
475.72	86.81
475.939	95.81
476.158	75.81
476.377	88.81
476.596	84.81
476.814	87.81
477.033	83.81
477.252	88.81
477.471	73.81
477.69	95.81
477.908	77.81
478.127	92.81
478.346	83.81
478.564	97.81
478.783	95.81
479.002	85.81
479.22	100.81
479.439	103.81
479.658	93.81
479.876	101.81
480.095	83.81
480.313	91.81
480.532	77.81
480.751	78.81
480.969	107.81
481.188	160.81
481.406	139.81
481.624	89.81
481.843	83.81
482.061	85.81
482.28	82.81
482.498	80.81
482.717	90.81
482.935	100.81
483.153	100.81
483.372	79.81
483.59	86.81
483.808	76.81
484.027	93.81
484.245	100.81
484.463	64.81
484.681	96.81
484.9	99.81
485.118	90.81
485.336	95.81
485.554	88.81
485.772	93.81
485.99	92.81
486.209	94.81
486.427	96.81
486.645	113.81
486.863	108.81
487.081	92.81
487.299	91.81
487.517	94.81
487.735	84.81
487.953	93.81
488.171	87.81
488.389	97.81
488.607	95.81
488.825	105.81
489.043	92.81
489.261	84.81
489.479	86.81
489.696	88.81
489.914	81.81
490.132	92.81
490.35	93.81
490.568	100.81
490.786	81.81
491.003	87.81
491.221	75.81
491.439	79.81
491.657	96.81
491.874	94.81
492.092	82.81
492.31	75.81
492.527	85.81
492.745	101.81
492.963	107.81
493.18	91.81
493.398	97.81
493.615	93.81
493.833	93.81
494.05	85.81
494.268	104.81
494.485	99.81
494.703	77.81
494.92	87.81
495.138	87.81
495.355	88.81
495.573	101.81
495.79	80.81
496.008	81.81
496.225	91.81
496.442	90.81
496.66	88.81
496.877	93.81
497.094	82.81
497.312	87.81
497.529	89.81
497.746	81.81
497.963	92.81
498.181	86.81
498.398	90.81
498.615	110.81
498.832	103.81
499.049	91.81
499.267	91.81
499.484	85.81
499.701	72.81
499.918	81.81
500.135	90.81
500.352	88.81
500.569	79.81
500.786	93.81
501.003	91.81
501.22	83.81
501.437	86.81
501.654	95.81
501.871	97.81
502.088	87.81
502.305	100.81
502.522	80.81
502.739	89.81
502.956	73.81
503.172	83.81
503.389	93.81
503.606	109.81
503.823	95.81
504.04	95.81
504.256	92.81
504.473	77.81
504.69	93.81
504.907	86.81
505.123	75.81
505.34	93.81
505.557	84.81
505.773	88.81
505.99	73.81
506.207	94.81
506.423	96.81
506.64	94.81
506.856	85.81
507.073	95.81
507.289	84.81
507.506	99.81
507.722	113.81
507.939	123.81
508.155	95.81
508.372	95.81
508.588	90.81
508.805	80.81
509.021	92.81
509.238	99.81
509.454	97.81
509.67	98.81
509.887	93.81
510.103	137.81
510.319	203.81
510.536	727.81
510.752	2326.81
510.968	648.81
511.184	155.81
511.401	116.81
511.617	91.81
511.833	79.81
512.049	112.81
512.265	105.81
512.481	78.81
512.698	101.81
512.914	98.81
513.13	100.81
513.346	93.81
513.562	84.81
513.778	79.81
513.994	111.81
514.21	102.81
514.426	121.81
514.642	143.81
514.858	118.81
515.074	147.81
515.29	436.81
515.506	1477.81
515.721	535.81
515.937	149.81
516.153	105.81
