Data from Uncirc_1987_H10_HRD10591_00010.txt Node
Date: Wed Jan 03 12:08:50 EST 2024
User: Yrep
Spectrometer: HR+D1059
Trigger mode: 1
Integration Time (sec): 1.000000E-1
Scans to average: 1
Electric dark correction enabled: true
Nonlinearity correction enabled: false
Boxcar width: 0
XAxis mode: Wavelengths
Number of Pixels in Spectrum: 2048
>>>>>Begin Spectral Data<<<<<
223.165	-1.81
223.4	-1.81
223.635	-1.81
223.869	-16.81
224.104	-7.81
224.338	-17.81
224.573	-18.81
224.808	-9.81
225.042	-23.81
225.277	-15.81
225.511	4.19
225.746	-1.81
225.98	13.19
226.215	15.19
226.449	23.19
226.683	15.19
226.918	18.19
227.152	25.19
227.387	24.19
227.621	40.19
227.856	49.19
228.09	54.19
228.324	45.19
228.559	62.19
228.793	59.19
229.027	56.19
229.262	59.19
229.496	69.19
229.73	89.19
229.964	95.19
230.199	82.19
230.433	57.19
230.667	62.19
230.901	75.19
231.136	72.19
231.37	75.19
231.604	75.19
231.838	75.19
232.072	88.19
232.306	76.19
232.541	81.19
232.775	92.19
233.009	75.19
233.243	86.19
233.477	85.19
233.711	79.19
233.945	69.19
234.179	79.19
234.413	89.19
234.647	75.19
234.881	77.19
235.115	81.19
235.349	75.19
235.583	93.19
235.817	73.19
236.051	66.19
236.285	77.19
236.519	74.19
236.753	89.19
236.987	93.19
237.221	91.19
237.455	82.19
237.689	67.19
237.922	79.19
238.156	71.19
238.39	81.19
238.624	71.19
238.858	68.19
239.091	83.19
239.325	83.19
239.559	81.19
239.793	83.19
240.027	81.19
240.26	83.19
240.494	84.19
240.728	76.19
240.961	66.19
241.195	88.19
241.429	83.19
241.662	69.19
241.896	67.19
242.13	75.19
242.363	77.19
242.597	63.19
242.83	72.19
243.064	68.19
243.298	78.19
243.531	83.19
243.765	74.19
243.998	74.19
244.232	90.19
244.465	85.19
244.699	73.19
244.932	65.19
245.166	77.19
245.399	77.19
245.633	62.19
245.866	81.19
246.099	79.19
246.333	79.19
246.566	79.19
246.8	81.19
247.033	63.19
247.266	64.19
247.5	90.19
247.733	74.19
247.966	86.19
248.2	73.19
248.433	73.19
248.666	68.19
248.899	72.19
249.133	86.19
249.366	75.19
249.599	86.19
249.832	72.19
250.066	81.19
250.299	79.19
250.532	87.19
250.765	73.19
250.998	85.19
251.231	59.19
251.465	84.19
251.698	72.19
251.931	70.19
252.164	78.19
252.397	85.19
252.63	74.19
252.863	81.19
253.096	81.19
253.329	79.19
253.562	70.19
253.795	83.19
254.028	93.19
254.261	68.19
254.494	79.19
254.727	83.19
254.96	87.19
255.193	75.19
255.426	84.19
255.659	92.19
255.892	87.19
256.124	77.19
256.357	81.19
256.59	85.19
256.823	86.19
257.056	77.19
257.289	72.19
257.521	80.19
257.754	85.19
257.987	74.19
258.22	96.19
258.452	82.19
258.685	69.19
258.918	77.19
259.151	91.19
259.383	86.19
259.616	91.19
259.849	86.19
260.081	85.19
260.314	89.19
260.547	90.19
260.779	86.19
261.012	90.19
261.244	89.19
261.477	81.19
261.71	87.19
261.942	109.19
262.175	116.19
262.407	91.19
262.64	90.19
262.872	66.19
263.105	75.19
263.337	79.19
263.57	65.19
263.802	85.19
264.035	87.19
264.267	77.19
264.499	67.19
264.732	86.19
264.964	85.19
265.197	77.19
265.429	82.19
265.661	82.19
265.894	97.19
266.126	91.19
266.358	74.19
266.591	80.19
266.823	65.19
267.055	74.19
267.287	88.19
267.52	93.19
267.752	93.19
267.984	63.19
268.216	80.19
268.448	73.19
268.681	85.19
268.913	90.19
269.145	87.19
269.377	78.19
269.609	97.19
269.841	90.19
270.073	75.19
270.306	81.19
270.538	84.19
270.77	94.19
271.002	77.19
271.234	83.19
271.466	96.19
271.698	75.19
271.93	86.19
272.162	77.19
272.394	93.19
272.626	83.19
272.858	72.19
273.09	81.19
273.322	74.19
273.553	69.19
273.785	96.19
274.017	85.19
274.249	82.19
274.481	98.19
274.713	78.19
274.945	80.19
275.176	93.19
275.408	90.19
275.64	78.19
275.872	86.19
276.104	95.19
276.335	85.19
276.567	85.19
276.799	97.19
277.031	80.19
277.262	89.19
277.494	97.19
277.726	85.19
277.957	79.19
278.189	90.19
278.421	98.19
278.652	94.19
278.884	86.19
279.115	82.19
279.347	89.19
279.579	90.19
279.81	69.19
280.042	81.19
280.273	83.19
280.505	105.19
280.736	82.19
280.968	90.19
281.199	85.19
281.431	86.19
281.662	91.19
281.894	102.19
282.125	98.19
282.356	119.19
282.588	107.19
282.819	97.19
283.051	97.19
283.282	79.19
283.513	85.19
283.745	89.19
283.976	78.19
284.207	65.19
284.439	83.19
284.67	90.19
284.901	81.19
285.132	84.19
285.364	95.19
285.595	86.19
285.826	87.19
286.057	84.19
286.288	80.19
286.52	87.19
286.751	93.19
286.982	81.19
287.213	99.19
287.444	85.19
287.675	106.19
287.906	93.19
288.138	85.19
288.369	86.19
288.6	86.19
288.831	94.19
289.062	109.19
289.293	98.19
289.524	102.19
289.755	79.19
289.986	87.19
290.217	91.19
290.448	94.19
290.679	88.19
290.91	82.19
291.141	78.19
291.371	93.19
291.602	87.19
291.833	80.19
292.064	84.19
292.295	77.19
292.526	77.19
292.757	98.19
292.987	71.19
293.218	84.19
293.449	90.19
293.68	82.19
293.91	95.19
294.141	77.19
294.372	96.19
294.603	97.19
294.833	89.19
295.064	90.19
295.295	83.19
295.525	86.19
295.756	112.19
295.987	102.19
296.217	128.19
296.448	110.19
296.679	105.19
296.909	85.19
297.14	88.19
297.37	79.19
297.601	76.19
297.831	84.19
298.062	86.19
298.292	98.19
298.523	96.19
298.753	81.19
298.984	98.19
299.214	86.19
299.445	89.19
299.675	95.19
299.905	102.19
300.136	100.19
300.366	87.19
300.597	80.19
300.827	77.19
301.057	86.19
301.288	106.19
301.518	113.19
301.748	77.19
301.979	101.19
302.209	90.19
302.439	87.19
302.669	86.19
302.9	90.19
303.13	108.19
303.36	102.19
303.59	86.19
303.82	87.19
304.051	95.19
304.281	93.19
304.511	90.19
304.741	83.19
304.971	73.19
305.201	77.19
305.431	102.19
305.661	87.19
305.891	82.19
306.121	85.19
306.352	99.19
306.582	96.19
306.812	93.19
307.042	85.19
307.272	102.19
307.502	97.19
307.731	80.19
307.961	98.19
308.191	79.19
308.421	77.19
308.651	103.19
308.881	91.19
309.111	95.19
309.341	97.19
309.571	83.19
309.8	100.19
310.03	106.19
310.26	97.19
310.49	95.19
310.72	95.19
310.949	88.19
311.179	111.19
311.409	101.19
311.639	91.19
311.868	84.19
312.098	94.19
312.328	102.19
312.557	91.19
312.787	91.19
313.017	100.19
313.246	97.19
313.476	89.19
313.706	90.19
313.935	89.19
314.165	95.19
314.394	102.19
314.624	88.19
314.853	99.19
315.083	92.19
315.312	104.19
315.542	80.19
315.771	88.19
316.001	88.19
316.23	85.19
316.46	84.19
316.689	86.19
316.919	107.19
317.148	95.19
317.377	94.19
317.607	96.19
317.836	89.19
318.065	100.19
318.295	87.19
318.524	91.19
318.753	100.19
318.983	90.19
319.212	99.19
319.441	100.19
319.67	85.19
319.9	86.19
320.129	97.19
320.358	93.19
320.587	96.19
320.816	90.19
321.046	82.19
321.275	91.19
321.504	85.19
321.733	99.19
321.962	81.19
322.191	96.19
322.42	90.19
322.649	102.19
322.878	114.19
323.108	101.19
323.337	101.19
323.566	133.19
323.795	137.19
324.024	182.19
324.253	328.19
324.482	682.19
324.71	1393.19
324.939	1837.19
325.168	677.19
325.397	223.19
325.626	134.19
325.855	114.19
326.084	114.19
326.313	112.19
326.542	132.19
326.77	199.19
326.999	396.19
327.228	797.19
327.457	1469.19
327.686	1181.19
327.914	328.19
328.143	170.19
328.372	124.19
328.6	123.19
328.829	110.19
329.058	117.19
329.287	107.19
329.515	99.19
329.744	103.19
329.972	101.19
330.201	84.19
330.43	103.19
330.658	94.19
330.887	126.19
331.115	109.19
331.344	86.19
331.572	89.19
331.801	106.19
332.03	115.19
332.258	96.19
332.486	93.19
332.715	95.19
332.943	81.19
333.172	105.19
333.4	98.19
333.629	101.19
333.857	113.19
334.085	103.19
334.314	70.19
334.542	94.19
334.771	85.19
334.999	89.19
335.227	93.19
335.455	101.19
335.684	96.19
335.912	93.19
336.14	102.19
336.369	86.19
336.597	95.19
336.825	96.19
337.053	89.19
337.281	97.19
337.51	103.19
337.738	79.19
337.966	85.19
338.194	97.19
338.422	85.19
338.65	105.19
338.878	107.19
339.106	96.19
339.334	95.19
339.562	81.19
339.79	83.19
340.018	89.19
340.246	95.19
340.474	105.19
340.702	93.19
340.93	85.19
341.158	83.19
341.386	89.19
341.614	85.19
341.842	97.19
342.07	78.19
342.298	106.19
342.526	105.19
342.754	82.19
342.981	81.19
343.209	90.19
343.437	98.19
343.665	98.19
343.893	89.19
344.12	93.19
344.348	105.19
344.576	92.19
344.804	94.19
345.031	87.19
345.259	95.19
345.487	99.19
345.714	97.19
345.942	100.19
346.17	97.19
346.397	83.19
346.625	85.19
346.853	87.19
347.08	86.19
347.308	97.19
347.535	99.19
347.763	92.19
347.99	96.19
348.218	111.19
348.445	97.19
348.673	96.19
348.9	109.19
349.128	110.19
349.355	101.19
349.583	89.19
349.81	97.19
350.037	90.19
350.265	82.19
350.492	88.19
350.72	94.19
350.947	95.19
351.174	109.19
351.402	99.19
351.629	97.19
351.856	97.19
352.083	110.19
352.311	101.19
352.538	104.19
352.765	106.19
352.992	116.19
353.22	109.19
353.447	114.19
353.674	92.19
353.901	104.19
354.128	107.19
354.355	103.19
354.583	103.19
354.81	105.19
355.037	108.19
355.264	89.19
355.491	96.19
355.718	110.19
355.945	104.19
356.172	99.19
356.399	96.19
356.626	93.19
356.853	92.19
357.08	89.19
357.307	113.19
357.534	93.19
357.761	108.19
357.988	93.19
358.215	95.19
358.441	89.19
358.668	85.19
358.895	80.19
359.122	85.19
359.349	79.19
359.576	98.19
359.802	86.19
360.029	99.19
360.256	97.19
360.483	75.19
360.709	77.19
360.936	92.19
361.163	72.19
361.39	84.19
361.616	107.19
361.843	93.19
362.07	90.19
362.296	94.19
362.523	88.19
362.749	102.19
362.976	91.19
363.203	108.19
363.429	78.19
363.656	93.19
363.882	98.19
364.109	96.19
364.335	106.19
364.562	88.19
364.788	92.19
365.015	89.19
365.241	114.19
365.468	109.19
365.694	96.19
365.92	94.19
366.147	93.19
366.373	96.19
366.599	77.19
366.826	72.19
367.052	95.19
367.278	100.19
367.505	82.19
367.731	90.19
367.957	91.19
368.184	99.19
368.41	93.19
368.636	98.19
368.862	111.19
369.089	114.19
369.315	99.19
369.541	87.19
369.767	82.19
369.993	83.19
370.219	69.19
370.445	89.19
370.672	82.19
370.898	94.19
371.124	87.19
371.35	90.19
371.576	85.19
371.802	78.19
372.028	92.19
372.254	86.19
372.48	85.19
372.706	108.19
372.932	86.19
373.158	99.19
373.384	101.19
373.61	98.19
373.835	94.19
374.061	88.19
374.287	89.19
374.513	95.19
374.739	87.19
374.965	111.19
375.191	94.19
375.416	74.19
375.642	71.19
375.868	96.19
376.094	89.19
376.319	91.19
376.545	91.19
376.771	92.19
376.997	88.19
377.222	103.19
377.448	91.19
377.674	85.19
377.899	89.19
378.125	86.19
378.35	88.19
378.576	92.19
378.802	101.19
379.027	97.19
379.253	101.19
379.478	84.19
379.704	89.19
379.929	80.19
380.155	87.19
380.38	100.19
380.606	86.19
380.831	110.19
381.057	103.19
381.282	89.19
381.507	95.19
381.733	105.19
381.958	100.19
382.184	101.19
382.409	105.19
382.634	93.19
382.86	101.19
383.085	108.19
383.31	104.19
383.535	97.19
383.761	96.19
383.986	104.19
384.211	114.19
384.436	86.19
384.662	106.19
384.887	101.19
385.112	98.19
385.337	77.19
385.562	98.19
385.787	91.19
386.013	101.19
386.238	105.19
386.463	99.19
386.688	115.19
386.913	113.19
387.138	93.19
387.363	103.19
387.588	102.19
387.813	106.19
388.038	103.19
388.263	94.19
388.488	109.19
388.713	94.19
388.938	105.19
389.163	105.19
389.387	98.19
389.612	86.19
389.837	87.19
390.062	84.19
390.287	94.19
390.512	84.19
390.736	85.19
390.961	88.19
391.186	88.19
391.411	85.19
391.636	95.19
391.86	77.19
392.085	75.19
392.31	74.19
392.534	87.19
392.759	85.19
392.984	86.19
393.208	87.19
393.433	87.19
393.658	81.19
393.882	87.19
394.107	85.19
394.331	93.19
394.556	93.19
394.78	106.19
395.005	82.19
395.229	86.19
395.454	89.19
395.678	75.19
395.903	86.19
396.127	72.19
396.352	82.19
396.576	86.19
396.801	89.19
397.025	85.19
397.249	92.19
397.474	101.19
397.698	72.19
397.922	102.19
398.147	97.19
398.371	84.19
398.595	90.19
398.82	86.19
399.044	88.19
399.268	107.19
399.492	89.19
399.717	81.19
399.941	91.19
400.165	95.19
400.389	79.19
400.613	82.19
400.837	91.19
401.062	84.19
401.286	72.19
401.51	93.19
401.734	89.19
401.958	75.19
402.182	112.19
402.406	136.19
402.63	107.19
402.854	97.19
403.078	83.19
403.302	81.19
403.526	89.19
403.75	81.19
403.974	83.19
404.198	89.19
404.422	78.19
404.645	80.19
404.869	95.19
405.093	97.19
405.317	95.19
405.541	87.19
405.765	82.19
405.988	112.19
406.212	146.19
406.436	183.19
406.66	124.19
406.883	105.19
407.107	95.19
407.331	107.19
407.555	100.19
407.778	101.19
408.002	102.19
408.226	97.19
408.449	94.19
408.673	83.19
408.896	98.19
409.12	99.19
409.344	96.19
409.567	101.19
409.791	102.19
410.014	96.19
410.238	94.19
410.461	94.19
410.685	92.19
410.908	100.19
411.132	104.19
411.355	85.19
411.578	88.19
411.802	93.19
412.025	87.19
412.249	86.19
412.472	93.19
412.695	89.19
412.919	89.19
413.142	91.19
413.365	99.19
413.589	81.19
413.812	96.19
414.035	101.19
414.258	98.19
414.482	90.19
414.705	101.19
414.928	79.19
415.151	85.19
415.374	97.19
415.597	90.19
415.821	81.19
416.044	91.19
416.267	90.19
416.49	83.19
416.713	101.19
416.936	92.19
417.159	94.19
417.382	90.19
417.605	89.19
417.828	101.19
418.051	91.19
418.274	75.19
418.497	67.19
418.72	84.19
418.943	103.19
419.166	79.19
419.389	91.19
419.611	101.19
419.834	83.19
420.057	92.19
420.28	83.19
420.503	90.19
420.726	80.19
420.948	90.19
421.171	102.19
421.394	85.19
421.617	98.19
421.839	70.19
422.062	82.19
422.285	92.19
422.507	100.19
422.73	97.19
422.953	104.19
423.175	81.19
423.398	69.19
423.621	82.19
423.843	89.19
424.066	88.19
424.288	105.19
424.511	98.19
424.733	105.19
424.956	96.19
425.178	79.19
425.401	89.19
425.623	94.19
425.846	95.19
426.068	95.19
426.291	79.19
426.513	94.19
426.735	96.19
426.958	91.19
427.18	103.19
427.402	134.19
427.625	147.19
427.847	103.19
428.069	89.19
428.292	100.19
428.514	81.19
428.736	71.19
428.958	86.19
429.181	92.19
429.403	81.19
429.625	89.19
429.847	93.19
430.069	82.19
430.292	97.19
430.514	105.19
430.736	96.19
430.958	84.19
431.18	83.19
431.402	73.19
431.624	84.19
431.846	79.19
432.068	83.19
432.29	96.19
432.512	93.19
432.734	81.19
432.956	93.19
433.178	77.19
433.4	90.19
433.622	99.19
433.844	97.19
434.066	70.19
434.287	83.19
434.509	90.19
434.731	91.19
434.953	89.19
435.175	81.19
435.397	88.19
435.618	101.19
435.84	103.19
436.062	125.19
436.284	106.19
436.505	109.19
436.727	93.19
436.949	90.19
437.17	90.19
437.392	88.19
437.614	87.19
437.835	105.19
438.057	101.19
438.278	105.19
438.5	101.19
438.721	116.19
438.943	101.19
439.165	98.19
439.386	79.19
439.608	89.19
439.829	101.19
440.05	110.19
440.272	143.19
440.493	114.19
440.715	100.19
440.936	87.19
441.158	105.19
441.379	62.19
441.6	88.19
441.822	89.19
442.043	96.19
442.264	101.19
442.486	98.19
442.707	98.19
442.928	97.19
443.149	126.19
443.371	114.19
443.592	106.19
443.813	106.19
444.034	97.19
444.255	73.19
444.476	90.19
444.698	98.19
444.919	80.19
445.14	127.19
445.361	94.19
445.582	106.19
445.803	139.19
446.024	125.19
446.245	128.19
446.466	124.19
446.687	107.19
446.908	94.19
447.129	95.19
447.35	89.19
447.571	79.19
447.792	106.19
448.013	92.19
448.234	113.19
448.455	93.19
448.675	95.19
448.896	112.19
449.117	107.19
449.338	100.19
449.559	127.19
449.779	117.19
450	99.19
450.221	89.19
450.442	95.19
450.662	88.19
450.883	99.19
451.104	102.19
451.324	93.19
451.545	73.19
451.766	96.19
451.986	81.19
452.207	102.19
452.428	96.19
452.648	100.19
452.869	79.19
453.089	95.19
453.31	102.19
453.53	110.19
453.751	78.19
453.971	95.19
454.192	103.19
454.412	89.19
454.633	103.19
454.853	85.19
455.073	93.19
455.294	77.19
455.514	96.19
455.734	86.19
455.955	86.19
456.175	89.19
456.395	81.19
456.616	96.19
456.836	81.19
457.056	81.19
457.276	85.19
457.497	75.19
457.717	97.19
457.937	80.19
458.157	77.19
458.377	89.19
458.598	110.19
458.818	123.19
459.038	131.19
459.258	97.19
459.478	95.19
459.698	72.19
459.918	88.19
460.138	86.19
460.358	97.19
460.578	99.19
460.798	94.19
461.018	90.19
461.238	100.19
461.458	93.19
461.678	94.19
461.898	78.19
462.118	84.19
462.338	75.19
462.558	89.19
462.777	81.19
462.997	78.19
463.217	82.19
463.437	85.19
463.657	86.19
463.876	97.19
464.096	86.19
464.316	81.19
464.536	88.19
464.755	91.19
464.975	100.19
465.195	143.19
465.414	131.19
465.634	110.19
465.854	91.19
466.073	93.19
466.293	78.19
466.512	90.19
466.732	84.19
466.951	92.19
467.171	100.19
467.391	94.19
467.61	98.19
467.829	71.19
468.049	91.19
468.268	71.19
468.488	91.19
468.707	65.19
468.927	87.19
469.146	97.19
469.365	86.19
469.585	89.19
469.804	89.19
470.023	92.19
470.243	57.19
470.462	84.19
470.681	95.19
470.901	101.19
471.12	95.19
471.339	96.19
471.558	97.19
471.777	89.19
471.997	99.19
472.216	73.19
472.435	81.19
472.654	93.19
472.873	106.19
473.092	77.19
473.311	87.19
473.53	92.19
473.749	83.19
473.968	109.19
474.187	82.19
474.406	88.19
474.625	84.19
474.844	91.19
475.063	78.19
475.282	82.19
475.501	98.19
475.72	93.19
475.939	80.19
476.158	90.19
476.377	82.19
476.596	89.19
476.814	98.19
477.033	87.19
477.252	93.19
477.471	84.19
477.69	100.19
477.908	87.19
478.127	97.19
478.346	93.19
478.564	84.19
478.783	98.19
479.002	89.19
479.22	89.19
479.439	97.19
479.658	97.19
479.876	96.19
480.095	89.19
480.313	82.19
480.532	78.19
480.751	86.19
480.969	85.19
481.188	106.19
481.406	106.19
481.624	85.19
481.843	92.19
482.061	98.19
482.28	96.19
482.498	81.19
482.717	98.19
482.935	74.19
483.153	79.19
483.372	82.19
483.59	73.19
483.808	89.19
484.027	87.19
484.245	92.19
484.463	93.19
484.681	107.19
484.9	102.19
485.118	98.19
485.336	101.19
485.554	99.19
485.772	106.19
485.99	91.19
486.209	94.19
486.427	111.19
486.645	112.19
486.863	113.19
487.081	90.19
487.299	83.19
487.517	98.19
487.735	89.19
487.953	93.19
488.171	92.19
488.389	102.19
488.607	98.19
488.825	88.19
489.043	88.19
489.261	83.19
489.479	85.19
489.696	101.19
489.914	90.19
490.132	79.19
490.35	77.19
490.568	85.19
490.786	86.19
491.003	100.19
491.221	82.19
491.439	87.19
491.657	106.19
491.874	101.19
492.092	82.19
492.31	94.19
492.527	93.19
492.745	86.19
492.963	96.19
493.18	101.19
493.398	74.19
493.615	93.19
493.833	95.19
494.05	82.19
494.268	111.19
494.485	95.19
494.703	86.19
494.92	89.19
495.138	83.19
495.355	79.19
495.573	86.19
495.79	79.19
496.008	89.19
496.225	91.19
496.442	89.19
496.66	100.19
496.877	86.19
497.094	98.19
497.312	74.19
497.529	96.19
497.746	96.19
497.963	100.19
498.181	93.19
498.398	101.19
498.615	101.19
498.832	108.19
499.049	95.19
499.267	92.19
499.484	95.19
499.701	96.19
499.918	86.19
500.135	94.19
500.352	96.19
500.569	95.19
500.786	82.19
501.003	94.19
501.22	86.19
501.437	89.19
501.654	88.19
501.871	102.19
502.088	90.19
502.305	75.19
502.522	94.19
502.739	88.19
502.956	104.19
503.172	89.19
503.389	93.19
503.606	98.19
503.823	92.19
504.04	113.19
504.256	87.19
504.473	91.19
504.69	92.19
504.907	105.19
505.123	75.19
505.34	82.19
505.557	85.19
505.773	92.19
505.99	89.19
506.207	97.19
506.423	104.19
506.64	112.19
506.856	89.19
507.073	84.19
507.289	93.19
507.506	113.19
507.722	96.19
507.939	92.19
508.155	91.19
508.372	85.19
508.588	95.19
508.805	70.19
509.021	89.19
509.238	102.19
509.454	87.19
509.67	106.19
509.887	97.19
510.103	123.19
510.319	184.19
510.536	607.19
510.752	1882.19
510.968	502.19
511.184	146.19
511.401	105.19
511.617	95.19
511.833	88.19
512.049	82.19
512.265	94.19
512.481	86.19
512.698	81.19
512.914	93.19
513.13	96.19
513.346	93.19
513.562	97.19
513.778	104.19
513.994	93.19
514.21	102.19
514.426	105.19
514.642	125.19
514.858	118.19
515.074	136.19
515.29	371.19
515.506	1145.19
515.721	433.19
515.937	133.19
