Data from Uncirc_1987_H10_HRD10591_00054.txt Node
Date: Wed Jan 03 12:08:59 EST 2024
User: Yrep
Spectrometer: HR+D1059
Trigger mode: 1
Integration Time (sec): 1.000000E-1
Scans to average: 1
Electric dark correction enabled: true
Nonlinearity correction enabled: false
Boxcar width: 0
XAxis mode: Wavelengths
Number of Pixels in Spectrum: 2048
>>>>>Begin Spectral Data<<<<<
223.165	-6.56
223.4	-6.56
223.635	-6.56
223.869	-14.56
224.104	-16.56
224.338	-27.56
224.573	-2.56
224.808	-11.56
225.042	-13.56
225.277	-9.56
225.511	8.44
225.746	4.44
225.98	-1.56
226.215	13.44
226.449	16.44
226.683	11.44
226.918	26.44
227.152	23.44
227.387	35.44
227.621	47.44
227.856	46.44
228.09	45.44
228.324	45.44
228.559	54.44
228.793	65.44
229.027	69.44
229.262	66.44
229.496	78.44
229.73	84.44
229.964	74.44
230.199	84.44
230.433	76.44
230.667	88.44
230.901	89.44
231.136	82.44
231.37	81.44
231.604	82.44
231.838	84.44
232.072	69.44
232.306	82.44
232.541	88.44
232.775	84.44
233.009	73.44
233.243	82.44
233.477	90.44
233.711	73.44
233.945	82.44
234.179	76.44
234.413	82.44
234.647	99.44
234.881	91.44
235.115	84.44
235.349	72.44
235.583	103.44
235.817	74.44
236.051	79.44
236.285	64.44
236.519	75.44
236.753	74.44
236.987	88.44
237.221	81.44
237.455	86.44
237.689	83.44
237.922	82.44
238.156	72.44
238.39	84.44
238.624	84.44
238.858	85.44
239.091	82.44
239.325	72.44
239.559	81.44
239.793	68.44
240.027	72.44
240.26	63.44
240.494	84.44
240.728	81.44
240.961	83.44
241.195	83.44
241.429	92.44
241.662	76.44
241.896	94.44
242.13	80.44
242.363	83.44
242.597	88.44
242.83	77.44
243.064	92.44
243.298	84.44
243.531	83.44
243.765	69.44
243.998	90.44
244.232	83.44
244.465	85.44
244.699	83.44
244.932	93.44
245.166	88.44
245.399	84.44
245.633	87.44
245.866	70.44
246.099	80.44
246.333	96.44
246.566	79.44
246.8	78.44
247.033	84.44
247.266	73.44
247.5	84.44
247.733	86.44
247.966	77.44
248.2	70.44
248.433	78.44
248.666	87.44
248.899	82.44
249.133	85.44
249.366	91.44
249.599	95.44
249.832	97.44
250.066	86.44
250.299	93.44
250.532	95.44
250.765	66.44
250.998	92.44
251.231	71.44
251.465	83.44
251.698	75.44
251.931	68.44
252.164	75.44
252.397	81.44
252.63	83.44
252.863	92.44
253.096	95.44
253.329	86.44
253.562	88.44
253.795	81.44
254.028	90.44
254.261	81.44
254.494	89.44
254.727	104.44
254.96	88.44
255.193	91.44
255.426	76.44
255.659	91.44
255.892	64.44
256.124	71.44
256.357	78.44
256.59	85.44
256.823	86.44
257.056	93.44
257.289	75.44
257.521	80.44
257.754	91.44
257.987	81.44
258.22	85.44
258.452	89.44
258.685	74.44
258.918	92.44
259.151	93.44
259.383	87.44
259.616	84.44
259.849	71.44
260.081	66.44
260.314	72.44
260.547	80.44
260.779	80.44
261.012	93.44
261.244	95.44
261.477	85.44
261.71	85.44
261.942	110.44
262.175	100.44
262.407	83.44
262.64	84.44
262.872	74.44
263.105	87.44
263.337	72.44
263.57	86.44
263.802	84.44
264.035	97.44
264.267	89.44
264.499	84.44
264.732	80.44
264.964	90.44
265.197	73.44
265.429	80.44
265.661	95.44
265.894	101.44
266.126	85.44
266.358	73.44
266.591	86.44
266.823	86.44
267.055	91.44
267.287	83.44
267.52	97.44
267.752	91.44
267.984	87.44
268.216	92.44
268.448	94.44
268.681	85.44
268.913	91.44
269.145	84.44
269.377	75.44
269.609	98.44
269.841	100.44
270.073	104.44
270.306	99.44
270.538	80.44
270.77	74.44
271.002	84.44
271.234	95.44
271.466	93.44
271.698	97.44
271.93	80.44
272.162	83.44
272.394	85.44
272.626	85.44
272.858	88.44
273.09	84.44
273.322	104.44
273.553	70.44
273.785	90.44
274.017	84.44
274.249	89.44
274.481	94.44
274.713	82.44
274.945	96.44
275.176	97.44
275.408	93.44
275.64	73.44
275.872	92.44
276.104	88.44
276.335	81.44
276.567	92.44
276.799	101.44
277.031	110.44
277.262	93.44
277.494	88.44
277.726	87.44
277.957	95.44
278.189	91.44
278.421	88.44
278.652	73.44
278.884	94.44
279.115	92.44
279.347	93.44
279.579	101.44
279.81	86.44
280.042	105.44
280.273	86.44
280.505	97.44
280.736	84.44
280.968	100.44
281.199	92.44
281.431	89.44
281.662	93.44
281.894	96.44
282.125	80.44
282.356	123.44
282.588	116.44
282.819	121.44
283.051	97.44
283.282	82.44
283.513	87.44
283.745	101.44
283.976	93.44
284.207	82.44
284.439	99.44
284.67	73.44
284.901	93.44
285.132	84.44
285.364	86.44
285.595	88.44
285.826	87.44
286.057	88.44
286.288	83.44
286.52	94.44
286.751	90.44
286.982	95.44
287.213	78.44
287.444	94.44
287.675	96.44
287.906	88.44
288.138	89.44
288.369	98.44
288.6	97.44
288.831	92.44
289.062	90.44
289.293	92.44
289.524	89.44
289.755	92.44
289.986	96.44
290.217	82.44
290.448	99.44
290.679	90.44
290.91	97.44
291.141	94.44
291.371	86.44
291.602	94.44
291.833	78.44
292.064	89.44
292.295	92.44
292.526	84.44
292.757	107.44
292.987	93.44
293.218	81.44
293.449	98.44
293.68	94.44
293.91	80.44
294.141	88.44
294.372	106.44
294.603	83.44
294.833	116.44
295.064	103.44
295.295	99.44
295.525	92.44
295.756	90.44
295.987	105.44
296.217	135.44
296.448	120.44
296.679	89.44
296.909	100.44
297.14	91.44
297.37	91.44
297.601	101.44
297.831	101.44
298.062	101.44
298.292	77.44
298.523	97.44
298.753	88.44
298.984	96.44
299.214	89.44
299.445	86.44
299.675	82.44
299.905	105.44
300.136	77.44
300.366	83.44
300.597	93.44
300.827	92.44
301.057	99.44
301.288	99.44
301.518	88.44
301.748	96.44
301.979	112.44
302.209	95.44
302.439	104.44
302.669	87.44
302.9	103.44
303.13	87.44
303.36	99.44
303.59	93.44
303.82	109.44
304.051	108.44
304.281	90.44
304.511	89.44
304.741	94.44
304.971	95.44
305.201	108.44
305.431	81.44
305.661	77.44
305.891	97.44
306.121	89.44
306.352	107.44
306.582	113.44
306.812	96.44
307.042	94.44
307.272	102.44
307.502	102.44
307.731	88.44
307.961	100.44
308.191	99.44
308.421	93.44
308.651	101.44
308.881	87.44
309.111	77.44
309.341	88.44
309.571	106.44
309.8	96.44
310.03	101.44
310.26	92.44
310.49	97.44
310.72	81.44
310.949	100.44
311.179	108.44
311.409	101.44
311.639	106.44
311.868	104.44
312.098	109.44
312.328	96.44
312.557	99.44
312.787	100.44
313.017	106.44
313.246	90.44
313.476	97.44
313.706	100.44
313.935	105.44
314.165	100.44
314.394	101.44
314.624	90.44
314.853	98.44
315.083	90.44
315.312	90.44
315.542	102.44
315.771	86.44
316.001	93.44
316.23	100.44
316.46	89.44
316.689	82.44
316.919	96.44
317.148	83.44
317.377	101.44
317.607	102.44
317.836	101.44
318.065	96.44
318.295	90.44
318.524	101.44
318.753	93.44
318.983	104.44
319.212	93.44
319.441	106.44
319.67	116.44
319.9	96.44
320.129	90.44
320.358	100.44
320.587	85.44
320.816	92.44
321.046	93.44
321.275	85.44
321.504	102.44
321.733	99.44
321.962	100.44
322.191	95.44
322.42	112.44
322.649	107.44
322.878	120.44
323.108	106.44
323.337	121.44
323.566	118.44
323.795	134.44
324.024	188.44
324.253	338.44
324.482	688.44
324.71	1444.44
324.939	1934.44
325.168	692.44
325.397	210.44
325.626	136.44
325.855	128.44
326.084	116.44
326.313	132.44
326.542	147.44
326.77	225.44
326.999	395.44
327.228	833.44
327.457	1507.44
327.686	1212.44
327.914	332.44
328.143	173.44
328.372	154.44
328.6	128.44
328.829	102.44
329.058	111.44
329.287	113.44
329.515	113.44
329.744	101.44
329.972	101.44
330.201	101.44
330.43	111.44
330.658	107.44
330.887	137.44
331.115	108.44
331.344	86.44
331.572	77.44
331.801	110.44
332.03	98.44
332.258	95.44
332.486	99.44
332.715	97.44
332.943	93.44
333.172	110.44
333.4	91.44
333.629	107.44
333.857	95.44
334.085	117.44
334.314	110.44
334.542	107.44
334.771	108.44
334.999	91.44
335.227	96.44
335.455	97.44
335.684	90.44
335.912	100.44
336.14	98.44
336.369	103.44
336.597	93.44
336.825	104.44
337.053	100.44
337.281	91.44
337.51	97.44
337.738	106.44
337.966	91.44
338.194	103.44
338.422	99.44
338.65	97.44
338.878	111.44
339.106	92.44
339.334	88.44
339.562	101.44
339.79	92.44
340.018	88.44
340.246	93.44
340.474	88.44
340.702	89.44
340.93	81.44
341.158	100.44
341.386	92.44
341.614	85.44
341.842	84.44
342.07	90.44
342.298	83.44
342.526	102.44
342.754	92.44
342.981	96.44
343.209	90.44
343.437	105.44
343.665	96.44
343.893	90.44
344.12	103.44
344.348	93.44
344.576	86.44
344.804	92.44
345.031	99.44
345.259	86.44
345.487	89.44
345.714	97.44
345.942	97.44
346.17	116.44
346.397	97.44
346.625	95.44
346.853	103.44
347.08	89.44
347.308	81.44
347.535	91.44
347.763	112.44
347.99	103.44
348.218	118.44
348.445	107.44
348.673	93.44
348.9	87.44
349.128	88.44
349.355	95.44
349.583	101.44
349.81	106.44
350.037	100.44
350.265	94.44
350.492	92.44
350.72	100.44
350.947	97.44
351.174	110.44
351.402	108.44
351.629	94.44
351.856	107.44
352.083	100.44
352.311	99.44
352.538	111.44
352.765	112.44
352.992	120.44
353.22	107.44
353.447	102.44
353.674	105.44
353.901	94.44
354.128	97.44
354.355	88.44
354.583	97.44
354.81	96.44
355.037	86.44
355.264	100.44
355.491	93.44
355.718	110.44
355.945	105.44
356.172	102.44
356.399	85.44
356.626	115.44
356.853	91.44
357.08	101.44
357.307	91.44
357.534	85.44
357.761	96.44
357.988	100.44
358.215	101.44
358.441	93.44
358.668	93.44
358.895	97.44
359.122	82.44
359.349	93.44
359.576	92.44
359.802	91.44
360.029	121.44
360.256	118.44
360.483	95.44
360.709	79.44
360.936	76.44
361.163	100.44
361.39	88.44
361.616	88.44
361.843	99.44
362.07	88.44
362.296	104.44
362.523	93.44
362.749	97.44
362.976	89.44
363.203	94.44
363.429	98.44
363.656	93.44
363.882	91.44
364.109	80.44
364.335	96.44
364.562	104.44
364.788	91.44
365.015	89.44
365.241	94.44
365.468	94.44
365.694	96.44
365.92	86.44
366.147	97.44
366.373	98.44
366.599	96.44
366.826	93.44
367.052	100.44
367.278	100.44
367.505	107.44
367.731	92.44
367.957	94.44
368.184	89.44
368.41	95.44
368.636	93.44
368.862	110.44
369.089	110.44
369.315	90.44
369.541	96.44
369.767	92.44
369.993	82.44
370.219	110.44
370.445	85.44
370.672	86.44
370.898	82.44
371.124	86.44
371.35	100.44
371.576	101.44
371.802	93.44
372.028	99.44
372.254	91.44
372.48	97.44
372.706	89.44
372.932	83.44
373.158	109.44
373.384	101.44
373.61	100.44
373.835	86.44
374.061	99.44
374.287	103.44
374.513	90.44
374.739	90.44
374.965	105.44
375.191	88.44
375.416	87.44
375.642	103.44
375.868	94.44
376.094	99.44
376.319	97.44
376.545	88.44
376.771	87.44
376.997	93.44
377.222	92.44
377.448	105.44
377.674	93.44
377.899	93.44
378.125	93.44
378.35	101.44
378.576	94.44
378.802	98.44
379.027	91.44
379.253	97.44
379.478	94.44
379.704	93.44
379.929	89.44
380.155	106.44
380.38	104.44
380.606	102.44
380.831	88.44
381.057	97.44
381.282	84.44
381.507	100.44
381.733	80.44
381.958	102.44
382.184	100.44
382.409	98.44
382.634	101.44
382.86	105.44
383.085	100.44
383.31	96.44
383.535	98.44
383.761	105.44
383.986	114.44
384.211	101.44
384.436	102.44
384.662	94.44
384.887	85.44
385.112	108.44
385.337	108.44
385.562	105.44
385.787	104.44
386.013	99.44
386.238	113.44
386.463	101.44
386.688	111.44
386.913	98.44
387.138	94.44
387.363	96.44
387.588	102.44
387.813	105.44
388.038	103.44
388.263	106.44
388.488	102.44
388.713	98.44
388.938	99.44
389.163	106.44
389.387	92.44
389.612	87.44
389.837	82.44
390.062	107.44
390.287	94.44
390.512	99.44
390.736	93.44
390.961	105.44
391.186	88.44
391.411	100.44
391.636	99.44
391.86	86.44
392.085	90.44
392.31	86.44
392.534	88.44
392.759	97.44
392.984	82.44
393.208	92.44
393.433	99.44
393.658	94.44
393.882	91.44
394.107	92.44
394.331	85.44
394.556	81.44
394.78	92.44
395.005	88.44
395.229	99.44
395.454	93.44
395.678	76.44
395.903	89.44
396.127	99.44
396.352	76.44
396.576	92.44
396.801	88.44
397.025	96.44
397.249	97.44
397.474	85.44
397.698	91.44
397.922	94.44
398.147	103.44
398.371	97.44
398.595	86.44
398.82	96.44
399.044	88.44
399.268	89.44
399.492	85.44
399.717	97.44
399.941	110.44
400.165	110.44
400.389	91.44
400.613	90.44
400.837	88.44
401.062	75.44
401.286	90.44
401.51	90.44
401.734	98.44
401.958	109.44
402.182	120.44
402.406	141.44
402.63	120.44
402.854	92.44
403.078	84.44
403.302	102.44
403.526	99.44
403.75	92.44
403.974	94.44
404.198	85.44
404.422	79.44
404.645	97.44
404.869	92.44
405.093	84.44
405.317	98.44
405.541	110.44
405.765	85.44
405.988	99.44
406.212	150.44
406.436	210.44
406.66	128.44
406.883	102.44
407.107	100.44
407.331	99.44
407.555	104.44
407.778	107.44
408.002	98.44
408.226	105.44
408.449	86.44
408.673	93.44
408.896	86.44
409.12	98.44
409.344	94.44
409.567	105.44
409.791	110.44
410.014	80.44
410.238	111.44
410.461	96.44
410.685	98.44
410.908	90.44
411.132	92.44
411.355	88.44
411.578	97.44
411.802	83.44
412.025	92.44
412.249	81.44
412.472	89.44
412.695	110.44
412.919	92.44
413.142	82.44
413.365	96.44
413.589	93.44
413.812	101.44
414.035	103.44
414.258	92.44
414.482	92.44
414.705	94.44
414.928	90.44
415.151	104.44
415.374	112.44
415.597	78.44
415.821	93.44
416.044	95.44
416.267	89.44
416.49	94.44
416.713	103.44
416.936	85.44
417.159	86.44
417.382	109.44
417.605	85.44
417.828	101.44
418.051	93.44
418.274	91.44
418.497	85.44
418.72	89.44
418.943	98.44
419.166	92.44
419.389	100.44
419.611	78.44
419.834	93.44
420.057	97.44
420.28	90.44
420.503	103.44
420.726	71.44
420.948	96.44
421.171	86.44
421.394	106.44
421.617	96.44
421.839	105.44
422.062	85.44
422.285	97.44
422.507	87.44
422.73	97.44
422.953	96.44
423.175	95.44
423.398	91.44
423.621	87.44
423.843	83.44
424.066	90.44
424.288	92.44
424.511	93.44
424.733	96.44
424.956	99.44
425.178	93.44
425.401	98.44
425.623	97.44
425.846	93.44
426.068	106.44
426.291	106.44
426.513	90.44
426.735	98.44
426.958	87.44
427.18	87.44
427.402	141.44
427.625	146.44
427.847	114.44
428.069	95.44
428.292	85.44
428.514	85.44
428.736	88.44
428.958	88.44
429.181	96.44
429.403	100.44
429.625	84.44
429.847	89.44
430.069	97.44
430.292	100.44
430.514	89.44
430.736	92.44
430.958	89.44
431.18	83.44
431.402	92.44
431.624	80.44
431.846	86.44
432.068	78.44
432.29	83.44
432.512	78.44
432.734	78.44
432.956	86.44
433.178	105.44
433.4	93.44
433.622	93.44
433.844	108.44
434.066	109.44
434.287	97.44
434.509	89.44
434.731	85.44
434.953	89.44
435.175	97.44
435.397	83.44
435.618	107.44
435.84	116.44
436.062	107.44
436.284	113.44
436.505	107.44
436.727	99.44
436.949	101.44
437.17	96.44
437.392	78.44
437.614	102.44
437.835	93.44
438.057	112.44
438.278	123.44
438.5	101.44
438.721	118.44
438.943	111.44
439.165	79.44
439.386	96.44
439.608	85.44
439.829	92.44
440.05	114.44
440.272	120.44
440.493	103.44
440.715	86.44
440.936	100.44
441.158	92.44
441.379	85.44
441.6	96.44
441.822	98.44
442.043	111.44
442.264	98.44
442.486	93.44
442.707	88.44
442.928	103.44
443.149	123.44
443.371	122.44
443.592	100.44
443.813	113.44
444.034	97.44
444.255	102.44
444.476	94.44
444.698	95.44
444.919	78.44
445.14	133.44
445.361	121.44
445.582	110.44
445.803	119.44
446.024	116.44
446.245	120.44
446.466	104.44
446.687	94.44
446.908	101.44
447.129	96.44
447.35	101.44
447.571	80.44
447.792	93.44
448.013	89.44
448.234	106.44
448.455	98.44
448.675	108.44
448.896	106.44
449.117	99.44
449.338	98.44
449.559	137.44
449.779	139.44
450	84.44
450.221	88.44
450.442	99.44
450.662	97.44
450.883	98.44
451.104	105.44
451.324	90.44
451.545	77.44
451.766	74.44
451.986	91.44
452.207	96.44
452.428	94.44
452.648	105.44
452.869	103.44
453.089	102.44
453.31	120.44
453.53	84.44
453.751	94.44
453.971	112.44
454.192	98.44
454.412	86.44
454.633	97.44
454.853	84.44
455.073	90.44
455.294	89.44
455.514	92.44
455.734	106.44
455.955	88.44
456.175	95.44
456.395	95.44
456.616	85.44
456.836	86.44
457.056	92.44
457.276	85.44
457.497	69.44
457.717	91.44
457.937	88.44
458.157	94.44
458.377	91.44
458.598	97.44
458.818	141.44
459.038	148.44
459.258	106.44
459.478	96.44
459.698	106.44
459.918	88.44
460.138	87.44
460.358	82.44
460.578	89.44
460.798	90.44
461.018	80.44
461.238	84.44
461.458	84.44
461.678	82.44
461.898	87.44
462.118	82.44
462.338	91.44
462.558	87.44
462.777	91.44
462.997	75.44
463.217	92.44
463.437	80.44
463.657	96.44
463.876	86.44
464.096	102.44
464.316	76.44
464.536	100.44
464.755	89.44
464.975	107.44
465.195	134.44
465.414	154.44
465.634	108.44
465.854	90.44
466.073	79.44
466.293	86.44
466.512	94.44
466.732	104.44
466.951	99.44
467.171	85.44
467.391	89.44
467.61	89.44
467.829	92.44
468.049	90.44
468.268	100.44
468.488	98.44
468.707	83.44
468.927	92.44
469.146	85.44
469.365	100.44
469.585	91.44
469.804	102.44
470.023	99.44
470.243	110.44
470.462	99.44
470.681	110.44
470.901	90.44
471.12	77.44
471.339	80.44
471.558	86.44
471.777	73.44
471.997	95.44
472.216	107.44
472.435	99.44
472.654	95.44
472.873	97.44
473.092	81.44
473.311	83.44
473.53	87.44
473.749	84.44
473.968	87.44
474.187	107.44
474.406	94.44
474.625	102.44
474.844	96.44
475.063	83.44
475.282	73.44
475.501	88.44
475.72	96.44
475.939	88.44
476.158	64.44
476.377	91.44
476.596	86.44
476.814	91.44
477.033	104.44
477.252	101.44
477.471	81.44
477.69	76.44
477.908	93.44
478.127	89.44
478.346	85.44
478.564	91.44
478.783	80.44
479.002	77.44
479.22	88.44
479.439	106.44
479.658	100.44
479.876	109.44
480.095	100.44
480.313	101.44
480.532	93.44
480.751	91.44
480.969	109.44
481.188	116.44
481.406	109.44
481.624	99.44
481.843	79.44
482.061	89.44
482.28	89.44
482.498	89.44
482.717	84.44
482.935	84.44
483.153	93.44
483.372	106.44
483.59	101.44
483.808	101.44
484.027	85.44
484.245	90.44
484.463	82.44
484.681	113.44
484.9	98.44
485.118	93.44
485.336	92.44
485.554	108.44
485.772	100.44
485.99	108.44
486.209	102.44
486.427	103.44
486.645	96.44
486.863	94.44
487.081	99.44
487.299	96.44
487.517	103.44
487.735	101.44
487.953	102.44
488.171	94.44
488.389	92.44
488.607	108.44
488.825	97.44
489.043	119.44
489.261	91.44
489.479	90.44
489.696	95.44
489.914	93.44
490.132	75.44
490.35	79.44
490.568	84.44
490.786	109.44
491.003	98.44
491.221	110.44
491.439	99.44
491.657	92.44
491.874	84.44
492.092	91.44
492.31	104.44
492.527	90.44
492.745	99.44
492.963	68.44
493.18	89.44
493.398	88.44
493.615	101.44
493.833	101.44
494.05	92.44
494.268	94.44
494.485	98.44
494.703	85.44
494.92	102.44
495.138	92.44
495.355	100.44
495.573	104.44
495.79	86.44
496.008	84.44
496.225	87.44
496.442	85.44
496.66	99.44
496.877	94.44
497.094	106.44
497.312	89.44
497.529	102.44
497.746	102.44
497.963	92.44
498.181	99.44
498.398	89.44
498.615	111.44
498.832	99.44
499.049	85.44
499.267	76.44
499.484	82.44
499.701	98.44
499.918	96.44
500.135	102.44
500.352	102.44
500.569	97.44
500.786	98.44
501.003	87.44
501.22	80.44
501.437	86.44
501.654	94.44
501.871	102.44
502.088	104.44
502.305	88.44
502.522	102.44
502.739	99.44
502.956	99.44
503.172	76.44
503.389	98.44
503.606	93.44
503.823	105.44
504.04	93.44
504.256	102.44
504.473	103.44
504.69	103.44
504.907	101.44
505.123	88.44
505.34	83.44
505.557	109.44
505.773	90.44
505.99	94.44
506.207	95.44
506.423	91.44
506.64	82.44
506.856	94.44
507.073	84.44
507.289	90.44
507.506	85.44
507.722	105.44
507.939	120.44
508.155	99.44
508.372	102.44
508.588	82.44
508.805	101.44
509.021	98.44
509.238	91.44
509.454	104.44
509.67	100.44
509.887	99.44
510.103	132.44
510.319	204.44
510.536	625.44
510.752	1892.44
510.968	522.44
511.184	132.44
511.401	107.44
511.617	90.44
511.833	94.44
512.049	97.44
512.265	91.44
512.481	87.44
512.698	96.44
512.914	99.44
513.13	95.44
513.346	104.44
513.562	103.44
513.778	101.44
513.994	96.44
514.21	110.44
514.426	103.44
514.642	120.44
