Data from Uncirc_1987_H10_HRD10591_00048.txt Node
Date: Wed Jan 03 12:08:58 EST 2024
User: Yrep
Spectrometer: HR+D1059
Trigger mode: 1
Integration Time (sec): 1.000000E-1
Scans to average: 1
Electric dark correction enabled: true
Nonlinearity correction enabled: false
Boxcar width: 0
XAxis mode: Wavelengths
Number of Pixels in Spectrum: 2048
>>>>>Begin Spectral Data<<<<<
223.165	-16.44
223.4	-16.44
223.635	-16.44
223.869	-18.44
224.104	-30.44
224.338	-12.44
224.573	-6.44
224.808	-15.44
225.042	-11.44
225.277	1.56
225.511	-5.44
225.746	13.56
225.98	4.56
226.215	-0.44
226.449	12.56
226.683	27.56
226.918	28.56
227.152	28.56
227.387	34.56
227.621	33.56
227.856	43.56
228.09	53.56
228.324	53.56
228.559	61.56
228.793	59.56
229.027	73.56
229.262	72.56
229.496	71.56
229.73	58.56
229.964	61.56
230.199	81.56
230.433	85.56
230.667	73.56
230.901	81.56
231.136	80.56
231.37	85.56
231.604	90.56
231.838	90.56
232.072	74.56
232.306	84.56
232.541	76.56
232.775	83.56
233.009	76.56
233.243	84.56
233.477	95.56
233.711	83.56
233.945	90.56
234.179	83.56
234.413	68.56
234.647	73.56
234.881	84.56
235.115	79.56
235.349	83.56
235.583	73.56
235.817	82.56
236.051	79.56
236.285	71.56
236.519	80.56
236.753	75.56
236.987	76.56
237.221	70.56
237.455	85.56
237.689	89.56
237.922	82.56
238.156	86.56
238.39	73.56
238.624	84.56
238.858	87.56
239.091	90.56
239.325	84.56
239.559	80.56
239.793	69.56
240.027	80.56
240.26	82.56
240.494	91.56
240.728	72.56
240.961	89.56
241.195	86.56
241.429	83.56
241.662	73.56
241.896	71.56
242.13	73.56
242.363	70.56
242.597	79.56
242.83	81.56
243.064	69.56
243.298	70.56
243.531	80.56
243.765	85.56
243.998	87.56
244.232	92.56
244.465	82.56
244.699	71.56
244.932	74.56
245.166	99.56
245.399	88.56
245.633	93.56
245.866	65.56
246.099	83.56
246.333	75.56
246.566	79.56
246.8	74.56
247.033	83.56
247.266	82.56
247.5	87.56
247.733	94.56
247.966	81.56
248.2	87.56
248.433	94.56
248.666	83.56
248.899	91.56
249.133	93.56
249.366	89.56
249.599	87.56
249.832	94.56
250.066	92.56
250.299	84.56
250.532	82.56
250.765	70.56
250.998	71.56
251.231	81.56
251.465	92.56
251.698	83.56
251.931	80.56
252.164	73.56
252.397	73.56
252.63	68.56
252.863	87.56
253.096	86.56
253.329	90.56
253.562	72.56
253.795	90.56
254.028	83.56
254.261	86.56
254.494	61.56
254.727	79.56
254.96	91.56
255.193	91.56
255.426	75.56
255.659	92.56
255.892	90.56
256.124	69.56
256.357	83.56
256.59	72.56
256.823	89.56
257.056	80.56
257.289	90.56
257.521	84.56
257.754	87.56
257.987	80.56
258.22	92.56
258.452	72.56
258.685	69.56
258.918	83.56
259.151	88.56
259.383	91.56
259.616	87.56
259.849	92.56
260.081	86.56
260.314	72.56
260.547	83.56
260.779	82.56
261.012	81.56
261.244	79.56
261.477	93.56
261.71	91.56
261.942	105.56
262.175	93.56
262.407	87.56
262.64	74.56
262.872	101.56
263.105	83.56
263.337	88.56
263.57	86.56
263.802	84.56
264.035	94.56
264.267	96.56
264.499	93.56
264.732	92.56
264.964	74.56
265.197	78.56
265.429	96.56
265.661	87.56
265.894	99.56
266.126	80.56
266.358	74.56
266.591	81.56
266.823	89.56
267.055	91.56
267.287	90.56
267.52	88.56
267.752	87.56
267.984	90.56
268.216	80.56
268.448	90.56
268.681	79.56
268.913	89.56
269.145	81.56
269.377	79.56
269.609	82.56
269.841	97.56
270.073	85.56
270.306	85.56
270.538	90.56
270.77	80.56
271.002	90.56
271.234	82.56
271.466	85.56
271.698	84.56
271.93	79.56
272.162	91.56
272.394	90.56
272.626	66.56
272.858	83.56
273.09	100.56
273.322	100.56
273.553	91.56
273.785	87.56
274.017	80.56
274.249	79.56
274.481	78.56
274.713	89.56
274.945	81.56
275.176	85.56
275.408	80.56
275.64	71.56
275.872	83.56
276.104	78.56
276.335	91.56
276.567	99.56
276.799	109.56
277.031	94.56
277.262	88.56
277.494	73.56
277.726	90.56
277.957	83.56
278.189	92.56
278.421	96.56
278.652	88.56
278.884	89.56
279.115	77.56
279.347	94.56
279.579	92.56
279.81	88.56
280.042	77.56
280.273	96.56
280.505	79.56
280.736	79.56
280.968	88.56
281.199	109.56
281.431	97.56
281.662	85.56
281.894	88.56
282.125	90.56
282.356	117.56
282.588	112.56
282.819	96.56
283.051	86.56
283.282	83.56
283.513	84.56
283.745	92.56
283.976	76.56
284.207	89.56
284.439	80.56
284.67	86.56
284.901	75.56
285.132	86.56
285.364	89.56
285.595	87.56
285.826	90.56
286.057	83.56
286.288	85.56
286.52	93.56
286.751	92.56
286.982	83.56
287.213	89.56
287.444	97.56
287.675	93.56
287.906	86.56
288.138	100.56
288.369	102.56
288.6	96.56
288.831	84.56
289.062	80.56
289.293	89.56
289.524	90.56
289.755	95.56
289.986	89.56
290.217	96.56
290.448	75.56
290.679	95.56
290.91	106.56
291.141	84.56
291.371	95.56
291.602	94.56
291.833	96.56
292.064	92.56
292.295	85.56
292.526	117.56
292.757	99.56
292.987	100.56
293.218	97.56
293.449	86.56
293.68	91.56
293.91	80.56
294.141	93.56
294.372	80.56
294.603	85.56
294.833	82.56
295.064	85.56
295.295	90.56
295.525	95.56
295.756	104.56
295.987	124.56
296.217	123.56
296.448	117.56
296.679	107.56
296.909	93.56
297.14	91.56
297.37	101.56
297.601	99.56
297.831	88.56
298.062	98.56
298.292	106.56
298.523	82.56
298.753	94.56
298.984	84.56
299.214	90.56
299.445	84.56
299.675	92.56
299.905	96.56
300.136	85.56
300.366	93.56
300.597	105.56
300.827	87.56
301.057	91.56
301.288	86.56
301.518	85.56
301.748	77.56
301.979	100.56
302.209	87.56
302.439	96.56
302.669	86.56
302.9	95.56
303.13	84.56
303.36	95.56
303.59	104.56
303.82	106.56
304.051	93.56
304.281	77.56
304.511	101.56
304.741	92.56
304.971	103.56
305.201	103.56
305.431	96.56
305.661	88.56
305.891	78.56
306.121	103.56
306.352	101.56
306.582	103.56
306.812	99.56
307.042	99.56
307.272	82.56
307.502	86.56
307.731	97.56
307.961	106.56
308.191	93.56
308.421	100.56
308.651	82.56
308.881	90.56
309.111	88.56
309.341	96.56
309.571	101.56
309.8	102.56
310.03	105.56
310.26	83.56
310.49	101.56
310.72	98.56
310.949	92.56
311.179	107.56
311.409	86.56
311.639	95.56
311.868	95.56
312.098	100.56
312.328	100.56
312.557	96.56
312.787	109.56
313.017	102.56
313.246	103.56
313.476	94.56
313.706	99.56
313.935	87.56
314.165	77.56
314.394	88.56
314.624	96.56
314.853	87.56
315.083	80.56
315.312	92.56
315.542	82.56
315.771	93.56
316.001	83.56
316.23	92.56
316.46	97.56
316.689	106.56
316.919	98.56
317.148	90.56
317.377	92.56
317.607	89.56
317.836	90.56
318.065	97.56
318.295	104.56
318.524	98.56
318.753	86.56
318.983	107.56
319.212	94.56
319.441	104.56
319.67	103.56
319.9	100.56
320.129	97.56
320.358	88.56
320.587	107.56
320.816	89.56
321.046	115.56
321.275	92.56
321.504	104.56
321.733	100.56
321.962	77.56
322.191	103.56
322.42	114.56
322.649	107.56
322.878	117.56
323.108	112.56
323.337	113.56
323.566	131.56
323.795	136.56
324.024	178.56
324.253	354.56
324.482	739.56
324.71	1479.56
324.939	1996.56
325.168	732.56
325.397	210.56
325.626	144.56
325.855	136.56
326.084	130.56
326.313	130.56
326.542	146.56
326.77	220.56
326.999	403.56
327.228	849.56
327.457	1515.56
327.686	1199.56
327.914	343.56
328.143	191.56
328.372	146.56
328.6	119.56
328.829	105.56
329.058	112.56
329.287	123.56
329.515	95.56
329.744	99.56
329.972	107.56
330.201	115.56
330.43	109.56
330.658	116.56
330.887	126.56
331.115	109.56
331.344	96.56
331.572	96.56
331.801	105.56
332.03	102.56
332.258	89.56
332.486	93.56
332.715	97.56
332.943	83.56
333.172	98.56
333.4	92.56
333.629	107.56
333.857	118.56
334.085	106.56
334.314	93.56
334.542	99.56
334.771	109.56
334.999	110.56
335.227	99.56
335.455	89.56
335.684	96.56
335.912	102.56
336.14	103.56
336.369	95.56
336.597	98.56
336.825	116.56
337.053	109.56
337.281	109.56
337.51	94.56
337.738	93.56
337.966	99.56
338.194	99.56
338.422	92.56
338.65	99.56
338.878	99.56
339.106	93.56
339.334	104.56
339.562	87.56
339.79	100.56
340.018	99.56
340.246	97.56
340.474	101.56
340.702	85.56
340.93	94.56
341.158	86.56
341.386	99.56
341.614	74.56
341.842	96.56
342.07	86.56
342.298	98.56
342.526	91.56
342.754	108.56
342.981	99.56
343.209	87.56
343.437	100.56
343.665	97.56
343.893	90.56
344.12	102.56
344.348	100.56
344.576	96.56
344.804	92.56
345.031	79.56
345.259	80.56
345.487	97.56
345.714	83.56
345.942	83.56
346.17	99.56
346.397	95.56
346.625	96.56
346.853	84.56
347.08	90.56
347.308	89.56
347.535	96.56
347.763	99.56
347.99	82.56
348.218	93.56
348.445	84.56
348.673	101.56
348.9	98.56
349.128	106.56
349.355	79.56
349.583	92.56
349.81	82.56
350.037	111.56
350.265	93.56
350.492	96.56
350.72	99.56
350.947	108.56
351.174	118.56
351.402	116.56
351.629	77.56
351.856	90.56
352.083	92.56
352.311	104.56
352.538	100.56
352.765	117.56
352.992	103.56
353.22	111.56
353.447	99.56
353.674	108.56
353.901	99.56
354.128	90.56
354.355	100.56
354.583	88.56
354.81	97.56
355.037	94.56
355.264	105.56
355.491	97.56
355.718	76.56
355.945	97.56
356.172	85.56
356.399	101.56
356.626	86.56
356.853	89.56
357.08	84.56
357.307	90.56
357.534	97.56
357.761	84.56
357.988	104.56
358.215	88.56
358.441	97.56
358.668	90.56
358.895	83.56
359.122	92.56
359.349	95.56
359.576	85.56
359.802	105.56
360.029	108.56
360.256	87.56
360.483	91.56
360.709	99.56
360.936	88.56
361.163	100.56
361.39	88.56
361.616	85.56
361.843	82.56
362.07	82.56
362.296	97.56
362.523	103.56
362.749	102.56
362.976	91.56
363.203	91.56
363.429	92.56
363.656	97.56
363.882	95.56
364.109	103.56
364.335	88.56
364.562	92.56
364.788	104.56
365.015	91.56
365.241	91.56
365.468	99.56
365.694	101.56
365.92	104.56
366.147	87.56
366.373	95.56
366.599	96.56
366.826	87.56
367.052	85.56
367.278	92.56
367.505	96.56
367.731	104.56
367.957	98.56
368.184	93.56
368.41	93.56
368.636	103.56
368.862	128.56
369.089	111.56
369.315	90.56
369.541	77.56
369.767	97.56
369.993	94.56
370.219	98.56
370.445	88.56
370.672	79.56
370.898	91.56
371.124	92.56
371.35	93.56
371.576	90.56
371.802	77.56
372.028	91.56
372.254	89.56
372.48	91.56
372.706	109.56
372.932	95.56
373.158	79.56
373.384	100.56
373.61	79.56
373.835	97.56
374.061	73.56
374.287	97.56
374.513	91.56
374.739	99.56
374.965	92.56
375.191	87.56
375.416	101.56
375.642	90.56
375.868	102.56
376.094	77.56
376.319	89.56
376.545	69.56
376.771	86.56
376.997	86.56
377.222	90.56
377.448	102.56
377.674	67.56
377.899	85.56
378.125	89.56
378.35	103.56
378.576	92.56
378.802	103.56
379.027	95.56
379.253	96.56
379.478	97.56
379.704	103.56
379.929	102.56
380.155	99.56
380.38	90.56
380.606	93.56
380.831	98.56
381.057	101.56
381.282	91.56
381.507	100.56
381.733	95.56
381.958	99.56
382.184	83.56
382.409	94.56
382.634	99.56
382.86	94.56
383.085	89.56
383.31	89.56
383.535	97.56
383.761	95.56
383.986	87.56
384.211	100.56
384.436	97.56
384.662	108.56
384.887	93.56
385.112	116.56
385.337	117.56
385.562	99.56
385.787	114.56
386.013	94.56
386.238	120.56
386.463	93.56
386.688	104.56
386.913	106.56
387.138	108.56
387.363	101.56
387.588	91.56
387.813	104.56
388.038	102.56
388.263	113.56
388.488	94.56
388.713	98.56
388.938	96.56
389.163	89.56
389.387	99.56
389.612	95.56
389.837	97.56
390.062	97.56
390.287	89.56
390.512	88.56
390.736	90.56
390.961	88.56
391.186	102.56
391.411	95.56
391.636	90.56
391.86	96.56
392.085	89.56
392.31	83.56
392.534	90.56
392.759	87.56
392.984	88.56
393.208	90.56
393.433	90.56
393.658	90.56
393.882	93.56
394.107	81.56
394.331	76.56
394.556	79.56
394.78	105.56
395.005	100.56
395.229	83.56
395.454	98.56
395.678	102.56
395.903	99.56
396.127	102.56
396.352	103.56
396.576	80.56
396.801	83.56
397.025	95.56
397.249	91.56
397.474	94.56
397.698	87.56
397.922	85.56
398.147	96.56
398.371	89.56
398.595	87.56
398.82	99.56
399.044	85.56
399.268	102.56
399.492	73.56
399.717	96.56
399.941	93.56
400.165	101.56
400.389	90.56
400.613	90.56
400.837	80.56
401.062	77.56
401.286	89.56
401.51	98.56
401.734	101.56
401.958	119.56
402.182	119.56
402.406	140.56
402.63	116.56
402.854	97.56
403.078	84.56
403.302	80.56
403.526	101.56
403.75	91.56
403.974	93.56
404.198	89.56
404.422	93.56
404.645	91.56
404.869	81.56
405.093	90.56
405.317	85.56
405.541	90.56
405.765	88.56
405.988	125.56
406.212	159.56
406.436	203.56
406.66	123.56
406.883	106.56
407.107	103.56
407.331	97.56
407.555	103.56
407.778	87.56
408.002	108.56
408.226	91.56
408.449	90.56
408.673	101.56
408.896	99.56
409.12	90.56
409.344	86.56
409.567	92.56
409.791	113.56
410.014	107.56
410.238	92.56
410.461	92.56
410.685	96.56
410.908	106.56
411.132	118.56
411.355	103.56
411.578	100.56
411.802	90.56
412.025	86.56
412.249	92.56
412.472	84.56
412.695	100.56
412.919	88.56
413.142	82.56
413.365	96.56
413.589	90.56
413.812	84.56
414.035	100.56
414.258	76.56
414.482	94.56
414.705	95.56
414.928	104.56
415.151	99.56
415.374	86.56
415.597	90.56
415.821	92.56
416.044	91.56
416.267	92.56
416.49	87.56
416.713	99.56
416.936	83.56
417.159	99.56
417.382	99.56
417.605	92.56
417.828	101.56
418.051	107.56
418.274	87.56
418.497	85.56
418.72	81.56
418.943	82.56
419.166	81.56
419.389	89.56
419.611	90.56
419.834	87.56
420.057	80.56
420.28	97.56
420.503	88.56
420.726	86.56
420.948	92.56
421.171	88.56
421.394	85.56
421.617	99.56
421.839	112.56
422.062	93.56
422.285	111.56
422.507	96.56
422.73	91.56
422.953	79.56
423.175	93.56
423.398	91.56
423.621	99.56
423.843	89.56
424.066	92.56
424.288	94.56
424.511	95.56
424.733	97.56
424.956	91.56
425.178	95.56
425.401	104.56
425.623	97.56
425.846	96.56
426.068	96.56
426.291	87.56
426.513	87.56
426.735	89.56
426.958	109.56
427.18	112.56
427.402	129.56
427.625	159.56
427.847	109.56
428.069	94.56
428.292	82.56
428.514	95.56
428.736	100.56
428.958	75.56
429.181	95.56
429.403	79.56
429.625	86.56
429.847	84.56
430.069	87.56
430.292	90.56
430.514	95.56
430.736	81.56
430.958	102.56
431.18	92.56
431.402	84.56
431.624	90.56
431.846	88.56
432.068	70.56
432.29	81.56
432.512	92.56
432.734	80.56
432.956	74.56
433.178	98.56
433.4	112.56
433.622	99.56
433.844	87.56
434.066	103.56
434.287	89.56
434.509	92.56
434.731	91.56
434.953	75.56
435.175	79.56
435.397	83.56
435.618	88.56
435.84	100.56
436.062	109.56
436.284	113.56
436.505	94.56
436.727	95.56
436.949	113.56
437.17	103.56
437.392	96.56
437.614	95.56
437.835	111.56
438.057	107.56
438.278	98.56
438.5	100.56
438.721	122.56
438.943	99.56
439.165	83.56
439.386	83.56
439.608	103.56
439.829	107.56
440.05	104.56
440.272	139.56
440.493	108.56
440.715	83.56
440.936	98.56
441.158	96.56
441.379	98.56
441.6	84.56
441.822	87.56
442.043	84.56
442.264	108.56
442.486	97.56
442.707	96.56
442.928	92.56
443.149	121.56
443.371	114.56
443.592	107.56
443.813	106.56
444.034	91.56
444.255	90.56
444.476	100.56
444.698	72.56
444.919	83.56
445.14	109.56
445.361	117.56
445.582	113.56
445.803	115.56
446.024	135.56
446.245	131.56
446.466	111.56
446.687	106.56
446.908	96.56
447.129	96.56
447.35	82.56
447.571	100.56
447.792	91.56
448.013	89.56
448.234	93.56
448.455	95.56
448.675	114.56
448.896	113.56
449.117	102.56
449.338	98.56
449.559	123.56
449.779	125.56
450	85.56
450.221	86.56
450.442	98.56
450.662	92.56
450.883	97.56
451.104	111.56
451.324	99.56
451.545	96.56
451.766	92.56
451.986	87.56
452.207	83.56
452.428	91.56
452.648	96.56
452.869	106.56
453.089	121.56
453.31	108.56
453.53	87.56
453.751	86.56
453.971	91.56
454.192	96.56
454.412	82.56
454.633	85.56
454.853	109.56
455.073	83.56
455.294	80.56
455.514	109.56
455.734	92.56
455.955	103.56
456.175	83.56
456.395	69.56
456.616	91.56
456.836	97.56
457.056	97.56
457.276	80.56
457.497	81.56
457.717	83.56
457.937	89.56
458.157	73.56
458.377	99.56
458.598	116.56
458.818	135.56
459.038	132.56
459.258	112.56
459.478	84.56
459.698	83.56
459.918	84.56
460.138	73.56
460.358	91.56
460.578	97.56
460.798	100.56
461.018	86.56
461.238	72.56
461.458	88.56
461.678	85.56
461.898	94.56
462.118	88.56
462.338	103.56
462.558	86.56
462.777	98.56
462.997	83.56
463.217	79.56
463.437	76.56
463.657	91.56
463.876	100.56
464.096	105.56
464.316	92.56
464.536	100.56
464.755	97.56
464.975	93.56
465.195	153.56
465.414	138.56
465.634	82.56
465.854	91.56
466.073	74.56
466.293	93.56
466.512	90.56
466.732	93.56
466.951	87.56
467.171	101.56
467.391	93.56
467.61	99.56
467.829	93.56
468.049	99.56
468.268	83.56
468.488	83.56
468.707	101.56
468.927	88.56
469.146	74.56
469.365	99.56
469.585	88.56
469.804	96.56
470.023	89.56
470.243	91.56
470.462	95.56
470.681	105.56
470.901	89.56
471.12	86.56
471.339	98.56
471.558	93.56
471.777	95.56
471.997	88.56
472.216	94.56
472.435	102.56
472.654	91.56
472.873	82.56
473.092	100.56
473.311	87.56
473.53	83.56
473.749	78.56
473.968	79.56
474.187	98.56
474.406	100.56
474.625	92.56
474.844	103.56
475.063	89.56
475.282	95.56
475.501	88.56
475.72	99.56
475.939	91.56
476.158	80.56
476.377	76.56
476.596	93.56
476.814	99.56
477.033	88.56
477.252	100.56
477.471	92.56
477.69	92.56
477.908	90.56
478.127	95.56
478.346	85.56
478.564	99.56
478.783	88.56
479.002	101.56
479.22	84.56
479.439	96.56
479.658	100.56
479.876	82.56
480.095	94.56
480.313	90.56
480.532	99.56
480.751	103.56
480.969	104.56
481.188	124.56
481.406	99.56
481.624	101.56
481.843	99.56
482.061	86.56
482.28	90.56
482.498	89.56
482.717	84.56
482.935	77.56
483.153	97.56
483.372	88.56
483.59	87.56
483.808	89.56
484.027	88.56
484.245	93.56
484.463	92.56
484.681	104.56
484.9	89.56
485.118	103.56
485.336	96.56
485.554	86.56
485.772	92.56
485.99	110.56
486.209	93.56
486.427	112.56
486.645	97.56
486.863	101.56
487.081	103.56
487.299	83.56
487.517	95.56
487.735	107.56
487.953	103.56
488.171	105.56
488.389	109.56
488.607	112.56
488.825	83.56
489.043	73.56
489.261	82.56
489.479	79.56
489.696	76.56
489.914	93.56
490.132	91.56
490.35	88.56
490.568	93.56
490.786	82.56
491.003	85.56
491.221	83.56
491.439	100.56
491.657	83.56
491.874	83.56
492.092	92.56
492.31	101.56
492.527	96.56
492.745	92.56
492.963	85.56
493.18	87.56
493.398	100.56
493.615	94.56
493.833	112.56
494.05	90.56
494.268	97.56
494.485	91.56
494.703	76.56
494.92	93.56
495.138	106.56
495.355	71.56
495.573	83.56
495.79	93.56
496.008	93.56
496.225	78.56
496.442	81.56
496.66	91.56
496.877	85.56
497.094	101.56
497.312	93.56
497.529	90.56
497.746	96.56
497.963	87.56
498.181	88.56
498.398	84.56
498.615	102.56
498.832	93.56
499.049	97.56
499.267	103.56
499.484	105.56
499.701	91.56
499.918	97.56
500.135	79.56
500.352	96.56
500.569	90.56
500.786	101.56
501.003	91.56
501.22	90.56
501.437	86.56
501.654	93.56
501.871	91.56
502.088	80.56
502.305	95.56
502.522	101.56
502.739	89.56
502.956	89.56
503.172	101.56
503.389	104.56
503.606	113.56
503.823	105.56
504.04	82.56
504.256	88.56
504.473	94.56
504.69	92.56
504.907	100.56
505.123	89.56
505.34	102.56
505.557	92.56
505.773	100.56
505.99	99.56
506.207	103.56
506.423	88.56
506.64	99.56
506.856	101.56
507.073	104.56
507.289	96.56
507.506	100.56
507.722	102.56
507.939	102.56
508.155	95.56
508.372	86.56
508.588	82.56
508.805	87.56
509.021	98.56
509.238	105.56
509.454	100.56
509.67	114.56
509.887	120.56
510.103	116.56
510.319	217.56
510.536	675.56
510.752	2072.56
510.968	581.56
511.184	130.56
511.401	107.56
511.617	106.56
511.833	94.56
512.049	88.56
512.265	100.56
512.481	80.56
512.698	97.56
512.914	85.56
513.13	83.56
513.346	84.56
513.562	87.56
513.778	93.56
513.994	102.56
514.21	97.56
514.426	105.56
514.642	131.56
514.858	115.56
515.074	144.56
515.29	396.56
