Data from Uncirc_1987_H10_HRD10591_00023.txt Node
Date: Wed Jan 03 12:08:53 EST 2024
User: Yrep
Spectrometer: HR+D1059
Trigger mode: 1
Integration Time (sec): 1.000000E-1
Scans to average: 1
Electric dark correction enabled: true
Nonlinearity correction enabled: false
Boxcar width: 0
XAxis mode: Wavelengths
Number of Pixels in Spectrum: 2048
>>>>>Begin Spectral Data<<<<<
223.165	-9.69
223.4	-9.69
223.635	-9.69
223.869	-11.69
224.104	-18.69
224.338	-11.69
224.573	-18.69
224.808	-13.69
225.042	-9.69
225.277	-4.69
225.511	-2.69
225.746	-1.69
225.98	2.31
226.215	-0.69
226.449	10.31
226.683	28.31
226.918	25.31
227.152	37.31
227.387	52.31
227.621	50.31
227.856	45.31
228.09	41.31
228.324	43.31
228.559	58.31
228.793	61.31
229.027	53.31
229.262	67.31
229.496	65.31
229.73	67.31
229.964	81.31
230.199	78.31
230.433	84.31
230.667	83.31
230.901	74.31
231.136	70.31
231.37	94.31
231.604	62.31
231.838	68.31
232.072	86.31
232.306	82.31
232.541	80.31
232.775	78.31
233.009	93.31
233.243	77.31
233.477	81.31
233.711	68.31
233.945	87.31
234.179	93.31
234.413	72.31
234.647	76.31
234.881	80.31
235.115	81.31
235.349	82.31
235.583	76.31
235.817	74.31
236.051	80.31
236.285	76.31
236.519	67.31
236.753	86.31
236.987	90.31
237.221	84.31
237.455	84.31
237.689	78.31
237.922	68.31
238.156	80.31
238.39	72.31
238.624	85.31
238.858	82.31
239.091	74.31
239.325	82.31
239.559	92.31
239.793	91.31
240.027	80.31
240.26	79.31
240.494	70.31
240.728	80.31
240.961	76.31
241.195	86.31
241.429	88.31
241.662	73.31
241.896	73.31
242.13	60.31
242.363	79.31
242.597	68.31
242.83	80.31
243.064	74.31
243.298	79.31
243.531	90.31
243.765	81.31
243.998	101.31
244.232	85.31
244.465	83.31
244.699	72.31
244.932	88.31
245.166	69.31
245.399	79.31
245.633	76.31
245.866	65.31
246.099	80.31
246.333	89.31
246.566	74.31
246.8	78.31
247.033	76.31
247.266	76.31
247.5	74.31
247.733	92.31
247.966	68.31
248.2	83.31
248.433	77.31
248.666	92.31
248.899	71.31
249.133	73.31
249.366	82.31
249.599	86.31
249.832	80.31
250.066	87.31
250.299	82.31
250.532	76.31
250.765	82.31
250.998	89.31
251.231	89.31
251.465	71.31
251.698	69.31
251.931	82.31
252.164	77.31
252.397	85.31
252.63	82.31
252.863	77.31
253.096	92.31
253.329	93.31
253.562	74.31
253.795	78.31
254.028	72.31
254.261	90.31
254.494	78.31
254.727	80.31
254.96	78.31
255.193	83.31
255.426	83.31
255.659	69.31
255.892	92.31
256.124	76.31
256.357	74.31
256.59	69.31
256.823	81.31
257.056	93.31
257.289	76.31
257.521	82.31
257.754	86.31
257.987	85.31
258.22	78.31
258.452	77.31
258.685	81.31
258.918	96.31
259.151	62.31
259.383	77.31
259.616	77.31
259.849	71.31
260.081	88.31
260.314	98.31
260.547	80.31
260.779	71.31
261.012	76.31
261.244	84.31
261.477	90.31
261.71	87.31
261.942	96.31
262.175	102.31
262.407	93.31
262.64	66.31
262.872	61.31
263.105	74.31
263.337	91.31
263.57	66.31
263.802	76.31
264.035	84.31
264.267	79.31
264.499	92.31
264.732	80.31
264.964	76.31
265.197	79.31
265.429	78.31
265.661	82.31
265.894	90.31
266.126	93.31
266.358	78.31
266.591	88.31
266.823	79.31
267.055	93.31
267.287	67.31
267.52	78.31
267.752	93.31
267.984	82.31
268.216	84.31
268.448	90.31
268.681	97.31
268.913	83.31
269.145	98.31
269.377	84.31
269.609	79.31
269.841	81.31
270.073	71.31
270.306	88.31
270.538	80.31
270.77	74.31
271.002	77.31
271.234	66.31
271.466	85.31
271.698	80.31
271.93	94.31
272.162	80.31
272.394	83.31
272.626	82.31
272.858	78.31
273.09	85.31
273.322	85.31
273.553	87.31
273.785	86.31
274.017	92.31
274.249	74.31
274.481	72.31
274.713	87.31
274.945	85.31
275.176	82.31
275.408	83.31
275.64	91.31
275.872	84.31
276.104	95.31
276.335	75.31
276.567	84.31
276.799	97.31
277.031	97.31
277.262	82.31
277.494	96.31
277.726	88.31
277.957	81.31
278.189	87.31
278.421	71.31
278.652	93.31
278.884	96.31
279.115	78.31
279.347	93.31
279.579	71.31
279.81	94.31
280.042	78.31
280.273	83.31
280.505	81.31
280.736	96.31
280.968	73.31
281.199	78.31
281.431	87.31
281.662	82.31
281.894	86.31
282.125	108.31
282.356	118.31
282.588	120.31
282.819	93.31
283.051	94.31
283.282	96.31
283.513	90.31
283.745	86.31
283.976	78.31
284.207	93.31
284.439	85.31
284.67	83.31
284.901	89.31
285.132	76.31
285.364	64.31
285.595	97.31
285.826	93.31
286.057	85.31
286.288	89.31
286.52	92.31
286.751	82.31
286.982	86.31
287.213	90.31
287.444	88.31
287.675	96.31
287.906	93.31
288.138	82.31
288.369	96.31
288.6	98.31
288.831	86.31
289.062	96.31
289.293	102.31
289.524	72.31
289.755	84.31
289.986	82.31
290.217	90.31
290.448	88.31
290.679	80.31
290.91	79.31
291.141	69.31
291.371	86.31
291.602	77.31
291.833	88.31
292.064	98.31
292.295	97.31
292.526	87.31
292.757	88.31
292.987	85.31
293.218	85.31
293.449	87.31
293.68	78.31
293.91	97.31
294.141	88.31
294.372	97.31
294.603	93.31
294.833	87.31
295.064	85.31
295.295	96.31
295.525	99.31
295.756	103.31
295.987	104.31
296.217	121.31
296.448	108.31
296.679	89.31
296.909	83.31
297.14	88.31
297.37	85.31
297.601	97.31
297.831	88.31
298.062	97.31
298.292	80.31
298.523	89.31
298.753	94.31
298.984	82.31
299.214	92.31
299.445	85.31
299.675	73.31
299.905	85.31
300.136	84.31
300.366	88.31
300.597	87.31
300.827	75.31
301.057	82.31
301.288	87.31
301.518	93.31
301.748	78.31
301.979	107.31
302.209	84.31
302.439	87.31
302.669	89.31
302.9	93.31
303.13	94.31
303.36	72.31
303.59	89.31
303.82	92.31
304.051	100.31
304.281	86.31
304.511	82.31
304.741	94.31
304.971	82.31
305.201	81.31
305.431	85.31
305.661	74.31
305.891	94.31
306.121	78.31
306.352	101.31
306.582	112.31
306.812	88.31
307.042	91.31
307.272	84.31
307.502	73.31
307.731	92.31
307.961	90.31
308.191	82.31
308.421	93.31
308.651	90.31
308.881	85.31
309.111	89.31
309.341	89.31
309.571	97.31
309.8	78.31
310.03	93.31
310.26	95.31
310.49	89.31
310.72	94.31
310.949	99.31
311.179	84.31
311.409	97.31
311.639	83.31
311.868	105.31
312.098	93.31
312.328	92.31
312.557	97.31
312.787	96.31
313.017	88.31
313.246	89.31
313.476	96.31
313.706	84.31
313.935	93.31
314.165	94.31
314.394	83.31
314.624	94.31
314.853	84.31
315.083	93.31
315.312	98.31
315.542	103.31
315.771	91.31
316.001	107.31
316.23	90.31
316.46	93.31
316.689	96.31
316.919	93.31
317.148	88.31
317.377	92.31
317.607	97.31
317.836	104.31
318.065	78.31
318.295	95.31
318.524	87.31
318.753	81.31
318.983	80.31
319.212	81.31
319.441	99.31
319.67	101.31
319.9	99.31
320.129	96.31
320.358	87.31
320.587	92.31
320.816	89.31
321.046	104.31
321.275	90.31
321.504	83.31
321.733	83.31
321.962	110.31
322.191	102.31
322.42	100.31
322.649	111.31
322.878	100.31
323.108	97.31
323.337	113.31
323.566	102.31
323.795	127.31
324.024	186.31
324.253	324.31
324.482	662.31
324.71	1452.31
324.939	1904.31
325.168	673.31
325.397	214.31
325.626	143.31
325.855	120.31
326.084	110.31
326.313	135.31
326.542	141.31
326.77	212.31
326.999	414.31
327.228	796.31
327.457	1486.31
327.686	1160.31
327.914	316.31
328.143	162.31
328.372	127.31
328.6	121.31
328.829	101.31
329.058	135.31
329.287	113.31
329.515	108.31
329.744	91.31
329.972	90.31
330.201	111.31
330.43	99.31
330.658	113.31
330.887	126.31
331.115	118.31
331.344	89.31
331.572	116.31
331.801	100.31
332.03	99.31
332.258	82.31
332.486	96.31
332.715	92.31
332.943	96.31
333.172	94.31
333.4	93.31
333.629	94.31
333.857	106.31
334.085	88.31
334.314	97.31
334.542	89.31
334.771	92.31
334.999	92.31
335.227	98.31
335.455	84.31
335.684	101.31
335.912	86.31
336.14	98.31
336.369	102.31
336.597	85.31
336.825	86.31
337.053	76.31
337.281	82.31
337.51	97.31
337.738	85.31
337.966	88.31
338.194	76.31
338.422	89.31
338.65	93.31
338.878	92.31
339.106	86.31
339.334	85.31
339.562	82.31
339.79	88.31
340.018	94.31
340.246	78.31
340.474	84.31
340.702	86.31
340.93	76.31
341.158	101.31
341.386	108.31
341.614	99.31
341.842	92.31
342.07	81.31
342.298	92.31
342.526	85.31
342.754	101.31
342.981	89.31
343.209	82.31
343.437	101.31
343.665	86.31
343.893	83.31
344.12	95.31
344.348	84.31
344.576	86.31
344.804	82.31
345.031	97.31
345.259	95.31
345.487	92.31
345.714	88.31
345.942	84.31
346.17	85.31
346.397	100.31
346.625	82.31
346.853	94.31
347.08	86.31
347.308	90.31
347.535	106.31
347.763	111.31
347.99	89.31
348.218	92.31
348.445	101.31
348.673	101.31
348.9	94.31
349.128	88.31
349.355	98.31
349.583	98.31
349.81	83.31
350.037	100.31
350.265	79.31
350.492	85.31
350.72	102.31
350.947	87.31
351.174	106.31
351.402	111.31
351.629	100.31
351.856	97.31
352.083	99.31
352.311	102.31
352.538	97.31
352.765	111.31
352.992	106.31
353.22	98.31
353.447	89.31
353.674	109.31
353.901	88.31
354.128	94.31
354.355	90.31
354.583	88.31
354.81	88.31
355.037	100.31
355.264	72.31
355.491	94.31
355.718	87.31
355.945	99.31
356.172	99.31
356.399	98.31
356.626	88.31
356.853	76.31
357.08	88.31
357.307	87.31
357.534	97.31
357.761	85.31
357.988	92.31
358.215	80.31
358.441	91.31
358.668	92.31
358.895	96.31
359.122	80.31
359.349	85.31
359.576	94.31
359.802	100.31
360.029	108.31
360.256	97.31
360.483	98.31
360.709	90.31
360.936	94.31
361.163	94.31
361.39	92.31
361.616	92.31
361.843	86.31
362.07	86.31
362.296	91.31
362.523	86.31
362.749	85.31
362.976	73.31
363.203	93.31
363.429	77.31
363.656	89.31
363.882	93.31
364.109	90.31
364.335	95.31
364.562	93.31
364.788	94.31
365.015	106.31
365.241	99.31
365.468	94.31
365.694	83.31
365.92	90.31
366.147	96.31
366.373	83.31
366.599	88.31
366.826	87.31
367.052	94.31
367.278	90.31
367.505	86.31
367.731	95.31
367.957	86.31
368.184	84.31
368.41	93.31
368.636	100.31
368.862	109.31
369.089	104.31
369.315	99.31
369.541	96.31
369.767	88.31
369.993	78.31
370.219	102.31
370.445	83.31
370.672	92.31
370.898	91.31
371.124	85.31
371.35	82.31
371.576	81.31
371.802	90.31
372.028	77.31
372.254	79.31
372.48	89.31
372.706	93.31
372.932	88.31
373.158	98.31
373.384	84.31
373.61	79.31
373.835	91.31
374.061	87.31
374.287	79.31
374.513	91.31
374.739	98.31
374.965	94.31
375.191	83.31
375.416	100.31
375.642	90.31
375.868	88.31
376.094	89.31
376.319	90.31
376.545	87.31
376.771	88.31
376.997	80.31
377.222	82.31
377.448	100.31
377.674	95.31
377.899	93.31
378.125	76.31
378.35	92.31
378.576	88.31
378.802	94.31
379.027	90.31
379.253	93.31
379.478	90.31
379.704	111.31
379.929	99.31
380.155	89.31
380.38	88.31
380.606	95.31
380.831	89.31
381.057	88.31
381.282	86.31
381.507	88.31
381.733	85.31
381.958	89.31
382.184	88.31
382.409	85.31
382.634	98.31
382.86	102.31
383.085	103.31
383.31	98.31
383.535	94.31
383.761	80.31
383.986	105.31
384.211	80.31
384.436	80.31
384.662	95.31
384.887	89.31
385.112	104.31
385.337	103.31
385.562	88.31
385.787	97.31
386.013	107.31
386.238	122.31
386.463	93.31
386.688	88.31
386.913	96.31
387.138	82.31
387.363	94.31
387.588	93.31
387.813	96.31
388.038	109.31
388.263	106.31
388.488	109.31
388.713	99.31
388.938	77.31
389.163	92.31
389.387	92.31
389.612	94.31
389.837	85.31
390.062	89.31
390.287	91.31
390.512	90.31
390.736	78.31
390.961	81.31
391.186	109.31
391.411	94.31
391.636	83.31
391.86	85.31
392.085	69.31
392.31	71.31
392.534	79.31
392.759	95.31
392.984	88.31
393.208	88.31
393.433	89.31
393.658	95.31
393.882	83.31
394.107	81.31
394.331	81.31
394.556	84.31
394.78	81.31
395.005	89.31
395.229	72.31
395.454	69.31
395.678	72.31
395.903	85.31
396.127	86.31
396.352	92.31
396.576	70.31
396.801	92.31
397.025	84.31
397.249	89.31
397.474	84.31
397.698	94.31
397.922	90.31
398.147	84.31
398.371	92.31
398.595	88.31
398.82	83.31
399.044	92.31
399.268	84.31
399.492	86.31
399.717	89.31
399.941	87.31
400.165	85.31
400.389	88.31
400.613	93.31
400.837	75.31
401.062	81.31
401.286	89.31
401.51	88.31
401.734	72.31
401.958	93.31
402.182	113.31
402.406	158.31
402.63	121.31
402.854	98.31
403.078	91.31
403.302	84.31
403.526	77.31
403.75	104.31
403.974	99.31
404.198	96.31
404.422	74.31
404.645	78.31
404.869	70.31
405.093	95.31
405.317	93.31
405.541	83.31
405.765	102.31
405.988	113.31
406.212	135.31
406.436	205.31
406.66	114.31
406.883	100.31
407.107	92.31
407.331	88.31
407.555	86.31
407.778	73.31
408.002	80.31
408.226	90.31
408.449	84.31
408.673	96.31
408.896	96.31
409.12	99.31
409.344	93.31
409.567	71.31
409.791	91.31
410.014	100.31
410.238	80.31
410.461	92.31
410.685	107.31
410.908	93.31
411.132	88.31
411.355	93.31
411.578	88.31
411.802	94.31
412.025	95.31
412.249	92.31
412.472	88.31
412.695	90.31
412.919	88.31
413.142	82.31
413.365	92.31
413.589	80.31
413.812	75.31
414.035	90.31
414.258	103.31
414.482	100.31
414.705	102.31
414.928	105.31
415.151	96.31
415.374	90.31
415.597	86.31
415.821	87.31
416.044	85.31
416.267	95.31
416.49	88.31
416.713	91.31
416.936	93.31
417.159	93.31
417.382	96.31
417.605	85.31
417.828	91.31
418.051	88.31
418.274	100.31
418.497	81.31
418.72	88.31
418.943	87.31
419.166	73.31
419.389	84.31
419.611	103.31
419.834	69.31
420.057	99.31
420.28	94.31
420.503	96.31
420.726	90.31
420.948	80.31
421.171	85.31
421.394	89.31
421.617	80.31
421.839	82.31
422.062	86.31
422.285	91.31
422.507	107.31
422.73	106.31
422.953	97.31
423.175	74.31
423.398	86.31
423.621	78.31
423.843	98.31
424.066	93.31
424.288	91.31
424.511	91.31
424.733	94.31
424.956	112.31
425.178	89.31
425.401	99.31
425.623	94.31
425.846	95.31
426.068	88.31
426.291	100.31
426.513	86.31
426.735	79.31
426.958	100.31
427.18	100.31
427.402	124.31
427.625	144.31
427.847	103.31
428.069	94.31
428.292	84.31
428.514	87.31
428.736	86.31
428.958	73.31
429.181	80.31
429.403	82.31
429.625	96.31
429.847	73.31
430.069	68.31
430.292	74.31
430.514	76.31
430.736	74.31
430.958	84.31
431.18	88.31
431.402	80.31
431.624	85.31
431.846	85.31
432.068	80.31
432.29	96.31
432.512	78.31
432.734	87.31
432.956	104.31
433.178	103.31
433.4	97.31
433.622	82.31
433.844	83.31
434.066	82.31
434.287	94.31
434.509	80.31
434.731	86.31
434.953	93.31
435.175	83.31
435.397	91.31
435.618	94.31
435.84	88.31
436.062	104.31
436.284	119.31
436.505	100.31
436.727	81.31
436.949	88.31
437.17	80.31
437.392	86.31
437.614	68.31
437.835	89.31
438.057	120.31
438.278	105.31
438.5	90.31
438.721	120.31
438.943	105.31
439.165	83.31
439.386	89.31
439.608	88.31
439.829	85.31
440.05	114.31
440.272	120.31
440.493	108.31
440.715	88.31
440.936	72.31
441.158	83.31
441.379	84.31
441.6	98.31
441.822	78.31
442.043	92.31
442.264	95.31
442.486	101.31
442.707	94.31
442.928	83.31
443.149	121.31
443.371	121.31
443.592	97.31
443.813	103.31
444.034	97.31
444.255	95.31
444.476	80.31
444.698	86.31
444.919	85.31
445.14	101.31
445.361	117.31
445.582	116.31
445.803	123.31
446.024	125.31
446.245	111.31
446.466	105.31
446.687	85.31
446.908	96.31
447.129	80.31
447.35	89.31
447.571	88.31
447.792	93.31
448.013	113.31
448.234	110.31
448.455	85.31
448.675	97.31
448.896	116.31
449.117	97.31
449.338	97.31
449.559	126.31
449.779	131.31
450	90.31
450.221	90.31
450.442	77.31
450.662	101.31
450.883	82.31
451.104	112.31
451.324	96.31
451.545	85.31
451.766	88.31
451.986	81.31
452.207	88.31
452.428	83.31
452.648	103.31
452.869	103.31
453.089	100.31
453.31	92.31
453.53	90.31
453.751	82.31
453.971	86.31
454.192	105.31
454.412	87.31
454.633	84.31
454.853	75.31
455.073	91.31
455.294	77.31
455.514	104.31
455.734	98.31
455.955	82.31
456.175	71.31
456.395	92.31
456.616	81.31
456.836	79.31
457.056	102.31
457.276	92.31
457.497	81.31
457.717	88.31
457.937	88.31
458.157	77.31
458.377	82.31
458.598	113.31
458.818	141.31
459.038	150.31
459.258	108.31
459.478	99.31
459.698	80.31
459.918	88.31
460.138	82.31
460.358	72.31
460.578	84.31
460.798	76.31
461.018	91.31
461.238	83.31
461.458	97.31
461.678	94.31
461.898	87.31
462.118	83.31
462.338	93.31
462.558	88.31
462.777	85.31
462.997	76.31
463.217	80.31
463.437	73.31
463.657	82.31
463.876	82.31
464.096	95.31
464.316	85.31
464.536	88.31
464.755	84.31
464.975	97.31
465.195	145.31
465.414	125.31
465.634	83.31
465.854	98.31
466.073	96.31
466.293	91.31
466.512	106.31
466.732	76.31
466.951	88.31
467.171	93.31
467.391	92.31
467.61	99.31
467.829	88.31
468.049	84.31
468.268	85.31
468.488	95.31
468.707	92.31
468.927	86.31
469.146	84.31
469.365	76.31
469.585	96.31
469.804	77.31
470.023	92.31
470.243	96.31
470.462	102.31
470.681	106.31
470.901	89.31
471.12	92.31
471.339	94.31
471.558	63.31
471.777	88.31
471.997	78.31
472.216	105.31
472.435	102.31
472.654	100.31
472.873	96.31
473.092	79.31
473.311	81.31
473.53	90.31
473.749	79.31
473.968	89.31
474.187	85.31
474.406	106.31
474.625	93.31
474.844	92.31
475.063	82.31
475.282	82.31
475.501	84.31
475.72	88.31
475.939	81.31
476.158	92.31
476.377	86.31
476.596	88.31
476.814	90.31
477.033	72.31
477.252	87.31
477.471	82.31
477.69	92.31
477.908	88.31
478.127	95.31
478.346	94.31
478.564	88.31
478.783	93.31
479.002	103.31
479.22	94.31
479.439	93.31
479.658	111.31
479.876	90.31
480.095	95.31
480.313	91.31
480.532	81.31
480.751	82.31
480.969	100.31
481.188	112.31
481.406	92.31
481.624	88.31
481.843	89.31
482.061	100.31
482.28	101.31
482.498	87.31
482.717	79.31
482.935	88.31
483.153	89.31
483.372	87.31
483.59	105.31
483.808	85.31
484.027	87.31
484.245	103.31
484.463	81.31
484.681	84.31
484.9	88.31
485.118	86.31
485.336	95.31
485.554	112.31
485.772	103.31
485.99	101.31
486.209	103.31
486.427	85.31
486.645	93.31
486.863	88.31
487.081	95.31
487.299	86.31
487.517	84.31
487.735	92.31
487.953	93.31
488.171	100.31
488.389	92.31
488.607	95.31
488.825	85.31
489.043	88.31
489.261	97.31
489.479	102.31
489.696	93.31
489.914	77.31
490.132	74.31
490.35	100.31
490.568	82.31
490.786	80.31
491.003	92.31
491.221	98.31
491.439	87.31
491.657	96.31
491.874	103.31
492.092	90.31
492.31	87.31
492.527	77.31
492.745	86.31
492.963	97.31
493.18	89.31
493.398	93.31
493.615	100.31
493.833	92.31
494.05	70.31
494.268	86.31
494.485	104.31
494.703	85.31
494.92	84.31
495.138	95.31
495.355	83.31
495.573	98.31
495.79	90.31
496.008	81.31
496.225	105.31
496.442	82.31
496.66	76.31
496.877	87.31
497.094	98.31
497.312	87.31
497.529	99.31
497.746	100.31
497.963	63.31
498.181	93.31
498.398	99.31
498.615	99.31
498.832	85.31
499.049	85.31
499.267	84.31
499.484	78.31
499.701	100.31
499.918	101.31
500.135	86.31
500.352	99.31
500.569	102.31
500.786	94.31
501.003	103.31
501.22	94.31
501.437	90.31
501.654	93.31
501.871	102.31
502.088	94.31
502.305	101.31
502.522	89.31
502.739	92.31
502.956	92.31
503.172	99.31
503.389	104.31
503.606	104.31
503.823	90.31
504.04	110.31
504.256	100.31
504.473	82.31
504.69	88.31
504.907	87.31
505.123	84.31
505.34	84.31
505.557	82.31
505.773	95.31
505.99	87.31
506.207	90.31
506.423	84.31
506.64	85.31
506.856	94.31
507.073	84.31
507.289	80.31
507.506	87.31
507.722	106.31
507.939	90.31
508.155	92.31
508.372	96.31
508.588	101.31
508.805	93.31
509.021	102.31
509.238	90.31
509.454	102.31
509.67	100.31
509.887	100.31
510.103	117.31
510.319	187.31
510.536	644.31
510.752	2001.31
510.968	550.31
511.184	152.31
511.401	115.31
511.617	89.31
511.833	94.31
512.049	96.31
512.265	87.31
512.481	96.31
512.698	94.31
512.914	102.31
513.13	97.31
513.346	95.31
513.562	91.31
513.778	80.31
513.994	94.31
514.21	101.31
514.426	119.31
514.642	132.31
514.858	117.31
515.074	144.31
515.29	368.31
515.506	1218.31
515.721	445.31
515.937	142.31
516.153	96.31
516.369	112.31
516.585	89.31
516.801	85.31
