Data from Uncirc_1987_H10_HRD10591_00072.txt Node
Date: Wed Jan 03 12:09:02 EST 2024
User: Yrep
Spectrometer: HR+D1059
Trigger mode: 1
Integration Time (sec): 1.000000E-1
Scans to average: 1
Electric dark correction enabled: true
Nonlinearity correction enabled: false
Boxcar width: 0
XAxis mode: Wavelengths
Number of Pixels in Spectrum: 2048
>>>>>Begin Spectral Data<<<<<
223.165	-9.81
223.4	-9.81
223.635	-9.81
223.869	-7.81
224.104	-11.81
224.338	-13.81
224.573	-15.81
224.808	-21.81
225.042	-9.81
225.277	-7.81
225.511	-0.81
225.746	7.19
225.98	3.19
226.215	17.19
226.449	7.19
226.683	18.19
226.918	19.19
227.152	27.19
227.387	38.19
227.621	34.19
227.856	43.19
228.09	40.19
228.324	54.19
228.559	56.19
228.793	41.19
229.027	73.19
229.262	79.19
229.496	76.19
229.73	75.19
229.964	71.19
230.199	88.19
230.433	78.19
230.667	75.19
230.901	86.19
231.136	68.19
231.37	81.19
231.604	90.19
231.838	86.19
232.072	84.19
232.306	71.19
232.541	86.19
232.775	71.19
233.009	82.19
233.243	80.19
233.477	82.19
233.711	81.19
233.945	85.19
234.179	87.19
234.413	83.19
234.647	78.19
234.881	92.19
235.115	88.19
235.349	72.19
235.583	83.19
235.817	82.19
236.051	76.19
236.285	80.19
236.519	84.19
236.753	83.19
236.987	79.19
237.221	87.19
237.455	78.19
237.689	69.19
237.922	73.19
238.156	58.19
238.39	90.19
238.624	85.19
238.858	89.19
239.091	71.19
239.325	86.19
239.559	86.19
239.793	88.19
240.027	70.19
240.26	68.19
240.494	82.19
240.728	81.19
240.961	80.19
241.195	83.19
241.429	80.19
241.662	88.19
241.896	84.19
242.13	82.19
242.363	71.19
242.597	68.19
242.83	80.19
243.064	90.19
243.298	73.19
243.531	85.19
243.765	76.19
243.998	73.19
244.232	71.19
244.465	94.19
244.699	86.19
244.932	80.19
245.166	72.19
245.399	74.19
245.633	78.19
245.866	72.19
246.099	90.19
246.333	80.19
246.566	91.19
246.8	65.19
247.033	80.19
247.266	76.19
247.5	97.19
247.733	84.19
247.966	80.19
248.2	80.19
248.433	76.19
248.666	70.19
248.899	82.19
249.133	83.19
249.366	81.19
249.599	98.19
249.832	77.19
250.066	75.19
250.299	70.19
250.532	83.19
250.765	78.19
250.998	67.19
251.231	71.19
251.465	81.19
251.698	85.19
251.931	78.19
252.164	75.19
252.397	82.19
252.63	72.19
252.863	84.19
253.096	78.19
253.329	75.19
253.562	74.19
253.795	77.19
254.028	87.19
254.261	83.19
254.494	91.19
254.727	79.19
254.96	91.19
255.193	72.19
255.426	71.19
255.659	74.19
255.892	90.19
256.124	101.19
256.357	82.19
256.59	84.19
256.823	80.19
257.056	90.19
257.289	79.19
257.521	89.19
257.754	71.19
257.987	79.19
258.22	94.19
258.452	78.19
258.685	83.19
258.918	75.19
259.151	83.19
259.383	81.19
259.616	89.19
259.849	67.19
260.081	95.19
260.314	83.19
260.547	71.19
260.779	85.19
261.012	78.19
261.244	91.19
261.477	100.19
261.71	92.19
261.942	100.19
262.175	100.19
262.407	86.19
262.64	90.19
262.872	86.19
263.105	73.19
263.337	90.19
263.57	90.19
263.802	96.19
264.035	83.19
264.267	100.19
264.499	75.19
264.732	87.19
264.964	82.19
265.197	93.19
265.429	98.19
265.661	90.19
265.894	91.19
266.126	88.19
266.358	78.19
266.591	79.19
266.823	93.19
267.055	90.19
267.287	96.19
267.52	95.19
267.752	84.19
267.984	97.19
268.216	80.19
268.448	82.19
268.681	91.19
268.913	81.19
269.145	88.19
269.377	73.19
269.609	72.19
269.841	89.19
270.073	93.19
270.306	90.19
270.538	92.19
270.77	87.19
271.002	94.19
271.234	82.19
271.466	85.19
271.698	87.19
271.93	89.19
272.162	88.19
272.394	89.19
272.626	72.19
272.858	88.19
273.09	82.19
273.322	100.19
273.553	68.19
273.785	65.19
274.017	80.19
274.249	91.19
274.481	94.19
274.713	91.19
274.945	80.19
275.176	91.19
275.408	92.19
275.64	74.19
275.872	91.19
276.104	87.19
276.335	86.19
276.567	85.19
276.799	133.19
277.031	95.19
277.262	91.19
277.494	91.19
277.726	64.19
277.957	82.19
278.189	84.19
278.421	83.19
278.652	83.19
278.884	64.19
279.115	82.19
279.347	81.19
279.579	81.19
279.81	90.19
280.042	79.19
280.273	86.19
280.505	90.19
280.736	88.19
280.968	87.19
281.199	75.19
281.431	97.19
281.662	78.19
281.894	79.19
282.125	99.19
282.356	123.19
282.588	135.19
282.819	115.19
283.051	91.19
283.282	95.19
283.513	96.19
283.745	88.19
283.976	83.19
284.207	76.19
284.439	89.19
284.67	88.19
284.901	75.19
285.132	88.19
285.364	84.19
285.595	87.19
285.826	86.19
286.057	111.19
286.288	81.19
286.52	89.19
286.751	101.19
286.982	86.19
287.213	87.19
287.444	91.19
287.675	91.19
287.906	76.19
288.138	95.19
288.369	99.19
288.6	90.19
288.831	115.19
289.062	94.19
289.293	95.19
289.524	87.19
289.755	86.19
289.986	82.19
290.217	78.19
290.448	86.19
290.679	100.19
290.91	84.19
291.141	79.19
291.371	98.19
291.602	84.19
291.833	92.19
292.064	97.19
292.295	87.19
292.526	93.19
292.757	94.19
292.987	92.19
293.218	84.19
293.449	95.19
293.68	80.19
293.91	70.19
294.141	85.19
294.372	96.19
294.603	97.19
294.833	79.19
295.064	87.19
295.295	88.19
295.525	91.19
295.756	101.19
295.987	106.19
296.217	149.19
296.448	113.19
296.679	104.19
296.909	92.19
297.14	106.19
297.37	90.19
297.601	93.19
297.831	98.19
298.062	78.19
298.292	78.19
298.523	100.19
298.753	99.19
298.984	81.19
299.214	90.19
299.445	104.19
299.675	82.19
299.905	91.19
300.136	84.19
300.366	90.19
300.597	96.19
300.827	94.19
301.057	100.19
301.288	101.19
301.518	91.19
301.748	94.19
301.979	105.19
302.209	82.19
302.439	99.19
302.669	101.19
302.9	86.19
303.13	96.19
303.36	102.19
303.59	91.19
303.82	113.19
304.051	94.19
304.281	99.19
304.511	105.19
304.741	89.19
304.971	92.19
305.201	97.19
305.431	98.19
305.661	86.19
305.891	83.19
306.121	97.19
306.352	95.19
306.582	103.19
306.812	92.19
307.042	102.19
307.272	91.19
307.502	95.19
307.731	96.19
307.961	74.19
308.191	97.19
308.421	90.19
308.651	95.19
308.881	96.19
309.111	102.19
309.341	103.19
309.571	106.19
309.8	97.19
310.03	100.19
310.26	108.19
310.49	94.19
310.72	84.19
310.949	99.19
311.179	87.19
311.409	87.19
311.639	100.19
311.868	107.19
312.098	100.19
312.328	94.19
312.557	107.19
312.787	94.19
313.017	115.19
313.246	87.19
313.476	89.19
313.706	82.19
313.935	87.19
314.165	103.19
314.394	103.19
314.624	89.19
314.853	107.19
315.083	102.19
315.312	101.19
315.542	88.19
315.771	86.19
316.001	98.19
316.23	101.19
316.46	82.19
316.689	95.19
316.919	104.19
317.148	99.19
317.377	85.19
317.607	83.19
317.836	98.19
318.065	91.19
318.295	87.19
318.524	73.19
318.753	79.19
318.983	113.19
319.212	104.19
319.441	109.19
319.67	105.19
319.9	108.19
320.129	86.19
320.358	96.19
320.587	113.19
320.816	102.19
321.046	106.19
321.275	96.19
321.504	108.19
321.733	92.19
321.962	105.19
322.191	104.19
322.42	112.19
322.649	110.19
322.878	116.19
323.108	133.19
323.337	128.19
323.566	114.19
323.795	138.19
324.024	199.19
324.253	357.19
324.482	783.19
324.71	1642.19
324.939	2183.19
325.168	798.19
325.397	241.19
325.626	139.19
325.855	131.19
326.084	123.19
326.313	136.19
326.542	130.19
326.77	211.19
326.999	440.19
327.228	929.19
327.457	1684.19
327.686	1362.19
327.914	379.19
328.143	190.19
328.372	144.19
328.6	118.19
328.829	120.19
329.058	131.19
329.287	127.19
329.515	102.19
329.744	91.19
329.972	110.19
330.201	108.19
330.43	110.19
330.658	120.19
330.887	135.19
331.115	125.19
331.344	113.19
331.572	107.19
331.801	96.19
332.03	104.19
332.258	99.19
332.486	98.19
332.715	102.19
332.943	90.19
333.172	89.19
333.4	100.19
333.629	98.19
333.857	105.19
334.085	113.19
334.314	94.19
334.542	108.19
334.771	121.19
334.999	102.19
335.227	96.19
335.455	100.19
335.684	98.19
335.912	96.19
336.14	104.19
336.369	82.19
336.597	101.19
336.825	87.19
337.053	86.19
337.281	102.19
337.51	103.19
337.738	99.19
337.966	94.19
338.194	92.19
338.422	104.19
338.65	99.19
338.878	94.19
339.106	97.19
339.334	80.19
339.562	97.19
339.79	90.19
340.018	85.19
340.246	91.19
340.474	86.19
340.702	92.19
340.93	92.19
341.158	94.19
341.386	104.19
341.614	105.19
341.842	94.19
342.07	90.19
342.298	95.19
342.526	88.19
342.754	89.19
342.981	90.19
343.209	91.19
343.437	95.19
343.665	102.19
343.893	103.19
344.12	101.19
344.348	87.19
344.576	78.19
344.804	90.19
345.031	104.19
345.259	95.19
345.487	92.19
345.714	93.19
345.942	88.19
346.17	101.19
346.397	93.19
346.625	90.19
346.853	107.19
347.08	96.19
347.308	86.19
347.535	90.19
347.763	113.19
347.99	108.19
348.218	107.19
348.445	106.19
348.673	99.19
348.9	102.19
349.128	88.19
349.355	92.19
349.583	96.19
349.81	103.19
350.037	97.19
350.265	95.19
350.492	96.19
350.72	92.19
350.947	110.19
351.174	98.19
351.402	108.19
351.629	103.19
351.856	105.19
352.083	108.19
352.311	105.19
352.538	105.19
352.765	125.19
352.992	113.19
353.22	111.19
353.447	111.19
353.674	105.19
353.901	87.19
354.128	108.19
354.355	91.19
354.583	116.19
354.81	104.19
355.037	95.19
355.264	99.19
355.491	92.19
355.718	92.19
355.945	101.19
356.172	106.19
356.399	97.19
356.626	90.19
356.853	99.19
357.08	75.19
357.307	86.19
357.534	89.19
357.761	111.19
357.988	84.19
358.215	91.19
358.441	91.19
358.668	100.19
358.895	85.19
359.122	94.19
359.349	104.19
359.576	98.19
359.802	112.19
360.029	104.19
360.256	106.19
360.483	109.19
360.709	89.19
360.936	81.19
361.163	89.19
361.39	90.19
361.616	86.19
361.843	92.19
362.07	95.19
362.296	68.19
362.523	80.19
362.749	90.19
362.976	83.19
363.203	99.19
363.429	84.19
363.656	99.19
363.882	100.19
364.109	96.19
364.335	89.19
364.562	89.19
364.788	84.19
365.015	100.19
365.241	94.19
365.468	102.19
365.694	99.19
365.92	89.19
366.147	98.19
366.373	82.19
366.599	96.19
366.826	84.19
367.052	97.19
367.278	84.19
367.505	101.19
367.731	98.19
367.957	86.19
368.184	98.19
368.41	112.19
368.636	103.19
368.862	105.19
369.089	113.19
369.315	105.19
369.541	82.19
369.767	92.19
369.993	103.19
370.219	75.19
370.445	85.19
370.672	78.19
370.898	92.19
371.124	99.19
371.35	88.19
371.576	95.19
371.802	89.19
372.028	89.19
372.254	79.19
372.48	94.19
372.706	88.19
372.932	85.19
373.158	106.19
373.384	102.19
373.61	92.19
373.835	97.19
374.061	92.19
374.287	100.19
374.513	98.19
374.739	83.19
374.965	89.19
375.191	91.19
375.416	86.19
375.642	84.19
375.868	102.19
376.094	104.19
376.319	91.19
376.545	86.19
376.771	97.19
376.997	76.19
377.222	88.19
377.448	95.19
377.674	90.19
377.899	86.19
378.125	95.19
378.35	80.19
378.576	86.19
378.802	88.19
379.027	105.19
379.253	90.19
379.478	90.19
379.704	95.19
379.929	94.19
380.155	86.19
380.38	84.19
380.606	101.19
380.831	105.19
381.057	92.19
381.282	94.19
381.507	102.19
381.733	108.19
381.958	91.19
382.184	101.19
382.409	102.19
382.634	98.19
382.86	93.19
383.085	93.19
383.31	87.19
383.535	104.19
383.761	95.19
383.986	102.19
384.211	94.19
384.436	78.19
384.662	94.19
384.887	91.19
385.112	91.19
385.337	114.19
385.562	100.19
385.787	98.19
386.013	106.19
386.238	110.19
386.463	100.19
386.688	106.19
386.913	103.19
387.138	104.19
387.363	88.19
387.588	103.19
387.813	101.19
388.038	112.19
388.263	94.19
388.488	100.19
388.713	106.19
388.938	85.19
389.163	112.19
389.387	89.19
389.612	83.19
389.837	86.19
390.062	98.19
390.287	86.19
390.512	88.19
390.736	87.19
390.961	92.19
391.186	98.19
391.411	92.19
391.636	95.19
391.86	73.19
392.085	69.19
392.31	81.19
392.534	87.19
392.759	89.19
392.984	90.19
393.208	93.19
393.433	86.19
393.658	96.19
393.882	95.19
394.107	77.19
394.331	90.19
394.556	91.19
394.78	92.19
395.005	95.19
395.229	84.19
395.454	66.19
395.678	86.19
395.903	104.19
396.127	96.19
396.352	87.19
396.576	92.19
396.801	87.19
397.025	86.19
397.249	98.19
397.474	85.19
397.698	95.19
397.922	79.19
398.147	81.19
398.371	86.19
398.595	79.19
398.82	102.19
399.044	87.19
399.268	83.19
399.492	94.19
399.717	98.19
399.941	83.19
400.165	84.19
400.389	102.19
400.613	99.19
400.837	88.19
401.062	97.19
401.286	91.19
401.51	98.19
401.734	99.19
401.958	81.19
402.182	118.19
402.406	164.19
402.63	114.19
402.854	97.19
403.078	88.19
403.302	87.19
403.526	90.19
403.75	94.19
403.974	88.19
404.198	87.19
404.422	91.19
404.645	99.19
404.869	99.19
405.093	90.19
405.317	86.19
405.541	95.19
405.765	98.19
405.988	109.19
406.212	164.19
406.436	218.19
406.66	135.19
406.883	102.19
407.107	90.19
407.331	88.19
407.555	80.19
407.778	93.19
408.002	98.19
408.226	78.19
408.449	78.19
408.673	83.19
408.896	94.19
409.12	95.19
409.344	98.19
409.567	95.19
409.791	97.19
410.014	88.19
410.238	94.19
410.461	97.19
410.685	100.19
410.908	99.19
411.132	96.19
411.355	95.19
411.578	94.19
411.802	91.19
412.025	92.19
412.249	89.19
412.472	87.19
412.695	97.19
412.919	102.19
413.142	99.19
413.365	79.19
413.589	105.19
413.812	88.19
414.035	92.19
414.258	90.19
414.482	88.19
414.705	96.19
414.928	89.19
415.151	88.19
415.374	91.19
415.597	91.19
415.821	85.19
416.044	82.19
416.267	82.19
416.49	86.19
416.713	92.19
416.936	95.19
417.159	92.19
417.382	88.19
417.605	86.19
417.828	90.19
418.051	88.19
418.274	82.19
418.497	89.19
418.72	96.19
418.943	79.19
419.166	89.19
419.389	78.19
419.611	95.19
419.834	84.19
420.057	82.19
420.28	79.19
420.503	82.19
420.726	100.19
420.948	95.19
421.171	84.19
421.394	93.19
421.617	92.19
421.839	90.19
422.062	87.19
422.285	96.19
422.507	95.19
422.73	94.19
422.953	94.19
423.175	94.19
423.398	96.19
423.621	101.19
423.843	74.19
424.066	67.19
424.288	92.19
424.511	101.19
424.733	97.19
424.956	106.19
425.178	92.19
425.401	106.19
425.623	99.19
425.846	86.19
426.068	82.19
426.291	96.19
426.513	97.19
426.735	86.19
426.958	99.19
427.18	94.19
427.402	137.19
427.625	165.19
427.847	133.19
428.069	96.19
428.292	94.19
428.514	88.19
428.736	98.19
428.958	84.19
429.181	91.19
429.403	94.19
429.625	93.19
429.847	103.19
430.069	102.19
430.292	104.19
430.514	94.19
430.736	92.19
430.958	100.19
431.18	92.19
431.402	86.19
431.624	87.19
431.846	85.19
432.068	92.19
432.29	82.19
432.512	95.19
432.734	76.19
432.956	91.19
433.178	107.19
433.4	112.19
433.622	95.19
433.844	92.19
434.066	100.19
434.287	82.19
434.509	86.19
434.731	94.19
434.953	87.19
435.175	91.19
435.397	84.19
435.618	90.19
435.84	97.19
436.062	102.19
436.284	114.19
436.505	108.19
436.727	97.19
436.949	100.19
437.17	94.19
437.392	86.19
437.614	86.19
437.835	98.19
438.057	113.19
438.278	99.19
438.5	103.19
438.721	121.19
438.943	86.19
439.165	96.19
439.386	95.19
439.608	89.19
439.829	102.19
440.05	114.19
440.272	136.19
440.493	89.19
440.715	86.19
440.936	86.19
441.158	94.19
441.379	95.19
441.6	92.19
441.822	93.19
442.043	83.19
442.264	96.19
442.486	96.19
442.707	92.19
442.928	96.19
443.149	122.19
443.371	131.19
443.592	105.19
443.813	118.19
444.034	112.19
444.255	98.19
444.476	104.19
444.698	87.19
444.919	91.19
445.14	155.19
445.361	124.19
445.582	107.19
445.803	125.19
446.024	134.19
446.245	132.19
446.466	108.19
446.687	89.19
446.908	91.19
447.129	87.19
447.35	75.19
447.571	92.19
447.792	87.19
448.013	89.19
448.234	102.19
448.455	108.19
448.675	129.19
448.896	120.19
449.117	98.19
449.338	105.19
449.559	121.19
449.779	132.19
450	95.19
450.221	84.19
450.442	88.19
450.662	95.19
450.883	104.19
451.104	85.19
451.324	92.19
451.545	84.19
451.766	102.19
451.986	80.19
452.207	96.19
452.428	97.19
452.648	91.19
452.869	125.19
453.089	120.19
453.31	122.19
453.53	90.19
453.751	103.19
453.971	108.19
454.192	103.19
454.412	90.19
454.633	89.19
454.853	81.19
455.073	102.19
455.294	93.19
455.514	100.19
455.734	91.19
455.955	91.19
456.175	89.19
456.395	98.19
456.616	100.19
456.836	78.19
457.056	96.19
457.276	90.19
457.497	78.19
457.717	84.19
457.937	78.19
458.157	82.19
458.377	88.19
458.598	111.19
458.818	131.19
459.038	149.19
459.258	119.19
459.478	89.19
459.698	79.19
459.918	87.19
460.138	91.19
460.358	80.19
460.578	71.19
460.798	92.19
461.018	82.19
461.238	92.19
461.458	85.19
461.678	87.19
461.898	74.19
462.118	77.19
462.338	78.19
462.558	86.19
462.777	80.19
462.997	85.19
463.217	87.19
463.437	80.19
463.657	85.19
463.876	80.19
464.096	94.19
464.316	90.19
464.536	89.19
464.755	91.19
464.975	104.19
465.195	152.19
465.414	147.19
465.634	85.19
465.854	107.19
466.073	98.19
466.293	94.19
466.512	95.19
466.732	87.19
466.951	89.19
467.171	99.19
467.391	82.19
467.61	101.19
467.829	96.19
468.049	96.19
468.268	99.19
468.488	85.19
468.707	92.19
468.927	101.19
469.146	100.19
469.365	88.19
469.585	84.19
469.804	80.19
470.023	78.19
470.243	81.19
470.462	97.19
470.681	104.19
470.901	92.19
471.12	91.19
471.339	96.19
471.558	90.19
471.777	84.19
471.997	87.19
472.216	92.19
472.435	103.19
472.654	97.19
472.873	86.19
473.092	75.19
473.311	77.19
473.53	83.19
473.749	87.19
473.968	90.19
474.187	99.19
474.406	99.19
474.625	74.19
474.844	84.19
475.063	93.19
475.282	83.19
475.501	88.19
475.72	92.19
475.939	97.19
476.158	74.19
476.377	87.19
476.596	93.19
476.814	90.19
477.033	93.19
477.252	91.19
477.471	89.19
477.69	93.19
477.908	89.19
478.127	94.19
478.346	98.19
478.564	97.19
478.783	99.19
479.002	106.19
479.22	85.19
479.439	103.19
479.658	97.19
479.876	90.19
480.095	85.19
480.313	89.19
480.532	96.19
480.751	84.19
480.969	94.19
481.188	133.19
481.406	119.19
481.624	80.19
481.843	92.19
482.061	96.19
482.28	100.19
482.498	90.19
482.717	84.19
482.935	99.19
483.153	79.19
483.372	91.19
483.59	96.19
483.808	90.19
484.027	89.19
484.245	86.19
484.463	101.19
484.681	110.19
484.9	90.19
485.118	105.19
485.336	98.19
485.554	92.19
485.772	100.19
485.99	96.19
486.209	101.19
486.427	107.19
486.645	118.19
486.863	106.19
487.081	104.19
487.299	103.19
487.517	111.19
487.735	99.19
487.953	86.19
488.171	99.19
488.389	103.19
488.607	87.19
488.825	93.19
489.043	88.19
489.261	90.19
489.479	75.19
489.696	76.19
489.914	84.19
490.132	92.19
490.35	93.19
490.568	85.19
490.786	94.19
491.003	96.19
491.221	82.19
491.439	89.19
491.657	87.19
491.874	96.19
492.092	80.19
492.31	85.19
492.527	96.19
492.745	90.19
492.963	92.19
493.18	92.19
493.398	95.19
493.615	84.19
493.833	91.19
494.05	87.19
494.268	96.19
494.485	104.19
494.703	104.19
494.92	106.19
495.138	87.19
495.355	89.19
495.573	103.19
495.79	96.19
496.008	93.19
496.225	87.19
496.442	87.19
496.66	93.19
496.877	96.19
497.094	98.19
497.312	69.19
497.529	91.19
497.746	99.19
497.963	102.19
498.181	89.19
498.398	94.19
498.615	89.19
498.832	92.19
499.049	93.19
499.267	89.19
499.484	104.19
499.701	88.19
499.918	98.19
500.135	93.19
500.352	100.19
500.569	96.19
500.786	90.19
501.003	90.19
501.22	93.19
501.437	86.19
501.654	108.19
501.871	108.19
502.088	88.19
502.305	92.19
502.522	89.19
502.739	90.19
502.956	90.19
503.172	83.19
503.389	96.19
503.606	102.19
503.823	88.19
504.04	92.19
504.256	87.19
504.473	78.19
504.69	102.19
504.907	101.19
505.123	103.19
505.34	104.19
505.557	88.19
505.773	84.19
505.99	70.19
506.207	89.19
506.423	87.19
506.64	77.19
506.856	97.19
507.073	95.19
507.289	105.19
507.506	99.19
507.722	107.19
507.939	99.19
508.155	108.19
508.372	79.19
508.588	85.19
508.805	90.19
509.021	106.19
509.238	91.19
509.454	86.19
509.67	115.19
509.887	106.19
510.103	123.19
510.319	205.19
510.536	712.19
510.752	2165.19
510.968	594.19
511.184	139.19
511.401	105.19
511.617	86.19
511.833	96.19
512.049	95.19
512.265	94.19
512.481	100.19
512.698	97.19
512.914	86.19
513.13	90.19
513.346	98.19
513.562	95.19
513.778	100.19
513.994	90.19
514.21	98.19
514.426	116.19
514.642	134.19
514.858	114.19
515.074	159.19
515.29	432.19
515.506	1378.19
