Data from Uncirc_1987_H10_HRD10591_00082.txt Node
Date: Wed Jan 03 12:09:04 EST 2024
User: Yrep
Spectrometer: HR+D1059
Trigger mode: 1
Integration Time (sec): 1.000000E-1
Scans to average: 1
Electric dark correction enabled: true
Nonlinearity correction enabled: false
Boxcar width: 0
XAxis mode: Wavelengths
Number of Pixels in Spectrum: 2048
>>>>>Begin Spectral Data<<<<<
223.165	-21.94
223.4	-21.94
223.635	-21.94
223.869	-21.94
224.104	-20.94
224.338	-19.94
224.573	-14.94
224.808	-17.94
225.042	-0.94
225.277	0.06
225.511	4.06
225.746	5.06
225.98	-1.94
226.215	12.06
226.449	14.06
226.683	21.06
226.918	32.06
227.152	32.06
227.387	30.06
227.621	41.06
227.856	45.06
228.09	46.06
228.324	41.06
228.559	54.06
228.793	60.06
229.027	58.06
229.262	62.06
229.496	73.06
229.73	73.06
229.964	92.06
230.199	75.06
230.433	96.06
230.667	82.06
230.901	73.06
231.136	71.06
231.37	80.06
231.604	77.06
231.838	92.06
232.072	63.06
232.306	78.06
232.541	96.06
232.775	91.06
233.009	92.06
233.243	81.06
233.477	87.06
233.711	70.06
233.945	69.06
234.179	73.06
234.413	65.06
234.647	86.06
234.881	68.06
235.115	83.06
235.349	80.06
235.583	83.06
235.817	92.06
236.051	84.06
236.285	72.06
236.519	71.06
236.753	84.06
236.987	80.06
237.221	78.06
237.455	78.06
237.689	86.06
237.922	80.06
238.156	69.06
238.39	74.06
238.624	71.06
238.858	67.06
239.091	80.06
239.325	78.06
239.559	79.06
239.793	77.06
240.027	68.06
240.26	88.06
240.494	89.06
240.728	81.06
240.961	81.06
241.195	81.06
241.429	79.06
241.662	83.06
241.896	61.06
242.13	79.06
242.363	75.06
242.597	67.06
242.83	80.06
243.064	84.06
243.298	82.06
243.531	82.06
243.765	76.06
243.998	64.06
244.232	78.06
244.465	81.06
244.699	85.06
244.932	80.06
245.166	87.06
245.399	84.06
245.633	85.06
245.866	77.06
246.099	78.06
246.333	86.06
246.566	84.06
246.8	80.06
247.033	78.06
247.266	79.06
247.5	86.06
247.733	83.06
247.966	78.06
248.2	83.06
248.433	76.06
248.666	79.06
248.899	75.06
249.133	92.06
249.366	98.06
249.599	95.06
249.832	86.06
250.066	84.06
250.299	94.06
250.532	74.06
250.765	75.06
250.998	79.06
251.231	78.06
251.465	81.06
251.698	83.06
251.931	83.06
252.164	75.06
252.397	74.06
252.63	96.06
252.863	66.06
253.096	81.06
253.329	71.06
253.562	82.06
253.795	78.06
254.028	65.06
254.261	82.06
254.494	66.06
254.727	91.06
254.96	75.06
255.193	82.06
255.426	80.06
255.659	78.06
255.892	98.06
256.124	69.06
256.357	73.06
256.59	72.06
256.823	81.06
257.056	90.06
257.289	77.06
257.521	89.06
257.754	81.06
257.987	79.06
258.22	94.06
258.452	92.06
258.685	78.06
258.918	82.06
259.151	82.06
259.383	90.06
259.616	91.06
259.849	84.06
260.081	81.06
260.314	104.06
260.547	79.06
260.779	76.06
261.012	91.06
261.244	82.06
261.477	92.06
261.71	102.06
261.942	98.06
262.175	111.06
262.407	80.06
262.64	91.06
262.872	86.06
263.105	85.06
263.337	70.06
263.57	80.06
263.802	90.06
264.035	87.06
264.267	83.06
264.499	78.06
264.732	83.06
264.964	82.06
265.197	92.06
265.429	88.06
265.661	86.06
265.894	87.06
266.126	97.06
266.358	94.06
266.591	82.06
266.823	79.06
267.055	79.06
267.287	74.06
267.52	69.06
267.752	79.06
267.984	86.06
268.216	87.06
268.448	96.06
268.681	95.06
268.913	86.06
269.145	93.06
269.377	71.06
269.609	82.06
269.841	73.06
270.073	85.06
270.306	81.06
270.538	82.06
270.77	87.06
271.002	92.06
271.234	88.06
271.466	98.06
271.698	73.06
271.93	93.06
272.162	98.06
272.394	92.06
272.626	85.06
272.858	87.06
273.09	91.06
273.322	79.06
273.553	75.06
273.785	80.06
274.017	91.06
274.249	89.06
274.481	87.06
274.713	92.06
274.945	86.06
275.176	94.06
275.408	87.06
275.64	89.06
275.872	78.06
276.104	96.06
276.335	107.06
276.567	111.06
276.799	104.06
277.031	100.06
277.262	95.06
277.494	83.06
277.726	89.06
277.957	83.06
278.189	79.06
278.421	98.06
278.652	83.06
278.884	78.06
279.115	91.06
279.347	84.06
279.579	84.06
279.81	99.06
280.042	89.06
280.273	98.06
280.505	78.06
280.736	97.06
280.968	89.06
281.199	87.06
281.431	91.06
281.662	90.06
281.894	89.06
282.125	93.06
282.356	120.06
282.588	135.06
282.819	114.06
283.051	100.06
283.282	74.06
283.513	97.06
283.745	93.06
283.976	86.06
284.207	98.06
284.439	87.06
284.67	83.06
284.901	97.06
285.132	88.06
285.364	101.06
285.595	94.06
285.826	85.06
286.057	85.06
286.288	110.06
286.52	103.06
286.751	86.06
286.982	80.06
287.213	81.06
287.444	84.06
287.675	88.06
287.906	100.06
288.138	81.06
288.369	90.06
288.6	97.06
288.831	93.06
289.062	86.06
289.293	94.06
289.524	87.06
289.755	102.06
289.986	81.06
290.217	101.06
290.448	87.06
290.679	98.06
290.91	93.06
291.141	89.06
291.371	83.06
291.602	90.06
291.833	87.06
292.064	83.06
292.295	99.06
292.526	91.06
292.757	96.06
292.987	93.06
293.218	73.06
293.449	76.06
293.68	85.06
293.91	88.06
294.141	88.06
294.372	82.06
294.603	90.06
294.833	84.06
295.064	95.06
295.295	93.06
295.525	88.06
295.756	95.06
295.987	115.06
296.217	138.06
296.448	129.06
296.679	90.06
296.909	97.06
297.14	81.06
297.37	84.06
297.601	78.06
297.831	90.06
298.062	90.06
298.292	85.06
298.523	102.06
298.753	97.06
298.984	91.06
299.214	87.06
299.445	93.06
299.675	86.06
299.905	84.06
300.136	84.06
300.366	105.06
300.597	98.06
300.827	98.06
301.057	87.06
301.288	95.06
301.518	98.06
301.748	75.06
301.979	95.06
302.209	89.06
302.439	91.06
302.669	78.06
302.9	99.06
303.13	88.06
303.36	104.06
303.59	105.06
303.82	103.06
304.051	99.06
304.281	90.06
304.511	80.06
304.741	97.06
304.971	84.06
305.201	81.06
305.431	87.06
305.661	80.06
305.891	84.06
306.121	87.06
306.352	98.06
306.582	108.06
306.812	95.06
307.042	97.06
307.272	88.06
307.502	94.06
307.731	87.06
307.961	91.06
308.191	104.06
308.421	113.06
308.651	89.06
308.881	94.06
309.111	98.06
309.341	95.06
309.571	84.06
309.8	115.06
310.03	101.06
310.26	103.06
310.49	105.06
310.72	100.06
310.949	99.06
311.179	117.06
311.409	105.06
311.639	99.06
311.868	100.06
312.098	107.06
312.328	95.06
312.557	98.06
312.787	108.06
313.017	104.06
313.246	81.06
313.476	107.06
313.706	87.06
313.935	91.06
314.165	89.06
314.394	96.06
314.624	102.06
314.853	100.06
315.083	73.06
315.312	89.06
315.542	108.06
315.771	88.06
316.001	90.06
316.23	80.06
316.46	108.06
316.689	88.06
316.919	101.06
317.148	104.06
317.377	89.06
317.607	102.06
317.836	99.06
318.065	87.06
318.295	86.06
318.524	98.06
318.753	90.06
318.983	90.06
319.212	105.06
319.441	99.06
319.67	105.06
319.9	112.06
320.129	95.06
320.358	80.06
320.587	106.06
320.816	98.06
321.046	94.06
321.275	86.06
321.504	108.06
321.733	100.06
321.962	105.06
322.191	106.06
322.42	103.06
322.649	107.06
322.878	114.06
323.108	120.06
323.337	122.06
323.566	122.06
323.795	147.06
324.024	180.06
324.253	360.06
324.482	743.06
324.71	1553.06
324.939	2086.06
325.168	765.06
325.397	222.06
325.626	140.06
325.855	132.06
326.084	117.06
326.313	133.06
326.542	141.06
326.77	208.06
326.999	417.06
327.228	872.06
327.457	1572.06
327.686	1260.06
327.914	338.06
328.143	169.06
328.372	139.06
328.6	124.06
328.829	112.06
329.058	126.06
329.287	122.06
329.515	97.06
329.744	100.06
329.972	120.06
330.201	106.06
330.43	113.06
330.658	122.06
330.887	121.06
331.115	116.06
331.344	102.06
331.572	95.06
331.801	99.06
332.03	94.06
332.258	85.06
332.486	68.06
332.715	88.06
332.943	104.06
333.172	90.06
333.4	85.06
333.629	111.06
333.857	111.06
334.085	115.06
334.314	112.06
334.542	113.06
334.771	102.06
334.999	99.06
335.227	102.06
335.455	96.06
335.684	92.06
335.912	98.06
336.14	107.06
336.369	92.06
336.597	100.06
336.825	113.06
337.053	91.06
337.281	90.06
337.51	82.06
337.738	85.06
337.966	97.06
338.194	102.06
338.422	95.06
338.65	89.06
338.878	86.06
339.106	87.06
339.334	102.06
339.562	81.06
339.79	98.06
340.018	85.06
340.246	95.06
340.474	99.06
340.702	99.06
340.93	111.06
341.158	94.06
341.386	103.06
341.614	101.06
341.842	100.06
342.07	78.06
342.298	102.06
342.526	97.06
342.754	85.06
342.981	85.06
343.209	88.06
343.437	94.06
343.665	100.06
343.893	99.06
344.12	94.06
344.348	94.06
344.576	85.06
344.804	100.06
345.031	93.06
345.259	102.06
345.487	113.06
345.714	95.06
345.942	94.06
346.17	83.06
346.397	90.06
346.625	100.06
346.853	99.06
347.08	92.06
347.308	94.06
347.535	89.06
347.763	98.06
347.99	92.06
348.218	98.06
348.445	107.06
348.673	104.06
348.9	97.06
349.128	99.06
349.355	112.06
349.583	98.06
349.81	80.06
350.037	106.06
350.265	94.06
350.492	88.06
350.72	94.06
350.947	96.06
351.174	105.06
351.402	106.06
351.629	98.06
351.856	98.06
352.083	98.06
352.311	87.06
352.538	107.06
352.765	115.06
352.992	124.06
353.22	126.06
353.447	120.06
353.674	115.06
353.901	96.06
354.128	98.06
354.355	90.06
354.583	95.06
354.81	102.06
355.037	104.06
355.264	94.06
355.491	102.06
355.718	96.06
355.945	105.06
356.172	88.06
356.399	101.06
356.626	97.06
356.853	91.06
357.08	99.06
357.307	98.06
357.534	98.06
357.761	95.06
357.988	91.06
358.215	88.06
358.441	91.06
358.668	106.06
358.895	90.06
359.122	95.06
359.349	89.06
359.576	88.06
359.802	95.06
360.029	103.06
360.256	116.06
360.483	96.06
360.709	90.06
360.936	92.06
361.163	92.06
361.39	105.06
361.616	86.06
361.843	93.06
362.07	88.06
362.296	85.06
362.523	87.06
362.749	89.06
362.976	79.06
363.203	94.06
363.429	82.06
363.656	78.06
363.882	96.06
364.109	94.06
364.335	100.06
364.562	107.06
364.788	90.06
365.015	101.06
365.241	99.06
365.468	108.06
365.694	84.06
365.92	94.06
366.147	89.06
366.373	87.06
366.599	97.06
366.826	96.06
367.052	90.06
367.278	88.06
367.505	92.06
367.731	89.06
367.957	90.06
368.184	93.06
368.41	102.06
368.636	106.06
368.862	129.06
369.089	113.06
369.315	97.06
369.541	100.06
369.767	100.06
369.993	90.06
370.219	98.06
370.445	89.06
370.672	81.06
370.898	93.06
371.124	99.06
371.35	85.06
371.576	89.06
371.802	96.06
372.028	80.06
372.254	78.06
372.48	84.06
372.706	79.06
372.932	83.06
373.158	83.06
373.384	97.06
373.61	92.06
373.835	93.06
374.061	92.06
374.287	88.06
374.513	86.06
374.739	88.06
374.965	96.06
375.191	91.06
375.416	94.06
375.642	99.06
375.868	88.06
376.094	91.06
376.319	82.06
376.545	96.06
376.771	101.06
376.997	85.06
377.222	92.06
377.448	87.06
377.674	96.06
377.899	83.06
378.125	91.06
378.35	94.06
378.576	90.06
378.802	82.06
379.027	100.06
379.253	87.06
379.478	80.06
379.704	100.06
379.929	86.06
380.155	94.06
380.38	89.06
380.606	84.06
380.831	81.06
381.057	93.06
381.282	87.06
381.507	92.06
381.733	99.06
381.958	92.06
382.184	102.06
382.409	87.06
382.634	102.06
382.86	96.06
383.085	109.06
383.31	98.06
383.535	105.06
383.761	91.06
383.986	92.06
384.211	92.06
384.436	93.06
384.662	97.06
384.887	89.06
385.112	103.06
385.337	98.06
385.562	102.06
385.787	110.06
386.013	107.06
386.238	105.06
386.463	115.06
386.688	106.06
386.913	87.06
387.138	84.06
387.363	106.06
387.588	102.06
387.813	89.06
388.038	96.06
388.263	94.06
388.488	101.06
388.713	90.06
388.938	92.06
389.163	88.06
389.387	102.06
389.612	104.06
389.837	89.06
390.062	96.06
390.287	88.06
390.512	86.06
390.736	107.06
390.961	83.06
391.186	95.06
391.411	87.06
391.636	94.06
391.86	94.06
392.085	81.06
392.31	84.06
392.534	81.06
392.759	94.06
392.984	98.06
393.208	79.06
393.433	91.06
393.658	98.06
393.882	96.06
394.107	81.06
394.331	82.06
394.556	89.06
394.78	88.06
395.005	85.06
395.229	88.06
395.454	96.06
395.678	86.06
395.903	84.06
396.127	93.06
396.352	79.06
396.576	72.06
396.801	88.06
397.025	94.06
397.249	93.06
397.474	97.06
397.698	90.06
397.922	85.06
398.147	90.06
398.371	91.06
398.595	90.06
398.82	90.06
399.044	93.06
399.268	86.06
399.492	102.06
399.717	78.06
399.941	89.06
400.165	86.06
400.389	100.06
400.613	84.06
400.837	98.06
401.062	78.06
401.286	93.06
401.51	96.06
401.734	96.06
401.958	111.06
402.182	119.06
402.406	147.06
402.63	113.06
402.854	92.06
403.078	78.06
403.302	90.06
403.526	86.06
403.75	83.06
403.974	92.06
404.198	89.06
404.422	89.06
404.645	99.06
404.869	98.06
405.093	96.06
405.317	80.06
405.541	94.06
405.765	99.06
405.988	112.06
406.212	161.06
406.436	206.06
406.66	144.06
406.883	97.06
407.107	79.06
407.331	81.06
407.555	102.06
407.778	87.06
408.002	84.06
408.226	87.06
408.449	91.06
408.673	109.06
408.896	99.06
409.12	86.06
409.344	86.06
409.567	99.06
409.791	99.06
410.014	98.06
410.238	95.06
410.461	96.06
410.685	83.06
410.908	95.06
411.132	105.06
411.355	104.06
411.578	78.06
411.802	87.06
412.025	98.06
412.249	96.06
412.472	100.06
412.695	104.06
412.919	84.06
413.142	94.06
413.365	74.06
413.589	97.06
413.812	86.06
414.035	86.06
414.258	97.06
414.482	115.06
414.705	100.06
414.928	78.06
415.151	111.06
415.374	89.06
415.597	101.06
415.821	88.06
416.044	88.06
416.267	88.06
416.49	84.06
416.713	102.06
416.936	90.06
417.159	75.06
417.382	86.06
417.605	80.06
417.828	88.06
418.051	91.06
418.274	81.06
418.497	103.06
418.72	102.06
418.943	84.06
419.166	78.06
419.389	78.06
419.611	80.06
419.834	95.06
420.057	95.06
420.28	92.06
420.503	104.06
420.726	75.06
420.948	95.06
421.171	93.06
421.394	85.06
421.617	81.06
421.839	72.06
422.062	98.06
422.285	82.06
422.507	96.06
422.73	98.06
422.953	87.06
423.175	92.06
423.398	98.06
423.621	70.06
423.843	92.06
424.066	80.06
424.288	94.06
424.511	89.06
424.733	97.06
424.956	89.06
425.178	99.06
425.401	93.06
425.623	102.06
425.846	84.06
426.068	94.06
426.291	85.06
426.513	89.06
426.735	64.06
426.958	90.06
427.18	105.06
427.402	131.06
427.625	134.06
427.847	130.06
428.069	110.06
428.292	86.06
428.514	85.06
428.736	92.06
428.958	68.06
429.181	87.06
429.403	98.06
429.625	96.06
429.847	92.06
430.069	103.06
430.292	99.06
430.514	75.06
430.736	75.06
430.958	95.06
431.18	88.06
431.402	97.06
431.624	84.06
431.846	89.06
432.068	82.06
432.29	83.06
432.512	86.06
432.734	111.06
432.956	90.06
433.178	86.06
433.4	96.06
433.622	92.06
433.844	83.06
434.066	87.06
434.287	93.06
434.509	86.06
434.731	91.06
434.953	97.06
435.175	105.06
435.397	99.06
435.618	87.06
435.84	107.06
436.062	121.06
436.284	114.06
436.505	106.06
436.727	83.06
436.949	82.06
437.17	89.06
437.392	90.06
437.614	97.06
437.835	112.06
438.057	110.06
438.278	103.06
438.5	91.06
438.721	121.06
438.943	91.06
439.165	84.06
439.386	99.06
439.608	81.06
439.829	100.06
440.05	108.06
440.272	137.06
440.493	108.06
440.715	86.06
440.936	79.06
441.158	80.06
441.379	97.06
441.6	92.06
441.822	89.06
442.043	97.06
442.264	95.06
442.486	94.06
442.707	105.06
442.928	107.06
443.149	126.06
443.371	126.06
443.592	118.06
443.813	108.06
444.034	106.06
444.255	90.06
444.476	88.06
444.698	94.06
444.919	88.06
445.14	125.06
445.361	111.06
445.582	103.06
445.803	149.06
446.024	123.06
446.245	129.06
446.466	86.06
446.687	86.06
446.908	86.06
447.129	108.06
447.35	95.06
447.571	98.06
447.792	96.06
448.013	110.06
448.234	91.06
448.455	93.06
448.675	96.06
448.896	119.06
449.117	97.06
449.338	97.06
449.559	138.06
449.779	142.06
450	80.06
450.221	99.06
450.442	87.06
450.662	93.06
450.883	106.06
451.104	97.06
451.324	85.06
451.545	95.06
451.766	97.06
451.986	91.06
452.207	84.06
452.428	104.06
452.648	110.06
452.869	100.06
453.089	104.06
453.31	114.06
453.53	94.06
453.751	85.06
453.971	96.06
454.192	99.06
454.412	85.06
454.633	90.06
454.853	91.06
455.073	86.06
455.294	90.06
455.514	93.06
455.734	86.06
455.955	93.06
456.175	92.06
456.395	85.06
456.616	92.06
456.836	75.06
457.056	81.06
457.276	75.06
457.497	90.06
457.717	94.06
457.937	84.06
458.157	107.06
458.377	95.06
458.598	102.06
458.818	157.06
459.038	166.06
459.258	102.06
459.478	96.06
459.698	105.06
459.918	107.06
460.138	95.06
460.358	90.06
460.578	79.06
460.798	97.06
461.018	94.06
461.238	88.06
461.458	89.06
461.678	86.06
461.898	100.06
462.118	91.06
462.338	99.06
462.558	95.06
462.777	95.06
462.997	107.06
463.217	87.06
463.437	94.06
463.657	85.06
463.876	78.06
464.096	98.06
464.316	96.06
464.536	82.06
464.755	84.06
464.975	102.06
465.195	149.06
465.414	160.06
465.634	102.06
465.854	85.06
466.073	95.06
466.293	74.06
466.512	86.06
466.732	81.06
466.951	80.06
467.171	91.06
467.391	96.06
467.61	107.06
467.829	89.06
468.049	93.06
468.268	102.06
468.488	100.06
468.707	85.06
468.927	91.06
469.146	92.06
469.365	92.06
469.585	79.06
469.804	82.06
470.023	84.06
470.243	104.06
470.462	100.06
470.681	103.06
470.901	86.06
471.12	80.06
471.339	79.06
471.558	68.06
471.777	74.06
471.997	71.06
472.216	99.06
472.435	123.06
472.654	90.06
472.873	80.06
473.092	72.06
473.311	91.06
473.53	93.06
473.749	89.06
473.968	95.06
474.187	98.06
474.406	105.06
474.625	96.06
474.844	90.06
475.063	94.06
475.282	86.06
475.501	75.06
475.72	87.06
475.939	82.06
476.158	90.06
476.377	86.06
476.596	86.06
476.814	89.06
477.033	98.06
477.252	84.06
477.471	84.06
477.69	95.06
477.908	82.06
478.127	89.06
478.346	89.06
478.564	97.06
478.783	96.06
479.002	91.06
479.22	89.06
479.439	104.06
479.658	89.06
479.876	94.06
480.095	96.06
480.313	98.06
480.532	83.06
480.751	93.06
480.969	114.06
481.188	167.06
481.406	154.06
481.624	97.06
481.843	90.06
482.061	94.06
482.28	96.06
482.498	106.06
482.717	96.06
482.935	83.06
483.153	85.06
483.372	89.06
483.59	89.06
483.808	90.06
484.027	93.06
484.245	89.06
484.463	93.06
484.681	99.06
484.9	94.06
485.118	98.06
485.336	104.06
485.554	94.06
485.772	89.06
485.99	124.06
486.209	114.06
486.427	107.06
486.645	103.06
486.863	123.06
487.081	99.06
487.299	104.06
487.517	91.06
487.735	93.06
487.953	98.06
488.171	99.06
488.389	92.06
488.607	107.06
488.825	95.06
489.043	78.06
489.261	93.06
489.479	91.06
489.696	93.06
489.914	87.06
490.132	85.06
490.35	86.06
490.568	96.06
490.786	94.06
491.003	84.06
491.221	71.06
491.439	92.06
491.657	102.06
491.874	100.06
492.092	101.06
492.31	87.06
492.527	83.06
492.745	92.06
492.963	98.06
493.18	96.06
493.398	81.06
493.615	85.06
493.833	101.06
494.05	84.06
494.268	100.06
494.485	86.06
494.703	89.06
494.92	75.06
495.138	84.06
495.355	104.06
495.573	98.06
495.79	102.06
496.008	101.06
496.225	107.06
496.442	96.06
496.66	97.06
496.877	91.06
497.094	95.06
497.312	90.06
497.529	96.06
497.746	84.06
497.963	92.06
498.181	85.06
498.398	91.06
498.615	112.06
498.832	103.06
499.049	95.06
499.267	95.06
499.484	95.06
499.701	97.06
499.918	82.06
500.135	91.06
500.352	102.06
500.569	72.06
500.786	92.06
501.003	79.06
501.22	84.06
501.437	95.06
501.654	101.06
501.871	110.06
502.088	83.06
502.305	88.06
502.522	78.06
502.739	79.06
502.956	98.06
503.172	82.06
503.389	93.06
503.606	107.06
503.823	99.06
504.04	105.06
504.256	107.06
504.473	91.06
504.69	99.06
504.907	101.06
505.123	88.06
505.34	91.06
505.557	93.06
505.773	105.06
505.99	90.06
506.207	83.06
506.423	84.06
506.64	93.06
506.856	100.06
507.073	97.06
507.289	95.06
507.506	94.06
507.722	99.06
507.939	118.06
508.155	95.06
508.372	99.06
508.588	107.06
508.805	99.06
509.021	91.06
509.238	112.06
509.454	100.06
509.67	86.06
509.887	115.06
510.103	120.06
510.319	224.06
510.536	690.06
510.752	2179.06
510.968	604.06
511.184	148.06
511.401	108.06
511.617	93.06
511.833	93.06
512.049	96.06
512.265	103.06
512.481	100.06
512.698	77.06
512.914	98.06
513.13	106.06
513.346	83.06
513.562	95.06
513.778	96.06
513.994	104.06
514.21	118.06
514.426	112.06
514.642	128.06
514.858	121.06
515.074	162.06
515.29	445.06
515.506	1370.06
