Data from Uncirc_1987_H10_HRD10591_00032.txt Node
Date: Wed Jan 03 12:08:54 EST 2024
User: Yrep
Spectrometer: HR+D1059
Trigger mode: 1
Integration Time (sec): 1.000000E-1
Scans to average: 1
Electric dark correction enabled: true
Nonlinearity correction enabled: false
Boxcar width: 0
XAxis mode: Wavelengths
Number of Pixels in Spectrum: 2048
>>>>>Begin Spectral Data<<<<<
223.165	-26.75
223.4	-26.75
223.635	-26.75
223.869	-25.75
224.104	0.25
224.338	-18.75
224.573	-18.75
224.808	-7.75
225.042	-4.75
225.277	-9.75
225.511	-2.75
225.746	-1.75
225.98	10.25
226.215	6.25
226.449	23.25
226.683	29.25
226.918	24.25
227.152	23.25
227.387	39.25
227.621	41.25
227.856	49.25
228.09	53.25
228.324	62.25
228.559	49.25
228.793	46.25
229.027	63.25
229.262	63.25
229.496	62.25
229.73	67.25
229.964	55.25
230.199	72.25
230.433	73.25
230.667	81.25
230.901	78.25
231.136	80.25
231.37	82.25
231.604	80.25
231.838	83.25
232.072	74.25
232.306	85.25
232.541	81.25
232.775	82.25
233.009	86.25
233.243	83.25
233.477	78.25
233.711	98.25
233.945	78.25
234.179	73.25
234.413	85.25
234.647	77.25
234.881	72.25
235.115	88.25
235.349	75.25
235.583	87.25
235.817	79.25
236.051	90.25
236.285	79.25
236.519	73.25
236.753	81.25
236.987	87.25
237.221	83.25
237.455	73.25
237.689	97.25
237.922	75.25
238.156	87.25
238.39	68.25
238.624	71.25
238.858	64.25
239.091	80.25
239.325	91.25
239.559	72.25
239.793	81.25
240.027	71.25
240.26	66.25
240.494	88.25
240.728	58.25
240.961	89.25
241.195	83.25
241.429	77.25
241.662	86.25
241.896	74.25
242.13	87.25
242.363	79.25
242.597	74.25
242.83	77.25
243.064	87.25
243.298	75.25
243.531	81.25
243.765	82.25
243.998	78.25
244.232	63.25
244.465	81.25
244.699	70.25
244.932	73.25
245.166	75.25
245.399	83.25
245.633	73.25
245.866	77.25
246.099	80.25
246.333	81.25
246.566	72.25
246.8	80.25
247.033	84.25
247.266	75.25
247.5	84.25
247.733	76.25
247.966	84.25
248.2	99.25
248.433	74.25
248.666	70.25
248.899	72.25
249.133	94.25
249.366	93.25
249.599	95.25
249.832	87.25
250.066	81.25
250.299	80.25
250.532	65.25
250.765	80.25
250.998	63.25
251.231	68.25
251.465	82.25
251.698	91.25
251.931	93.25
252.164	83.25
252.397	77.25
252.63	77.25
252.863	78.25
253.096	69.25
253.329	79.25
253.562	93.25
253.795	83.25
254.028	73.25
254.261	71.25
254.494	81.25
254.727	76.25
254.96	69.25
255.193	80.25
255.426	81.25
255.659	84.25
255.892	90.25
256.124	83.25
256.357	86.25
256.59	87.25
256.823	68.25
257.056	77.25
257.289	96.25
257.521	71.25
257.754	81.25
257.987	79.25
258.22	100.25
258.452	86.25
258.685	80.25
258.918	71.25
259.151	79.25
259.383	81.25
259.616	99.25
259.849	89.25
260.081	90.25
260.314	90.25
260.547	78.25
260.779	83.25
261.012	73.25
261.244	89.25
261.477	95.25
261.71	101.25
261.942	96.25
262.175	109.25
262.407	79.25
262.64	79.25
262.872	81.25
263.105	82.25
263.337	95.25
263.57	96.25
263.802	78.25
264.035	89.25
264.267	75.25
264.499	80.25
264.732	85.25
264.964	87.25
265.197	90.25
265.429	93.25
265.661	93.25
265.894	97.25
266.126	75.25
266.358	75.25
266.591	66.25
266.823	59.25
267.055	90.25
267.287	95.25
267.52	92.25
267.752	93.25
267.984	87.25
268.216	100.25
268.448	94.25
268.681	88.25
268.913	79.25
269.145	87.25
269.377	74.25
269.609	87.25
269.841	78.25
270.073	103.25
270.306	84.25
270.538	84.25
270.77	84.25
271.002	82.25
271.234	85.25
271.466	85.25
271.698	82.25
271.93	81.25
272.162	83.25
272.394	82.25
272.626	81.25
272.858	87.25
273.09	77.25
273.322	75.25
273.553	82.25
273.785	79.25
274.017	67.25
274.249	82.25
274.481	91.25
274.713	85.25
274.945	90.25
275.176	77.25
275.408	83.25
275.64	89.25
275.872	80.25
276.104	90.25
276.335	90.25
276.567	92.25
276.799	93.25
277.031	100.25
277.262	78.25
277.494	77.25
277.726	99.25
277.957	83.25
278.189	82.25
278.421	88.25
278.652	95.25
278.884	85.25
279.115	83.25
279.347	75.25
279.579	72.25
279.81	83.25
280.042	65.25
280.273	84.25
280.505	93.25
280.736	78.25
280.968	80.25
281.199	83.25
281.431	93.25
281.662	88.25
281.894	96.25
282.125	97.25
282.356	120.25
282.588	145.25
282.819	109.25
283.051	105.25
283.282	90.25
283.513	81.25
283.745	89.25
283.976	90.25
284.207	90.25
284.439	81.25
284.67	83.25
284.901	83.25
285.132	83.25
285.364	94.25
285.595	84.25
285.826	96.25
286.057	87.25
286.288	90.25
286.52	95.25
286.751	81.25
286.982	89.25
287.213	79.25
287.444	87.25
287.675	93.25
287.906	88.25
288.138	102.25
288.369	94.25
288.6	92.25
288.831	97.25
289.062	83.25
289.293	73.25
289.524	81.25
289.755	77.25
289.986	93.25
290.217	89.25
290.448	96.25
290.679	73.25
290.91	102.25
291.141	79.25
291.371	82.25
291.602	78.25
291.833	86.25
292.064	95.25
292.295	89.25
292.526	75.25
292.757	96.25
292.987	91.25
293.218	82.25
293.449	82.25
293.68	85.25
293.91	80.25
294.141	99.25
294.372	92.25
294.603	81.25
294.833	87.25
295.064	95.25
295.295	87.25
295.525	78.25
295.756	104.25
295.987	105.25
296.217	129.25
296.448	120.25
296.679	85.25
296.909	94.25
297.14	89.25
297.37	87.25
297.601	83.25
297.831	87.25
298.062	80.25
298.292	93.25
298.523	94.25
298.753	89.25
298.984	92.25
299.214	97.25
299.445	89.25
299.675	89.25
299.905	101.25
300.136	83.25
300.366	84.25
300.597	83.25
300.827	85.25
301.057	98.25
301.288	90.25
301.518	95.25
301.748	82.25
301.979	101.25
302.209	85.25
302.439	83.25
302.669	89.25
302.9	84.25
303.13	93.25
303.36	98.25
303.59	97.25
303.82	78.25
304.051	99.25
304.281	86.25
304.511	87.25
304.741	88.25
304.971	90.25
305.201	106.25
305.431	88.25
305.661	77.25
305.891	86.25
306.121	78.25
306.352	98.25
306.582	102.25
306.812	90.25
307.042	93.25
307.272	95.25
307.502	104.25
307.731	106.25
307.961	96.25
308.191	86.25
308.421	85.25
308.651	80.25
308.881	80.25
309.111	89.25
309.341	93.25
309.571	99.25
309.8	78.25
310.03	99.25
310.26	93.25
310.49	83.25
310.72	96.25
310.949	98.25
311.179	88.25
311.409	92.25
311.639	80.25
311.868	93.25
312.098	100.25
312.328	90.25
312.557	130.25
312.787	117.25
313.017	95.25
313.246	88.25
313.476	95.25
313.706	102.25
313.935	98.25
314.165	95.25
314.394	97.25
314.624	98.25
314.853	89.25
315.083	90.25
315.312	101.25
315.542	81.25
315.771	93.25
316.001	87.25
316.23	99.25
316.46	88.25
316.689	88.25
316.919	89.25
317.148	96.25
317.377	94.25
317.607	99.25
317.836	83.25
318.065	88.25
318.295	95.25
318.524	98.25
318.753	104.25
318.983	96.25
319.212	97.25
319.441	109.25
319.67	116.25
319.9	103.25
320.129	91.25
320.358	89.25
320.587	87.25
320.816	100.25
321.046	97.25
321.275	97.25
321.504	94.25
321.733	96.25
321.962	91.25
322.191	104.25
322.42	91.25
322.649	111.25
322.878	100.25
323.108	101.25
323.337	110.25
323.566	116.25
323.795	147.25
324.024	184.25
324.253	339.25
324.482	707.25
324.71	1461.25
324.939	1944.25
325.168	695.25
325.397	227.25
325.626	134.25
325.855	119.25
326.084	113.25
326.313	124.25
326.542	142.25
326.77	222.25
326.999	388.25
327.228	838.25
327.457	1508.25
327.686	1185.25
327.914	333.25
328.143	172.25
328.372	136.25
328.6	124.25
328.829	120.25
329.058	113.25
329.287	121.25
329.515	91.25
329.744	101.25
329.972	90.25
330.201	93.25
330.43	105.25
330.658	107.25
330.887	122.25
331.115	112.25
331.344	96.25
331.572	102.25
331.801	102.25
332.03	99.25
332.258	96.25
332.486	105.25
332.715	90.25
332.943	94.25
333.172	101.25
333.4	95.25
333.629	97.25
333.857	104.25
334.085	85.25
334.314	95.25
334.542	97.25
334.771	95.25
334.999	93.25
335.227	91.25
335.455	87.25
335.684	96.25
335.912	96.25
336.14	92.25
336.369	97.25
336.597	99.25
336.825	102.25
337.053	89.25
337.281	103.25
337.51	103.25
337.738	103.25
337.966	68.25
338.194	89.25
338.422	94.25
338.65	103.25
338.878	99.25
339.106	102.25
339.334	83.25
339.562	103.25
339.79	99.25
340.018	96.25
340.246	88.25
340.474	89.25
340.702	88.25
340.93	94.25
341.158	108.25
341.386	97.25
341.614	94.25
341.842	87.25
342.07	90.25
342.298	92.25
342.526	95.25
342.754	99.25
342.981	97.25
343.209	96.25
343.437	90.25
343.665	97.25
343.893	88.25
344.12	106.25
344.348	89.25
344.576	91.25
344.804	90.25
345.031	93.25
345.259	91.25
345.487	77.25
345.714	85.25
345.942	89.25
346.17	74.25
346.397	93.25
346.625	93.25
346.853	93.25
347.08	88.25
347.308	93.25
347.535	107.25
347.763	82.25
347.99	95.25
348.218	88.25
348.445	89.25
348.673	89.25
348.9	106.25
349.128	94.25
349.355	104.25
349.583	102.25
349.81	79.25
350.037	95.25
350.265	91.25
350.492	94.25
350.72	105.25
350.947	95.25
351.174	93.25
351.402	109.25
351.629	93.25
351.856	89.25
352.083	91.25
352.311	98.25
352.538	112.25
352.765	93.25
352.992	113.25
353.22	97.25
353.447	100.25
353.674	106.25
353.901	91.25
354.128	100.25
354.355	101.25
354.583	100.25
354.81	101.25
355.037	100.25
355.264	91.25
355.491	101.25
355.718	83.25
355.945	93.25
356.172	88.25
356.399	99.25
356.626	90.25
356.853	101.25
357.08	102.25
357.307	96.25
357.534	97.25
357.761	93.25
357.988	83.25
358.215	92.25
358.441	96.25
358.668	81.25
358.895	76.25
359.122	88.25
359.349	69.25
359.576	91.25
359.802	79.25
360.029	103.25
360.256	114.25
360.483	89.25
360.709	79.25
360.936	88.25
361.163	99.25
361.39	98.25
361.616	104.25
361.843	85.25
362.07	95.25
362.296	95.25
362.523	90.25
362.749	88.25
362.976	93.25
363.203	97.25
363.429	93.25
363.656	86.25
363.882	99.25
364.109	94.25
364.335	89.25
364.562	89.25
364.788	87.25
365.015	98.25
365.241	95.25
365.468	98.25
365.694	102.25
365.92	91.25
366.147	95.25
366.373	84.25
366.599	82.25
366.826	101.25
367.052	99.25
367.278	96.25
367.505	89.25
367.731	85.25
367.957	85.25
368.184	95.25
368.41	105.25
368.636	106.25
368.862	114.25
369.089	103.25
369.315	98.25
369.541	98.25
369.767	95.25
369.993	90.25
370.219	93.25
370.445	83.25
370.672	95.25
370.898	71.25
371.124	74.25
371.35	81.25
371.576	81.25
371.802	94.25
372.028	90.25
372.254	86.25
372.48	88.25
372.706	73.25
372.932	88.25
373.158	91.25
373.384	91.25
373.61	92.25
373.835	74.25
374.061	94.25
374.287	73.25
374.513	94.25
374.739	95.25
374.965	89.25
375.191	83.25
375.416	80.25
375.642	78.25
375.868	87.25
376.094	82.25
376.319	83.25
376.545	84.25
376.771	86.25
376.997	89.25
377.222	87.25
377.448	89.25
377.674	94.25
377.899	95.25
378.125	98.25
378.35	91.25
378.576	81.25
378.802	103.25
379.027	92.25
379.253	86.25
379.478	97.25
379.704	89.25
379.929	104.25
380.155	104.25
380.38	96.25
380.606	88.25
380.831	96.25
381.057	113.25
381.282	94.25
381.507	95.25
381.733	100.25
381.958	90.25
382.184	103.25
382.409	91.25
382.634	82.25
382.86	96.25
383.085	105.25
383.31	105.25
383.535	104.25
383.761	94.25
383.986	90.25
384.211	83.25
384.436	99.25
384.662	92.25
384.887	98.25
385.112	114.25
385.337	81.25
385.562	92.25
385.787	103.25
386.013	98.25
386.238	91.25
386.463	118.25
386.688	101.25
386.913	111.25
387.138	111.25
387.363	90.25
387.588	105.25
387.813	102.25
388.038	104.25
388.263	110.25
388.488	99.25
388.713	89.25
388.938	93.25
389.163	83.25
389.387	87.25
389.612	90.25
389.837	82.25
390.062	92.25
390.287	107.25
390.512	101.25
390.736	94.25
390.961	97.25
391.186	98.25
391.411	93.25
391.636	90.25
391.86	91.25
392.085	83.25
392.31	93.25
392.534	87.25
392.759	83.25
392.984	79.25
393.208	81.25
393.433	95.25
393.658	92.25
393.882	69.25
394.107	91.25
394.331	81.25
394.556	81.25
394.78	90.25
395.005	100.25
395.229	73.25
395.454	73.25
395.678	80.25
395.903	81.25
396.127	80.25
396.352	92.25
396.576	86.25
396.801	86.25
397.025	83.25
397.249	97.25
397.474	89.25
397.698	74.25
397.922	86.25
398.147	88.25
398.371	81.25
398.595	77.25
398.82	83.25
399.044	102.25
399.268	78.25
399.492	95.25
399.717	90.25
399.941	82.25
400.165	96.25
400.389	71.25
400.613	85.25
400.837	80.25
401.062	83.25
401.286	74.25
401.51	89.25
401.734	83.25
401.958	101.25
402.182	111.25
402.406	151.25
402.63	113.25
402.854	88.25
403.078	96.25
403.302	89.25
403.526	84.25
403.75	98.25
403.974	93.25
404.198	95.25
404.422	85.25
404.645	91.25
404.869	89.25
405.093	80.25
405.317	85.25
405.541	91.25
405.765	102.25
405.988	128.25
406.212	144.25
406.436	190.25
406.66	130.25
406.883	100.25
407.107	89.25
407.331	95.25
407.555	100.25
407.778	95.25
408.002	81.25
408.226	98.25
408.449	94.25
408.673	90.25
408.896	106.25
409.12	91.25
409.344	88.25
409.567	94.25
409.791	88.25
410.014	92.25
410.238	111.25
410.461	88.25
410.685	93.25
410.908	101.25
411.132	105.25
411.355	105.25
411.578	93.25
411.802	89.25
412.025	85.25
412.249	93.25
412.472	97.25
412.695	84.25
412.919	88.25
413.142	77.25
413.365	82.25
413.589	69.25
413.812	90.25
414.035	90.25
414.258	81.25
414.482	72.25
414.705	86.25
414.928	88.25
415.151	92.25
415.374	101.25
415.597	100.25
415.821	108.25
416.044	94.25
416.267	91.25
416.49	88.25
416.713	90.25
416.936	91.25
417.159	84.25
417.382	67.25
417.605	97.25
417.828	88.25
418.051	89.25
418.274	101.25
418.497	79.25
418.72	85.25
418.943	91.25
419.166	84.25
419.389	98.25
419.611	81.25
419.834	90.25
420.057	92.25
420.28	79.25
420.503	78.25
420.726	78.25
420.948	95.25
421.171	95.25
421.394	86.25
421.617	100.25
421.839	93.25
422.062	83.25
422.285	91.25
422.507	105.25
422.73	84.25
422.953	95.25
423.175	82.25
423.398	66.25
423.621	82.25
423.843	82.25
424.066	90.25
424.288	80.25
424.511	87.25
424.733	92.25
424.956	97.25
425.178	92.25
425.401	109.25
425.623	96.25
425.846	82.25
426.068	97.25
426.291	81.25
426.513	89.25
426.735	80.25
426.958	78.25
427.18	90.25
427.402	127.25
427.625	166.25
427.847	106.25
428.069	91.25
428.292	83.25
428.514	93.25
428.736	90.25
428.958	83.25
429.181	79.25
429.403	97.25
429.625	89.25
429.847	103.25
430.069	89.25
430.292	93.25
430.514	94.25
430.736	91.25
430.958	71.25
431.18	93.25
431.402	76.25
431.624	91.25
431.846	82.25
432.068	101.25
432.29	86.25
432.512	95.25
432.734	85.25
432.956	82.25
433.178	95.25
433.4	85.25
433.622	84.25
433.844	93.25
434.066	104.25
434.287	95.25
434.509	97.25
434.731	93.25
434.953	87.25
435.175	88.25
435.397	89.25
435.618	110.25
435.84	105.25
436.062	110.25
436.284	101.25
436.505	94.25
436.727	106.25
436.949	85.25
437.17	93.25
437.392	82.25
437.614	95.25
437.835	97.25
438.057	114.25
438.278	97.25
438.5	102.25
438.721	113.25
438.943	98.25
439.165	87.25
439.386	87.25
439.608	96.25
439.829	90.25
440.05	112.25
440.272	131.25
440.493	84.25
440.715	77.25
440.936	94.25
441.158	90.25
441.379	92.25
441.6	86.25
441.822	83.25
442.043	103.25
442.264	91.25
442.486	99.25
442.707	100.25
442.928	96.25
443.149	99.25
443.371	114.25
443.592	114.25
443.813	114.25
444.034	117.25
444.255	80.25
444.476	93.25
444.698	92.25
444.919	86.25
445.14	131.25
445.361	115.25
445.582	107.25
445.803	112.25
446.024	124.25
446.245	121.25
446.466	115.25
446.687	94.25
446.908	93.25
447.129	93.25
447.35	99.25
447.571	74.25
447.792	86.25
448.013	98.25
448.234	97.25
448.455	98.25
448.675	114.25
448.896	109.25
449.117	103.25
449.338	98.25
449.559	126.25
449.779	117.25
450	93.25
450.221	85.25
450.442	82.25
450.662	103.25
450.883	104.25
451.104	105.25
451.324	97.25
451.545	77.25
451.766	92.25
451.986	109.25
452.207	99.25
452.428	91.25
452.648	89.25
452.869	98.25
453.089	120.25
453.31	101.25
453.53	99.25
453.751	84.25
453.971	95.25
454.192	98.25
454.412	89.25
454.633	91.25
454.853	83.25
455.073	90.25
455.294	92.25
455.514	84.25
455.734	101.25
455.955	102.25
456.175	84.25
456.395	98.25
456.616	92.25
456.836	96.25
457.056	72.25
457.276	87.25
457.497	75.25
457.717	82.25
457.937	95.25
458.157	89.25
458.377	97.25
458.598	107.25
458.818	126.25
459.038	144.25
459.258	116.25
459.478	99.25
459.698	74.25
459.918	81.25
460.138	87.25
460.358	80.25
460.578	81.25
460.798	96.25
461.018	96.25
461.238	102.25
461.458	81.25
461.678	85.25
461.898	89.25
462.118	95.25
462.338	81.25
462.558	84.25
462.777	83.25
462.997	93.25
463.217	85.25
463.437	82.25
463.657	86.25
463.876	78.25
464.096	92.25
464.316	104.25
464.536	98.25
464.755	95.25
464.975	95.25
465.195	153.25
465.414	141.25
465.634	98.25
465.854	86.25
466.073	83.25
466.293	91.25
466.512	83.25
466.732	89.25
466.951	93.25
467.171	99.25
467.391	86.25
467.61	90.25
467.829	96.25
468.049	81.25
468.268	95.25
468.488	82.25
468.707	87.25
468.927	80.25
469.146	89.25
469.365	88.25
469.585	84.25
469.804	91.25
470.023	92.25
470.243	97.25
470.462	101.25
470.681	116.25
470.901	88.25
471.12	67.25
471.339	85.25
471.558	83.25
471.777	90.25
471.997	94.25
472.216	91.25
472.435	90.25
472.654	105.25
472.873	95.25
473.092	87.25
473.311	75.25
473.53	91.25
473.749	93.25
473.968	90.25
474.187	94.25
474.406	100.25
474.625	88.25
474.844	87.25
475.063	82.25
475.282	84.25
475.501	94.25
475.72	93.25
475.939	87.25
476.158	85.25
476.377	85.25
476.596	86.25
476.814	89.25
477.033	96.25
477.252	91.25
477.471	77.25
477.69	88.25
477.908	86.25
478.127	90.25
478.346	89.25
478.564	79.25
478.783	102.25
479.002	103.25
479.22	86.25
479.439	107.25
479.658	94.25
479.876	100.25
480.095	86.25
480.313	99.25
480.532	88.25
480.751	96.25
480.969	93.25
481.188	106.25
481.406	100.25
481.624	80.25
481.843	80.25
482.061	87.25
482.28	85.25
482.498	94.25
482.717	92.25
482.935	86.25
483.153	87.25
483.372	94.25
483.59	95.25
483.808	78.25
484.027	90.25
484.245	89.25
484.463	90.25
484.681	98.25
484.9	87.25
485.118	104.25
485.336	81.25
485.554	81.25
485.772	96.25
485.99	108.25
486.209	86.25
486.427	105.25
486.645	114.25
486.863	125.25
487.081	98.25
487.299	87.25
487.517	92.25
487.735	95.25
487.953	103.25
488.171	84.25
488.389	85.25
488.607	67.25
488.825	88.25
489.043	94.25
489.261	102.25
489.479	102.25
489.696	80.25
489.914	82.25
490.132	90.25
490.35	80.25
490.568	103.25
490.786	79.25
491.003	78.25
491.221	89.25
491.439	81.25
491.657	97.25
491.874	84.25
492.092	90.25
492.31	80.25
492.527	99.25
492.745	84.25
492.963	89.25
493.18	75.25
493.398	90.25
493.615	90.25
493.833	88.25
494.05	83.25
494.268	83.25
494.485	87.25
494.703	80.25
494.92	81.25
495.138	91.25
495.355	92.25
495.573	85.25
495.79	87.25
496.008	99.25
496.225	89.25
496.442	78.25
496.66	89.25
496.877	86.25
497.094	93.25
497.312	102.25
497.529	93.25
497.746	84.25
497.963	92.25
498.181	87.25
498.398	101.25
498.615	99.25
498.832	109.25
499.049	90.25
499.267	88.25
499.484	85.25
499.701	87.25
499.918	93.25
500.135	86.25
500.352	82.25
500.569	87.25
500.786	87.25
501.003	81.25
501.22	91.25
501.437	101.25
501.654	87.25
501.871	105.25
502.088	97.25
502.305	93.25
502.522	93.25
502.739	89.25
502.956	92.25
503.172	88.25
503.389	101.25
503.606	96.25
503.823	103.25
504.04	104.25
504.256	87.25
504.473	89.25
504.69	88.25
504.907	98.25
505.123	91.25
505.34	80.25
505.557	87.25
505.773	94.25
505.99	92.25
506.207	93.25
506.423	89.25
506.64	96.25
506.856	84.25
507.073	89.25
507.289	111.25
507.506	97.25
507.722	105.25
507.939	101.25
508.155	73.25
508.372	86.25
508.588	90.25
508.805	106.25
509.021	103.25
509.238	110.25
509.454	105.25
509.67	93.25
509.887	106.25
510.103	113.25
510.319	205.25
510.536	701.25
510.752	2045.25
510.968	561.25
511.184	149.25
511.401	109.25
511.617	82.25
511.833	80.25
512.049	83.25
512.265	85.25
512.481	83.25
512.698	82.25
512.914	98.25
513.13	101.25
513.346	84.25
513.562	83.25
513.778	89.25
513.994	99.25
514.21	81.25
514.426	114.25
514.642	122.25
514.858	115.25
515.074	145.25
515.29	397.25
515.506	1281.25
515.721	455.25
515.937	132.25
516.153	94.25
516.369	86.25
