Data from Uncirc_1987_H10_HRD10591_00037.txt Node
Date: Wed Jan 03 12:08:55 EST 2024
User: Yrep
Spectrometer: HR+D1059
Trigger mode: 1
Integration Time (sec): 1.000000E-1
Scans to average: 1
Electric dark correction enabled: true
Nonlinearity correction enabled: false
Boxcar width: 0
XAxis mode: Wavelengths
Number of Pixels in Spectrum: 2048
>>>>>Begin Spectral Data<<<<<
223.165	-26.38
223.4	-26.38
223.635	-26.38
223.869	-29.38
224.104	-16.38
224.338	-11.38
224.573	-8.38
224.808	-12.38
225.042	-25.38
225.277	-4.38
225.511	-8.38
225.746	12.62
225.98	27.62
226.215	0.62
226.449	18.62
226.683	13.62
226.918	34.62
227.152	34.62
227.387	42.62
227.621	50.62
227.856	54.62
228.09	60.62
228.324	49.62
228.559	55.62
228.793	51.62
229.027	59.62
229.262	69.62
229.496	72.62
229.73	90.62
229.964	77.62
230.199	78.62
230.433	79.62
230.667	93.62
230.901	73.62
231.136	66.62
231.37	90.62
231.604	99.62
231.838	82.62
232.072	94.62
232.306	78.62
232.541	63.62
232.775	69.62
233.009	93.62
233.243	94.62
233.477	88.62
233.711	72.62
233.945	92.62
234.179	83.62
234.413	75.62
234.647	77.62
234.881	68.62
235.115	86.62
235.349	80.62
235.583	83.62
235.817	71.62
236.051	83.62
236.285	78.62
236.519	84.62
236.753	79.62
236.987	67.62
237.221	93.62
237.455	84.62
237.689	80.62
237.922	72.62
238.156	70.62
238.39	91.62
238.624	68.62
238.858	74.62
239.091	81.62
239.325	74.62
239.559	94.62
239.793	64.62
240.027	84.62
240.26	76.62
240.494	75.62
240.728	81.62
240.961	74.62
241.195	95.62
241.429	66.62
241.662	82.62
241.896	72.62
242.13	84.62
242.363	80.62
242.597	77.62
242.83	79.62
243.064	73.62
243.298	78.62
243.531	76.62
243.765	74.62
243.998	73.62
244.232	89.62
244.465	86.62
244.699	81.62
244.932	86.62
245.166	81.62
245.399	79.62
245.633	82.62
245.866	84.62
246.099	79.62
246.333	75.62
246.566	74.62
246.8	70.62
247.033	71.62
247.266	77.62
247.5	80.62
247.733	83.62
247.966	70.62
248.2	70.62
248.433	83.62
248.666	86.62
248.899	87.62
249.133	89.62
249.366	99.62
249.599	97.62
249.832	81.62
250.066	82.62
250.299	82.62
250.532	90.62
250.765	89.62
250.998	80.62
251.231	72.62
251.465	86.62
251.698	75.62
251.931	95.62
252.164	86.62
252.397	87.62
252.63	83.62
252.863	72.62
253.096	92.62
253.329	78.62
253.562	71.62
253.795	71.62
254.028	90.62
254.261	84.62
254.494	91.62
254.727	79.62
254.96	65.62
255.193	86.62
255.426	82.62
255.659	83.62
255.892	81.62
256.124	62.62
256.357	78.62
256.59	74.62
256.823	87.62
257.056	88.62
257.289	87.62
257.521	82.62
257.754	88.62
257.987	82.62
258.22	87.62
258.452	86.62
258.685	86.62
258.918	85.62
259.151	97.62
259.383	91.62
259.616	74.62
259.849	74.62
260.081	83.62
260.314	71.62
260.547	78.62
260.779	86.62
261.012	94.62
261.244	89.62
261.477	87.62
261.71	97.62
261.942	110.62
262.175	99.62
262.407	89.62
262.64	87.62
262.872	79.62
263.105	82.62
263.337	84.62
263.57	90.62
263.802	92.62
264.035	85.62
264.267	83.62
264.499	80.62
264.732	81.62
264.964	75.62
265.197	78.62
265.429	70.62
265.661	84.62
265.894	80.62
266.126	83.62
266.358	79.62
266.591	72.62
266.823	78.62
267.055	76.62
267.287	100.62
267.52	55.62
267.752	84.62
267.984	91.62
268.216	90.62
268.448	85.62
268.681	83.62
268.913	84.62
269.145	93.62
269.377	86.62
269.609	90.62
269.841	94.62
270.073	84.62
270.306	73.62
270.538	95.62
270.77	90.62
271.002	78.62
271.234	82.62
271.466	74.62
271.698	80.62
271.93	90.62
272.162	84.62
272.394	95.62
272.626	80.62
272.858	95.62
273.09	80.62
273.322	88.62
273.553	71.62
273.785	76.62
274.017	98.62
274.249	86.62
274.481	92.62
274.713	84.62
274.945	82.62
275.176	80.62
275.408	95.62
275.64	84.62
275.872	84.62
276.104	74.62
276.335	92.62
276.567	84.62
276.799	94.62
277.031	94.62
277.262	92.62
277.494	86.62
277.726	95.62
277.957	79.62
278.189	69.62
278.421	82.62
278.652	88.62
278.884	80.62
279.115	85.62
279.347	96.62
279.579	83.62
279.81	89.62
280.042	84.62
280.273	93.62
280.505	85.62
280.736	75.62
280.968	85.62
281.199	99.62
281.431	94.62
281.662	86.62
281.894	87.62
282.125	81.62
282.356	101.62
282.588	118.62
282.819	112.62
283.051	79.62
283.282	82.62
283.513	106.62
283.745	84.62
283.976	94.62
284.207	82.62
284.439	85.62
284.67	94.62
284.901	94.62
285.132	95.62
285.364	91.62
285.595	93.62
285.826	89.62
286.057	84.62
286.288	86.62
286.52	92.62
286.751	88.62
286.982	70.62
287.213	83.62
287.444	96.62
287.675	83.62
287.906	85.62
288.138	95.62
288.369	98.62
288.6	94.62
288.831	87.62
289.062	92.62
289.293	84.62
289.524	87.62
289.755	92.62
289.986	86.62
290.217	88.62
290.448	100.62
290.679	85.62
290.91	94.62
291.141	81.62
291.371	86.62
291.602	90.62
291.833	92.62
292.064	80.62
292.295	89.62
292.526	95.62
292.757	99.62
292.987	92.62
293.218	91.62
293.449	101.62
293.68	86.62
293.91	98.62
294.141	95.62
294.372	97.62
294.603	103.62
294.833	92.62
295.064	79.62
295.295	86.62
295.525	82.62
295.756	90.62
295.987	112.62
296.217	124.62
296.448	121.62
296.679	92.62
296.909	91.62
297.14	89.62
297.37	101.62
297.601	94.62
297.831	89.62
298.062	84.62
298.292	88.62
298.523	85.62
298.753	83.62
298.984	96.62
299.214	98.62
299.445	92.62
299.675	84.62
299.905	92.62
300.136	86.62
300.366	91.62
300.597	91.62
300.827	90.62
301.057	89.62
301.288	106.62
301.518	85.62
301.748	89.62
301.979	90.62
302.209	94.62
302.439	89.62
302.669	92.62
302.9	95.62
303.13	88.62
303.36	88.62
303.59	89.62
303.82	85.62
304.051	95.62
304.281	86.62
304.511	85.62
304.741	102.62
304.971	80.62
305.201	74.62
305.431	77.62
305.661	105.62
305.891	88.62
306.121	90.62
306.352	112.62
306.582	113.62
306.812	87.62
307.042	85.62
307.272	94.62
307.502	87.62
307.731	92.62
307.961	100.62
308.191	86.62
308.421	97.62
308.651	90.62
308.881	87.62
309.111	99.62
309.341	82.62
309.571	80.62
309.8	82.62
310.03	102.62
310.26	104.62
310.49	99.62
310.72	97.62
310.949	96.62
311.179	97.62
311.409	97.62
311.639	95.62
311.868	99.62
312.098	102.62
312.328	98.62
312.557	96.62
312.787	90.62
313.017	86.62
313.246	94.62
313.476	90.62
313.706	87.62
313.935	95.62
314.165	102.62
314.394	82.62
314.624	90.62
314.853	87.62
315.083	93.62
315.312	88.62
315.542	88.62
315.771	88.62
316.001	92.62
316.23	93.62
316.46	94.62
316.689	90.62
316.919	87.62
317.148	96.62
317.377	98.62
317.607	99.62
317.836	94.62
318.065	98.62
318.295	91.62
318.524	90.62
318.753	86.62
318.983	90.62
319.212	95.62
319.441	94.62
319.67	104.62
319.9	90.62
320.129	86.62
320.358	90.62
320.587	104.62
320.816	99.62
321.046	99.62
321.275	103.62
321.504	97.62
321.733	88.62
321.962	103.62
322.191	112.62
322.42	93.62
322.649	96.62
322.878	114.62
323.108	122.62
323.337	116.62
323.566	113.62
323.795	153.62
324.024	188.62
324.253	338.62
324.482	686.62
324.71	1428.62
324.939	1918.62
325.168	730.62
325.397	221.62
325.626	135.62
325.855	128.62
326.084	127.62
326.313	120.62
326.542	134.62
326.77	204.62
326.999	417.62
327.228	840.62
327.457	1507.62
327.686	1204.62
327.914	330.62
328.143	176.62
328.372	130.62
328.6	119.62
328.829	113.62
329.058	103.62
329.287	117.62
329.515	121.62
329.744	111.62
329.972	100.62
330.201	98.62
330.43	106.62
330.658	123.62
330.887	120.62
331.115	112.62
331.344	111.62
331.572	105.62
331.801	101.62
332.03	106.62
332.258	87.62
332.486	84.62
332.715	79.62
332.943	108.62
333.172	94.62
333.4	102.62
333.629	108.62
333.857	110.62
334.085	104.62
334.314	103.62
334.542	108.62
334.771	86.62
334.999	99.62
335.227	102.62
335.455	81.62
335.684	103.62
335.912	99.62
336.14	83.62
336.369	111.62
336.597	89.62
336.825	104.62
337.053	104.62
337.281	103.62
337.51	98.62
337.738	87.62
337.966	87.62
338.194	87.62
338.422	103.62
338.65	88.62
338.878	91.62
339.106	97.62
339.334	75.62
339.562	104.62
339.79	109.62
340.018	98.62
340.246	91.62
340.474	87.62
340.702	89.62
340.93	94.62
341.158	89.62
341.386	97.62
341.614	99.62
341.842	88.62
342.07	83.62
342.298	84.62
342.526	81.62
342.754	89.62
342.981	87.62
343.209	95.62
343.437	108.62
343.665	90.62
343.893	89.62
344.12	99.62
344.348	78.62
344.576	94.62
344.804	95.62
345.031	96.62
345.259	98.62
345.487	93.62
345.714	98.62
345.942	88.62
346.17	101.62
346.397	92.62
346.625	99.62
346.853	86.62
347.08	96.62
347.308	90.62
347.535	96.62
347.763	94.62
347.99	104.62
348.218	106.62
348.445	108.62
348.673	82.62
348.9	111.62
349.128	103.62
349.355	95.62
349.583	101.62
349.81	87.62
350.037	94.62
350.265	98.62
350.492	101.62
350.72	100.62
350.947	93.62
351.174	98.62
351.402	107.62
351.629	112.62
351.856	95.62
352.083	105.62
352.311	120.62
352.538	105.62
352.765	97.62
352.992	119.62
353.22	96.62
353.447	91.62
353.674	88.62
353.901	106.62
354.128	92.62
354.355	80.62
354.583	111.62
354.81	100.62
355.037	96.62
355.264	94.62
355.491	92.62
355.718	89.62
355.945	105.62
356.172	88.62
356.399	91.62
356.626	95.62
356.853	97.62
357.08	96.62
357.307	94.62
357.534	89.62
357.761	82.62
357.988	101.62
358.215	99.62
358.441	94.62
358.668	104.62
358.895	102.62
359.122	98.62
359.349	95.62
359.576	90.62
359.802	90.62
360.029	100.62
360.256	100.62
360.483	94.62
360.709	92.62
360.936	99.62
361.163	98.62
361.39	93.62
361.616	89.62
361.843	90.62
362.07	93.62
362.296	83.62
362.523	96.62
362.749	87.62
362.976	88.62
363.203	97.62
363.429	102.62
363.656	85.62
363.882	79.62
364.109	87.62
364.335	88.62
364.562	94.62
364.788	96.62
365.015	84.62
365.241	90.62
365.468	99.62
365.694	103.62
365.92	78.62
366.147	78.62
366.373	101.62
366.599	88.62
366.826	98.62
367.052	89.62
367.278	79.62
367.505	83.62
367.731	96.62
367.957	88.62
368.184	82.62
368.41	97.62
368.636	98.62
368.862	122.62
369.089	106.62
369.315	90.62
369.541	90.62
369.767	88.62
369.993	100.62
370.219	82.62
370.445	83.62
370.672	91.62
370.898	102.62
371.124	86.62
371.35	80.62
371.576	90.62
371.802	92.62
372.028	70.62
372.254	81.62
372.48	74.62
372.706	87.62
372.932	90.62
373.158	97.62
373.384	95.62
373.61	96.62
373.835	97.62
374.061	98.62
374.287	85.62
374.513	84.62
374.739	88.62
374.965	98.62
375.191	94.62
375.416	90.62
375.642	82.62
375.868	107.62
376.094	73.62
376.319	92.62
376.545	98.62
376.771	90.62
376.997	87.62
377.222	85.62
377.448	88.62
377.674	87.62
377.899	80.62
378.125	72.62
378.35	96.62
378.576	90.62
378.802	78.62
379.027	92.62
379.253	98.62
379.478	93.62
379.704	96.62
379.929	83.62
380.155	91.62
380.38	100.62
380.606	92.62
380.831	90.62
381.057	99.62
381.282	88.62
381.507	100.62
381.733	91.62
381.958	100.62
382.184	83.62
382.409	92.62
382.634	98.62
382.86	106.62
383.085	105.62
383.31	101.62
383.535	95.62
383.761	100.62
383.986	103.62
384.211	83.62
384.436	85.62
384.662	89.62
384.887	92.62
385.112	103.62
385.337	113.62
385.562	96.62
385.787	99.62
386.013	103.62
386.238	107.62
386.463	105.62
386.688	94.62
386.913	102.62
387.138	84.62
387.363	90.62
387.588	106.62
387.813	103.62
388.038	86.62
388.263	103.62
388.488	105.62
388.713	105.62
388.938	89.62
389.163	95.62
389.387	100.62
389.612	103.62
389.837	83.62
390.062	86.62
390.287	80.62
390.512	87.62
390.736	88.62
390.961	84.62
391.186	86.62
391.411	103.62
391.636	101.62
391.86	86.62
392.085	97.62
392.31	82.62
392.534	70.62
392.759	84.62
392.984	82.62
393.208	88.62
393.433	87.62
393.658	83.62
393.882	93.62
394.107	89.62
394.331	83.62
394.556	68.62
394.78	92.62
395.005	91.62
395.229	86.62
395.454	96.62
395.678	86.62
395.903	95.62
396.127	97.62
396.352	82.62
396.576	84.62
396.801	88.62
397.025	75.62
397.249	87.62
397.474	87.62
397.698	98.62
397.922	83.62
398.147	68.62
398.371	81.62
398.595	86.62
398.82	77.62
399.044	84.62
399.268	92.62
399.492	79.62
399.717	91.62
399.941	90.62
400.165	82.62
400.389	79.62
400.613	83.62
400.837	80.62
401.062	85.62
401.286	78.62
401.51	84.62
401.734	84.62
401.958	94.62
402.182	122.62
402.406	158.62
402.63	106.62
402.854	99.62
403.078	91.62
403.302	88.62
403.526	94.62
403.75	90.62
403.974	75.62
404.198	76.62
404.422	98.62
404.645	81.62
404.869	79.62
405.093	84.62
405.317	88.62
405.541	88.62
405.765	91.62
405.988	108.62
406.212	138.62
406.436	214.62
406.66	116.62
406.883	108.62
407.107	99.62
407.331	84.62
407.555	83.62
407.778	108.62
408.002	79.62
408.226	91.62
408.449	86.62
408.673	83.62
408.896	83.62
409.12	96.62
409.344	89.62
409.567	76.62
409.791	92.62
410.014	97.62
410.238	96.62
410.461	100.62
410.685	100.62
410.908	107.62
411.132	106.62
411.355	89.62
411.578	94.62
411.802	96.62
412.025	74.62
412.249	98.62
412.472	80.62
412.695	79.62
412.919	85.62
413.142	101.62
413.365	90.62
413.589	84.62
413.812	93.62
414.035	106.62
414.258	100.62
414.482	106.62
414.705	100.62
414.928	81.62
415.151	88.62
415.374	91.62
415.597	75.62
415.821	95.62
416.044	86.62
416.267	90.62
416.49	88.62
416.713	86.62
416.936	87.62
417.159	88.62
417.382	89.62
417.605	87.62
417.828	96.62
418.051	95.62
418.274	86.62
418.497	92.62
418.72	95.62
418.943	89.62
419.166	82.62
419.389	87.62
419.611	75.62
419.834	75.62
420.057	65.62
420.28	87.62
420.503	96.62
420.726	88.62
420.948	83.62
421.171	95.62
421.394	101.62
421.617	80.62
421.839	86.62
422.062	108.62
422.285	98.62
422.507	86.62
422.73	109.62
422.953	94.62
423.175	101.62
423.398	87.62
423.621	76.62
423.843	88.62
424.066	92.62
424.288	86.62
424.511	98.62
424.733	107.62
424.956	99.62
425.178	88.62
425.401	106.62
425.623	90.62
425.846	97.62
426.068	95.62
426.291	89.62
426.513	90.62
426.735	97.62
426.958	108.62
427.18	101.62
427.402	114.62
427.625	142.62
427.847	112.62
428.069	102.62
428.292	70.62
428.514	83.62
428.736	96.62
428.958	83.62
429.181	79.62
429.403	89.62
429.625	89.62
429.847	86.62
430.069	93.62
430.292	95.62
430.514	80.62
430.736	99.62
430.958	86.62
431.18	88.62
431.402	91.62
431.624	88.62
431.846	84.62
432.068	107.62
432.29	91.62
432.512	83.62
432.734	79.62
432.956	91.62
433.178	90.62
433.4	105.62
433.622	98.62
433.844	101.62
434.066	101.62
434.287	100.62
434.509	90.62
434.731	78.62
434.953	80.62
435.175	85.62
435.397	81.62
435.618	98.62
435.84	107.62
436.062	110.62
436.284	107.62
436.505	95.62
436.727	96.62
436.949	106.62
437.17	83.62
437.392	80.62
437.614	87.62
437.835	111.62
438.057	116.62
438.278	116.62
438.5	100.62
438.721	113.62
438.943	102.62
439.165	87.62
439.386	96.62
439.608	76.62
439.829	99.62
440.05	108.62
440.272	125.62
440.493	91.62
440.715	102.62
440.936	89.62
441.158	83.62
441.379	87.62
441.6	94.62
441.822	84.62
442.043	90.62
442.264	101.62
442.486	97.62
442.707	94.62
442.928	94.62
443.149	115.62
443.371	133.62
443.592	105.62
443.813	111.62
444.034	97.62
444.255	90.62
444.476	86.62
444.698	91.62
444.919	92.62
445.14	144.62
445.361	124.62
445.582	105.62
445.803	132.62
446.024	137.62
446.245	122.62
446.466	99.62
446.687	81.62
446.908	79.62
447.129	80.62
447.35	90.62
447.571	80.62
447.792	108.62
448.013	105.62
448.234	101.62
448.455	90.62
448.675	115.62
448.896	109.62
449.117	97.62
449.338	89.62
449.559	123.62
449.779	121.62
450	103.62
450.221	85.62
450.442	95.62
450.662	86.62
450.883	100.62
451.104	115.62
451.324	95.62
451.545	95.62
451.766	90.62
451.986	72.62
452.207	88.62
452.428	102.62
452.648	77.62
452.869	107.62
453.089	105.62
453.31	112.62
453.53	92.62
453.751	85.62
453.971	123.62
454.192	109.62
454.412	102.62
454.633	80.62
454.853	92.62
455.073	94.62
455.294	86.62
455.514	102.62
455.734	86.62
455.955	86.62
456.175	80.62
456.395	91.62
456.616	87.62
456.836	79.62
457.056	97.62
457.276	71.62
457.497	73.62
457.717	77.62
457.937	87.62
458.157	84.62
458.377	99.62
458.598	81.62
458.818	128.62
459.038	148.62
459.258	107.62
459.478	80.62
459.698	97.62
459.918	87.62
460.138	103.62
460.358	76.62
460.578	88.62
460.798	85.62
461.018	86.62
461.238	85.62
461.458	83.62
461.678	87.62
461.898	95.62
462.118	79.62
462.338	79.62
462.558	83.62
462.777	89.62
462.997	94.62
463.217	90.62
463.437	99.62
463.657	86.62
463.876	79.62
464.096	80.62
464.316	87.62
464.536	99.62
464.755	105.62
464.975	100.62
465.195	154.62
465.414	133.62
465.634	93.62
465.854	75.62
466.073	99.62
466.293	90.62
466.512	80.62
466.732	85.62
466.951	92.62
467.171	95.62
467.391	93.62
467.61	95.62
467.829	87.62
468.049	92.62
468.268	88.62
468.488	88.62
468.707	86.62
468.927	96.62
469.146	65.62
469.365	85.62
469.585	90.62
469.804	91.62
470.023	90.62
470.243	86.62
470.462	94.62
470.681	104.62
470.901	91.62
471.12	91.62
471.339	89.62
471.558	71.62
471.777	78.62
471.997	89.62
472.216	84.62
472.435	99.62
472.654	97.62
472.873	92.62
473.092	94.62
473.311	83.62
473.53	91.62
473.749	78.62
473.968	89.62
474.187	106.62
474.406	96.62
474.625	94.62
474.844	96.62
475.063	97.62
475.282	85.62
475.501	65.62
475.72	73.62
475.939	89.62
476.158	93.62
476.377	88.62
476.596	83.62
476.814	84.62
477.033	97.62
477.252	81.62
477.471	91.62
477.69	93.62
477.908	79.62
478.127	79.62
478.346	89.62
478.564	87.62
478.783	93.62
479.002	90.62
479.22	83.62
479.439	89.62
479.658	98.62
479.876	82.62
480.095	92.62
480.313	88.62
480.532	83.62
480.751	99.62
480.969	100.62
481.188	98.62
481.406	106.62
481.624	91.62
481.843	95.62
482.061	92.62
482.28	90.62
482.498	91.62
482.717	88.62
482.935	99.62
483.153	104.62
483.372	86.62
483.59	96.62
483.808	83.62
484.027	88.62
484.245	94.62
484.463	87.62
484.681	102.62
484.9	107.62
485.118	102.62
485.336	100.62
485.554	88.62
485.772	99.62
485.99	94.62
486.209	96.62
486.427	115.62
486.645	109.62
486.863	101.62
487.081	103.62
487.299	89.62
487.517	105.62
487.735	85.62
487.953	101.62
488.171	95.62
488.389	95.62
488.607	100.62
488.825	98.62
489.043	85.62
489.261	101.62
489.479	73.62
489.696	87.62
489.914	89.62
490.132	102.62
490.35	94.62
490.568	96.62
490.786	89.62
491.003	91.62
491.221	91.62
491.439	90.62
491.657	90.62
491.874	100.62
492.092	102.62
492.31	83.62
492.527	94.62
492.745	84.62
492.963	92.62
493.18	96.62
493.398	87.62
493.615	103.62
493.833	90.62
494.05	91.62
494.268	98.62
494.485	95.62
494.703	103.62
494.92	79.62
495.138	84.62
495.355	108.62
495.573	100.62
495.79	93.62
496.008	84.62
496.225	93.62
496.442	97.62
496.66	82.62
496.877	99.62
497.094	79.62
497.312	82.62
497.529	83.62
497.746	90.62
497.963	96.62
498.181	98.62
498.398	104.62
498.615	110.62
498.832	101.62
499.049	103.62
499.267	95.62
499.484	96.62
499.701	92.62
499.918	82.62
500.135	82.62
500.352	87.62
500.569	86.62
500.786	106.62
501.003	84.62
501.22	92.62
501.437	92.62
501.654	82.62
501.871	100.62
502.088	84.62
502.305	96.62
502.522	97.62
502.739	92.62
502.956	96.62
503.172	101.62
503.389	88.62
503.606	97.62
503.823	91.62
504.04	90.62
504.256	100.62
504.473	93.62
504.69	79.62
504.907	86.62
505.123	86.62
505.34	89.62
505.557	104.62
505.773	94.62
505.99	91.62
506.207	83.62
506.423	81.62
506.64	109.62
506.856	83.62
507.073	87.62
507.289	102.62
507.506	89.62
507.722	99.62
507.939	102.62
508.155	82.62
508.372	95.62
508.588	98.62
508.805	92.62
509.021	84.62
509.238	91.62
509.454	105.62
509.67	102.62
509.887	112.62
510.103	121.62
510.319	179.62
510.536	633.62
510.752	1911.62
510.968	538.62
511.184	147.62
511.401	103.62
511.617	103.62
511.833	82.62
512.049	88.62
512.265	91.62
512.481	103.62
512.698	98.62
512.914	74.62
513.13	85.62
513.346	96.62
513.562	87.62
513.778	89.62
513.994	106.62
514.21	86.62
514.426	102.62
514.642	120.62
514.858	121.62
515.074	144.62
515.29	373.62
515.506	1150.62
515.721	414.62
515.937	132.62
