Data from Uncirc_1987_H10_HRD10591_00078.txt Node
Date: Wed Jan 03 12:09:04 EST 2024
User: Yrep
Spectrometer: HR+D1059
Trigger mode: 1
Integration Time (sec): 1.000000E-1
Scans to average: 1
Electric dark correction enabled: true
Nonlinearity correction enabled: false
Boxcar width: 0
XAxis mode: Wavelengths
Number of Pixels in Spectrum: 2048
>>>>>Begin Spectral Data<<<<<
223.165	-25.44
223.4	-25.44
223.635	-25.44
223.869	-14.44
224.104	-4.44
224.338	-13.44
224.573	-23.44
224.808	-17.44
225.042	-12.44
225.277	-7.44
225.511	4.56
225.746	8.56
225.98	5.56
226.215	6.56
226.449	15.56
226.683	16.56
226.918	19.56
227.152	41.56
227.387	22.56
227.621	40.56
227.856	43.56
228.09	45.56
228.324	56.56
228.559	50.56
228.793	47.56
229.027	60.56
229.262	67.56
229.496	65.56
229.73	63.56
229.964	83.56
230.199	75.56
230.433	72.56
230.667	78.56
230.901	79.56
231.136	72.56
231.37	67.56
231.604	72.56
231.838	82.56
232.072	89.56
232.306	77.56
232.541	80.56
232.775	78.56
233.009	79.56
233.243	73.56
233.477	75.56
233.711	74.56
233.945	94.56
234.179	63.56
234.413	72.56
234.647	81.56
234.881	78.56
235.115	91.56
235.349	71.56
235.583	73.56
235.817	88.56
236.051	75.56
236.285	71.56
236.519	89.56
236.753	75.56
236.987	89.56
237.221	69.56
237.455	79.56
237.689	53.56
237.922	69.56
238.156	76.56
238.39	84.56
238.624	61.56
238.858	78.56
239.091	79.56
239.325	71.56
239.559	85.56
239.793	93.56
240.027	76.56
240.26	66.56
240.494	77.56
240.728	81.56
240.961	83.56
241.195	63.56
241.429	72.56
241.662	68.56
241.896	77.56
242.13	75.56
242.363	80.56
242.597	68.56
242.83	77.56
243.064	75.56
243.298	65.56
243.531	69.56
243.765	85.56
243.998	79.56
244.232	85.56
244.465	88.56
244.699	80.56
244.932	86.56
245.166	67.56
245.399	87.56
245.633	75.56
245.866	84.56
246.099	68.56
246.333	87.56
246.566	75.56
246.8	75.56
247.033	83.56
247.266	88.56
247.5	87.56
247.733	67.56
247.966	70.56
248.2	75.56
248.433	73.56
248.666	83.56
248.899	82.56
249.133	73.56
249.366	83.56
249.599	97.56
249.832	86.56
250.066	78.56
250.299	85.56
250.532	86.56
250.765	70.56
250.998	70.56
251.231	68.56
251.465	82.56
251.698	63.56
251.931	77.56
252.164	93.56
252.397	74.56
252.63	84.56
252.863	92.56
253.096	78.56
253.329	76.56
253.562	79.56
253.795	82.56
254.028	81.56
254.261	71.56
254.494	91.56
254.727	77.56
254.96	86.56
255.193	70.56
255.426	71.56
255.659	83.56
255.892	72.56
256.124	76.56
256.357	83.56
256.59	79.56
256.823	80.56
257.056	76.56
257.289	89.56
257.521	70.56
257.754	96.56
257.987	77.56
258.22	76.56
258.452	83.56
258.685	85.56
258.918	79.56
259.151	80.56
259.383	88.56
259.616	80.56
259.849	73.56
260.081	78.56
260.314	60.56
260.547	91.56
260.779	84.56
261.012	84.56
261.244	87.56
261.477	94.56
261.71	84.56
261.942	110.56
262.175	104.56
262.407	95.56
262.64	77.56
262.872	88.56
263.105	79.56
263.337	83.56
263.57	77.56
263.802	80.56
264.035	76.56
264.267	86.56
264.499	85.56
264.732	89.56
264.964	86.56
265.197	71.56
265.429	79.56
265.661	74.56
265.894	77.56
266.126	83.56
266.358	79.56
266.591	77.56
266.823	90.56
267.055	68.56
267.287	77.56
267.52	68.56
267.752	84.56
267.984	82.56
268.216	79.56
268.448	85.56
268.681	70.56
268.913	83.56
269.145	94.56
269.377	86.56
269.609	79.56
269.841	86.56
270.073	81.56
270.306	77.56
270.538	92.56
270.77	68.56
271.002	76.56
271.234	83.56
271.466	81.56
271.698	73.56
271.93	91.56
272.162	79.56
272.394	81.56
272.626	79.56
272.858	73.56
273.09	85.56
273.322	82.56
273.553	65.56
273.785	75.56
274.017	101.56
274.249	84.56
274.481	83.56
274.713	70.56
274.945	81.56
275.176	83.56
275.408	71.56
275.64	85.56
275.872	84.56
276.104	80.56
276.335	89.56
276.567	95.56
276.799	107.56
277.031	85.56
277.262	84.56
277.494	75.56
277.726	77.56
277.957	67.56
278.189	86.56
278.421	59.56
278.652	83.56
278.884	87.56
279.115	76.56
279.347	93.56
279.579	88.56
279.81	66.56
280.042	105.56
280.273	74.56
280.505	94.56
280.736	79.56
280.968	84.56
281.199	87.56
281.431	92.56
281.662	100.56
281.894	83.56
282.125	77.56
282.356	111.56
282.588	119.56
282.819	111.56
283.051	93.56
283.282	105.56
283.513	76.56
283.745	84.56
283.976	85.56
284.207	87.56
284.439	83.56
284.67	95.56
284.901	88.56
285.132	75.56
285.364	81.56
285.595	73.56
285.826	73.56
286.057	86.56
286.288	81.56
286.52	96.56
286.751	75.56
286.982	90.56
287.213	79.56
287.444	85.56
287.675	77.56
287.906	84.56
288.138	73.56
288.369	89.56
288.6	90.56
288.831	88.56
289.062	89.56
289.293	75.56
289.524	92.56
289.755	87.56
289.986	82.56
290.217	76.56
290.448	93.56
290.679	94.56
290.91	93.56
291.141	85.56
291.371	91.56
291.602	95.56
291.833	81.56
292.064	81.56
292.295	79.56
292.526	89.56
292.757	100.56
292.987	94.56
293.218	77.56
293.449	75.56
293.68	89.56
293.91	73.56
294.141	79.56
294.372	92.56
294.603	93.56
294.833	92.56
295.064	96.56
295.295	86.56
295.525	84.56
295.756	102.56
295.987	109.56
296.217	123.56
296.448	121.56
296.679	95.56
296.909	99.56
297.14	110.56
297.37	93.56
297.601	88.56
297.831	88.56
298.062	106.56
298.292	82.56
298.523	83.56
298.753	85.56
298.984	92.56
299.214	88.56
299.445	80.56
299.675	92.56
299.905	83.56
300.136	104.56
300.366	75.56
300.597	88.56
300.827	104.56
301.057	94.56
301.288	87.56
301.518	98.56
301.748	81.56
301.979	100.56
302.209	97.56
302.439	85.56
302.669	97.56
302.9	95.56
303.13	85.56
303.36	77.56
303.59	97.56
303.82	96.56
304.051	96.56
304.281	88.56
304.511	96.56
304.741	81.56
304.971	86.56
305.201	94.56
305.431	91.56
305.661	100.56
305.891	92.56
306.121	102.56
306.352	91.56
306.582	100.56
306.812	94.56
307.042	88.56
307.272	89.56
307.502	89.56
307.731	83.56
307.961	86.56
308.191	87.56
308.421	83.56
308.651	86.56
308.881	92.56
309.111	88.56
309.341	79.56
309.571	87.56
309.8	95.56
310.03	102.56
310.26	102.56
310.49	93.56
310.72	94.56
310.949	110.56
311.179	102.56
311.409	80.56
311.639	98.56
311.868	79.56
312.098	78.56
312.328	97.56
312.557	89.56
312.787	113.56
313.017	78.56
313.246	99.56
313.476	81.56
313.706	111.56
313.935	87.56
314.165	95.56
314.394	112.56
314.624	99.56
314.853	80.56
315.083	77.56
315.312	83.56
315.542	87.56
315.771	81.56
316.001	101.56
316.23	95.56
316.46	93.56
316.689	80.56
316.919	85.56
317.148	97.56
317.377	91.56
317.607	99.56
317.836	97.56
318.065	92.56
318.295	91.56
318.524	104.56
318.753	91.56
318.983	81.56
319.212	101.56
319.441	104.56
319.67	114.56
319.9	95.56
320.129	97.56
320.358	91.56
320.587	94.56
320.816	95.56
321.046	100.56
321.275	93.56
321.504	90.56
321.733	96.56
321.962	97.56
322.191	90.56
322.42	92.56
322.649	94.56
322.878	106.56
323.108	110.56
323.337	112.56
323.566	125.56
323.795	158.56
324.024	200.56
324.253	357.56
324.482	731.56
324.71	1509.56
324.939	2055.56
325.168	750.56
325.397	235.56
325.626	152.56
325.855	118.56
326.084	117.56
326.313	122.56
326.542	146.56
326.77	207.56
326.999	397.56
327.228	855.56
327.457	1558.56
327.686	1244.56
327.914	344.56
328.143	183.56
328.372	143.56
328.6	113.56
328.829	120.56
329.058	122.56
329.287	114.56
329.515	106.56
329.744	109.56
329.972	111.56
330.201	103.56
330.43	123.56
330.658	140.56
330.887	128.56
331.115	114.56
331.344	87.56
331.572	111.56
331.801	98.56
332.03	101.56
332.258	90.56
332.486	89.56
332.715	89.56
332.943	89.56
333.172	109.56
333.4	100.56
333.629	117.56
333.857	111.56
334.085	104.56
334.314	97.56
334.542	112.56
334.771	120.56
334.999	102.56
335.227	88.56
335.455	94.56
335.684	92.56
335.912	80.56
336.14	97.56
336.369	98.56
336.597	93.56
336.825	87.56
337.053	77.56
337.281	83.56
337.51	97.56
337.738	95.56
337.966	93.56
338.194	98.56
338.422	93.56
338.65	100.56
338.878	97.56
339.106	91.56
339.334	91.56
339.562	87.56
339.79	93.56
340.018	91.56
340.246	97.56
340.474	96.56
340.702	95.56
340.93	78.56
341.158	104.56
341.386	101.56
341.614	91.56
341.842	103.56
342.07	81.56
342.298	96.56
342.526	95.56
342.754	95.56
342.981	94.56
343.209	98.56
343.437	104.56
343.665	81.56
343.893	92.56
344.12	89.56
344.348	93.56
344.576	94.56
344.804	85.56
345.031	101.56
345.259	107.56
345.487	93.56
345.714	94.56
345.942	100.56
346.17	99.56
346.397	82.56
346.625	108.56
346.853	97.56
347.08	83.56
347.308	83.56
347.535	85.56
347.763	87.56
347.99	99.56
348.218	101.56
348.445	108.56
348.673	96.56
348.9	97.56
349.128	100.56
349.355	83.56
349.583	91.56
349.81	94.56
350.037	89.56
350.265	78.56
350.492	87.56
350.72	84.56
350.947	115.56
351.174	100.56
351.402	111.56
351.629	94.56
351.856	98.56
352.083	101.56
352.311	101.56
352.538	98.56
352.765	111.56
352.992	106.56
353.22	101.56
353.447	91.56
353.674	95.56
353.901	95.56
354.128	101.56
354.355	88.56
354.583	102.56
354.81	93.56
355.037	79.56
355.264	97.56
355.491	94.56
355.718	96.56
355.945	97.56
356.172	85.56
356.399	92.56
356.626	81.56
356.853	91.56
357.08	89.56
357.307	80.56
357.534	96.56
357.761	84.56
357.988	88.56
358.215	87.56
358.441	86.56
358.668	76.56
358.895	79.56
359.122	85.56
359.349	83.56
359.576	86.56
359.802	81.56
360.029	89.56
360.256	89.56
360.483	94.56
360.709	85.56
360.936	93.56
361.163	99.56
361.39	101.56
361.616	91.56
361.843	90.56
362.07	85.56
362.296	95.56
362.523	89.56
362.749	94.56
362.976	85.56
363.203	83.56
363.429	81.56
363.656	99.56
363.882	94.56
364.109	87.56
364.335	89.56
364.562	97.56
364.788	102.56
365.015	81.56
365.241	116.56
365.468	104.56
365.694	122.56
365.92	98.56
366.147	88.56
366.373	91.56
366.599	92.56
366.826	97.56
367.052	86.56
367.278	83.56
367.505	87.56
367.731	87.56
367.957	94.56
368.184	86.56
368.41	102.56
368.636	105.56
368.862	102.56
369.089	112.56
369.315	95.56
369.541	81.56
369.767	94.56
369.993	78.56
370.219	87.56
370.445	72.56
370.672	87.56
370.898	89.56
371.124	90.56
371.35	77.56
371.576	79.56
371.802	85.56
372.028	79.56
372.254	79.56
372.48	97.56
372.706	70.56
372.932	78.56
373.158	94.56
373.384	91.56
373.61	98.56
373.835	94.56
374.061	97.56
374.287	76.56
374.513	82.56
374.739	91.56
374.965	100.56
375.191	97.56
375.416	100.56
375.642	98.56
375.868	83.56
376.094	95.56
376.319	83.56
376.545	93.56
376.771	89.56
376.997	75.56
377.222	92.56
377.448	83.56
377.674	80.56
377.899	95.56
378.125	103.56
378.35	81.56
378.576	77.56
378.802	88.56
379.027	101.56
379.253	88.56
379.478	98.56
379.704	100.56
379.929	98.56
380.155	92.56
380.38	100.56
380.606	84.56
380.831	90.56
381.057	105.56
381.282	99.56
381.507	95.56
381.733	87.56
381.958	81.56
382.184	109.56
382.409	83.56
382.634	77.56
382.86	88.56
383.085	103.56
383.31	90.56
383.535	103.56
383.761	104.56
383.986	107.56
384.211	97.56
384.436	89.56
384.662	85.56
384.887	96.56
385.112	91.56
385.337	86.56
385.562	94.56
385.787	100.56
386.013	108.56
386.238	93.56
386.463	114.56
386.688	94.56
386.913	102.56
387.138	97.56
387.363	93.56
387.588	100.56
387.813	89.56
388.038	90.56
388.263	94.56
388.488	100.56
388.713	92.56
388.938	99.56
389.163	89.56
389.387	103.56
389.612	94.56
389.837	91.56
390.062	103.56
390.287	99.56
390.512	87.56
390.736	92.56
390.961	88.56
391.186	103.56
391.411	95.56
391.636	89.56
391.86	79.56
392.085	98.56
392.31	83.56
392.534	79.56
392.759	88.56
392.984	85.56
393.208	80.56
393.433	81.56
393.658	82.56
393.882	83.56
394.107	91.56
394.331	84.56
394.556	91.56
394.78	86.56
395.005	86.56
395.229	97.56
395.454	91.56
395.678	80.56
395.903	82.56
396.127	96.56
396.352	78.56
396.576	93.56
396.801	66.56
397.025	79.56
397.249	77.56
397.474	71.56
397.698	94.56
397.922	80.56
398.147	86.56
398.371	73.56
398.595	73.56
398.82	94.56
399.044	97.56
399.268	79.56
399.492	89.56
399.717	94.56
399.941	83.56
400.165	88.56
400.389	87.56
400.613	75.56
400.837	83.56
401.062	87.56
401.286	91.56
401.51	89.56
401.734	85.56
401.958	99.56
402.182	119.56
402.406	132.56
402.63	105.56
402.854	79.56
403.078	75.56
403.302	86.56
403.526	85.56
403.75	91.56
403.974	73.56
404.198	87.56
404.422	99.56
404.645	80.56
404.869	77.56
405.093	88.56
405.317	86.56
405.541	97.56
405.765	96.56
405.988	108.56
406.212	161.56
406.436	207.56
406.66	134.56
406.883	93.56
407.107	81.56
407.331	100.56
407.555	104.56
407.778	85.56
408.002	91.56
408.226	84.56
408.449	72.56
408.673	86.56
408.896	95.56
409.12	96.56
409.344	87.56
409.567	93.56
409.791	83.56
410.014	70.56
410.238	92.56
410.461	93.56
410.685	89.56
410.908	103.56
411.132	95.56
411.355	88.56
411.578	95.56
411.802	93.56
412.025	97.56
412.249	91.56
412.472	93.56
412.695	86.56
412.919	98.56
413.142	94.56
413.365	75.56
413.589	80.56
413.812	94.56
414.035	88.56
414.258	81.56
414.482	80.56
414.705	81.56
414.928	86.56
415.151	80.56
415.374	84.56
415.597	81.56
415.821	92.56
416.044	81.56
416.267	95.56
416.49	94.56
416.713	84.56
416.936	81.56
417.159	91.56
417.382	84.56
417.605	87.56
417.828	94.56
418.051	85.56
418.274	89.56
418.497	79.56
418.72	80.56
418.943	67.56
419.166	87.56
419.389	85.56
419.611	78.56
419.834	87.56
420.057	70.56
420.28	83.56
420.503	86.56
420.726	87.56
420.948	102.56
421.171	91.56
421.394	108.56
421.617	88.56
421.839	89.56
422.062	80.56
422.285	91.56
422.507	84.56
422.73	102.56
422.953	89.56
423.175	83.56
423.398	75.56
423.621	95.56
423.843	92.56
424.066	73.56
424.288	94.56
424.511	81.56
424.733	92.56
424.956	98.56
425.178	81.56
425.401	100.56
425.623	104.56
425.846	82.56
426.068	100.56
426.291	77.56
426.513	86.56
426.735	81.56
426.958	88.56
427.18	102.56
427.402	126.56
427.625	140.56
427.847	120.56
428.069	105.56
428.292	96.56
428.514	79.56
428.736	79.56
428.958	88.56
429.181	92.56
429.403	82.56
429.625	81.56
429.847	97.56
430.069	100.56
430.292	94.56
430.514	98.56
430.736	81.56
430.958	82.56
431.18	79.56
431.402	86.56
431.624	72.56
431.846	90.56
432.068	91.56
432.29	80.56
432.512	79.56
432.734	84.56
432.956	82.56
433.178	95.56
433.4	85.56
433.622	89.56
433.844	76.56
434.066	93.56
434.287	88.56
434.509	99.56
434.731	88.56
434.953	94.56
435.175	89.56
435.397	90.56
435.618	96.56
435.84	93.56
436.062	119.56
436.284	113.56
436.505	100.56
436.727	96.56
436.949	96.56
437.17	89.56
437.392	86.56
437.614	96.56
437.835	100.56
438.057	111.56
438.278	95.56
438.5	85.56
438.721	127.56
438.943	95.56
439.165	81.56
439.386	80.56
439.608	94.56
439.829	93.56
440.05	112.56
440.272	132.56
440.493	99.56
440.715	95.56
440.936	80.56
441.158	87.56
441.379	92.56
441.6	94.56
441.822	97.56
442.043	95.56
442.264	101.56
442.486	96.56
442.707	96.56
442.928	101.56
443.149	115.56
443.371	119.56
443.592	97.56
443.813	110.56
444.034	107.56
444.255	84.56
444.476	93.56
444.698	99.56
444.919	91.56
445.14	130.56
445.361	107.56
445.582	109.56
445.803	126.56
446.024	128.56
446.245	126.56
446.466	118.56
446.687	86.56
446.908	86.56
447.129	80.56
447.35	89.56
447.571	88.56
447.792	85.56
448.013	86.56
448.234	91.56
448.455	91.56
448.675	114.56
448.896	115.56
449.117	92.56
449.338	99.56
449.559	126.56
449.779	133.56
450	96.56
450.221	93.56
450.442	80.56
450.662	100.56
450.883	88.56
451.104	112.56
451.324	86.56
451.545	98.56
451.766	85.56
451.986	58.56
452.207	82.56
452.428	79.56
452.648	85.56
452.869	100.56
453.089	102.56
453.31	100.56
453.53	84.56
453.751	92.56
453.971	96.56
454.192	96.56
454.412	81.56
454.633	91.56
454.853	81.56
455.073	74.56
455.294	84.56
455.514	100.56
455.734	87.56
455.955	76.56
456.175	85.56
456.395	84.56
456.616	89.56
456.836	85.56
457.056	83.56
457.276	67.56
457.497	75.56
457.717	76.56
457.937	102.56
458.157	80.56
458.377	87.56
458.598	89.56
458.818	131.56
459.038	127.56
459.258	97.56
459.478	84.56
459.698	83.56
459.918	86.56
460.138	86.56
460.358	59.56
460.578	79.56
460.798	93.56
461.018	81.56
461.238	83.56
461.458	100.56
461.678	97.56
461.898	85.56
462.118	106.56
462.338	87.56
462.558	83.56
462.777	75.56
462.997	80.56
463.217	79.56
463.437	95.56
463.657	89.56
463.876	87.56
464.096	83.56
464.316	85.56
464.536	89.56
464.755	86.56
464.975	84.56
465.195	147.56
465.414	139.56
465.634	98.56
465.854	77.56
466.073	86.56
466.293	93.56
466.512	86.56
466.732	86.56
466.951	90.56
467.171	89.56
467.391	100.56
467.61	91.56
467.829	99.56
468.049	96.56
468.268	92.56
468.488	83.56
468.707	88.56
468.927	81.56
469.146	82.56
469.365	81.56
469.585	96.56
469.804	82.56
470.023	89.56
470.243	81.56
470.462	98.56
470.681	95.56
470.901	91.56
471.12	84.56
471.339	89.56
471.558	91.56
471.777	88.56
471.997	88.56
472.216	106.56
472.435	97.56
472.654	85.56
472.873	80.56
473.092	90.56
473.311	95.56
473.53	101.56
473.749	93.56
473.968	82.56
474.187	95.56
474.406	87.56
474.625	87.56
474.844	94.56
475.063	84.56
475.282	92.56
475.501	79.56
475.72	96.56
475.939	75.56
476.158	92.56
476.377	69.56
476.596	80.56
476.814	83.56
477.033	84.56
477.252	95.56
477.471	83.56
477.69	80.56
477.908	80.56
478.127	98.56
478.346	84.56
478.564	104.56
478.783	99.56
479.002	91.56
479.22	81.56
479.439	91.56
479.658	95.56
479.876	111.56
480.095	85.56
480.313	85.56
480.532	84.56
480.751	94.56
480.969	107.56
481.188	149.56
481.406	120.56
481.624	96.56
481.843	93.56
482.061	79.56
482.28	71.56
482.498	88.56
482.717	92.56
482.935	95.56
483.153	96.56
483.372	81.56
483.59	81.56
483.808	85.56
484.027	102.56
484.245	73.56
484.463	93.56
484.681	100.56
484.9	95.56
485.118	89.56
485.336	104.56
485.554	93.56
485.772	95.56
485.99	99.56
486.209	93.56
486.427	89.56
486.645	91.56
486.863	97.56
487.081	98.56
487.299	98.56
487.517	98.56
487.735	78.56
487.953	79.56
488.171	99.56
488.389	78.56
488.607	102.56
488.825	97.56
489.043	91.56
489.261	80.56
489.479	100.56
489.696	85.56
489.914	96.56
490.132	81.56
490.35	88.56
490.568	79.56
490.786	70.56
491.003	82.56
491.221	103.56
491.439	105.56
491.657	107.56
491.874	93.56
492.092	92.56
492.31	93.56
492.527	94.56
492.745	88.56
492.963	82.56
493.18	87.56
493.398	89.56
493.615	96.56
493.833	79.56
494.05	83.56
494.268	95.56
494.485	109.56
494.703	91.56
494.92	87.56
495.138	88.56
495.355	93.56
495.573	96.56
495.79	79.56
496.008	92.56
496.225	89.56
496.442	87.56
496.66	86.56
496.877	90.56
497.094	96.56
497.312	88.56
497.529	90.56
497.746	87.56
497.963	77.56
498.181	87.56
498.398	85.56
498.615	104.56
498.832	104.56
499.049	80.56
499.267	97.56
499.484	94.56
499.701	83.56
499.918	80.56
500.135	99.56
500.352	78.56
500.569	94.56
500.786	88.56
501.003	71.56
501.22	82.56
501.437	92.56
501.654	82.56
501.871	104.56
502.088	96.56
502.305	100.56
502.522	77.56
502.739	81.56
502.956	79.56
503.172	97.56
503.389	94.56
503.606	87.56
503.823	99.56
504.04	90.56
504.256	100.56
504.473	81.56
504.69	79.56
504.907	89.56
505.123	75.56
505.34	96.56
505.557	89.56
505.773	97.56
505.99	100.56
506.207	104.56
506.423	88.56
506.64	88.56
506.856	77.56
507.073	100.56
507.289	100.56
507.506	89.56
507.722	109.56
507.939	101.56
508.155	96.56
508.372	94.56
508.588	97.56
508.805	97.56
509.021	82.56
509.238	105.56
509.454	117.56
509.67	111.56
509.887	99.56
510.103	129.56
510.319	197.56
510.536	681.56
510.752	2147.56
510.968	579.56
511.184	147.56
511.401	104.56
511.617	100.56
511.833	114.56
512.049	70.56
512.265	89.56
512.481	77.56
512.698	84.56
512.914	85.56
513.13	83.56
513.346	93.56
513.562	102.56
513.778	103.56
513.994	101.56
514.21	96.56
514.426	119.56
514.642	102.56
514.858	116.56
515.074	162.56
515.29	395.56
515.506	1303.56
515.721	479.56
515.937	146.56
516.153	103.56
516.369	106.56
516.585	75.56
