Data from Uncirc_1987_H10_HRD10591_00051.txt Node
Date: Wed Jan 03 12:08:58 EST 2024
User: Yrep
Spectrometer: HR+D1059
Trigger mode: 1
Integration Time (sec): 1.000000E-1
Scans to average: 1
Electric dark correction enabled: true
Nonlinearity correction enabled: false
Boxcar width: 0
XAxis mode: Wavelengths
Number of Pixels in Spectrum: 2048
>>>>>Begin Spectral Data<<<<<
223.165	-13.62
223.4	-13.62
223.635	-13.62
223.869	-16.62
224.104	-35.62
224.338	-28.62
224.573	-4.62
224.808	-6.62
225.042	-4.62
225.277	2.38
225.511	-0.62
225.746	3.38
225.98	6.38
226.215	22.38
226.449	4.38
226.683	20.38
226.918	19.38
227.152	32.38
227.387	41.38
227.621	41.38
227.856	50.38
228.09	52.38
228.324	52.38
228.559	50.38
228.793	59.38
229.027	81.38
229.262	78.38
229.496	70.38
229.73	83.38
229.964	100.38
230.199	92.38
230.433	77.38
230.667	90.38
230.901	90.38
231.136	88.38
231.37	90.38
231.604	97.38
231.838	89.38
232.072	77.38
232.306	84.38
232.541	85.38
232.775	75.38
233.009	85.38
233.243	85.38
233.477	83.38
233.711	91.38
233.945	91.38
234.179	88.38
234.413	92.38
234.647	91.38
234.881	89.38
235.115	76.38
235.349	101.38
235.583	77.38
235.817	91.38
236.051	82.38
236.285	75.38
236.519	73.38
236.753	87.38
236.987	95.38
237.221	84.38
237.455	81.38
237.689	75.38
237.922	88.38
238.156	88.38
238.39	78.38
238.624	87.38
238.858	85.38
239.091	87.38
239.325	89.38
239.559	88.38
239.793	87.38
240.027	91.38
240.26	84.38
240.494	87.38
240.728	86.38
240.961	73.38
241.195	77.38
241.429	87.38
241.662	88.38
241.896	85.38
242.13	76.38
242.363	80.38
242.597	70.38
242.83	83.38
243.064	70.38
243.298	65.38
243.531	82.38
243.765	77.38
243.998	80.38
244.232	89.38
244.465	78.38
244.699	73.38
244.932	81.38
245.166	90.38
245.399	87.38
245.633	90.38
245.866	83.38
246.099	81.38
246.333	77.38
246.566	75.38
246.8	78.38
247.033	90.38
247.266	81.38
247.5	87.38
247.733	75.38
247.966	81.38
248.2	76.38
248.433	77.38
248.666	100.38
248.899	85.38
249.133	81.38
249.366	100.38
249.599	83.38
249.832	93.38
250.066	106.38
250.299	95.38
250.532	74.38
250.765	90.38
250.998	97.38
251.231	81.38
251.465	83.38
251.698	78.38
251.931	94.38
252.164	79.38
252.397	88.38
252.63	83.38
252.863	93.38
253.096	85.38
253.329	90.38
253.562	79.38
253.795	84.38
254.028	85.38
254.261	87.38
254.494	96.38
254.727	100.38
254.96	86.38
255.193	93.38
255.426	85.38
255.659	97.38
255.892	92.38
256.124	87.38
256.357	82.38
256.59	92.38
256.823	75.38
257.056	94.38
257.289	87.38
257.521	97.38
257.754	79.38
257.987	94.38
258.22	89.38
258.452	87.38
258.685	90.38
258.918	78.38
259.151	76.38
259.383	95.38
259.616	85.38
259.849	88.38
260.081	90.38
260.314	86.38
260.547	92.38
260.779	95.38
261.012	86.38
261.244	81.38
261.477	100.38
261.71	90.38
261.942	112.38
262.175	105.38
262.407	90.38
262.64	85.38
262.872	89.38
263.105	70.38
263.337	62.38
263.57	74.38
263.802	90.38
264.035	71.38
264.267	82.38
264.499	87.38
264.732	94.38
264.964	91.38
265.197	89.38
265.429	85.38
265.661	102.38
265.894	98.38
266.126	102.38
266.358	73.38
266.591	85.38
266.823	78.38
267.055	85.38
267.287	78.38
267.52	95.38
267.752	93.38
267.984	85.38
268.216	87.38
268.448	82.38
268.681	87.38
268.913	78.38
269.145	77.38
269.377	94.38
269.609	87.38
269.841	93.38
270.073	93.38
270.306	87.38
270.538	90.38
270.77	89.38
271.002	73.38
271.234	88.38
271.466	94.38
271.698	98.38
271.93	78.38
272.162	83.38
272.394	102.38
272.626	81.38
272.858	97.38
273.09	92.38
273.322	100.38
273.553	90.38
273.785	84.38
274.017	92.38
274.249	90.38
274.481	90.38
274.713	89.38
274.945	99.38
275.176	89.38
275.408	103.38
275.64	77.38
275.872	87.38
276.104	85.38
276.335	98.38
276.567	114.38
276.799	106.38
277.031	105.38
277.262	91.38
277.494	78.38
277.726	88.38
277.957	105.38
278.189	83.38
278.421	91.38
278.652	87.38
278.884	77.38
279.115	86.38
279.347	88.38
279.579	87.38
279.81	84.38
280.042	84.38
280.273	102.38
280.505	96.38
280.736	91.38
280.968	89.38
281.199	96.38
281.431	92.38
281.662	91.38
281.894	88.38
282.125	91.38
282.356	122.38
282.588	155.38
282.819	116.38
283.051	94.38
283.282	83.38
283.513	90.38
283.745	87.38
283.976	88.38
284.207	94.38
284.439	90.38
284.67	86.38
284.901	85.38
285.132	95.38
285.364	84.38
285.595	94.38
285.826	85.38
286.057	92.38
286.288	85.38
286.52	96.38
286.751	80.38
286.982	77.38
287.213	85.38
287.444	95.38
287.675	96.38
287.906	85.38
288.138	85.38
288.369	84.38
288.6	95.38
288.831	90.38
289.062	93.38
289.293	97.38
289.524	97.38
289.755	91.38
289.986	72.38
290.217	89.38
290.448	92.38
290.679	96.38
290.91	89.38
291.141	87.38
291.371	84.38
291.602	91.38
291.833	98.38
292.064	89.38
292.295	102.38
292.526	87.38
292.757	81.38
292.987	102.38
293.218	95.38
293.449	79.38
293.68	94.38
293.91	91.38
294.141	91.38
294.372	83.38
294.603	96.38
294.833	98.38
295.064	99.38
295.295	109.38
295.525	92.38
295.756	95.38
295.987	121.38
296.217	131.38
296.448	118.38
296.679	93.38
296.909	100.38
297.14	94.38
297.37	110.38
297.601	93.38
297.831	95.38
298.062	92.38
298.292	88.38
298.523	93.38
298.753	90.38
298.984	101.38
299.214	109.38
299.445	92.38
299.675	82.38
299.905	89.38
300.136	103.38
300.366	94.38
300.597	104.38
300.827	103.38
301.057	105.38
301.288	121.38
301.518	91.38
301.748	100.38
301.979	98.38
302.209	101.38
302.439	93.38
302.669	82.38
302.9	100.38
303.13	83.38
303.36	114.38
303.59	97.38
303.82	104.38
304.051	102.38
304.281	92.38
304.511	99.38
304.741	89.38
304.971	95.38
305.201	90.38
305.431	97.38
305.661	98.38
305.891	95.38
306.121	100.38
306.352	109.38
306.582	101.38
306.812	101.38
307.042	98.38
307.272	102.38
307.502	94.38
307.731	84.38
307.961	90.38
308.191	81.38
308.421	93.38
308.651	103.38
308.881	93.38
309.111	102.38
309.341	93.38
309.571	92.38
309.8	95.38
310.03	97.38
310.26	95.38
310.49	95.38
310.72	93.38
310.949	110.38
311.179	96.38
311.409	104.38
311.639	103.38
311.868	92.38
312.098	101.38
312.328	99.38
312.557	100.38
312.787	110.38
313.017	113.38
313.246	101.38
313.476	97.38
313.706	86.38
313.935	87.38
314.165	116.38
314.394	106.38
314.624	93.38
314.853	105.38
315.083	100.38
315.312	100.38
315.542	107.38
315.771	96.38
316.001	87.38
316.23	88.38
316.46	93.38
316.689	84.38
316.919	95.38
317.148	93.38
317.377	107.38
317.607	94.38
317.836	84.38
318.065	90.38
318.295	95.38
318.524	82.38
318.753	91.38
318.983	103.38
319.212	105.38
319.441	115.38
319.67	109.38
319.9	110.38
320.129	85.38
320.358	99.38
320.587	96.38
320.816	93.38
321.046	119.38
321.275	92.38
321.504	103.38
321.733	115.38
321.962	105.38
322.191	111.38
322.42	110.38
322.649	99.38
322.878	100.38
323.108	128.38
323.337	131.38
323.566	119.38
323.795	157.38
324.024	221.38
324.253	413.38
324.482	898.38
324.71	1791.38
324.939	2499.38
325.168	876.38
325.397	255.38
325.626	145.38
325.855	125.38
326.084	143.38
326.313	124.38
326.542	147.38
326.77	238.38
326.999	493.38
327.228	1010.38
327.457	1909.38
327.686	1520.38
327.914	424.38
328.143	198.38
328.372	156.38
328.6	131.38
328.829	125.38
329.058	131.38
329.287	143.38
329.515	118.38
329.744	111.38
329.972	106.38
330.201	94.38
330.43	111.38
330.658	116.38
330.887	143.38
331.115	123.38
331.344	111.38
331.572	106.38
331.801	118.38
332.03	103.38
332.258	100.38
332.486	85.38
332.715	100.38
332.943	105.38
333.172	90.38
333.4	98.38
333.629	98.38
333.857	127.38
334.085	109.38
334.314	96.38
334.542	101.38
334.771	110.38
334.999	105.38
335.227	97.38
335.455	93.38
335.684	110.38
335.912	99.38
336.14	105.38
336.369	94.38
336.597	97.38
336.825	91.38
337.053	102.38
337.281	96.38
337.51	91.38
337.738	102.38
337.966	106.38
338.194	98.38
338.422	92.38
338.65	100.38
338.878	92.38
339.106	100.38
339.334	103.38
339.562	99.38
339.79	99.38
340.018	99.38
340.246	94.38
340.474	98.38
340.702	103.38
340.93	100.38
341.158	88.38
341.386	97.38
341.614	105.38
341.842	102.38
342.07	73.38
342.298	93.38
342.526	84.38
342.754	83.38
342.981	98.38
343.209	93.38
343.437	94.38
343.665	102.38
343.893	102.38
344.12	92.38
344.348	78.38
344.576	88.38
344.804	88.38
345.031	103.38
345.259	90.38
345.487	105.38
345.714	98.38
345.942	115.38
346.17	97.38
346.397	86.38
346.625	93.38
346.853	96.38
347.08	89.38
347.308	80.38
347.535	99.38
347.763	106.38
347.99	111.38
348.218	104.38
348.445	107.38
348.673	98.38
348.9	109.38
349.128	91.38
349.355	100.38
349.583	113.38
349.81	92.38
350.037	93.38
350.265	90.38
350.492	108.38
350.72	106.38
350.947	109.38
351.174	110.38
351.402	118.38
351.629	111.38
351.856	100.38
352.083	114.38
352.311	87.38
352.538	117.38
352.765	107.38
352.992	114.38
353.22	115.38
353.447	116.38
353.674	111.38
353.901	101.38
354.128	106.38
354.355	98.38
354.583	94.38
354.81	109.38
355.037	99.38
355.264	95.38
355.491	105.38
355.718	87.38
355.945	105.38
356.172	97.38
356.399	87.38
356.626	102.38
356.853	97.38
357.08	102.38
357.307	95.38
357.534	102.38
357.761	100.38
357.988	100.38
358.215	94.38
358.441	90.38
358.668	103.38
358.895	99.38
359.122	98.38
359.349	98.38
359.576	95.38
359.802	97.38
360.029	107.38
360.256	108.38
360.483	87.38
360.709	98.38
360.936	101.38
361.163	103.38
361.39	100.38
361.616	95.38
361.843	112.38
362.07	98.38
362.296	96.38
362.523	84.38
362.749	90.38
362.976	98.38
363.203	96.38
363.429	87.38
363.656	107.38
363.882	97.38
364.109	89.38
364.335	91.38
364.562	89.38
364.788	101.38
365.015	91.38
365.241	101.38
365.468	109.38
365.694	110.38
365.92	97.38
366.147	89.38
366.373	99.38
366.599	86.38
366.826	95.38
367.052	91.38
367.278	103.38
367.505	106.38
367.731	103.38
367.957	95.38
368.184	94.38
368.41	103.38
368.636	122.38
368.862	114.38
369.089	106.38
369.315	91.38
369.541	95.38
369.767	100.38
369.993	99.38
370.219	88.38
370.445	73.38
370.672	83.38
370.898	87.38
371.124	98.38
371.35	103.38
371.576	99.38
371.802	102.38
372.028	90.38
372.254	101.38
372.48	89.38
372.706	107.38
372.932	113.38
373.158	90.38
373.384	88.38
373.61	90.38
373.835	86.38
374.061	99.38
374.287	106.38
374.513	89.38
374.739	99.38
374.965	76.38
375.191	93.38
375.416	89.38
375.642	98.38
375.868	81.38
376.094	93.38
376.319	95.38
376.545	95.38
376.771	73.38
376.997	97.38
377.222	97.38
377.448	109.38
377.674	109.38
377.899	92.38
378.125	94.38
378.35	94.38
378.576	85.38
378.802	93.38
379.027	95.38
379.253	91.38
379.478	94.38
379.704	94.38
379.929	109.38
380.155	108.38
380.38	98.38
380.606	94.38
380.831	105.38
381.057	95.38
381.282	98.38
381.507	102.38
381.733	103.38
381.958	114.38
382.184	109.38
382.409	116.38
382.634	89.38
382.86	87.38
383.085	105.38
383.31	93.38
383.535	109.38
383.761	108.38
383.986	100.38
384.211	89.38
384.436	89.38
384.662	102.38
384.887	108.38
385.112	99.38
385.337	98.38
385.562	97.38
385.787	100.38
386.013	96.38
386.238	107.38
386.463	110.38
386.688	117.38
386.913	108.38
387.138	100.38
387.363	103.38
387.588	86.38
387.813	92.38
388.038	110.38
388.263	104.38
388.488	115.38
388.713	97.38
388.938	94.38
389.163	111.38
389.387	102.38
389.612	94.38
389.837	108.38
390.062	122.38
390.287	88.38
390.512	99.38
390.736	96.38
390.961	101.38
391.186	92.38
391.411	104.38
391.636	92.38
391.86	82.38
392.085	93.38
392.31	85.38
392.534	85.38
392.759	82.38
392.984	84.38
393.208	85.38
393.433	100.38
393.658	95.38
393.882	84.38
394.107	90.38
394.331	91.38
394.556	87.38
394.78	99.38
395.005	109.38
395.229	77.38
395.454	97.38
395.678	99.38
395.903	95.38
396.127	98.38
396.352	76.38
396.576	94.38
396.801	99.38
397.025	93.38
397.249	98.38
397.474	94.38
397.698	96.38
397.922	97.38
398.147	93.38
398.371	94.38
398.595	89.38
398.82	92.38
399.044	94.38
399.268	115.38
399.492	103.38
399.717	82.38
399.941	93.38
400.165	103.38
400.389	90.38
400.613	92.38
400.837	114.38
401.062	100.38
401.286	94.38
401.51	102.38
401.734	106.38
401.958	103.38
402.182	128.38
402.406	158.38
402.63	129.38
402.854	115.38
403.078	86.38
403.302	97.38
403.526	109.38
403.75	100.38
403.974	78.38
404.198	88.38
404.422	90.38
404.645	93.38
404.869	96.38
405.093	93.38
405.317	89.38
405.541	90.38
405.765	108.38
405.988	115.38
406.212	155.38
406.436	232.38
406.66	149.38
406.883	118.38
407.107	99.38
407.331	80.38
407.555	108.38
407.778	90.38
408.002	105.38
408.226	99.38
408.449	102.38
408.673	98.38
408.896	94.38
409.12	106.38
409.344	75.38
409.567	99.38
409.791	96.38
410.014	96.38
410.238	100.38
410.461	111.38
410.685	108.38
410.908	97.38
411.132	99.38
411.355	90.38
411.578	92.38
411.802	86.38
412.025	109.38
412.249	92.38
412.472	98.38
412.695	104.38
412.919	107.38
413.142	88.38
413.365	81.38
413.589	98.38
413.812	94.38
414.035	86.38
414.258	94.38
414.482	89.38
414.705	108.38
414.928	102.38
415.151	103.38
415.374	86.38
415.597	91.38
415.821	91.38
416.044	84.38
416.267	81.38
416.49	86.38
416.713	79.38
416.936	92.38
417.159	100.38
417.382	76.38
417.605	92.38
417.828	106.38
418.051	94.38
418.274	90.38
418.497	92.38
418.72	83.38
418.943	85.38
419.166	94.38
419.389	102.38
419.611	81.38
419.834	87.38
420.057	89.38
420.28	93.38
420.503	101.38
420.726	82.38
420.948	81.38
421.171	102.38
421.394	87.38
421.617	95.38
421.839	104.38
422.062	98.38
422.285	101.38
422.507	105.38
422.73	104.38
422.953	108.38
423.175	118.38
423.398	100.38
423.621	85.38
423.843	89.38
424.066	92.38
424.288	92.38
424.511	95.38
424.733	108.38
424.956	96.38
425.178	99.38
425.401	111.38
425.623	119.38
425.846	104.38
426.068	88.38
426.291	95.38
426.513	102.38
426.735	103.38
426.958	100.38
427.18	105.38
427.402	145.38
427.625	161.38
427.847	122.38
428.069	121.38
428.292	91.38
428.514	94.38
428.736	91.38
428.958	95.38
429.181	99.38
429.403	93.38
429.625	91.38
429.847	104.38
430.069	101.38
430.292	107.38
430.514	93.38
430.736	89.38
430.958	108.38
431.18	89.38
431.402	94.38
431.624	84.38
431.846	99.38
432.068	94.38
432.29	91.38
432.512	108.38
432.734	102.38
432.956	107.38
433.178	105.38
433.4	102.38
433.622	102.38
433.844	102.38
434.066	101.38
434.287	93.38
434.509	82.38
434.731	107.38
434.953	98.38
435.175	87.38
435.397	109.38
435.618	92.38
435.84	108.38
436.062	140.38
436.284	110.38
436.505	85.38
436.727	109.38
436.949	95.38
437.17	82.38
437.392	89.38
437.614	86.38
437.835	121.38
438.057	126.38
438.278	107.38
438.5	117.38
438.721	124.38
438.943	98.38
439.165	99.38
439.386	104.38
439.608	88.38
439.829	106.38
440.05	137.38
440.272	158.38
440.493	102.38
440.715	94.38
440.936	93.38
441.158	82.38
441.379	96.38
441.6	93.38
441.822	98.38
442.043	110.38
442.264	97.38
442.486	93.38
442.707	103.38
442.928	108.38
443.149	129.38
443.371	145.38
443.592	111.38
443.813	119.38
444.034	106.38
444.255	93.38
444.476	95.38
444.698	83.38
444.919	104.38
445.14	126.38
445.361	124.38
445.582	128.38
445.803	163.38
446.024	136.38
446.245	154.38
446.466	126.38
446.687	92.38
446.908	96.38
447.129	86.38
447.35	88.38
447.571	96.38
447.792	90.38
448.013	105.38
448.234	107.38
448.455	98.38
448.675	119.38
448.896	120.38
449.117	109.38
449.338	110.38
449.559	117.38
449.779	146.38
450	100.38
450.221	91.38
450.442	86.38
450.662	94.38
450.883	106.38
451.104	108.38
451.324	97.38
451.545	91.38
451.766	96.38
451.986	101.38
452.207	78.38
452.428	86.38
452.648	89.38
452.869	121.38
453.089	105.38
453.31	105.38
453.53	89.38
453.751	104.38
453.971	108.38
454.192	108.38
454.412	98.38
454.633	98.38
454.853	90.38
455.073	87.38
455.294	87.38
455.514	107.38
455.734	92.38
455.955	93.38
456.175	91.38
456.395	85.38
456.616	81.38
456.836	93.38
457.056	94.38
457.276	86.38
457.497	92.38
457.717	94.38
457.937	87.38
458.157	102.38
458.377	103.38
458.598	104.38
458.818	151.38
459.038	149.38
459.258	108.38
459.478	83.38
459.698	88.38
459.918	92.38
460.138	94.38
460.358	72.38
460.578	87.38
460.798	111.38
461.018	91.38
461.238	97.38
461.458	91.38
461.678	78.38
461.898	95.38
462.118	78.38
462.338	91.38
462.558	97.38
462.777	85.38
462.997	103.38
463.217	89.38
463.437	86.38
463.657	92.38
463.876	88.38
464.096	87.38
464.316	94.38
464.536	84.38
464.755	101.38
464.975	105.38
465.195	163.38
465.414	157.38
465.634	125.38
465.854	96.38
466.073	85.38
466.293	95.38
466.512	75.38
466.732	93.38
466.951	94.38
467.171	105.38
467.391	93.38
467.61	117.38
467.829	96.38
468.049	84.38
468.268	88.38
468.488	90.38
468.707	86.38
468.927	88.38
469.146	89.38
469.365	109.38
469.585	97.38
469.804	89.38
470.023	105.38
470.243	101.38
470.462	95.38
470.681	115.38
470.901	102.38
471.12	85.38
471.339	83.38
471.558	74.38
471.777	91.38
471.997	89.38
472.216	99.38
472.435	99.38
472.654	92.38
472.873	95.38
473.092	75.38
473.311	83.38
473.53	87.38
473.749	89.38
473.968	101.38
474.187	111.38
474.406	99.38
474.625	93.38
474.844	87.38
475.063	89.38
475.282	100.38
475.501	76.38
475.72	91.38
475.939	72.38
476.158	83.38
476.377	85.38
476.596	94.38
476.814	105.38
477.033	94.38
477.252	85.38
477.471	73.38
477.69	98.38
477.908	81.38
478.127	92.38
478.346	83.38
478.564	101.38
478.783	108.38
479.002	105.38
479.22	100.38
479.439	106.38
479.658	94.38
479.876	94.38
480.095	86.38
480.313	84.38
480.532	95.38
480.751	83.38
480.969	112.38
481.188	113.38
481.406	114.38
481.624	78.38
481.843	87.38
482.061	89.38
482.28	92.38
482.498	96.38
482.717	97.38
482.935	100.38
483.153	88.38
483.372	91.38
483.59	105.38
483.808	75.38
484.027	99.38
484.245	101.38
484.463	76.38
484.681	121.38
484.9	99.38
485.118	95.38
485.336	92.38
485.554	104.38
485.772	113.38
485.99	93.38
486.209	96.38
486.427	112.38
486.645	112.38
486.863	126.38
487.081	106.38
487.299	96.38
487.517	116.38
487.735	101.38
487.953	93.38
488.171	102.38
488.389	93.38
488.607	99.38
488.825	95.38
489.043	103.38
489.261	89.38
489.479	103.38
489.696	82.38
489.914	81.38
490.132	94.38
490.35	102.38
490.568	98.38
490.786	101.38
491.003	87.38
491.221	100.38
491.439	93.38
491.657	100.38
491.874	84.38
492.092	96.38
492.31	92.38
492.527	92.38
492.745	97.38
492.963	105.38
493.18	83.38
493.398	91.38
493.615	86.38
493.833	101.38
494.05	92.38
494.268	83.38
494.485	77.38
494.703	90.38
494.92	90.38
495.138	97.38
495.355	91.38
495.573	94.38
495.79	87.38
496.008	89.38
496.225	99.38
496.442	91.38
496.66	105.38
496.877	91.38
497.094	99.38
497.312	90.38
497.529	85.38
497.746	93.38
497.963	100.38
498.181	78.38
498.398	100.38
498.615	119.38
498.832	104.38
499.049	93.38
499.267	99.38
499.484	101.38
499.701	91.38
499.918	87.38
500.135	83.38
500.352	90.38
500.569	92.38
500.786	82.38
501.003	70.38
501.22	93.38
501.437	95.38
501.654	96.38
501.871	109.38
502.088	102.38
502.305	99.38
502.522	98.38
502.739	99.38
502.956	90.38
503.172	101.38
503.389	101.38
503.606	99.38
503.823	99.38
504.04	108.38
504.256	110.38
504.473	88.38
504.69	98.38
504.907	91.38
505.123	92.38
505.34	95.38
505.557	91.38
505.773	98.38
505.99	94.38
506.207	105.38
506.423	100.38
506.64	90.38
506.856	99.38
507.073	98.38
507.289	97.38
507.506	115.38
507.722	117.38
507.939	108.38
508.155	104.38
508.372	93.38
508.588	109.38
508.805	85.38
509.021	105.38
509.238	80.38
509.454	108.38
509.67	100.38
509.887	123.38
510.103	139.38
510.319	209.38
510.536	722.38
510.752	2321.38
510.968	642.38
511.184	170.38
511.401	131.38
511.617	110.38
511.833	93.38
512.049	106.38
512.265	97.38
512.481	102.38
512.698	109.38
512.914	85.38
513.13	97.38
513.346	94.38
513.562	104.38
513.778	92.38
