Data from Uncirc_1987_H10_HRD10591_00058.txt Node
Date: Wed Jan 03 12:09:00 EST 2024
User: Yrep
Spectrometer: HR+D1059
Trigger mode: 1
Integration Time (sec): 1.000000E-1
Scans to average: 1
Electric dark correction enabled: true
Nonlinearity correction enabled: false
Boxcar width: 0
XAxis mode: Wavelengths
Number of Pixels in Spectrum: 2048
>>>>>Begin Spectral Data<<<<<
223.165	-23.75
223.4	-23.75
223.635	-23.75
223.869	-11.75
224.104	-26.75
224.338	-20.75
224.573	-2.75
224.808	-11.75
225.042	-13.75
225.277	-13.75
225.511	-3.75
225.746	5.25
225.98	10.25
226.215	26.25
226.449	20.25
226.683	23.25
226.918	22.25
227.152	21.25
227.387	35.25
227.621	47.25
227.856	41.25
228.09	56.25
228.324	48.25
228.559	56.25
228.793	160.25
229.027	446.25
229.262	510.25
229.496	608.25
229.73	810.25
229.964	830.25
230.199	576.25
230.433	503.25
230.667	456.25
230.901	468.25
231.136	443.25
231.37	447.25
231.604	422.25
231.838	463.25
232.072	462.25
232.306	462.25
232.541	485.25
232.775	474.25
233.009	472.25
233.243	467.25
233.477	470.25
233.711	479.25
233.945	524.25
234.179	510.25
234.413	500.25
234.647	527.25
234.881	522.25
235.115	531.25
235.349	534.25
235.583	563.25
235.817	627.25
236.051	635.25
236.285	626.25
236.519	607.25
236.753	742.25
236.987	926.25
237.221	1334.25
237.455	1491.25
237.689	900.25
237.922	753.25
238.156	711.25
238.39	689.25
238.624	669.25
238.858	671.25
239.091	675.25
239.325	662.25
239.559	673.25
239.793	708.25
240.027	759.25
240.26	906.25
240.494	974.25
240.728	972.25
240.961	936.25
241.195	834.25
241.429	796.25
241.662	780.25
241.896	799.25
242.13	779.25
242.363	798.25
242.597	799.25
242.83	796.25
243.064	834.25
243.298	813.25
243.531	824.25
243.765	838.25
243.998	842.25
244.232	882.25
244.465	881.25
244.699	910.25
244.932	900.25
245.166	900.25
245.399	920.25
245.633	903.25
245.866	953.25
246.099	934.25
246.333	944.25
246.566	948.25
246.8	1011.25
247.033	1018.25
247.266	1042.25
247.5	1127.25
247.733	1159.25
247.966	1140.25
248.2	1092.25
248.433	1163.25
248.666	1212.25
248.899	1336.25
249.133	1452.25
249.366	1445.25
249.599	1273.25
249.832	1207.25
250.066	1223.25
250.299	1267.25
250.532	1335.25
250.765	1493.25
250.998	1682.25
251.231	1648.25
251.465	1521.25
251.698	1428.25
251.931	1389.25
252.164	1421.25
252.397	1448.25
252.63	1464.25
252.863	1511.25
253.096	1677.25
253.329	1765.25
253.562	1638.25
253.795	1589.25
254.028	1561.25
254.261	1638.25
254.494	1800.25
254.727	2159.25
254.96	2252.25
255.193	1978.25
255.426	1796.25
255.659	1635.25
255.892	1579.25
256.124	1584.25
256.357	1554.25
256.59	1578.25
256.823	1495.25
257.056	1550.25
257.289	1556.25
257.521	1520.25
257.754	1522.25
257.987	1526.25
258.22	1537.25
258.452	1528.25
258.685	1559.25
258.918	1591.25
259.151	1598.25
259.383	1695.25
259.616	1665.25
259.849	1734.25
260.081	1943.25
260.314	2129.25
260.547	2081.25
260.779	1848.25
261.012	1754.25
261.244	1742.25
261.477	1683.25
261.71	1675.25
261.942	1767.25
262.175	1747.25
262.407	1698.25
262.64	1682.25
262.872	1666.25
263.105	1620.25
263.337	1639.25
263.57	1694.25
263.802	1660.25
264.035	1659.25
264.267	1650.25
264.499	1662.25
264.732	1668.25
264.964	1704.25
265.197	1701.25
265.429	1645.25
265.661	1731.25
265.894	1686.25
266.126	1742.25
266.358	1763.25
266.591	1766.25
266.823	1876.25
267.055	1862.25
267.287	1885.25
267.52	1847.25
267.752	1882.25
267.984	1854.25
268.216	1950.25
268.448	1890.25
268.681	2013.25
268.913	2092.25
269.145	2323.25
269.377	2355.25
269.609	2296.25
269.841	2264.25
270.073	2364.25
270.306	2632.25
270.538	2790.25
270.77	2662.25
271.002	2500.25
271.234	2450.25
271.466	2570.25
271.698	2754.25
271.93	2733.25
272.162	2702.25
272.394	2641.25
272.626	2555.25
272.858	2400.25
273.09	2220.25
273.322	2238.25
273.553	2202.25
273.785	2204.25
274.017	2238.25
274.249	2257.25
274.481	2231.25
274.713	2234.25
274.945	2292.25
275.176	2311.25
275.408	2231.25
275.64	2212.25
275.872	2241.25
276.104	2233.25
276.335	2302.25
276.567	2419.25
276.799	2498.25
277.031	2695.25
277.262	2837.25
277.494	2744.25
277.726	2555.25
277.957	2488.25
278.189	2418.25
278.421	2380.25
278.652	2391.25
278.884	2364.25
279.115	2360.25
279.347	2368.25
279.579	2386.25
279.81	2360.25
280.042	2336.25
280.273	2350.25
280.505	2371.25
280.736	2416.25
280.968	2415.25
281.199	2406.25
281.431	2423.25
281.662	2428.25
281.894	2471.25
282.125	2520.25
282.356	2666.25
282.588	2809.25
282.819	2680.25
283.051	2509.25
283.282	2499.25
283.513	2558.25
283.745	2572.25
283.976	2628.25
284.207	2597.25
284.439	2545.25
284.67	2553.25
284.901	2635.25
285.132	2648.25
285.364	2573.25
285.595	2609.25
285.826	2582.25
286.057	2643.25
286.288	2645.25
286.52	2655.25
286.751	2644.25
286.982	2664.25
287.213	2686.25
287.444	2731.25
287.675	2743.25
287.906	2831.25
288.138	2913.25
288.369	2910.25
288.6	2879.25
288.831	2852.25
289.062	2800.25
289.293	2822.25
289.524	2711.25
289.755	2740.25
289.986	2800.25
290.217	2756.25
290.448	2769.25
290.679	2784.25
290.91	2810.25
291.141	2778.25
291.371	2768.25
291.602	2786.25
291.833	2723.25
292.064	2768.25
292.295	2783.25
292.526	2827.25
292.757	2768.25
292.987	2812.25
293.218	2748.25
293.449	2804.25
293.68	2836.25
293.91	2887.25
294.141	2812.25
294.372	2800.25
294.603	2821.25
294.833	2827.25
295.064	2839.25
295.295	2828.25
295.525	2855.25
295.756	2908.25
295.987	2983.25
296.217	3150.25
296.448	3107.25
296.679	2965.25
296.909	2878.25
297.14	2970.25
297.37	2960.25
297.601	2986.25
297.831	2976.25
298.062	3050.25
298.292	3083.25
298.523	3112.25
298.753	3063.25
298.984	2994.25
299.214	3045.25
299.445	3080.25
299.675	3062.25
299.905	3117.25
300.136	3096.25
300.366	3107.25
300.597	3171.25
300.827	3260.25
301.057	3304.25
301.288	3386.25
301.518	3260.25
301.748	3290.25
301.979	3342.25
302.209	3356.25
302.439	3315.25
302.669	3282.25
302.9	3264.25
303.13	3250.25
303.36	3307.25
303.59	3309.25
303.82	3351.25
304.051	3303.25
304.281	3267.25
304.511	3211.25
304.741	3247.25
304.971	3242.25
305.201	3213.25
305.431	3233.25
305.661	3224.25
305.891	3180.25
306.121	3218.25
306.352	3303.25
306.582	3278.25
306.812	3158.25
307.042	3155.25
307.272	3264.25
307.502	3274.25
307.731	3239.25
307.961	3224.25
308.191	3269.25
308.421	3213.25
308.651	3229.25
308.881	3277.25
309.111	3259.25
309.341	3329.25
309.571	3433.25
309.8	3498.25
310.03	3500.25
310.26	3570.25
310.49	3484.25
310.72	3631.25
310.949	3744.25
311.179	3658.25
311.409	3604.25
311.639	3605.25
311.868	3578.25
312.098	3696.25
312.328	3802.25
312.557	3845.25
312.787	3877.25
313.017	3776.25
313.246	3738.25
313.476	3664.25
313.706	3683.25
313.935	3827.25
314.165	3855.25
314.394	3902.25
314.624	3827.25
314.853	3750.25
315.083	3703.25
315.312	3658.25
315.542	3585.25
315.771	3606.25
316.001	3616.25
316.23	3607.25
316.46	3596.25
316.689	3654.25
316.919	3638.25
317.148	3642.25
317.377	3707.25
317.607	3650.25
317.836	3661.25
318.065	3567.25
318.295	3563.25
318.524	3619.25
318.753	3598.25
318.983	3620.25
319.212	3608.25
319.441	3691.25
319.67	3703.25
319.9	3621.25
320.129	3614.25
320.358	3581.25
320.587	3667.25
320.816	3770.25
321.046	3765.25
321.275	3690.25
321.504	3762.25
321.733	3798.25
321.962	3884.25
322.191	3886.25
322.42	4044.25
322.649	4069.25
322.878	4182.25
323.108	4240.25
323.337	4494.25
323.566	4620.25
323.795	4898.25
324.024	5474.25
324.253	7096.25
324.482	10662.25
324.71	15169.25
324.939	15624.25
325.168	12959.25
325.397	6470.25
325.626	5194.25
325.855	4791.25
326.084	4700.25
326.313	4738.25
326.542	4838.25
326.77	5421.25
326.999	6918.25
327.228	10020.25
327.457	14307.25
327.686	13588.25
327.914	7233.25
328.143	5739.25
328.372	5314.25
328.6	5143.25
328.829	5104.25
329.058	5294.25
329.287	5201.25
329.515	4887.25
329.744	4668.25
329.972	4738.25
330.201	4815.25
330.43	5071.25
330.658	5383.25
330.887	5605.25
331.115	5298.25
331.344	4896.25
331.572	4850.25
331.801	4846.25
332.03	4924.25
332.258	4866.25
332.486	4800.25
332.715	4901.25
332.943	5050.25
333.172	5163.25
333.4	5367.25
333.629	5436.25
333.857	5532.25
334.085	5484.25
334.314	5324.25
334.542	5375.25
334.771	5374.25
334.999	5202.25
335.227	5092.25
335.455	5031.25
335.684	4920.25
335.912	4877.25
336.14	4824.25
336.369	4843.25
336.597	4899.25
336.825	4863.25
337.053	4725.25
337.281	4686.25
337.51	4636.25
337.738	4656.25
337.966	4616.25
338.194	4621.25
338.422	4589.25
338.65	4452.25
338.878	4386.25
339.106	4417.25
339.334	4368.25
339.562	4321.25
339.79	4303.25
340.018	4328.25
340.246	4285.25
340.474	4289.25
340.702	4255.25
340.93	4334.25
341.158	4271.25
341.386	4306.25
341.614	4304.25
341.842	4256.25
342.07	4206.25
342.298	4207.25
342.526	4204.25
342.754	4188.25
342.981	4222.25
343.209	4339.25
343.437	4503.25
343.665	4821.25
343.893	5076.25
344.12	5051.25
344.348	4845.25
344.576	4708.25
344.804	4662.25
345.031	4572.25
345.259	4498.25
345.487	4413.25
345.714	4298.25
345.942	4132.25
346.17	4160.25
346.397	4101.25
346.625	4148.25
346.853	4103.25
347.08	4104.25
347.308	4109.25
347.535	4168.25
347.763	4227.25
347.99	4117.25
348.218	4209.25
348.445	4198.25
348.673	4131.25
348.9	4071.25
349.128	4037.25
349.355	4033.25
349.583	4013.25
349.81	3984.25
350.037	4013.25
350.265	3935.25
350.492	3925.25
350.72	3957.25
350.947	4046.25
351.174	4071.25
351.402	4090.25
351.629	4066.25
351.856	4120.25
352.083	4168.25
352.311	4136.25
352.538	4192.25
352.765	4084.25
352.992	4102.25
353.22	4002.25
353.447	4021.25
353.674	3915.25
353.901	3860.25
354.128	3848.25
354.355	3896.25
354.583	3826.25
354.81	3835.25
355.037	3866.25
355.264	3835.25
355.491	3830.25
355.718	3827.25
355.945	3850.25
356.172	3845.25
356.399	3886.25
356.626	3837.25
356.853	3856.25
357.08	3878.25
357.307	3821.25
357.534	3908.25
357.761	3870.25
357.988	3878.25
358.215	3965.25
358.441	3878.25
358.668	3909.25
358.895	3931.25
359.122	4029.25
359.349	4054.25
359.576	4142.25
359.802	4383.25
360.029	4531.25
360.256	4524.25
360.483	4332.25
360.709	4064.25
360.936	4102.25
361.163	4126.25
361.39	4130.25
361.616	4130.25
361.843	4118.25
362.07	4051.25
362.296	4046.25
362.523	4053.25
362.749	4057.25
362.976	4023.25
363.203	3973.25
363.429	4002.25
363.656	4018.25
363.882	4030.25
364.109	3918.25
364.335	3965.25
364.562	3926.25
364.788	3880.25
365.015	3977.25
365.241	3937.25
365.468	3916.25
365.694	4044.25
365.92	3954.25
366.147	3952.25
366.373	3957.25
366.599	3930.25
366.826	3868.25
367.052	3907.25
367.278	3958.25
367.505	4065.25
367.731	4028.25
367.957	3934.25
368.184	4035.25
368.41	4114.25
368.636	4117.25
368.862	4081.25
369.089	4102.25
369.315	4031.25
369.541	4062.25
369.767	4096.25
369.993	4117.25
370.219	4085.25
370.445	4059.25
370.672	4146.25
370.898	4163.25
371.124	4172.25
371.35	4249.25
371.576	4235.25
371.802	4218.25
372.028	4224.25
372.254	4200.25
372.48	4206.25
372.706	4350.25
372.932	4332.25
373.158	4280.25
373.384	4255.25
373.61	4227.25
373.835	4265.25
374.061	4307.25
374.287	4349.25
374.513	4381.25
374.739	4516.25
374.965	4649.25
375.191	4607.25
375.416	4601.25
375.642	4482.25
375.868	4383.25
376.094	4321.25
376.319	4300.25
376.545	4263.25
376.771	4199.25
376.997	4261.25
377.222	4228.25
377.448	4138.25
377.674	4217.25
377.899	4150.25
378.125	4170.25
378.35	4177.25
378.576	4197.25
378.802	4210.25
379.027	4117.25
379.253	4162.25
379.478	4150.25
379.704	4121.25
379.929	4163.25
380.155	4222.25
380.38	4204.25
380.606	4335.25
380.831	4196.25
381.057	4182.25
381.282	4167.25
381.507	4196.25
381.733	4332.25
381.958	4353.25
382.184	4406.25
382.409	4430.25
382.634	4381.25
382.86	4471.25
383.085	4424.25
383.31	4542.25
383.535	4666.25
383.761	4689.25
383.986	4730.25
384.211	4834.25
384.436	4880.25
384.662	4969.25
384.887	5054.25
385.112	5039.25
385.337	5057.25
385.562	5061.25
385.787	5106.25
386.013	5132.25
386.238	5150.25
386.463	5160.25
386.688	5181.25
386.913	4995.25
387.138	5036.25
387.363	5023.25
387.588	4982.25
387.813	5037.25
388.038	5074.25
388.263	5050.25
388.488	5026.25
388.713	5040.25
388.938	4965.25
389.163	4991.25
389.387	5047.25
389.612	4919.25
389.837	4981.25
390.062	4916.25
390.287	5016.25
390.512	4960.25
390.736	5018.25
390.961	5122.25
391.186	5181.25
391.411	5358.25
391.636	5507.25
391.86	5595.25
392.085	5669.25
392.31	5540.25
392.534	5475.25
392.759	5384.25
392.984	5283.25
393.208	5290.25
393.433	5273.25
393.658	5150.25
393.882	5273.25
394.107	5301.25
394.331	5368.25
394.556	5329.25
394.78	5402.25
395.005	5374.25
395.229	5423.25
395.454	5541.25
395.678	5697.25
395.903	5731.25
396.127	5775.25
396.352	5532.25
396.576	5372.25
396.801	5340.25
397.025	5355.25
397.249	5492.25
397.474	5627.25
397.698	5696.25
397.922	5725.25
398.147	5937.25
398.371	5984.25
398.595	6082.25
398.82	6367.25
399.044	6948.25
399.268	7647.25
399.492	8782.25
399.717	9316.25
399.941	9099.25
400.165	8546.25
400.389	7905.25
400.613	7071.25
400.837	6699.25
401.062	6454.25
401.286	6415.25
401.51	6333.25
401.734	6312.25
401.958	6451.25
402.182	6551.25
402.406	6680.25
402.63	6643.25
402.854	6868.25
403.078	6946.25
403.302	6975.25
403.526	7136.25
403.75	7215.25
403.974	7213.25
404.198	7204.25
404.422	7329.25
404.645	7243.25
404.869	7119.25
405.093	7362.25
405.317	7396.25
405.541	7480.25
405.765	7087.25
405.988	6978.25
406.212	7197.25
406.436	7387.25
406.66	7478.25
406.883	7455.25
407.107	8130.25
407.331	8644.25
407.555	9105.25
407.778	8808.25
408.002	8089.25
408.226	7789.25
408.449	7613.25
408.673	7550.25
408.896	7668.25
409.12	7860.25
409.344	7359.25
409.567	7093.25
409.791	6964.25
410.014	6866.25
410.238	6831.25
410.461	6800.25
410.685	6944.25
410.908	6908.25
411.132	7166.25
411.355	7204.25
411.578	6773.25
411.802	6705.25
412.025	6648.25
412.249	6800.25
412.472	6761.25
412.695	6597.25
412.919	6385.25
413.142	6289.25
413.365	6315.25
413.589	6332.25
413.812	6203.25
414.035	6142.25
414.258	6165.25
414.482	6261.25
414.705	6320.25
414.928	6271.25
415.151	6248.25
415.374	6300.25
415.597	6142.25
415.821	6105.25
416.044	6113.25
416.267	6091.25
416.49	6114.25
416.713	6061.25
416.936	6110.25
417.159	6153.25
417.382	6223.25
417.605	6153.25
417.828	6343.25
418.051	6525.25
418.274	6306.25
418.497	6242.25
418.72	6405.25
418.943	6246.25
419.166	6703.25
419.389	7053.25
419.611	6994.25
419.834	6776.25
420.057	6575.25
420.28	6447.25
420.503	6351.25
420.726	6357.25
420.948	6472.25
421.171	6888.25
421.394	6893.25
421.617	6343.25
421.839	6277.25
422.062	6433.25
422.285	6674.25
422.507	7191.25
422.73	7824.25
422.953	7169.25
423.175	6824.25
423.398	6893.25
423.621	6802.25
423.843	7100.25
424.066	7126.25
424.288	6919.25
424.511	7245.25
424.733	7672.25
424.956	8122.25
425.178	7612.25
425.401	7706.25
425.623	7619.25
425.846	6694.25
426.068	6502.25
426.291	6428.25
426.513	6402.25
426.735	6488.25
426.958	6997.25
427.18	7808.25
427.402	8910.25
427.625	8882.25
427.847	7562.25
428.069	6703.25
428.292	6322.25
428.514	5980.25
428.736	5834.25
428.958	5898.25
429.181	5687.25
429.403	5687.25
429.625	5894.25
429.847	6157.25
430.069	6795.25
430.292	6270.25
430.514	5674.25
430.736	5755.25
430.958	5635.25
431.18	5588.25
431.402	5572.25
431.624	5552.25
431.846	5607.25
432.068	5558.25
432.29	5728.25
432.512	5588.25
432.734	5632.25
432.956	5653.25
433.178	5758.25
433.4	5736.25
433.622	5712.25
433.844	5638.25
434.066	5667.25
434.287	5796.25
434.509	5958.25
434.731	6162.25
434.953	6364.25
435.175	6471.25
435.397	6501.25
435.618	6511.25
435.84	6954.25
436.062	7822.25
436.284	7563.25
436.505	6464.25
436.727	6118.25
436.949	5860.25
437.17	5734.25
437.392	5734.25
437.614	5870.25
437.835	6279.25
438.057	7230.25
438.278	7842.25
438.5	7774.25
438.721	8619.25
438.943	7472.25
439.165	6277.25
439.386	6085.25
439.608	6152.25
439.829	6256.25
440.05	6604.25
440.272	6945.25
440.493	6376.25
440.715	6082.25
440.936	5987.25
441.158	6053.25
441.379	6173.25
441.6	6520.25
441.822	6696.25
442.043	7244.25
442.264	7994.25
442.486	7547.25
442.707	6833.25
442.928	6694.25
443.149	6797.25
443.371	7003.25
443.592	7540.25
443.813	8581.25
444.034	8453.25
444.255	7313.25
444.476	7255.25
444.698	7437.25
444.919	7417.25
445.14	7242.25
445.361	7122.25
445.582	7239.25
445.803	7892.25
446.024	8510.25
446.245	8140.25
446.466	7227.25
446.687	6344.25
446.908	6021.25
447.129	5796.25
447.35	5600.25
447.571	5587.25
447.792	5466.25
448.013	5537.25
448.234	5723.25
448.455	6489.25
448.675	7637.25
448.896	8092.25
449.117	6674.25
449.338	6871.25
449.559	8174.25
449.779	8311.25
450	6336.25
450.221	5768.25
450.442	5415.25
450.662	5326.25
450.883	5470.25
451.104	5571.25
451.324	5389.25
451.545	5235.25
451.766	5170.25
451.986	5040.25
452.207	5022.25
452.428	5018.25
452.648	4995.25
452.869	5056.25
453.089	5123.25
453.31	5198.25
453.53	5043.25
453.751	4976.25
453.971	5041.25
454.192	5072.25
454.412	4881.25
454.633	4860.25
454.853	4863.25
455.073	4828.25
455.294	5307.25
455.514	5806.25
455.734	5235.25
455.955	4729.25
456.175	4621.25
456.395	4574.25
456.616	4599.25
456.836	4592.25
457.056	4538.25
457.276	4462.25
457.497	4668.25
457.717	4590.25
457.937	4691.25
458.157	4756.25
458.377	4880.25
458.598	5225.25
458.818	5873.25
459.038	6635.25
459.258	6521.25
459.478	5835.25
459.698	5700.25
459.918	5779.25
460.138	5986.25
460.358	6229.25
460.578	6174.25
460.798	6224.25
461.018	6298.25
461.238	6066.25
461.458	6112.25
461.678	6032.25
461.898	6176.25
462.118	6170.25
462.338	6608.25
462.558	6690.25
462.777	6917.25
462.997	7522.25
463.217	7934.25
463.437	7717.25
463.657	7190.25
463.876	6908.25
464.096	6990.25
464.316	7011.25
464.536	7097.25
464.755	6763.25
464.975	6700.25
465.195	6865.25
465.414	6870.25
465.634	6069.25
465.854	5824.25
466.073	5536.25
466.293	5362.25
466.512	5217.25
466.732	5106.25
466.951	5077.25
467.171	5101.25
467.391	5068.25
467.61	5202.25
467.829	5173.25
468.049	5191.25
468.268	4996.25
468.488	4889.25
468.707	4896.25
468.927	4949.25
469.146	4830.25
469.365	4974.25
469.585	4960.25
469.804	5148.25
470.023	5315.25
470.243	5233.25
470.462	5392.25
470.681	5477.25
470.901	5371.25
471.12	5260.25
471.339	5170.25
471.558	5166.25
471.777	5038.25
471.997	4966.25
472.216	5006.25
472.435	5062.25
472.654	4926.25
472.873	4840.25
473.092	4846.25
473.311	4870.25
473.53	4917.25
473.749	5004.25
473.968	5512.25
474.187	6546.25
474.406	6106.25
474.625	5166.25
474.844	5003.25
475.063	4915.25
475.282	4850.25
475.501	5006.25
475.72	5080.25
475.939	5044.25
476.158	5120.25
476.377	5056.25
476.596	5100.25
476.814	5265.25
477.033	5225.25
477.252	5302.25
477.471	5497.25
477.69	5556.25
477.908	5630.25
478.127	5741.25
478.346	5807.25
478.564	5934.25
478.783	6069.25
479.002	6140.25
479.22	6202.25
479.439	6241.25
479.658	6374.25
479.876	6397.25
480.095	6616.25
480.313	7025.25
480.532	6894.25
480.751	6763.25
480.969	6622.25
481.188	6632.25
481.406	6392.25
481.624	6114.25
481.843	6092.25
482.061	5926.25
482.28	5817.25
482.498	5791.25
482.717	5728.25
482.935	5779.25
483.153	5743.25
483.372	5754.25
483.59	5710.25
483.808	5751.25
484.027	5780.25
484.245	5810.25
484.463	5746.25
484.681	5946.25
484.9	6016.25
485.118	5926.25
485.336	6044.25
485.554	6057.25
485.772	6163.25
485.99	6125.25
486.209	6149.25
486.427	6234.25
486.645	6234.25
486.863	6317.25
487.081	6311.25
487.299	6119.25
487.517	6140.25
487.735	6136.25
