Data from Uncirc_1987_H10_HRD10591_00061.txt Node
Date: Wed Jan 03 12:09:00 EST 2024
User: Yrep
Spectrometer: HR+D1059
Trigger mode: 1
Integration Time (sec): 1.000000E-1
Scans to average: 1
Electric dark correction enabled: true
Nonlinearity correction enabled: false
Boxcar width: 0
XAxis mode: Wavelengths
Number of Pixels in Spectrum: 2048
>>>>>Begin Spectral Data<<<<<
223.165	-6.62
223.4	-6.62
223.635	-6.62
223.869	-15.62
224.104	-34.62
224.338	-28.62
224.573	-1.62
224.808	-6.62
225.042	-11.62
225.277	14.38
225.511	11.38
225.746	4.38
225.98	-2.62
226.215	-3.62
226.449	12.38
226.683	19.38
226.918	28.38
227.152	21.38
227.387	39.38
227.621	42.38
227.856	48.38
228.09	48.38
228.324	45.38
228.559	61.38
228.793	59.38
229.027	78.38
229.262	76.38
229.496	84.38
229.73	84.38
229.964	73.38
230.199	69.38
230.433	77.38
230.667	83.38
230.901	84.38
231.136	84.38
231.37	91.38
231.604	80.38
231.838	80.38
232.072	77.38
232.306	88.38
232.541	96.38
232.775	65.38
233.009	92.38
233.243	86.38
233.477	77.38
233.711	84.38
233.945	93.38
234.179	80.38
234.413	85.38
234.647	90.38
234.881	81.38
235.115	80.38
235.349	90.38
235.583	76.38
235.817	73.38
236.051	94.38
236.285	101.38
236.519	81.38
236.753	75.38
236.987	83.38
237.221	88.38
237.455	94.38
237.689	73.38
237.922	77.38
238.156	78.38
238.39	74.38
238.624	70.38
238.858	91.38
239.091	76.38
239.325	77.38
239.559	81.38
239.793	97.38
240.027	83.38
240.26	81.38
240.494	94.38
240.728	88.38
240.961	73.38
241.195	89.38
241.429	95.38
241.662	90.38
241.896	66.38
242.13	82.38
242.363	73.38
242.597	69.38
242.83	83.38
243.064	89.38
243.298	85.38
243.531	82.38
243.765	78.38
243.998	88.38
244.232	87.38
244.465	94.38
244.699	96.38
244.932	68.38
245.166	86.38
245.399	74.38
245.633	72.38
245.866	79.38
246.099	81.38
246.333	77.38
246.566	75.38
246.8	74.38
247.033	75.38
247.266	68.38
247.5	66.38
247.733	66.38
247.966	85.38
248.2	83.38
248.433	74.38
248.666	66.38
248.899	88.38
249.133	92.38
249.366	100.38
249.599	106.38
249.832	81.38
250.066	92.38
250.299	92.38
250.532	83.38
250.765	75.38
250.998	68.38
251.231	74.38
251.465	82.38
251.698	71.38
251.931	86.38
252.164	93.38
252.397	77.38
252.63	92.38
252.863	74.38
253.096	92.38
253.329	76.38
253.562	88.38
253.795	68.38
254.028	83.38
254.261	79.38
254.494	95.38
254.727	84.38
254.96	74.38
255.193	88.38
255.426	68.38
255.659	75.38
255.892	70.38
256.124	77.38
256.357	78.38
256.59	75.38
256.823	82.38
257.056	99.38
257.289	92.38
257.521	99.38
257.754	92.38
257.987	76.38
258.22	73.38
258.452	95.38
258.685	84.38
258.918	73.38
259.151	77.38
259.383	92.38
259.616	66.38
259.849	100.38
260.081	92.38
260.314	89.38
260.547	86.38
260.779	80.38
261.012	93.38
261.244	95.38
261.477	82.38
261.71	117.38
261.942	97.38
262.175	115.38
262.407	86.38
262.64	83.38
262.872	86.38
263.105	73.38
263.337	77.38
263.57	86.38
263.802	72.38
264.035	88.38
264.267	70.38
264.499	85.38
264.732	88.38
264.964	84.38
265.197	90.38
265.429	89.38
265.661	68.38
265.894	88.38
266.126	99.38
266.358	93.38
266.591	88.38
266.823	96.38
267.055	85.38
267.287	82.38
267.52	81.38
267.752	83.38
267.984	93.38
268.216	91.38
268.448	107.38
268.681	82.38
268.913	102.38
269.145	98.38
269.377	73.38
269.609	68.38
269.841	77.38
270.073	91.38
270.306	90.38
270.538	92.38
270.77	96.38
271.002	85.38
271.234	86.38
271.466	96.38
271.698	84.38
271.93	87.38
272.162	93.38
272.394	81.38
272.626	77.38
272.858	77.38
273.09	86.38
273.322	89.38
273.553	88.38
273.785	96.38
274.017	84.38
274.249	89.38
274.481	62.38
274.713	93.38
274.945	81.38
275.176	93.38
275.408	93.38
275.64	86.38
275.872	74.38
276.104	86.38
276.335	106.38
276.567	101.38
276.799	104.38
277.031	93.38
277.262	98.38
277.494	99.38
277.726	99.38
277.957	83.38
278.189	92.38
278.421	86.38
278.652	99.38
278.884	88.38
279.115	84.38
279.347	75.38
279.579	87.38
279.81	97.38
280.042	98.38
280.273	85.38
280.505	98.38
280.736	72.38
280.968	82.38
281.199	84.38
281.431	95.38
281.662	74.38
281.894	103.38
282.125	100.38
282.356	120.38
282.588	141.38
282.819	105.38
283.051	91.38
283.282	75.38
283.513	84.38
283.745	90.38
283.976	91.38
284.207	92.38
284.439	93.38
284.67	108.38
284.901	80.38
285.132	88.38
285.364	99.38
285.595	94.38
285.826	83.38
286.057	98.38
286.288	88.38
286.52	84.38
286.751	89.38
286.982	101.38
287.213	90.38
287.444	96.38
287.675	93.38
287.906	70.38
288.138	86.38
288.369	91.38
288.6	97.38
288.831	88.38
289.062	89.38
289.293	78.38
289.524	91.38
289.755	75.38
289.986	84.38
290.217	82.38
290.448	88.38
290.679	81.38
290.91	105.38
291.141	106.38
291.371	100.38
291.602	98.38
291.833	92.38
292.064	84.38
292.295	92.38
292.526	90.38
292.757	85.38
292.987	96.38
293.218	90.38
293.449	76.38
293.68	101.38
293.91	96.38
294.141	78.38
294.372	82.38
294.603	100.38
294.833	105.38
295.064	94.38
295.295	105.38
295.525	101.38
295.756	99.38
295.987	116.38
296.217	145.38
296.448	123.38
296.679	114.38
296.909	95.38
297.14	109.38
297.37	108.38
297.601	86.38
297.831	95.38
298.062	93.38
298.292	82.38
298.523	114.38
298.753	85.38
298.984	88.38
299.214	90.38
299.445	95.38
299.675	97.38
299.905	102.38
300.136	98.38
300.366	98.38
300.597	102.38
300.827	86.38
301.057	90.38
301.288	112.38
301.518	92.38
301.748	90.38
301.979	104.38
302.209	77.38
302.439	89.38
302.669	83.38
302.9	101.38
303.13	91.38
303.36	92.38
303.59	117.38
303.82	90.38
304.051	88.38
304.281	102.38
304.511	104.38
304.741	81.38
304.971	109.38
305.201	92.38
305.431	96.38
305.661	86.38
305.891	98.38
306.121	99.38
306.352	100.38
306.582	115.38
306.812	103.38
307.042	101.38
307.272	96.38
307.502	94.38
307.731	95.38
307.961	93.38
308.191	81.38
308.421	96.38
308.651	92.38
308.881	107.38
309.111	88.38
309.341	100.38
309.571	91.38
309.8	95.38
310.03	115.38
310.26	87.38
310.49	107.38
310.72	114.38
310.949	109.38
311.179	101.38
311.409	85.38
311.639	84.38
311.868	94.38
312.098	91.38
312.328	98.38
312.557	96.38
312.787	105.38
313.017	105.38
313.246	89.38
313.476	113.38
313.706	98.38
313.935	88.38
314.165	97.38
314.394	87.38
314.624	87.38
314.853	95.38
315.083	92.38
315.312	94.38
315.542	101.38
315.771	104.38
316.001	86.38
316.23	88.38
316.46	100.38
316.689	100.38
316.919	96.38
317.148	85.38
317.377	95.38
317.607	90.38
317.836	104.38
318.065	90.38
318.295	107.38
318.524	102.38
318.753	93.38
318.983	99.38
319.212	102.38
319.441	111.38
319.67	104.38
319.9	100.38
320.129	92.38
320.358	96.38
320.587	115.38
320.816	100.38
321.046	100.38
321.275	98.38
321.504	96.38
321.733	97.38
321.962	107.38
322.191	111.38
322.42	96.38
322.649	110.38
322.878	109.38
323.108	131.38
323.337	128.38
323.566	132.38
323.795	140.38
324.024	186.38
324.253	359.38
324.482	763.38
324.71	1553.38
324.939	2031.38
325.168	779.38
325.397	247.38
325.626	138.38
325.855	132.38
326.084	124.38
326.313	133.38
326.542	158.38
326.77	226.38
326.999	402.38
327.228	868.38
327.457	1582.38
327.686	1286.38
327.914	361.38
328.143	199.38
328.372	150.38
328.6	137.38
328.829	122.38
329.058	130.38
329.287	135.38
329.515	108.38
329.744	103.38
329.972	114.38
330.201	102.38
330.43	111.38
330.658	110.38
330.887	135.38
331.115	121.38
331.344	102.38
331.572	104.38
331.801	112.38
332.03	104.38
332.258	108.38
332.486	88.38
332.715	110.38
332.943	107.38
333.172	101.38
333.4	104.38
333.629	118.38
333.857	100.38
334.085	122.38
334.314	100.38
334.542	113.38
334.771	112.38
334.999	99.38
335.227	86.38
335.455	108.38
335.684	87.38
335.912	101.38
336.14	89.38
336.369	99.38
336.597	97.38
336.825	100.38
337.053	96.38
337.281	99.38
337.51	90.38
337.738	106.38
337.966	91.38
338.194	106.38
338.422	100.38
338.65	94.38
338.878	101.38
339.106	96.38
339.334	97.38
339.562	103.38
339.79	104.38
340.018	102.38
340.246	73.38
340.474	104.38
340.702	97.38
340.93	96.38
341.158	94.38
341.386	99.38
341.614	116.38
341.842	107.38
342.07	104.38
342.298	97.38
342.526	103.38
342.754	100.38
342.981	102.38
343.209	90.38
343.437	112.38
343.665	96.38
343.893	96.38
344.12	100.38
344.348	90.38
344.576	90.38
344.804	88.38
345.031	95.38
345.259	102.38
345.487	98.38
345.714	117.38
345.942	93.38
346.17	90.38
346.397	84.38
346.625	105.38
346.853	94.38
347.08	75.38
347.308	94.38
347.535	104.38
347.763	100.38
347.99	94.38
348.218	97.38
348.445	96.38
348.673	99.38
348.9	99.38
349.128	88.38
349.355	94.38
349.583	107.38
349.81	91.38
350.037	109.38
350.265	105.38
350.492	99.38
350.72	96.38
350.947	100.38
351.174	110.38
351.402	101.38
351.629	95.38
351.856	93.38
352.083	103.38
352.311	119.38
352.538	99.38
352.765	112.38
352.992	110.38
353.22	114.38
353.447	99.38
353.674	112.38
353.901	105.38
354.128	89.38
354.355	104.38
354.583	106.38
354.81	105.38
355.037	103.38
355.264	102.38
355.491	96.38
355.718	102.38
355.945	98.38
356.172	99.38
356.399	97.38
356.626	98.38
356.853	104.38
357.08	102.38
357.307	91.38
357.534	87.38
357.761	88.38
357.988	85.38
358.215	88.38
358.441	102.38
358.668	93.38
358.895	92.38
359.122	99.38
359.349	87.38
359.576	102.38
359.802	109.38
360.029	112.38
360.256	104.38
360.483	101.38
360.709	103.38
360.936	95.38
361.163	106.38
361.39	112.38
361.616	88.38
361.843	93.38
362.07	99.38
362.296	98.38
362.523	114.38
362.749	87.38
362.976	84.38
363.203	97.38
363.429	102.38
363.656	97.38
363.882	70.38
364.109	82.38
364.335	102.38
364.562	94.38
364.788	80.38
365.015	80.38
365.241	103.38
365.468	119.38
365.694	107.38
365.92	94.38
366.147	98.38
366.373	91.38
366.599	87.38
366.826	86.38
367.052	83.38
367.278	96.38
367.505	98.38
367.731	98.38
367.957	94.38
368.184	100.38
368.41	100.38
368.636	117.38
368.862	124.38
369.089	98.38
369.315	101.38
369.541	92.38
369.767	88.38
369.993	88.38
370.219	102.38
370.445	104.38
370.672	94.38
370.898	109.38
371.124	94.38
371.35	93.38
371.576	100.38
371.802	95.38
372.028	92.38
372.254	109.38
372.48	101.38
372.706	96.38
372.932	92.38
373.158	90.38
373.384	104.38
373.61	103.38
373.835	99.38
374.061	99.38
374.287	91.38
374.513	99.38
374.739	70.38
374.965	98.38
375.191	105.38
375.416	94.38
375.642	87.38
375.868	89.38
376.094	99.38
376.319	92.38
376.545	85.38
376.771	92.38
376.997	101.38
377.222	85.38
377.448	109.38
377.674	78.38
377.899	92.38
378.125	83.38
378.35	94.38
378.576	80.38
378.802	97.38
379.027	92.38
379.253	94.38
379.478	89.38
379.704	93.38
379.929	85.38
380.155	107.38
380.38	95.38
380.606	86.38
380.831	101.38
381.057	98.38
381.282	96.38
381.507	102.38
381.733	92.38
381.958	96.38
382.184	84.38
382.409	87.38
382.634	114.38
382.86	93.38
383.085	101.38
383.31	103.38
383.535	103.38
383.761	94.38
383.986	93.38
384.211	109.38
384.436	90.38
384.662	96.38
384.887	112.38
385.112	83.38
385.337	97.38
385.562	100.38
385.787	105.38
386.013	115.38
386.238	95.38
386.463	114.38
386.688	102.38
386.913	105.38
387.138	102.38
387.363	110.38
387.588	119.38
387.813	98.38
388.038	100.38
388.263	109.38
388.488	106.38
388.713	96.38
388.938	101.38
389.163	99.38
389.387	105.38
389.612	100.38
389.837	86.38
390.062	103.38
390.287	94.38
390.512	103.38
390.736	87.38
390.961	101.38
391.186	93.38
391.411	106.38
391.636	113.38
391.86	82.38
392.085	100.38
392.31	88.38
392.534	92.38
392.759	89.38
392.984	88.38
393.208	90.38
393.433	83.38
393.658	88.38
393.882	88.38
394.107	95.38
394.331	93.38
394.556	84.38
394.78	86.38
395.005	97.38
395.229	85.38
395.454	102.38
395.678	91.38
395.903	99.38
396.127	91.38
396.352	86.38
396.576	91.38
396.801	98.38
397.025	103.38
397.249	94.38
397.474	84.38
397.698	92.38
397.922	85.38
398.147	100.38
398.371	84.38
398.595	88.38
398.82	88.38
399.044	84.38
399.268	88.38
399.492	92.38
399.717	82.38
399.941	93.38
400.165	90.38
400.389	95.38
400.613	88.38
400.837	95.38
401.062	88.38
401.286	96.38
401.51	106.38
401.734	103.38
401.958	95.38
402.182	121.38
402.406	148.38
402.63	116.38
402.854	107.38
403.078	88.38
403.302	88.38
403.526	76.38
403.75	83.38
403.974	80.38
404.198	82.38
404.422	105.38
404.645	98.38
404.869	92.38
405.093	100.38
405.317	96.38
405.541	99.38
405.765	101.38
405.988	121.38
406.212	170.38
406.436	216.38
406.66	123.38
406.883	112.38
407.107	101.38
407.331	96.38
407.555	104.38
407.778	106.38
408.002	87.38
408.226	98.38
408.449	104.38
408.673	90.38
408.896	89.38
409.12	96.38
409.344	91.38
409.567	85.38
409.791	91.38
410.014	89.38
410.238	98.38
410.461	81.38
410.685	85.38
410.908	96.38
411.132	110.38
411.355	119.38
411.578	97.38
411.802	86.38
412.025	97.38
412.249	90.38
412.472	93.38
412.695	82.38
412.919	91.38
413.142	86.38
413.365	86.38
413.589	90.38
413.812	86.38
414.035	97.38
414.258	88.38
414.482	90.38
414.705	81.38
414.928	86.38
415.151	92.38
415.374	97.38
415.597	94.38
415.821	99.38
416.044	92.38
416.267	105.38
416.49	93.38
416.713	101.38
416.936	89.38
417.159	90.38
417.382	102.38
417.605	82.38
417.828	100.38
418.051	92.38
418.274	91.38
418.497	90.38
418.72	97.38
418.943	89.38
419.166	107.38
419.389	92.38
419.611	98.38
419.834	90.38
420.057	92.38
420.28	90.38
420.503	99.38
420.726	100.38
420.948	95.38
421.171	89.38
421.394	94.38
421.617	89.38
421.839	108.38
422.062	75.38
422.285	81.38
422.507	105.38
422.73	112.38
422.953	91.38
423.175	98.38
423.398	88.38
423.621	85.38
423.843	95.38
424.066	88.38
424.288	90.38
424.511	89.38
424.733	112.38
424.956	102.38
425.178	110.38
425.401	108.38
425.623	91.38
425.846	109.38
426.068	85.38
426.291	90.38
426.513	98.38
426.735	91.38
426.958	94.38
427.18	109.38
427.402	132.38
427.625	160.38
427.847	114.38
428.069	106.38
428.292	86.38
428.514	100.38
428.736	92.38
428.958	88.38
429.181	84.38
429.403	85.38
429.625	83.38
429.847	102.38
430.069	105.38
430.292	91.38
430.514	82.38
430.736	102.38
430.958	86.38
431.18	88.38
431.402	73.38
431.624	91.38
431.846	98.38
432.068	103.38
432.29	96.38
432.512	97.38
432.734	100.38
432.956	88.38
433.178	93.38
433.4	89.38
433.622	90.38
433.844	88.38
434.066	102.38
434.287	86.38
434.509	103.38
434.731	100.38
434.953	87.38
435.175	85.38
435.397	102.38
435.618	99.38
435.84	110.38
436.062	104.38
436.284	117.38
436.505	101.38
436.727	113.38
436.949	104.38
437.17	92.38
437.392	98.38
437.614	98.38
437.835	106.38
438.057	127.38
438.278	100.38
438.5	100.38
438.721	123.38
438.943	92.38
439.165	73.38
439.386	113.38
439.608	76.38
439.829	96.38
440.05	122.38
440.272	145.38
440.493	98.38
440.715	101.38
440.936	99.38
441.158	98.38
441.379	106.38
441.6	93.38
441.822	97.38
442.043	86.38
442.264	108.38
442.486	104.38
442.707	92.38
442.928	115.38
443.149	135.38
443.371	128.38
443.592	108.38
443.813	123.38
444.034	117.38
444.255	104.38
444.476	116.38
444.698	104.38
444.919	76.38
445.14	140.38
445.361	120.38
445.582	104.38
445.803	130.38
446.024	126.38
446.245	133.38
446.466	122.38
446.687	93.38
446.908	95.38
447.129	95.38
447.35	84.38
447.571	88.38
447.792	88.38
448.013	100.38
448.234	122.38
448.455	107.38
448.675	129.38
448.896	116.38
449.117	101.38
449.338	110.38
449.559	143.38
449.779	145.38
450	89.38
450.221	94.38
450.442	90.38
450.662	93.38
450.883	104.38
451.104	110.38
451.324	90.38
451.545	94.38
451.766	100.38
451.986	82.38
452.207	93.38
452.428	100.38
452.648	100.38
452.869	105.38
453.089	118.38
453.31	120.38
453.53	110.38
453.751	79.38
453.971	90.38
454.192	110.38
454.412	107.38
454.633	88.38
454.853	112.38
455.073	93.38
455.294	98.38
455.514	90.38
455.734	89.38
455.955	90.38
456.175	88.38
456.395	96.38
456.616	100.38
456.836	97.38
457.056	89.38
457.276	81.38
457.497	97.38
457.717	90.38
457.937	92.38
458.157	95.38
458.377	88.38
458.598	111.38
458.818	137.38
459.038	154.38
459.258	124.38
459.478	91.38
459.698	99.38
459.918	83.38
460.138	96.38
460.358	100.38
460.578	80.38
460.798	104.38
461.018	99.38
461.238	82.38
461.458	86.38
461.678	85.38
461.898	86.38
462.118	100.38
462.338	96.38
462.558	84.38
462.777	73.38
462.997	88.38
463.217	85.38
463.437	91.38
463.657	83.38
463.876	79.38
464.096	74.38
464.316	89.38
464.536	104.38
464.755	94.38
464.975	103.38
465.195	159.38
465.414	140.38
465.634	92.38
465.854	96.38
466.073	93.38
466.293	83.38
466.512	81.38
466.732	85.38
466.951	104.38
467.171	99.38
467.391	97.38
467.61	109.38
467.829	98.38
468.049	99.38
468.268	92.38
468.488	86.38
468.707	96.38
468.927	95.38
469.146	99.38
469.365	86.38
469.585	92.38
469.804	99.38
470.023	89.38
470.243	98.38
470.462	99.38
470.681	110.38
470.901	104.38
471.12	96.38
471.339	74.38
471.558	93.38
471.777	88.38
471.997	96.38
472.216	103.38
472.435	112.38
472.654	107.38
472.873	97.38
473.092	92.38
473.311	89.38
473.53	96.38
473.749	101.38
473.968	97.38
474.187	92.38
474.406	92.38
474.625	98.38
474.844	84.38
475.063	101.38
475.282	94.38
475.501	103.38
475.72	87.38
475.939	81.38
476.158	98.38
476.377	92.38
476.596	99.38
476.814	93.38
477.033	88.38
477.252	89.38
477.471	100.38
477.69	96.38
477.908	99.38
478.127	81.38
478.346	96.38
478.564	91.38
478.783	88.38
479.002	90.38
479.22	90.38
479.439	85.38
479.658	105.38
479.876	85.38
480.095	107.38
480.313	93.38
480.532	87.38
480.751	82.38
480.969	102.38
481.188	155.38
481.406	114.38
481.624	102.38
481.843	81.38
482.061	81.38
482.28	94.38
482.498	104.38
482.717	93.38
482.935	94.38
483.153	103.38
483.372	93.38
483.59	98.38
483.808	100.38
484.027	109.38
484.245	97.38
484.463	96.38
484.681	84.38
484.9	97.38
485.118	96.38
485.336	93.38
485.554	107.38
485.772	92.38
485.99	110.38
486.209	104.38
486.427	101.38
486.645	82.38
486.863	116.38
487.081	107.38
487.299	90.38
487.517	99.38
487.735	94.38
487.953	91.38
488.171	98.38
488.389	104.38
488.607	105.38
488.825	109.38
489.043	96.38
489.261	103.38
489.479	105.38
489.696	85.38
489.914	92.38
490.132	77.38
490.35	104.38
490.568	96.38
490.786	96.38
491.003	85.38
491.221	80.38
491.439	92.38
491.657	120.38
491.874	92.38
492.092	74.38
492.31	90.38
492.527	90.38
492.745	92.38
492.963	100.38
493.18	100.38
493.398	92.38
493.615	102.38
493.833	109.38
494.05	90.38
494.268	103.38
494.485	102.38
494.703	88.38
494.92	91.38
495.138	79.38
495.355	74.38
495.573	80.38
495.79	86.38
496.008	100.38
496.225	83.38
496.442	90.38
496.66	103.38
496.877	96.38
497.094	90.38
497.312	97.38
497.529	80.38
497.746	92.38
497.963	97.38
498.181	93.38
498.398	104.38
498.615	105.38
498.832	106.38
499.049	86.38
499.267	99.38
499.484	94.38
499.701	88.38
499.918	88.38
500.135	99.38
500.352	99.38
500.569	96.38
500.786	90.38
501.003	85.38
501.22	101.38
501.437	98.38
501.654	105.38
501.871	92.38
502.088	109.38
502.305	87.38
502.522	100.38
502.739	100.38
502.956	85.38
503.172	91.38
503.389	91.38
503.606	102.38
503.823	101.38
504.04	100.38
504.256	101.38
504.473	96.38
504.69	94.38
504.907	100.38
505.123	96.38
505.34	112.38
505.557	96.38
505.773	95.38
505.99	83.38
506.207	81.38
506.423	82.38
506.64	98.38
506.856	90.38
507.073	104.38
507.289	73.38
507.506	112.38
507.722	120.38
507.939	104.38
508.155	108.38
508.372	80.38
508.588	103.38
508.805	101.38
509.021	88.38
509.238	107.38
509.454	106.38
509.67	88.38
509.887	110.38
510.103	129.38
510.319	216.38
510.536	674.38
510.752	2097.38
510.968	571.38
511.184	152.38
511.401	114.38
511.617	99.38
511.833	104.38
512.049	86.38
512.265	88.38
512.481	94.38
512.698	98.38
512.914	97.38
513.13	102.38
513.346	89.38
513.562	92.38
513.778	102.38
513.994	100.38
