Data from Uncirc_1987_H10_HRD10591_00017.txt Node
Date: Wed Jan 03 12:08:51 EST 2024
User: Yrep
Spectrometer: HR+D1059
Trigger mode: 1
Integration Time (sec): 1.000000E-1
Scans to average: 1
Electric dark correction enabled: true
Nonlinearity correction enabled: false
Boxcar width: 0
XAxis mode: Wavelengths
Number of Pixels in Spectrum: 2048
>>>>>Begin Spectral Data<<<<<
223.165	-8.44
223.4	-8.44
223.635	-8.44
223.869	-20.44
224.104	-26.44
224.338	-17.44
224.573	-15.44
224.808	-19.44
225.042	-4.44
225.277	5.56
225.511	-5.44
225.746	-0.44
225.98	6.56
226.215	6.56
226.449	17.56
226.683	21.56
226.918	37.56
227.152	22.56
227.387	30.56
227.621	37.56
227.856	58.56
228.09	55.56
228.324	58.56
228.559	57.56
228.793	54.56
229.027	80.56
229.262	61.56
229.496	72.56
229.73	77.56
229.964	83.56
230.199	62.56
230.433	66.56
230.667	80.56
230.901	90.56
231.136	65.56
231.37	83.56
231.604	88.56
231.838	87.56
232.072	77.56
232.306	72.56
232.541	81.56
232.775	80.56
233.009	81.56
233.243	69.56
233.477	81.56
233.711	86.56
233.945	82.56
234.179	71.56
234.413	91.56
234.647	78.56
234.881	65.56
235.115	77.56
235.349	90.56
235.583	73.56
235.817	62.56
236.051	83.56
236.285	81.56
236.519	80.56
236.753	86.56
236.987	64.56
237.221	99.56
237.455	74.56
237.689	73.56
237.922	93.56
238.156	80.56
238.39	81.56
238.624	78.56
238.858	67.56
239.091	85.56
239.325	92.56
239.559	92.56
239.793	83.56
240.027	96.56
240.26	85.56
240.494	63.56
240.728	65.56
240.961	76.56
241.195	72.56
241.429	85.56
241.662	74.56
241.896	79.56
242.13	96.56
242.363	89.56
242.597	74.56
242.83	74.56
243.064	83.56
243.298	74.56
243.531	97.56
243.765	84.56
243.998	86.56
244.232	74.56
244.465	83.56
244.699	84.56
244.932	97.56
245.166	74.56
245.399	81.56
245.633	57.56
245.866	83.56
246.099	80.56
246.333	61.56
246.566	77.56
246.8	69.56
247.033	54.56
247.266	92.56
247.5	71.56
247.733	77.56
247.966	70.56
248.2	72.56
248.433	56.56
248.666	90.56
248.899	83.56
249.133	67.56
249.366	97.56
249.599	96.56
249.832	97.56
250.066	89.56
250.299	72.56
250.532	72.56
250.765	91.56
250.998	70.56
251.231	75.56
251.465	81.56
251.698	90.56
251.931	88.56
252.164	80.56
252.397	64.56
252.63	71.56
252.863	82.56
253.096	91.56
253.329	93.56
253.562	78.56
253.795	82.56
254.028	85.56
254.261	80.56
254.494	70.56
254.727	81.56
254.96	58.56
255.193	72.56
255.426	80.56
255.659	81.56
255.892	87.56
256.124	74.56
256.357	85.56
256.59	83.56
256.823	93.56
257.056	89.56
257.289	87.56
257.521	77.56
257.754	84.56
257.987	83.56
258.22	87.56
258.452	75.56
258.685	88.56
258.918	94.56
259.151	74.56
259.383	85.56
259.616	71.56
259.849	90.56
260.081	78.56
260.314	85.56
260.547	94.56
260.779	82.56
261.012	82.56
261.244	84.56
261.477	85.56
261.71	93.56
261.942	97.56
262.175	125.56
262.407	88.56
262.64	77.56
262.872	95.56
263.105	75.56
263.337	77.56
263.57	79.56
263.802	87.56
264.035	77.56
264.267	78.56
264.499	74.56
264.732	73.56
264.964	99.56
265.197	94.56
265.429	71.56
265.661	79.56
265.894	95.56
266.126	77.56
266.358	75.56
266.591	68.56
266.823	86.56
267.055	83.56
267.287	78.56
267.52	87.56
267.752	85.56
267.984	73.56
268.216	88.56
268.448	84.56
268.681	93.56
268.913	89.56
269.145	91.56
269.377	92.56
269.609	86.56
269.841	81.56
270.073	89.56
270.306	95.56
270.538	71.56
270.77	72.56
271.002	90.56
271.234	103.56
271.466	99.56
271.698	87.56
271.93	85.56
272.162	93.56
272.394	95.56
272.626	71.56
272.858	84.56
273.09	86.56
273.322	93.56
273.553	94.56
273.785	77.56
274.017	87.56
274.249	81.56
274.481	72.56
274.713	72.56
274.945	94.56
275.176	98.56
275.408	93.56
275.64	81.56
275.872	98.56
276.104	81.56
276.335	101.56
276.567	86.56
276.799	99.56
277.031	114.56
277.262	79.56
277.494	86.56
277.726	80.56
277.957	75.56
278.189	71.56
278.421	80.56
278.652	88.56
278.884	93.56
279.115	91.56
279.347	89.56
279.579	91.56
279.81	90.56
280.042	84.56
280.273	105.56
280.505	93.56
280.736	79.56
280.968	91.56
281.199	82.56
281.431	85.56
281.662	80.56
281.894	92.56
282.125	79.56
282.356	115.56
282.588	137.56
282.819	112.56
283.051	91.56
283.282	98.56
283.513	83.56
283.745	68.56
283.976	85.56
284.207	70.56
284.439	93.56
284.67	77.56
284.901	88.56
285.132	105.56
285.364	86.56
285.595	97.56
285.826	82.56
286.057	78.56
286.288	90.56
286.52	86.56
286.751	92.56
286.982	87.56
287.213	97.56
287.444	100.56
287.675	82.56
287.906	89.56
288.138	81.56
288.369	85.56
288.6	100.56
288.831	75.56
289.062	75.56
289.293	94.56
289.524	80.56
289.755	83.56
289.986	81.56
290.217	87.56
290.448	88.56
290.679	88.56
290.91	90.56
291.141	91.56
291.371	93.56
291.602	88.56
291.833	90.56
292.064	92.56
292.295	85.56
292.526	86.56
292.757	104.56
292.987	89.56
293.218	103.56
293.449	99.56
293.68	91.56
293.91	98.56
294.141	90.56
294.372	97.56
294.603	85.56
294.833	99.56
295.064	94.56
295.295	91.56
295.525	91.56
295.756	103.56
295.987	99.56
296.217	122.56
296.448	109.56
296.679	84.56
296.909	85.56
297.14	111.56
297.37	81.56
297.601	88.56
297.831	88.56
298.062	92.56
298.292	75.56
298.523	89.56
298.753	95.56
298.984	83.56
299.214	94.56
299.445	85.56
299.675	107.56
299.905	95.56
300.136	88.56
300.366	73.56
300.597	84.56
300.827	89.56
301.057	105.56
301.288	84.56
301.518	85.56
301.748	98.56
301.979	101.56
302.209	104.56
302.439	81.56
302.669	80.56
302.9	105.56
303.13	103.56
303.36	86.56
303.59	93.56
303.82	95.56
304.051	89.56
304.281	79.56
304.511	85.56
304.741	88.56
304.971	82.56
305.201	97.56
305.431	92.56
305.661	105.56
305.891	93.56
306.121	88.56
306.352	101.56
306.582	99.56
306.812	101.56
307.042	97.56
307.272	101.56
307.502	86.56
307.731	94.56
307.961	73.56
308.191	83.56
308.421	77.56
308.651	94.56
308.881	81.56
309.111	94.56
309.341	90.56
309.571	91.56
309.8	93.56
310.03	102.56
310.26	89.56
310.49	110.56
310.72	100.56
310.949	110.56
311.179	96.56
311.409	85.56
311.639	99.56
311.868	103.56
312.098	102.56
312.328	92.56
312.557	108.56
312.787	91.56
313.017	95.56
313.246	87.56
313.476	101.56
313.706	89.56
313.935	104.56
314.165	81.56
314.394	98.56
314.624	93.56
314.853	106.56
315.083	97.56
315.312	90.56
315.542	95.56
315.771	74.56
316.001	91.56
316.23	84.56
316.46	81.56
316.689	90.56
316.919	82.56
317.148	98.56
317.377	93.56
317.607	93.56
317.836	89.56
318.065	91.56
318.295	93.56
318.524	99.56
318.753	95.56
318.983	102.56
319.212	104.56
319.441	108.56
319.67	107.56
319.9	99.56
320.129	101.56
320.358	104.56
320.587	96.56
320.816	82.56
321.046	87.56
321.275	94.56
321.504	105.56
321.733	100.56
321.962	98.56
322.191	89.56
322.42	86.56
322.649	114.56
322.878	113.56
323.108	110.56
323.337	125.56
323.566	137.56
323.795	155.56
324.024	191.56
324.253	366.56
324.482	801.56
324.71	1624.56
324.939	2190.56
325.168	809.56
325.397	248.56
325.626	141.56
325.855	123.56
326.084	104.56
326.313	144.56
326.542	143.56
326.77	212.56
326.999	449.56
327.228	921.56
327.457	1723.56
327.686	1397.56
327.914	378.56
328.143	191.56
328.372	148.56
328.6	113.56
328.829	119.56
329.058	119.56
329.287	132.56
329.515	110.56
329.744	90.56
329.972	95.56
330.201	108.56
330.43	81.56
330.658	115.56
330.887	125.56
331.115	127.56
331.344	93.56
331.572	93.56
331.801	101.56
332.03	93.56
332.258	105.56
332.486	102.56
332.715	90.56
332.943	91.56
333.172	106.56
333.4	101.56
333.629	113.56
333.857	117.56
334.085	106.56
334.314	99.56
334.542	101.56
334.771	110.56
334.999	84.56
335.227	102.56
335.455	96.56
335.684	103.56
335.912	108.56
336.14	104.56
336.369	89.56
336.597	98.56
336.825	93.56
337.053	102.56
337.281	104.56
337.51	97.56
337.738	94.56
337.966	98.56
338.194	113.56
338.422	100.56
338.65	102.56
338.878	90.56
339.106	103.56
339.334	87.56
339.562	93.56
339.79	98.56
340.018	101.56
340.246	105.56
340.474	101.56
340.702	92.56
340.93	79.56
341.158	90.56
341.386	94.56
341.614	94.56
341.842	87.56
342.07	81.56
342.298	86.56
342.526	89.56
342.754	93.56
342.981	85.56
343.209	75.56
343.437	98.56
343.665	100.56
343.893	106.56
344.12	89.56
344.348	94.56
344.576	99.56
344.804	89.56
345.031	103.56
345.259	95.56
345.487	109.56
345.714	96.56
345.942	90.56
346.17	86.56
346.397	93.56
346.625	99.56
346.853	90.56
347.08	99.56
347.308	93.56
347.535	97.56
347.763	96.56
347.99	104.56
348.218	93.56
348.445	112.56
348.673	98.56
348.9	99.56
349.128	91.56
349.355	95.56
349.583	97.56
349.81	98.56
350.037	88.56
350.265	91.56
350.492	89.56
350.72	113.56
350.947	108.56
351.174	115.56
351.402	107.56
351.629	94.56
351.856	91.56
352.083	99.56
352.311	100.56
352.538	125.56
352.765	106.56
352.992	113.56
353.22	110.56
353.447	96.56
353.674	119.56
353.901	100.56
354.128	91.56
354.355	110.56
354.583	110.56
354.81	102.56
355.037	97.56
355.264	105.56
355.491	90.56
355.718	86.56
355.945	99.56
356.172	95.56
356.399	99.56
356.626	88.56
356.853	106.56
357.08	95.56
357.307	81.56
357.534	87.56
357.761	89.56
357.988	87.56
358.215	80.56
358.441	96.56
358.668	81.56
358.895	74.56
359.122	91.56
359.349	107.56
359.576	93.56
359.802	94.56
360.029	106.56
360.256	103.56
360.483	84.56
360.709	73.56
360.936	89.56
361.163	93.56
361.39	100.56
361.616	89.56
361.843	70.56
362.07	106.56
362.296	98.56
362.523	87.56
362.749	89.56
362.976	86.56
363.203	102.56
363.429	87.56
363.656	89.56
363.882	96.56
364.109	104.56
364.335	83.56
364.562	103.56
364.788	86.56
365.015	78.56
365.241	114.56
365.468	109.56
365.694	111.56
365.92	98.56
366.147	94.56
366.373	86.56
366.599	83.56
366.826	86.56
367.052	91.56
367.278	98.56
367.505	98.56
367.731	91.56
367.957	93.56
368.184	96.56
368.41	75.56
368.636	101.56
368.862	107.56
369.089	94.56
369.315	98.56
369.541	89.56
369.767	97.56
369.993	81.56
370.219	96.56
370.445	92.56
370.672	81.56
370.898	84.56
371.124	85.56
371.35	90.56
371.576	88.56
371.802	89.56
372.028	93.56
372.254	91.56
372.48	75.56
372.706	89.56
372.932	93.56
373.158	97.56
373.384	99.56
373.61	111.56
373.835	93.56
374.061	98.56
374.287	98.56
374.513	93.56
374.739	84.56
374.965	103.56
375.191	85.56
375.416	90.56
375.642	93.56
375.868	87.56
376.094	93.56
376.319	87.56
376.545	88.56
376.771	87.56
376.997	86.56
377.222	87.56
377.448	93.56
377.674	88.56
377.899	91.56
378.125	91.56
378.35	99.56
378.576	90.56
378.802	93.56
379.027	90.56
379.253	91.56
379.478	88.56
379.704	93.56
379.929	83.56
380.155	87.56
380.38	96.56
380.606	96.56
380.831	90.56
381.057	95.56
381.282	101.56
381.507	105.56
381.733	94.56
381.958	93.56
382.184	104.56
382.409	88.56
382.634	106.56
382.86	97.56
383.085	107.56
383.31	101.56
383.535	101.56
383.761	107.56
383.986	107.56
384.211	105.56
384.436	106.56
384.662	96.56
384.887	102.56
385.112	102.56
385.337	102.56
385.562	99.56
385.787	110.56
386.013	113.56
386.238	97.56
386.463	99.56
386.688	107.56
386.913	108.56
387.138	101.56
387.363	103.56
387.588	93.56
387.813	98.56
388.038	101.56
388.263	97.56
388.488	112.56
388.713	105.56
388.938	83.56
389.163	109.56
389.387	101.56
389.612	91.56
389.837	84.56
390.062	99.56
390.287	85.56
390.512	91.56
390.736	84.56
390.961	90.56
391.186	111.56
391.411	104.56
391.636	90.56
391.86	93.56
392.085	93.56
392.31	84.56
392.534	76.56
392.759	81.56
392.984	93.56
393.208	97.56
393.433	100.56
393.658	103.56
393.882	80.56
394.107	85.56
394.331	98.56
394.556	98.56
394.78	96.56
395.005	84.56
395.229	88.56
395.454	92.56
395.678	94.56
395.903	83.56
396.127	83.56
396.352	74.56
396.576	92.56
396.801	91.56
397.025	94.56
397.249	89.56
397.474	100.56
397.698	73.56
397.922	97.56
398.147	97.56
398.371	74.56
398.595	86.56
398.82	96.56
399.044	79.56
399.268	95.56
399.492	80.56
399.717	88.56
399.941	77.56
400.165	95.56
400.389	93.56
400.613	80.56
400.837	87.56
401.062	82.56
401.286	86.56
401.51	95.56
401.734	89.56
401.958	108.56
402.182	121.56
402.406	163.56
402.63	109.56
402.854	101.56
403.078	94.56
403.302	89.56
403.526	90.56
403.75	95.56
403.974	77.56
404.198	81.56
404.422	86.56
404.645	90.56
404.869	85.56
405.093	96.56
405.317	96.56
405.541	84.56
405.765	91.56
405.988	98.56
406.212	149.56
406.436	221.56
406.66	148.56
406.883	99.56
407.107	99.56
407.331	94.56
407.555	92.56
407.778	96.56
408.002	98.56
408.226	79.56
408.449	95.56
408.673	97.56
408.896	92.56
409.12	101.56
409.344	87.56
409.567	83.56
409.791	94.56
410.014	99.56
410.238	97.56
410.461	80.56
410.685	87.56
410.908	100.56
411.132	107.56
411.355	104.56
411.578	105.56
411.802	85.56
412.025	79.56
412.249	92.56
412.472	95.56
412.695	80.56
412.919	84.56
413.142	97.56
413.365	85.56
413.589	84.56
413.812	81.56
414.035	100.56
414.258	95.56
414.482	93.56
414.705	87.56
414.928	85.56
415.151	110.56
415.374	104.56
415.597	88.56
415.821	83.56
416.044	71.56
416.267	75.56
416.49	90.56
416.713	89.56
416.936	84.56
417.159	93.56
417.382	86.56
417.605	100.56
417.828	112.56
418.051	96.56
418.274	94.56
418.497	96.56
418.72	80.56
418.943	105.56
419.166	88.56
419.389	95.56
419.611	88.56
419.834	87.56
420.057	90.56
420.28	85.56
420.503	98.56
420.726	88.56
420.948	92.56
421.171	88.56
421.394	74.56
421.617	94.56
421.839	74.56
422.062	93.56
422.285	93.56
422.507	107.56
422.73	115.56
422.953	99.56
423.175	97.56
423.398	103.56
423.621	88.56
423.843	70.56
424.066	71.56
424.288	83.56
424.511	98.56
424.733	99.56
424.956	98.56
425.178	88.56
425.401	89.56
425.623	86.56
425.846	86.56
426.068	102.56
426.291	99.56
426.513	111.56
426.735	82.56
426.958	91.56
427.18	114.56
427.402	122.56
427.625	147.56
427.847	114.56
428.069	109.56
428.292	100.56
428.514	95.56
428.736	102.56
428.958	91.56
429.181	81.56
429.403	89.56
429.625	80.56
429.847	86.56
430.069	87.56
430.292	83.56
430.514	88.56
430.736	83.56
430.958	94.56
431.18	71.56
431.402	88.56
431.624	83.56
431.846	89.56
432.068	92.56
432.29	85.56
432.512	79.56
432.734	90.56
432.956	100.56
433.178	113.56
433.4	104.56
433.622	81.56
433.844	88.56
434.066	88.56
434.287	81.56
434.509	91.56
434.731	91.56
434.953	102.56
435.175	68.56
435.397	93.56
435.618	87.56
435.84	98.56
436.062	126.56
436.284	122.56
436.505	112.56
436.727	95.56
436.949	89.56
437.17	95.56
437.392	87.56
437.614	95.56
437.835	99.56
438.057	109.56
438.278	121.56
438.5	109.56
438.721	122.56
438.943	106.56
439.165	81.56
439.386	86.56
439.608	80.56
439.829	85.56
440.05	111.56
440.272	137.56
440.493	91.56
440.715	86.56
440.936	91.56
441.158	73.56
441.379	97.56
441.6	84.56
441.822	103.56
442.043	88.56
442.264	106.56
442.486	111.56
442.707	91.56
442.928	104.56
443.149	120.56
443.371	140.56
443.592	114.56
443.813	105.56
444.034	121.56
444.255	84.56
444.476	74.56
444.698	77.56
444.919	85.56
445.14	126.56
445.361	115.56
445.582	121.56
445.803	135.56
446.024	134.56
446.245	134.56
446.466	98.56
446.687	99.56
446.908	98.56
447.129	80.56
447.35	91.56
447.571	83.56
447.792	105.56
448.013	103.56
448.234	110.56
448.455	87.56
448.675	105.56
448.896	126.56
449.117	100.56
449.338	99.56
449.559	122.56
449.779	130.56
450	100.56
450.221	81.56
450.442	84.56
450.662	92.56
450.883	103.56
451.104	102.56
451.324	98.56
451.545	93.56
451.766	93.56
451.986	91.56
452.207	100.56
452.428	109.56
452.648	93.56
452.869	112.56
453.089	107.56
453.31	101.56
453.53	88.56
453.751	91.56
453.971	83.56
454.192	113.56
454.412	86.56
454.633	85.56
454.853	83.56
455.073	91.56
455.294	63.56
455.514	111.56
455.734	97.56
455.955	82.56
456.175	83.56
456.395	89.56
456.616	69.56
456.836	85.56
457.056	98.56
457.276	81.56
457.497	86.56
457.717	89.56
457.937	89.56
458.157	93.56
458.377	100.56
458.598	104.56
458.818	141.56
459.038	144.56
459.258	99.56
459.478	91.56
459.698	85.56
459.918	82.56
460.138	78.56
460.358	89.56
460.578	89.56
460.798	93.56
461.018	88.56
461.238	85.56
461.458	89.56
461.678	94.56
461.898	82.56
462.118	100.56
462.338	97.56
462.558	95.56
462.777	79.56
462.997	95.56
463.217	98.56
463.437	84.56
463.657	99.56
463.876	97.56
464.096	86.56
464.316	83.56
464.536	86.56
464.755	97.56
464.975	93.56
465.195	139.56
465.414	151.56
465.634	99.56
465.854	92.56
466.073	92.56
466.293	88.56
466.512	84.56
466.732	91.56
466.951	96.56
467.171	85.56
467.391	83.56
467.61	115.56
467.829	97.56
468.049	89.56
468.268	89.56
468.488	83.56
468.707	83.56
468.927	83.56
469.146	95.56
469.365	103.56
469.585	93.56
469.804	97.56
470.023	99.56
470.243	85.56
470.462	79.56
470.681	94.56
470.901	103.56
471.12	69.56
471.339	81.56
471.558	86.56
471.777	77.56
471.997	87.56
472.216	90.56
472.435	88.56
472.654	79.56
472.873	79.56
473.092	82.56
473.311	77.56
473.53	94.56
473.749	88.56
473.968	79.56
474.187	84.56
474.406	95.56
474.625	79.56
474.844	78.56
475.063	86.56
475.282	97.56
475.501	83.56
475.72	83.56
475.939	72.56
476.158	82.56
476.377	89.56
476.596	95.56
476.814	89.56
477.033	93.56
477.252	89.56
477.471	85.56
477.69	81.56
477.908	81.56
478.127	95.56
478.346	91.56
478.564	102.56
478.783	77.56
479.002	88.56
479.22	86.56
479.439	95.56
479.658	85.56
479.876	93.56
480.095	90.56
480.313	86.56
480.532	98.56
480.751	82.56
480.969	91.56
481.188	106.56
481.406	91.56
481.624	90.56
481.843	89.56
482.061	83.56
482.28	89.56
482.498	84.56
482.717	90.56
482.935	94.56
483.153	77.56
483.372	76.56
483.59	105.56
483.808	91.56
484.027	92.56
484.245	99.56
484.463	88.56
484.681	101.56
484.9	106.56
485.118	104.56
485.336	90.56
485.554	83.56
485.772	108.56
485.99	112.56
486.209	110.56
486.427	105.56
486.645	103.56
486.863	119.56
487.081	104.56
487.299	74.56
487.517	91.56
487.735	102.56
487.953	95.56
488.171	89.56
488.389	103.56
488.607	87.56
488.825	110.56
489.043	83.56
489.261	74.56
489.479	91.56
489.696	81.56
489.914	104.56
490.132	90.56
490.35	74.56
490.568	78.56
490.786	93.56
491.003	95.56
491.221	98.56
491.439	87.56
491.657	104.56
491.874	97.56
492.092	93.56
492.31	99.56
492.527	89.56
492.745	95.56
492.963	87.56
493.18	78.56
493.398	82.56
493.615	83.56
493.833	92.56
494.05	86.56
494.268	90.56
494.485	107.56
494.703	88.56
494.92	88.56
495.138	75.56
495.355	90.56
495.573	93.56
495.79	91.56
496.008	93.56
496.225	90.56
496.442	87.56
496.66	91.56
496.877	95.56
497.094	92.56
497.312	93.56
497.529	97.56
497.746	102.56
497.963	88.56
498.181	87.56
498.398	81.56
498.615	99.56
498.832	95.56
499.049	87.56
499.267	87.56
499.484	101.56
499.701	96.56
499.918	81.56
500.135	107.56
500.352	87.56
500.569	81.56
500.786	101.56
501.003	86.56
501.22	94.56
501.437	105.56
501.654	96.56
501.871	103.56
502.088	90.56
502.305	94.56
502.522	81.56
502.739	96.56
502.956	94.56
503.172	101.56
503.389	98.56
503.606	106.56
503.823	91.56
504.04	95.56
504.256	91.56
504.473	85.56
504.69	87.56
504.907	96.56
505.123	83.56
505.34	92.56
505.557	94.56
505.773	91.56
505.99	79.56
506.207	80.56
506.423	90.56
506.64	105.56
506.856	97.56
507.073	84.56
507.289	106.56
507.506	102.56
507.722	109.56
507.939	107.56
508.155	111.56
508.372	73.56
508.588	82.56
508.805	93.56
509.021	99.56
509.238	102.56
509.454	97.56
509.67	104.56
509.887	98.56
510.103	129.56
510.319	207.56
510.536	730.56
510.752	2287.56
510.968	633.56
511.184	163.56
511.401	111.56
511.617	99.56
511.833	91.56
512.049	83.56
512.265	71.56
512.481	79.56
512.698	86.56
512.914	86.56
513.13	87.56
513.346	82.56
513.562	97.56
513.778	88.56
513.994	90.56
514.21	99.56
514.426	120.56
514.642	127.56
514.858	120.56
515.074	149.56
515.29	425.56
515.506	1370.56
515.721	513.56
