Data from Uncirc_1987_H10_HRD10591_00039.txt Node
Date: Wed Jan 03 12:08:56 EST 2024
User: Yrep
Spectrometer: HR+D1059
Trigger mode: 1
Integration Time (sec): 1.000000E-1
Scans to average: 1
Electric dark correction enabled: true
Nonlinearity correction enabled: false
Boxcar width: 0
XAxis mode: Wavelengths
Number of Pixels in Spectrum: 2048
>>>>>Begin Spectral Data<<<<<
223.165	-8
223.4	-8
223.635	-8
223.869	-20
224.104	-24
224.338	-14
224.573	-17
224.808	-25
225.042	-11
225.277	-1
225.511	-15
225.746	8
225.98	11
226.215	15
226.449	22
226.683	24
226.918	28
227.152	27
227.387	26
227.621	35
227.856	35
228.09	46
228.324	51
228.559	61
228.793	59
229.027	41
229.262	62
229.496	63
229.73	80
229.964	67
230.199	67
230.433	87
230.667	73
230.901	85
231.136	91
231.37	76
231.604	63
231.838	78
232.072	99
232.306	72
232.541	76
232.775	82
233.009	62
233.243	76
233.477	79
233.711	78
233.945	73
234.179	80
234.413	84
234.647	66
234.881	91
235.115	82
235.349	76
235.583	78
235.817	80
236.051	103
236.285	81
236.519	65
236.753	80
236.987	86
237.221	83
237.455	83
237.689	70
237.922	82
238.156	67
238.39	75
238.624	83
238.858	64
239.091	80
239.325	61
239.559	70
239.793	69
240.027	79
240.26	66
240.494	96
240.728	83
240.961	82
241.195	76
241.429	75
241.662	82
241.896	75
242.13	72
242.363	85
242.597	70
242.83	72
243.064	75
243.298	94
243.531	80
243.765	78
243.998	87
244.232	87
244.465	96
244.699	89
244.932	87
245.166	83
245.399	75
245.633	76
245.866	82
246.099	79
246.333	80
246.566	76
246.8	83
247.033	71
247.266	89
247.5	79
247.733	80
247.966	91
248.2	86
248.433	82
248.666	67
248.899	76
249.133	80
249.366	86
249.599	96
249.832	89
250.066	62
250.299	82
250.532	89
250.765	82
250.998	75
251.231	80
251.465	72
251.698	84
251.931	86
252.164	76
252.397	82
252.63	82
252.863	80
253.096	68
253.329	86
253.562	76
253.795	81
254.028	75
254.261	74
254.494	66
254.727	78
254.96	71
255.193	74
255.426	84
255.659	83
255.892	86
256.124	104
256.357	85
256.59	84
256.823	80
257.056	84
257.289	64
257.521	78
257.754	86
257.987	89
258.22	87
258.452	71
258.685	92
258.918	84
259.151	79
259.383	91
259.616	81
259.849	79
260.081	72
260.314	80
260.547	84
260.779	79
261.012	64
261.244	80
261.477	79
261.71	82
261.942	98
262.175	102
262.407	82
262.64	83
262.872	86
263.105	81
263.337	93
263.57	86
263.802	79
264.035	90
264.267	95
264.499	95
264.732	98
264.964	85
265.197	96
265.429	94
265.661	73
265.894	79
266.126	88
266.358	85
266.591	111
266.823	88
267.055	86
267.287	83
267.52	86
267.752	83
267.984	82
268.216	85
268.448	78
268.681	98
268.913	84
269.145	83
269.377	95
269.609	89
269.841	80
270.073	94
270.306	87
270.538	69
270.77	92
271.002	86
271.234	85
271.466	101
271.698	94
271.93	90
272.162	84
272.394	82
272.626	89
272.858	87
273.09	92
273.322	80
273.553	97
273.785	93
274.017	81
274.249	79
274.481	74
274.713	86
274.945	84
275.176	95
275.408	105
275.64	83
275.872	105
276.104	88
276.335	92
276.567	89
276.799	106
277.031	99
277.262	95
277.494	82
277.726	96
277.957	87
278.189	87
278.421	86
278.652	83
278.884	88
279.115	78
279.347	84
279.579	83
279.81	83
280.042	75
280.273	91
280.505	90
280.736	88
280.968	69
281.199	87
281.431	91
281.662	89
281.894	87
282.125	87
282.356	114
282.588	119
282.819	105
283.051	93
283.282	91
283.513	100
283.745	86
283.976	79
284.207	86
284.439	84
284.67	78
284.901	100
285.132	84
285.364	101
285.595	100
285.826	82
286.057	91
286.288	74
286.52	68
286.751	79
286.982	84
287.213	79
287.444	85
287.675	104
287.906	104
288.138	98
288.369	101
288.6	86
288.831	81
289.062	82
289.293	99
289.524	84
289.755	64
289.986	78
290.217	91
290.448	87
290.679	95
290.91	83
291.141	99
291.371	82
291.602	73
291.833	82
292.064	82
292.295	80
292.526	84
292.757	86
292.987	94
293.218	92
293.449	91
293.68	89
293.91	90
294.141	100
294.372	76
294.603	84
294.833	84
295.064	90
295.295	92
295.525	94
295.756	92
295.987	105
296.217	121
296.448	106
296.679	97
296.909	100
297.14	90
297.37	100
297.601	99
297.831	92
298.062	91
298.292	79
298.523	85
298.753	91
298.984	90
299.214	103
299.445	89
299.675	95
299.905	86
300.136	91
300.366	101
300.597	87
300.827	90
301.057	92
301.288	107
301.518	90
301.748	99
301.979	94
302.209	74
302.439	92
302.669	89
302.9	92
303.13	88
303.36	92
303.59	88
303.82	98
304.051	92
304.281	97
304.511	96
304.741	85
304.971	83
305.201	74
305.431	84
305.661	76
305.891	94
306.121	98
306.352	96
306.582	81
306.812	101
307.042	101
307.272	85
307.502	98
307.731	88
307.961	90
308.191	82
308.421	92
308.651	83
308.881	84
309.111	83
309.341	104
309.571	96
309.8	91
310.03	99
310.26	97
310.49	90
310.72	76
310.949	88
311.179	89
311.409	98
311.639	89
311.868	82
312.098	84
312.328	96
312.557	103
312.787	100
313.017	103
313.246	80
313.476	79
313.706	80
313.935	95
314.165	97
314.394	94
314.624	80
314.853	83
315.083	98
315.312	90
315.542	99
315.771	98
316.001	86
316.23	98
316.46	97
316.689	92
316.919	92
317.148	100
317.377	92
317.607	98
317.836	95
318.065	88
318.295	98
318.524	90
318.753	83
318.983	99
319.212	100
319.441	105
319.67	98
319.9	80
320.129	88
320.358	99
320.587	95
320.816	86
321.046	110
321.275	94
321.504	99
321.733	97
321.962	97
322.191	95
322.42	104
322.649	107
322.878	110
323.108	98
323.337	114
323.566	119
323.795	140
324.024	176
324.253	346
324.482	686
324.71	1414
324.939	1850
325.168	709
325.397	224
325.626	122
325.855	123
326.084	122
326.313	140
326.542	145
326.77	204
326.999	383
327.228	788
327.457	1426
327.686	1164
327.914	327
328.143	163
328.372	128
328.6	121
328.829	104
329.058	109
329.287	120
329.515	97
329.744	101
329.972	84
330.201	102
330.43	111
330.658	115
330.887	108
331.115	115
331.344	88
331.572	84
331.801	104
332.03	93
332.258	101
332.486	91
332.715	88
332.943	90
333.172	100
333.4	92
333.629	96
333.857	96
334.085	103
334.314	99
334.542	101
334.771	111
334.999	102
335.227	102
335.455	104
335.684	109
335.912	98
336.14	96
336.369	102
336.597	91
336.825	86
337.053	98
337.281	99
337.51	89
337.738	96
337.966	94
338.194	99
338.422	84
338.65	99
338.878	112
339.106	81
339.334	99
339.562	93
339.79	91
340.018	86
340.246	98
340.474	103
340.702	100
340.93	82
341.158	99
341.386	86
341.614	87
341.842	86
342.07	97
342.298	82
342.526	86
342.754	85
342.981	81
343.209	88
343.437	110
343.665	95
343.893	90
344.12	107
344.348	100
344.576	88
344.804	67
345.031	92
345.259	88
345.487	89
345.714	95
345.942	102
346.17	110
346.397	86
346.625	83
346.853	89
347.08	96
347.308	88
347.535	94
347.763	101
347.99	83
348.218	98
348.445	100
348.673	96
348.9	97
349.128	90
349.355	95
349.583	84
349.81	86
350.037	104
350.265	88
350.492	87
350.72	85
350.947	101
351.174	114
351.402	98
351.629	96
351.856	95
352.083	110
352.311	96
352.538	111
352.765	105
352.992	112
353.22	103
353.447	98
353.674	99
353.901	88
354.128	99
354.355	111
354.583	105
354.81	107
355.037	100
355.264	101
355.491	99
355.718	103
355.945	88
356.172	87
356.399	92
356.626	102
356.853	92
357.08	88
357.307	99
357.534	81
357.761	101
357.988	101
358.215	95
358.441	96
358.668	88
358.895	75
359.122	94
359.349	87
359.576	96
359.802	91
360.029	116
360.256	96
360.483	100
360.709	85
360.936	92
361.163	95
361.39	91
361.616	83
361.843	99
362.07	91
362.296	87
362.523	94
362.749	108
362.976	85
363.203	89
363.429	80
363.656	88
363.882	98
364.109	80
364.335	88
364.562	97
364.788	82
365.015	86
365.241	88
365.468	95
365.694	93
365.92	100
366.147	113
366.373	97
366.599	90
366.826	83
367.052	89
367.278	98
367.505	108
367.731	83
367.957	103
368.184	89
368.41	98
368.636	110
368.862	106
369.089	102
369.315	106
369.541	95
369.767	87
369.993	89
370.219	86
370.445	83
370.672	83
370.898	85
371.124	89
371.35	92
371.576	94
371.802	80
372.028	96
372.254	93
372.48	81
372.706	80
372.932	89
373.158	87
373.384	108
373.61	103
373.835	95
374.061	85
374.287	103
374.513	106
374.739	95
374.965	100
375.191	98
375.416	86
375.642	89
375.868	88
376.094	99
376.319	85
376.545	94
376.771	88
376.997	92
377.222	94
377.448	94
377.674	110
377.899	82
378.125	89
378.35	97
378.576	89
378.802	98
379.027	85
379.253	102
379.478	96
379.704	88
379.929	95
380.155	99
380.38	102
380.606	88
380.831	93
381.057	98
381.282	100
381.507	94
381.733	90
381.958	106
382.184	91
382.409	96
382.634	97
382.86	91
383.085	93
383.31	106
383.535	110
383.761	103
383.986	96
384.211	98
384.436	90
384.662	94
384.887	84
385.112	102
385.337	111
385.562	86
385.787	104
386.013	105
386.238	112
386.463	89
386.688	102
386.913	111
387.138	102
387.363	105
387.588	112
387.813	95
388.038	93
388.263	119
388.488	104
388.713	101
388.938	107
389.163	80
389.387	98
389.612	98
389.837	99
390.062	94
390.287	96
390.512	97
390.736	86
390.961	90
391.186	90
391.411	95
391.636	101
391.86	86
392.085	94
392.31	84
392.534	91
392.759	80
392.984	86
393.208	100
393.433	97
393.658	91
393.882	97
394.107	100
394.331	79
394.556	66
394.78	107
395.005	87
395.229	87
395.454	94
395.678	82
395.903	95
396.127	80
396.352	86
396.576	89
396.801	97
397.025	96
397.249	102
397.474	86
397.698	79
397.922	103
398.147	80
398.371	90
398.595	84
398.82	88
399.044	77
399.268	75
399.492	94
399.717	86
399.941	81
400.165	78
400.389	95
400.613	92
400.837	82
401.062	87
401.286	89
401.51	81
401.734	91
401.958	96
402.182	123
402.406	123
402.63	111
402.854	92
403.078	96
403.302	91
403.526	89
403.75	91
403.974	89
404.198	75
404.422	81
404.645	88
404.869	93
405.093	96
405.317	100
405.541	103
405.765	96
405.988	106
406.212	159
406.436	202
406.66	123
406.883	96
407.107	85
407.331	86
407.555	107
407.778	98
408.002	98
408.226	91
408.449	91
408.673	87
408.896	92
409.12	98
409.344	100
409.567	98
409.791	91
410.014	91
410.238	96
410.461	88
410.685	101
410.908	92
411.132	109
411.355	101
411.578	85
411.802	86
412.025	81
412.249	86
412.472	79
412.695	91
412.919	95
413.142	86
413.365	101
413.589	86
413.812	82
414.035	97
414.258	95
414.482	91
414.705	102
414.928	86
415.151	98
415.374	88
415.597	98
415.821	83
416.044	84
416.267	91
416.49	97
416.713	92
416.936	90
417.159	100
417.382	92
417.605	82
417.828	95
418.051	74
418.274	78
418.497	75
418.72	84
418.943	95
419.166	98
419.389	98
419.611	89
419.834	91
420.057	98
420.28	87
420.503	82
420.726	94
420.948	84
421.171	92
421.394	87
421.617	96
421.839	100
422.062	95
422.285	104
422.507	101
422.73	107
422.953	87
423.175	88
423.398	87
423.621	96
423.843	87
424.066	81
424.288	86
424.511	100
424.733	102
424.956	107
425.178	104
425.401	102
425.623	90
425.846	94
426.068	100
426.291	116
426.513	107
426.735	89
426.958	94
427.18	106
427.402	135
427.625	145
427.847	120
428.069	98
428.292	101
428.514	77
428.736	99
428.958	97
429.181	75
429.403	74
429.625	104
429.847	90
430.069	106
430.292	106
430.514	89
430.736	90
430.958	80
431.18	75
431.402	80
431.624	90
431.846	87
432.068	88
432.29	83
432.512	84
432.734	92
432.956	100
433.178	92
433.4	94
433.622	94
433.844	82
434.066	88
434.287	96
434.509	85
434.731	96
434.953	86
435.175	87
435.397	108
435.618	89
435.84	108
436.062	110
436.284	105
436.505	89
436.727	103
436.949	99
437.17	94
437.392	106
437.614	104
437.835	85
438.057	110
438.278	87
438.5	90
438.721	105
438.943	97
439.165	90
439.386	83
439.608	100
439.829	95
440.05	125
440.272	124
440.493	93
440.715	66
440.936	89
441.158	97
441.379	94
441.6	87
441.822	95
442.043	90
442.264	90
442.486	90
442.707	104
442.928	98
443.149	116
443.371	115
443.592	105
443.813	108
444.034	100
444.255	88
444.476	96
444.698	103
444.919	92
445.14	108
445.361	128
445.582	91
445.803	138
446.024	102
446.245	107
446.466	102
446.687	82
446.908	69
447.129	95
447.35	81
447.571	93
447.792	103
448.013	86
448.234	113
448.455	88
448.675	117
448.896	106
449.117	95
449.338	100
449.559	116
449.779	102
450	93
450.221	96
450.442	79
450.662	99
450.883	107
451.104	107
451.324	104
451.545	78
451.766	93
451.986	85
452.207	86
452.428	100
452.648	100
452.869	91
453.089	107
453.31	106
453.53	91
453.751	96
453.971	97
454.192	111
454.412	91
454.633	100
454.853	100
455.073	93
455.294	75
455.514	93
455.734	84
455.955	76
456.175	92
456.395	86
456.616	85
456.836	82
457.056	105
457.276	66
457.497	90
457.717	76
457.937	80
458.157	82
458.377	83
458.598	109
458.818	127
459.038	147
459.258	98
459.478	99
459.698	91
459.918	90
460.138	82
460.358	83
460.578	91
460.798	88
461.018	98
461.238	94
461.458	98
461.678	89
461.898	108
462.118	80
462.338	106
462.558	88
462.777	87
462.997	90
463.217	83
463.437	83
463.657	78
463.876	89
464.096	86
464.316	101
464.536	96
464.755	96
464.975	90
465.195	140
465.414	134
465.634	87
465.854	88
466.073	79
466.293	80
466.512	85
466.732	76
466.951	76
467.171	86
467.391	92
467.61	110
467.829	88
468.049	83
468.268	89
468.488	87
468.707	79
468.927	87
469.146	90
469.365	83
469.585	91
469.804	99
470.023	84
470.243	90
470.462	100
470.681	118
470.901	90
471.12	94
471.339	93
471.558	85
471.777	106
471.997	105
472.216	110
472.435	91
472.654	89
472.873	90
473.092	70
473.311	88
473.53	88
473.749	87
473.968	93
474.187	87
474.406	86
474.625	84
474.844	80
475.063	74
475.282	90
475.501	84
475.72	89
475.939	75
476.158	94
476.377	97
476.596	93
476.814	82
477.033	90
477.252	97
477.471	75
477.69	63
477.908	89
478.127	83
478.346	97
478.564	83
478.783	80
479.002	95
479.22	95
479.439	99
479.658	92
479.876	98
480.095	104
480.313	91
480.532	95
480.751	93
480.969	77
481.188	121
481.406	100
481.624	86
481.843	100
482.061	88
482.28	103
482.498	79
482.717	84
482.935	82
483.153	85
483.372	86
483.59	83
483.808	81
484.027	95
484.245	101
484.463	99
484.681	89
484.9	98
485.118	99
485.336	84
485.554	95
485.772	101
485.99	107
486.209	114
486.427	106
486.645	104
486.863	107
487.081	91
487.299	96
487.517	95
487.735	109
487.953	97
488.171	88
488.389	96
488.607	94
488.825	83
489.043	93
489.261	73
489.479	90
489.696	98
489.914	93
490.132	74
490.35	99
490.568	79
490.786	85
491.003	87
491.221	82
491.439	90
491.657	94
491.874	102
492.092	91
492.31	88
492.527	95
492.745	102
492.963	93
493.18	84
493.398	89
493.615	87
493.833	91
494.05	96
494.268	82
494.485	94
494.703	94
494.92	82
495.138	94
495.355	94
495.573	89
495.79	86
496.008	91
496.225	89
496.442	96
496.66	91
496.877	83
497.094	82
497.312	85
497.529	98
497.746	97
497.963	87
498.181	76
498.398	89
498.615	118
498.832	100
499.049	90
499.267	90
499.484	86
499.701	82
499.918	87
500.135	82
500.352	85
500.569	83
500.786	103
501.003	92
501.22	86
501.437	80
501.654	85
501.871	91
502.088	101
502.305	93
502.522	91
502.739	95
502.956	101
503.172	87
503.389	105
503.606	102
503.823	90
504.04	97
504.256	84
504.473	99
504.69	104
504.907	96
505.123	83
505.34	85
505.557	83
505.773	91
505.99	86
506.207	86
506.423	94
506.64	94
506.856	99
507.073	91
507.289	91
507.506	102
507.722	105
507.939	101
508.155	85
508.372	98
508.588	92
508.805	102
509.021	102
509.238	101
509.454	100
509.67	84
509.887	107
510.103	122
510.319	189
510.536	606
510.752	1866
510.968	526
511.184	137
511.401	95
511.617	95
511.833	98
512.049	96
512.265	102
512.481	90
512.698	95
512.914	82
513.13	90
513.346	103
513.562	106
513.778	103
513.994	99
514.21	99
514.426	104
514.642	114
514.858	116
515.074	133
515.29	364
515.506	1136
515.721	428
515.937	133
516.153	108
516.369	93
516.585	91
516.801	81
517.016	88
517.232	91
517.448	94
517.664	95
517.879	99
518.095	85
518.311	91
518.527	109
518.742	83
518.958	107
519.173	89
519.389	82
519.605	96
519.82	111
520.036	105
520.251	106
520.467	112
520.682	96
520.898	97
521.113	121
521.329	133
521.544	162
521.76	450
521.975	1874
522.19	1110
522.406	260
522.621	108
522.836	94
523.052	98
523.267	95
523.482	96
523.698	102
523.913	107
524.128	100
524.343	88
524.559	91
524.774	86
524.989	89
525.204	100
525.419	98
525.634	88
525.849	82
526.064	83
526.28	81
526.495	90
526.71	84
526.925	95
527.14	84
527.355	101
527.57	88
527.785	95
527.999	96
528.214	97
528.429	95
528.644	95
528.859	85
529.074	106
529.289	124
529.503	158
529.718	109
529.933	88
530.148	87
530.363	95
530.577	86
530.792	82
531.007	78
531.221	80
531.436	91
531.651	92
531.865	92
532.08	89
532.295	86
532.509	101
532.724	88
532.938	91
533.153	96
533.367	80
533.582	97
533.796	91
534.011	93
534.225	90
534.44	78
534.654	82
534.868	84
535.083	96
535.297	86
535.511	108
535.726	111
535.94	93
536.154	88
536.369	90
536.583	86
536.797	97
537.011	95
537.225	87
537.44	108
537.654	103
537.868	80
538.082	88
538.296	92
538.51	80
538.724	80
538.938	82
539.153	92
539.367	107
539.581	88
539.795	98
540.009	85
540.222	92
540.436	87
540.65	99
540.864	105
541.078	88
541.292	94
541.506	98
541.72	100
541.934	89
542.147	95
542.361	99
542.575	87
542.789	104
543.002	91
543.216	101
543.43	90
543.644	76
543.857	84
544.071	89
544.285	80
544.498	88
544.712	91
544.925	72
545.139	92
545.352	73
545.566	95
545.779	82
545.993	93
546.206	99
546.42	75
546.633	81
546.847	70
547.06	89
547.274	89
547.487	81
547.7	79
547.914	78
548.127	86
548.34	78
548.554	104
548.767	87
548.98	88
549.193	91
549.407	95
549.62	73
549.833	82
550.046	82
550.259	94
550.473	94
550.686	90
550.899	89
551.112	82
551.325	100
551.538	90
551.751	86
551.964	98
552.177	92
552.39	103
552.603	83
552.816	78
553.029	97
553.242	86
553.455	97
553.667	100
553.88	98
554.093	89
554.306	94
554.519	91
554.732	79
554.944	80
555.157	98
555.37	93
555.583	83
555.795	94
556.008	101
556.221	86
556.433	85
556.646	101
556.859	82
557.071	99
557.284	87
557.496	100
557.709	110
557.921	69
558.134	84
558.346	80
558.559	93
558.771	91
558.984	82
559.196	80
559.409	74
559.621	99
559.833	94
560.046	82
560.258	80
560.47	80
560.683	90
560.895	86
561.107	83
561.32	86
561.532	96
561.744	101
561.956	78
562.168	110
562.381	85
562.593	109
562.805	85
563.017	84
563.229	98
563.441	85
563.653	84
563.865	92
564.077	87
564.289	80
564.501	78
564.713	85
564.925	88
565.137	99
565.349	81
565.561	82
565.773	85
565.985	92
566.197	95
566.408	88
566.62	90
566.832	99
567.044	100
567.255	93
567.467	107
567.679	96
567.891	108
568.102	94
568.314	84
568.526	89
568.737	92
568.949	99
569.161	87
569.372	102
569.584	91
569.795	92
570.007	114
570.218	216
570.43	139
570.641	105
570.853	71
571.064	94
571.276	93
571.487	90
571.698	83
571.91	90
572.121	92
572.333	74
572.544	86
572.755	91
572.966	76
573.178	82
573.389	86
573.6	78
573.811	86
574.023	92
574.234	86
574.445	95
574.656	95
574.867	88
575.078	84
575.289	92
575.501	93
575.712	92
575.923	84
576.134	102
576.345	78
576.556	82
576.767	105
576.978	93
577.188	99
577.399	100
577.61	92
577.821	103
578.032	93
578.243	243
578.454	624
578.665	190
578.875	105
579.086	88
579.297	88
579.508	89
579.718	87
579.929	96
580.14	98
580.35	78
580.561	94
580.772	90
580.982	85
581.193	88
581.403	86
581.614	83
581.825	104
582.035	104
582.246	84
582.456	91
582.667	85
582.877	98
583.087	88
583.298	82
583.508	86
583.719	94
583.929	85
584.139	93
584.35	83
