Data from Uncirc_1987_H10_HRD10591_00006.txt Node
Date: Wed Jan 03 12:08:49 EST 2024
User: Yrep
Spectrometer: HR+D1059
Trigger mode: 1
Integration Time (sec): 1.000000E-1
Scans to average: 1
Electric dark correction enabled: true
Nonlinearity correction enabled: false
Boxcar width: 0
XAxis mode: Wavelengths
Number of Pixels in Spectrum: 2048
>>>>>Begin Spectral Data<<<<<
223.165	-3.75
223.4	-3.75
223.635	-3.75
223.869	-19.75
224.104	-32.75
224.338	-11.75
224.573	-16.75
224.808	-19.75
225.042	2.25
225.277	-6.75
225.511	-13.75
225.746	-6.75
225.98	11.25
226.215	6.25
226.449	25.25
226.683	25.25
226.918	20.25
227.152	41.25
227.387	45.25
227.621	41.25
227.856	66.25
228.09	47.25
228.324	52.25
228.559	60.25
228.793	167.25
229.027	435.25
229.262	493.25
229.496	551.25
229.73	733.25
229.964	751.25
230.199	517.25
230.433	458.25
230.667	444.25
230.901	439.25
231.136	433.25
231.37	435.25
231.604	457.25
231.838	455.25
232.072	431.25
232.306	471.25
232.541	471.25
232.775	472.25
233.009	453.25
233.243	461.25
233.477	485.25
233.711	475.25
233.945	487.25
234.179	492.25
234.413	512.25
234.647	497.25
234.881	512.25
235.115	521.25
235.349	531.25
235.583	563.25
235.817	558.25
236.051	593.25
236.285	603.25
236.519	605.25
236.753	648.25
236.987	829.25
237.221	1239.25
237.455	1361.25
237.689	837.25
237.922	707.25
238.156	692.25
238.39	670.25
238.624	631.25
238.858	641.25
239.091	615.25
239.325	635.25
239.559	660.25
239.793	707.25
240.027	742.25
240.26	869.25
240.494	903.25
240.728	896.25
240.961	885.25
241.195	809.25
241.429	780.25
241.662	745.25
241.896	735.25
242.13	752.25
242.363	736.25
242.597	775.25
242.83	817.25
243.064	813.25
243.298	823.25
243.531	807.25
243.765	826.25
243.998	815.25
244.232	817.25
244.465	841.25
244.699	892.25
244.932	896.25
245.166	875.25
245.399	894.25
245.633	885.25
245.866	875.25
246.099	877.25
246.333	959.25
246.566	968.25
246.8	956.25
247.033	1027.25
247.266	1036.25
247.5	1069.25
247.733	1109.25
247.966	1107.25
248.2	1139.25
248.433	1117.25
248.666	1168.25
248.899	1262.25
249.133	1370.25
249.366	1365.25
249.599	1259.25
249.832	1192.25
250.066	1192.25
250.299	1228.25
250.532	1291.25
250.765	1433.25
250.998	1631.25
251.231	1595.25
251.465	1448.25
251.698	1403.25
251.931	1348.25
252.164	1312.25
252.397	1399.25
252.63	1437.25
252.863	1476.25
253.096	1582.25
253.329	1644.25
253.562	1592.25
253.795	1525.25
254.028	1515.25
254.261	1558.25
254.494	1720.25
254.727	1990.25
254.96	2049.25
255.193	1858.25
255.426	1686.25
255.659	1579.25
255.892	1559.25
256.124	1538.25
256.357	1510.25
256.59	1472.25
256.823	1450.25
257.056	1470.25
257.289	1482.25
257.521	1529.25
257.754	1529.25
257.987	1520.25
258.22	1497.25
258.452	1515.25
258.685	1542.25
258.918	1533.25
259.151	1593.25
259.383	1625.25
259.616	1653.25
259.849	1700.25
260.081	1833.25
260.314	2007.25
260.547	1924.25
260.779	1779.25
261.012	1735.25
261.244	1672.25
261.477	1659.25
261.71	1646.25
261.942	1691.25
262.175	1716.25
262.407	1682.25
262.64	1628.25
262.872	1613.25
263.105	1597.25
263.337	1627.25
263.57	1592.25
263.802	1656.25
264.035	1642.25
264.267	1630.25
264.499	1664.25
264.732	1653.25
264.964	1664.25
265.197	1667.25
265.429	1672.25
265.661	1685.25
265.894	1713.25
266.126	1748.25
266.358	1735.25
266.591	1771.25
266.823	1854.25
267.055	1812.25
267.287	1838.25
267.52	1821.25
267.752	1813.25
267.984	1836.25
268.216	1848.25
268.448	1889.25
268.681	1953.25
268.913	2001.25
269.145	2169.25
269.377	2278.25
269.609	2181.25
269.841	2147.25
270.073	2272.25
270.306	2495.25
270.538	2644.25
270.77	2487.25
271.002	2383.25
271.234	2342.25
271.466	2478.25
271.698	2584.25
271.93	2622.25
272.162	2592.25
272.394	2551.25
272.626	2393.25
272.858	2275.25
273.09	2209.25
273.322	2187.25
273.553	2185.25
273.785	2154.25
274.017	2180.25
274.249	2191.25
274.481	2198.25
274.713	2157.25
274.945	2247.25
275.176	2209.25
275.408	2178.25
275.64	2187.25
275.872	2184.25
276.104	2252.25
276.335	2251.25
276.567	2290.25
276.799	2450.25
277.031	2643.25
277.262	2682.25
277.494	2668.25
277.726	2491.25
277.957	2389.25
278.189	2351.25
278.421	2326.25
278.652	2304.25
278.884	2309.25
279.115	2305.25
279.347	2278.25
279.579	2285.25
279.81	2332.25
280.042	2300.25
280.273	2330.25
280.505	2318.25
280.736	2298.25
280.968	2348.25
281.199	2369.25
281.431	2399.25
281.662	2463.25
281.894	2378.25
282.125	2432.25
282.356	2565.25
282.588	2669.25
282.819	2593.25
283.051	2500.25
283.282	2462.25
283.513	2478.25
283.745	2530.25
283.976	2562.25
284.207	2613.25
284.439	2545.25
284.67	2562.25
284.901	2482.25
285.132	2567.25
285.364	2569.25
285.595	2551.25
285.826	2540.25
286.057	2567.25
286.288	2559.25
286.52	2619.25
286.751	2599.25
286.982	2623.25
287.213	2614.25
287.444	2694.25
287.675	2730.25
287.906	2801.25
288.138	2824.25
288.369	2781.25
288.6	2807.25
288.831	2735.25
289.062	2723.25
289.293	2696.25
289.524	2756.25
289.755	2704.25
289.986	2758.25
290.217	2708.25
290.448	2737.25
290.679	2759.25
290.91	2713.25
291.141	2738.25
291.371	2753.25
291.602	2753.25
291.833	2683.25
292.064	2779.25
292.295	2751.25
292.526	2731.25
292.757	2783.25
292.987	2726.25
293.218	2696.25
293.449	2747.25
293.68	2821.25
293.91	2756.25
294.141	2778.25
294.372	2745.25
294.603	2767.25
294.833	2789.25
295.064	2786.25
295.295	2841.25
295.525	2799.25
295.756	2862.25
295.987	2890.25
296.217	3014.25
296.448	2958.25
296.679	2895.25
296.909	2889.25
297.14	2888.25
297.37	2957.25
297.601	2937.25
297.831	2972.25
298.062	2964.25
298.292	2991.25
298.523	3057.25
298.753	3035.25
298.984	2945.25
299.214	2981.25
299.445	2962.25
299.675	2968.25
299.905	2996.25
300.136	3039.25
300.366	3021.25
300.597	3128.25
300.827	3145.25
301.057	3231.25
301.288	3276.25
301.518	3219.25
301.748	3225.25
301.979	3256.25
302.209	3264.25
302.439	3207.25
302.669	3196.25
302.9	3189.25
303.13	3191.25
303.36	3269.25
303.59	3260.25
303.82	3260.25
304.051	3281.25
304.281	3247.25
304.511	3185.25
304.741	3117.25
304.971	3173.25
305.201	3134.25
305.431	3142.25
305.661	3156.25
305.891	3150.25
306.121	3156.25
306.352	3245.25
306.582	3247.25
306.812	3100.25
307.042	3189.25
307.272	3209.25
307.502	3131.25
307.731	3177.25
307.961	3153.25
308.191	3172.25
308.421	3168.25
308.651	3189.25
308.881	3216.25
309.111	3223.25
309.341	3215.25
309.571	3307.25
309.8	3326.25
310.03	3424.25
310.26	3439.25
310.49	3399.25
310.72	3487.25
310.949	3544.25
311.179	3531.25
311.409	3424.25
311.639	3410.25
311.868	3449.25
312.098	3509.25
312.328	3550.25
312.557	3658.25
312.787	3726.25
313.017	3673.25
313.246	3559.25
313.476	3509.25
313.706	3613.25
313.935	3691.25
314.165	3758.25
314.394	3756.25
314.624	3670.25
314.853	3658.25
315.083	3529.25
315.312	3590.25
315.542	3569.25
315.771	3442.25
316.001	3479.25
316.23	3517.25
316.46	3564.25
316.689	3595.25
316.919	3614.25
317.148	3593.25
317.377	3547.25
317.607	3556.25
317.836	3542.25
318.065	3539.25
318.295	3536.25
318.524	3500.25
318.753	3504.25
318.983	3500.25
319.212	3469.25
319.441	3609.25
319.67	3549.25
319.9	3591.25
320.129	3504.25
320.358	3529.25
320.587	3510.25
320.816	3627.25
321.046	3661.25
321.275	3653.25
321.504	3643.25
321.733	3748.25
321.962	3732.25
322.191	3817.25
322.42	3828.25
322.649	3929.25
322.878	3995.25
323.108	4053.25
323.337	4151.25
323.566	4310.25
323.795	4633.25
324.024	4958.25
324.253	6387.25
324.482	9279.25
324.71	13858.25
324.939	15626.25
325.168	10446.25
325.397	5880.25
325.626	4819.25
325.855	4537.25
326.084	4455.25
326.313	4473.25
326.542	4596.25
326.77	5008.25
326.999	6185.25
327.228	8780.25
327.457	12843.25
327.686	11887.25
327.914	6515.25
328.143	5234.25
328.372	4902.25
328.6	4761.25
328.829	4713.25
329.058	4870.25
329.287	4802.25
329.515	4615.25
329.744	4367.25
329.972	4449.25
330.201	4540.25
330.43	4707.25
330.658	4898.25
330.887	5139.25
331.115	4928.25
331.344	4612.25
331.572	4560.25
331.801	4679.25
332.03	4701.25
332.258	4593.25
332.486	4597.25
332.715	4725.25
332.943	4927.25
333.172	5050.25
333.4	5184.25
333.629	5300.25
333.857	5344.25
334.085	5264.25
334.314	5129.25
334.542	5112.25
334.771	5077.25
334.999	4968.25
335.227	4954.25
335.455	4897.25
335.684	4793.25
335.912	4802.25
336.14	4726.25
336.369	4721.25
336.597	4693.25
336.825	4656.25
337.053	4660.25
337.281	4530.25
337.51	4520.25
337.738	4521.25
337.966	4407.25
338.194	4409.25
338.422	4408.25
338.65	4368.25
338.878	4357.25
339.106	4298.25
339.334	4330.25
339.562	4229.25
339.79	4150.25
340.018	4172.25
340.246	4168.25
340.474	4184.25
340.702	4248.25
340.93	4169.25
341.158	4259.25
341.386	4232.25
341.614	4239.25
341.842	4097.25
342.07	4094.25
342.298	4136.25
342.526	4098.25
342.754	4143.25
342.981	4144.25
343.209	4226.25
343.437	4442.25
343.665	4672.25
343.893	4951.25
344.12	4951.25
344.348	4710.25
344.576	4562.25
344.804	4461.25
345.031	4420.25
345.259	4348.25
345.487	4214.25
345.714	4110.25
345.942	4042.25
346.17	4004.25
346.397	3991.25
346.625	3987.25
346.853	3961.25
347.08	3942.25
347.308	4027.25
347.535	4129.25
347.763	4092.25
347.99	4055.25
348.218	4037.25
348.445	4067.25
348.673	4032.25
348.9	3949.25
349.128	3932.25
349.355	3898.25
349.583	3903.25
349.81	3902.25
350.037	3873.25
350.265	3873.25
350.492	3869.25
350.72	3903.25
350.947	3874.25
351.174	3932.25
351.402	4018.25
351.629	3938.25
351.856	3925.25
352.083	4067.25
352.311	3980.25
352.538	3968.25
352.765	4024.25
352.992	3999.25
353.22	3867.25
353.447	3818.25
353.674	3835.25
353.901	3845.25
354.128	3787.25
354.355	3768.25
354.583	3757.25
354.81	3785.25
355.037	3788.25
355.264	3850.25
355.491	3799.25
355.718	3795.25
355.945	3781.25
356.172	3847.25
356.399	3779.25
356.626	3762.25
356.853	3841.25
357.08	3752.25
357.307	3768.25
357.534	3809.25
357.761	3805.25
357.988	3779.25
358.215	3766.25
358.441	3799.25
358.668	3820.25
358.895	3924.25
359.122	3889.25
359.349	3923.25
359.576	4056.25
359.802	4189.25
360.029	4309.25
360.256	4291.25
360.483	4115.25
360.709	3966.25
360.936	4013.25
361.163	3978.25
361.39	3998.25
361.616	4015.25
361.843	3973.25
362.07	3941.25
362.296	4004.25
362.523	3968.25
362.749	4008.25
362.976	3857.25
363.203	3868.25
363.429	3924.25
363.656	3863.25
363.882	3859.25
364.109	3813.25
364.335	3826.25
364.562	3848.25
364.788	3807.25
365.015	3879.25
365.241	3863.25
365.468	3852.25
365.694	3905.25
365.92	3915.25
366.147	3839.25
366.373	3834.25
366.599	3839.25
366.826	3851.25
367.052	3808.25
367.278	3885.25
367.505	3848.25
367.731	3851.25
367.957	3905.25
368.184	3908.25
368.41	3958.25
368.636	3969.25
368.862	4025.25
369.089	3979.25
369.315	3948.25
369.541	3923.25
369.767	3980.25
369.993	3984.25
370.219	4034.25
370.445	4078.25
370.672	4057.25
370.898	4016.25
371.124	4165.25
371.35	4089.25
371.576	4095.25
371.802	4096.25
372.028	4092.25
372.254	4113.25
372.48	4179.25
372.706	4202.25
372.932	4284.25
373.158	4188.25
373.384	4202.25
373.61	4164.25
373.835	4259.25
374.061	4198.25
374.287	4257.25
374.513	4375.25
374.739	4426.25
374.965	4561.25
375.191	4555.25
375.416	4504.25
375.642	4410.25
375.868	4288.25
376.094	4237.25
376.319	4195.25
376.545	4200.25
376.771	4177.25
376.997	4171.25
377.222	4141.25
377.448	4180.25
377.674	4165.25
377.899	4155.25
378.125	4031.25
378.35	4139.25
378.576	4058.25
378.802	4055.25
379.027	4098.25
379.253	4154.25
379.478	4104.25
379.704	4154.25
379.929	4137.25
380.155	4117.25
380.38	4115.25
380.606	4189.25
380.831	4069.25
381.057	4171.25
381.282	4125.25
381.507	4163.25
381.733	4215.25
381.958	4303.25
382.184	4290.25
382.409	4304.25
382.634	4398.25
382.86	4363.25
383.085	4472.25
383.31	4523.25
383.535	4616.25
383.761	4595.25
383.986	4687.25
384.211	4791.25
384.436	4867.25
384.662	4862.25
384.887	4972.25
385.112	4975.25
385.337	5018.25
385.562	4977.25
385.787	5037.25
386.013	5140.25
386.238	5143.25
386.463	5115.25
386.688	5017.25
386.913	5012.25
387.138	4915.25
387.363	4953.25
387.588	4986.25
387.813	4957.25
388.038	4975.25
388.263	4977.25
388.488	5053.25
388.713	4934.25
388.938	4961.25
389.163	4901.25
389.387	4943.25
389.612	4850.25
389.837	4881.25
390.062	4859.25
390.287	4921.25
390.512	4968.25
390.736	4961.25
390.961	5028.25
391.186	5090.25
391.411	5274.25
391.636	5410.25
391.86	5579.25
392.085	5606.25
392.31	5450.25
392.534	5400.25
392.759	5183.25
392.984	5187.25
393.208	5217.25
393.433	5187.25
393.658	5127.25
393.882	5191.25
394.107	5181.25
394.331	5228.25
394.556	5234.25
394.78	5295.25
395.005	5308.25
395.229	5278.25
395.454	5533.25
395.678	5633.25
395.903	5624.25
396.127	5577.25
396.352	5443.25
396.576	5246.25
396.801	5246.25
397.025	5371.25
397.249	5415.25
397.474	5549.25
397.698	5555.25
397.922	5689.25
398.147	5808.25
398.371	5823.25
398.595	5985.25
398.82	6316.25
399.044	6752.25
399.268	7556.25
399.492	8608.25
399.717	9271.25
399.941	8950.25
400.165	8379.25
400.389	7671.25
400.613	6947.25
400.837	6598.25
401.062	6441.25
401.286	6315.25
401.51	6249.25
401.734	6210.25
401.958	6357.25
402.182	6425.25
402.406	6546.25
402.63	6508.25
402.854	6733.25
403.078	6694.25
403.302	6937.25
403.526	6991.25
403.75	7038.25
403.974	7114.25
404.198	7065.25
404.422	7146.25
404.645	7091.25
404.869	6899.25
405.093	7093.25
405.317	7220.25
405.541	7179.25
405.765	6971.25
405.988	6884.25
406.212	7119.25
406.436	7174.25
406.66	7343.25
406.883	7448.25
407.107	7942.25
407.331	8434.25
407.555	8797.25
407.778	8593.25
408.002	7909.25
408.226	7592.25
408.449	7408.25
408.673	7355.25
408.896	7478.25
409.12	7678.25
409.344	7140.25
409.567	6907.25
409.791	6888.25
410.014	6760.25
410.238	6720.25
410.461	6682.25
410.685	6668.25
410.908	6825.25
411.132	7097.25
411.355	7042.25
411.578	6675.25
411.802	6492.25
412.025	6482.25
412.249	6599.25
412.472	6481.25
412.695	6449.25
412.919	6315.25
413.142	6193.25
413.365	6114.25
413.589	6180.25
413.812	6092.25
414.035	6031.25
414.258	6103.25
414.482	6087.25
414.705	6253.25
414.928	6189.25
415.151	6115.25
415.374	6193.25
415.597	6051.25
415.821	6002.25
416.044	6003.25
416.267	6028.25
416.49	5936.25
416.713	5907.25
416.936	6071.25
417.159	6037.25
417.382	6084.25
417.605	6078.25
417.828	6221.25
418.051	6343.25
418.274	6251.25
418.497	6125.25
418.72	6323.25
418.943	6181.25
419.166	6650.25
419.389	7048.25
419.611	6944.25
419.834	6651.25
420.057	6443.25
420.28	6276.25
420.503	6110.25
420.726	6205.25
420.948	6383.25
421.171	6749.25
421.394	6683.25
421.617	6297.25
421.839	6247.25
422.062	6367.25
422.285	6463.25
422.507	7033.25
422.73	7533.25
422.953	7041.25
423.175	6749.25
423.398	6689.25
423.621	6730.25
423.843	6938.25
424.066	6914.25
424.288	6861.25
424.511	7037.25
424.733	7376.25
424.956	7779.25
425.178	7365.25
425.401	7415.25
425.623	7380.25
425.846	6435.25
426.068	6235.25
426.291	6252.25
426.513	6253.25
426.735	6340.25
426.958	6772.25
427.18	7466.25
427.402	8401.25
427.625	8420.25
427.847	7153.25
428.069	6415.25
428.292	6111.25
428.514	5778.25
428.736	5744.25
428.958	5707.25
429.181	5525.25
429.403	5559.25
429.625	5697.25
429.847	6043.25
430.069	6443.25
430.292	6053.25
430.514	5589.25
430.736	5539.25
430.958	5524.25
431.18	5411.25
431.402	5461.25
431.624	5440.25
431.846	5480.25
432.068	5522.25
432.29	5536.25
432.512	5507.25
432.734	5570.25
432.956	5487.25
433.178	5648.25
433.4	5606.25
433.622	5457.25
433.844	5472.25
434.066	5514.25
434.287	5692.25
434.509	5904.25
434.731	5990.25
434.953	6145.25
435.175	6394.25
435.397	6409.25
435.618	6292.25
435.84	6648.25
436.062	7367.25
436.284	7337.25
436.505	6213.25
436.727	5915.25
436.949	5807.25
437.17	5634.25
437.392	5527.25
437.614	5732.25
437.835	6040.25
438.057	6783.25
438.278	7455.25
438.5	7385.25
438.721	8150.25
438.943	7183.25
439.165	6110.25
439.386	5847.25
439.608	5913.25
439.829	6018.25
440.05	6229.25
440.272	6650.25
440.493	6069.25
440.715	5828.25
440.936	5859.25
441.158	5873.25
441.379	6099.25
441.6	6252.25
441.822	6503.25
442.043	6945.25
442.264	7569.25
442.486	7331.25
442.707	6552.25
442.928	6385.25
443.149	6614.25
443.371	6841.25
443.592	7301.25
443.813	8262.25
444.034	8153.25
444.255	7197.25
444.476	7119.25
444.698	7207.25
444.919	7313.25
445.14	7127.25
445.361	6865.25
445.582	7035.25
445.803	7487.25
446.024	8099.25
446.245	7684.25
446.466	6961.25
446.687	6188.25
446.908	5947.25
447.129	5563.25
447.35	5446.25
447.571	5381.25
447.792	5305.25
448.013	5339.25
448.234	5604.25
448.455	6181.25
448.675	7397.25
448.896	7693.25
449.117	6408.25
449.338	6581.25
449.559	7761.25
449.779	7880.25
450	6163.25
450.221	5520.25
450.442	5264.25
450.662	5192.25
450.883	5251.25
451.104	5331.25
451.324	5152.25
451.545	5107.25
451.766	4948.25
451.986	4868.25
452.207	4895.25
452.428	4847.25
452.648	4886.25
452.869	4923.25
453.089	5018.25
453.31	5098.25
453.53	4873.25
453.751	4817.25
453.971	4864.25
454.192	4908.25
454.412	4730.25
454.633	4654.25
454.853	4663.25
455.073	4713.25
455.294	5012.25
455.514	5541.25
455.734	5040.25
455.955	4647.25
456.175	4563.25
456.395	4403.25
456.616	4460.25
456.836	4474.25
457.056	4421.25
457.276	4409.25
457.497	4566.25
457.717	4507.25
457.937	4579.25
458.157	4664.25
458.377	4724.25
458.598	5032.25
458.818	5574.25
459.038	6278.25
459.258	6157.25
459.478	5623.25
459.698	5503.25
459.918	5662.25
460.138	5788.25
460.358	6011.25
460.578	6052.25
460.798	6210.25
461.018	6113.25
461.238	5980.25
461.458	6012.25
461.678	5971.25
461.898	6113.25
462.118	6140.25
462.338	6482.25
462.558	6561.25
462.777	6872.25
462.997	7444.25
463.217	7831.25
463.437	7659.25
463.657	7069.25
463.876	6882.25
464.096	6999.25
464.316	6895.25
464.536	6947.25
464.755	6701.25
464.975	6488.25
465.195	6598.25
465.414	6471.25
465.634	5920.25
465.854	5572.25
466.073	5464.25
466.293	5215.25
466.512	5122.25
466.732	4976.25
466.951	4983.25
467.171	4987.25
467.391	5058.25
467.61	5109.25
467.829	5075.25
468.049	5006.25
468.268	4822.25
468.488	4771.25
468.707	4795.25
468.927	4800.25
469.146	4760.25
469.365	4895.25
469.585	4888.25
469.804	5111.25
470.023	5165.25
470.243	5173.25
470.462	5203.25
470.681	5362.25
470.901	5201.25
471.12	5143.25
471.339	5115.25
471.558	5092.25
471.777	4901.25
471.997	4859.25
472.216	4837.25
472.435	4887.25
472.654	4783.25
472.873	4716.25
473.092	4729.25
473.311	4720.25
473.53	4780.25
473.749	4844.25
473.968	5336.25
474.187	6235.25
474.406	5728.25
474.625	5105.25
474.844	4851.25
475.063	4860.25
475.282	4832.25
475.501	4914.25
475.72	4905.25
475.939	4960.25
476.158	4999.25
476.377	4985.25
476.596	4920.25
476.814	5136.25
477.033	5216.25
477.252	5232.25
477.471	5322.25
477.69	5387.25
477.908	5514.25
478.127	5617.25
478.346	5738.25
478.564	5795.25
478.783	5856.25
479.002	6043.25
479.22	6075.25
479.439	6103.25
479.658	6161.25
479.876	6196.25
480.095	6440.25
480.313	6855.25
480.532	6743.25
480.751	6584.25
480.969	6387.25
481.188	6396.25
481.406	6226.25
481.624	5945.25
481.843	5836.25
482.061	5739.25
482.28	5721.25
482.498	5666.25
482.717	5648.25
482.935	5595.25
483.153	5595.25
483.372	5574.25
483.59	5591.25
483.808	5557.25
484.027	5636.25
484.245	5704.25
484.463	5732.25
484.681	5800.25
484.9	5805.25
485.118	5956.25
485.336	5915.25
485.554	5956.25
485.772	5983.25
485.99	5914.25
486.209	6119.25
486.427	6038.25
486.645	6138.25
486.863	6176.25
487.081	6153.25
487.299	6089.25
487.517	6080.25
487.735	6016.25
487.953	6004.25
