Data from Uncirc_1987_H10_HRD10591_00068.txt Node
Date: Wed Jan 03 12:09:02 EST 2024
User: Yrep
Spectrometer: HR+D1059
Trigger mode: 1
Integration Time (sec): 1.000000E-1
Scans to average: 1
Electric dark correction enabled: true
Nonlinearity correction enabled: false
Boxcar width: 0
XAxis mode: Wavelengths
Number of Pixels in Spectrum: 2048
>>>>>Begin Spectral Data<<<<<
223.165	-23.81
223.4	-23.81
223.635	-23.81
223.869	-29.81
224.104	-15.81
224.338	-23.81
224.573	-12.81
224.808	-14.81
225.042	4.19
225.277	-3.81
225.511	-5.81
225.746	1.19
225.98	11.19
226.215	21.19
226.449	2.19
226.683	27.19
226.918	32.19
227.152	31.19
227.387	33.19
227.621	40.19
227.856	42.19
228.09	43.19
228.324	47.19
228.559	64.19
228.793	58.19
229.027	64.19
229.262	66.19
229.496	73.19
229.73	81.19
229.964	87.19
230.199	70.19
230.433	76.19
230.667	79.19
230.901	83.19
231.136	76.19
231.37	86.19
231.604	79.19
231.838	79.19
232.072	78.19
232.306	78.19
232.541	78.19
232.775	83.19
233.009	90.19
233.243	76.19
233.477	82.19
233.711	73.19
233.945	73.19
234.179	79.19
234.413	74.19
234.647	78.19
234.881	83.19
235.115	90.19
235.349	81.19
235.583	74.19
235.817	84.19
236.051	83.19
236.285	90.19
236.519	93.19
236.753	91.19
236.987	90.19
237.221	90.19
237.455	77.19
237.689	86.19
237.922	74.19
238.156	76.19
238.39	75.19
238.624	76.19
238.858	76.19
239.091	81.19
239.325	79.19
239.559	81.19
239.793	89.19
240.027	85.19
240.26	73.19
240.494	66.19
240.728	71.19
240.961	78.19
241.195	79.19
241.429	71.19
241.662	78.19
241.896	60.19
242.13	78.19
242.363	75.19
242.597	78.19
242.83	80.19
243.064	94.19
243.298	81.19
243.531	73.19
243.765	74.19
243.998	65.19
244.232	89.19
244.465	72.19
244.699	73.19
244.932	78.19
245.166	75.19
245.399	84.19
245.633	82.19
245.866	77.19
246.099	76.19
246.333	94.19
246.566	96.19
246.8	81.19
247.033	86.19
247.266	80.19
247.5	67.19
247.733	83.19
247.966	90.19
248.2	79.19
248.433	80.19
248.666	86.19
248.899	75.19
249.133	93.19
249.366	90.19
249.599	92.19
249.832	88.19
250.066	80.19
250.299	81.19
250.532	77.19
250.765	74.19
250.998	74.19
251.231	85.19
251.465	73.19
251.698	75.19
251.931	86.19
252.164	96.19
252.397	83.19
252.63	94.19
252.863	74.19
253.096	82.19
253.329	83.19
253.562	81.19
253.795	91.19
254.028	82.19
254.261	78.19
254.494	92.19
254.727	80.19
254.96	79.19
255.193	77.19
255.426	73.19
255.659	89.19
255.892	80.19
256.124	79.19
256.357	84.19
256.59	89.19
256.823	78.19
257.056	84.19
257.289	92.19
257.521	85.19
257.754	90.19
257.987	78.19
258.22	70.19
258.452	92.19
258.685	84.19
258.918	84.19
259.151	87.19
259.383	82.19
259.616	90.19
259.849	94.19
260.081	70.19
260.314	86.19
260.547	80.19
260.779	63.19
261.012	82.19
261.244	88.19
261.477	86.19
261.71	96.19
261.942	102.19
262.175	112.19
262.407	96.19
262.64	83.19
262.872	71.19
263.105	88.19
263.337	84.19
263.57	62.19
263.802	84.19
264.035	79.19
264.267	84.19
264.499	96.19
264.732	83.19
264.964	83.19
265.197	75.19
265.429	91.19
265.661	79.19
265.894	78.19
266.126	73.19
266.358	82.19
266.591	81.19
266.823	80.19
267.055	86.19
267.287	75.19
267.52	78.19
267.752	87.19
267.984	82.19
268.216	76.19
268.448	98.19
268.681	84.19
268.913	82.19
269.145	88.19
269.377	80.19
269.609	81.19
269.841	82.19
270.073	95.19
270.306	90.19
270.538	93.19
270.77	72.19
271.002	89.19
271.234	78.19
271.466	78.19
271.698	82.19
271.93	92.19
272.162	87.19
272.394	81.19
272.626	83.19
272.858	86.19
273.09	90.19
273.322	92.19
273.553	78.19
273.785	111.19
274.017	95.19
274.249	85.19
274.481	83.19
274.713	74.19
274.945	88.19
275.176	87.19
275.408	79.19
275.64	97.19
275.872	73.19
276.104	84.19
276.335	112.19
276.567	114.19
276.799	108.19
277.031	89.19
277.262	76.19
277.494	95.19
277.726	82.19
277.957	83.19
278.189	83.19
278.421	78.19
278.652	80.19
278.884	95.19
279.115	75.19
279.347	84.19
279.579	81.19
279.81	93.19
280.042	79.19
280.273	91.19
280.505	96.19
280.736	82.19
280.968	70.19
281.199	83.19
281.431	90.19
281.662	79.19
281.894	87.19
282.125	110.19
282.356	136.19
282.588	139.19
282.819	109.19
283.051	92.19
283.282	90.19
283.513	90.19
283.745	79.19
283.976	84.19
284.207	71.19
284.439	91.19
284.67	92.19
284.901	85.19
285.132	95.19
285.364	88.19
285.595	81.19
285.826	93.19
286.057	71.19
286.288	88.19
286.52	84.19
286.751	103.19
286.982	84.19
287.213	71.19
287.444	92.19
287.675	87.19
287.906	82.19
288.138	99.19
288.369	89.19
288.6	108.19
288.831	90.19
289.062	95.19
289.293	83.19
289.524	96.19
289.755	78.19
289.986	74.19
290.217	90.19
290.448	84.19
290.679	91.19
290.91	86.19
291.141	83.19
291.371	105.19
291.602	93.19
291.833	72.19
292.064	82.19
292.295	95.19
292.526	104.19
292.757	95.19
292.987	82.19
293.218	90.19
293.449	91.19
293.68	82.19
293.91	80.19
294.141	104.19
294.372	88.19
294.603	89.19
294.833	96.19
295.064	83.19
295.295	89.19
295.525	90.19
295.756	105.19
295.987	107.19
296.217	145.19
296.448	132.19
296.679	84.19
296.909	93.19
297.14	89.19
297.37	92.19
297.601	90.19
297.831	76.19
298.062	98.19
298.292	99.19
298.523	94.19
298.753	86.19
298.984	87.19
299.214	90.19
299.445	86.19
299.675	87.19
299.905	97.19
300.136	102.19
300.366	90.19
300.597	89.19
300.827	87.19
301.057	105.19
301.288	119.19
301.518	89.19
301.748	89.19
301.979	100.19
302.209	90.19
302.439	97.19
302.669	96.19
302.9	102.19
303.13	77.19
303.36	94.19
303.59	111.19
303.82	120.19
304.051	96.19
304.281	88.19
304.511	89.19
304.741	78.19
304.971	99.19
305.201	98.19
305.431	93.19
305.661	90.19
305.891	95.19
306.121	88.19
306.352	106.19
306.582	106.19
306.812	94.19
307.042	86.19
307.272	85.19
307.502	100.19
307.731	80.19
307.961	87.19
308.191	95.19
308.421	94.19
308.651	89.19
308.881	110.19
309.111	93.19
309.341	104.19
309.571	105.19
309.8	94.19
310.03	105.19
310.26	106.19
310.49	97.19
310.72	104.19
310.949	98.19
311.179	100.19
311.409	89.19
311.639	91.19
311.868	79.19
312.098	106.19
312.328	96.19
312.557	105.19
312.787	111.19
313.017	110.19
313.246	94.19
313.476	92.19
313.706	107.19
313.935	93.19
314.165	103.19
314.394	111.19
314.624	94.19
314.853	101.19
315.083	99.19
315.312	90.19
315.542	98.19
315.771	96.19
316.001	90.19
316.23	90.19
316.46	81.19
316.689	90.19
316.919	80.19
317.148	88.19
317.377	82.19
317.607	84.19
317.836	91.19
318.065	87.19
318.295	91.19
318.524	91.19
318.753	97.19
318.983	98.19
319.212	88.19
319.441	117.19
319.67	103.19
319.9	91.19
320.129	100.19
320.358	74.19
320.587	111.19
320.816	106.19
321.046	94.19
321.275	104.19
321.504	94.19
321.733	86.19
321.962	113.19
322.191	112.19
322.42	119.19
322.649	114.19
322.878	103.19
323.108	130.19
323.337	129.19
323.566	133.19
323.795	149.19
324.024	195.19
324.253	416.19
324.482	966.19
324.71	2034.19
324.939	2642.19
325.168	955.19
325.397	273.19
325.626	162.19
325.855	124.19
326.084	142.19
326.313	147.19
326.542	151.19
326.77	232.19
326.999	507.19
327.228	1074.19
327.457	2037.19
327.686	1616.19
327.914	420.19
328.143	215.19
328.372	158.19
328.6	116.19
328.829	118.19
329.058	144.19
329.287	126.19
329.515	117.19
329.744	93.19
329.972	105.19
330.201	101.19
330.43	121.19
330.658	131.19
330.887	142.19
331.115	114.19
331.344	107.19
331.572	97.19
331.801	76.19
332.03	113.19
332.258	91.19
332.486	98.19
332.715	80.19
332.943	96.19
333.172	97.19
333.4	94.19
333.629	106.19
333.857	108.19
334.085	104.19
334.314	102.19
334.542	120.19
334.771	116.19
334.999	97.19
335.227	97.19
335.455	108.19
335.684	99.19
335.912	107.19
336.14	105.19
336.369	89.19
336.597	99.19
336.825	94.19
337.053	106.19
337.281	100.19
337.51	102.19
337.738	93.19
337.966	86.19
338.194	91.19
338.422	91.19
338.65	80.19
338.878	88.19
339.106	89.19
339.334	82.19
339.562	101.19
339.79	97.19
340.018	86.19
340.246	92.19
340.474	90.19
340.702	79.19
340.93	101.19
341.158	97.19
341.386	104.19
341.614	87.19
341.842	74.19
342.07	98.19
342.298	81.19
342.526	95.19
342.754	92.19
342.981	92.19
343.209	98.19
343.437	112.19
343.665	100.19
343.893	78.19
344.12	103.19
344.348	105.19
344.576	86.19
344.804	92.19
345.031	105.19
345.259	114.19
345.487	82.19
345.714	99.19
345.942	96.19
346.17	105.19
346.397	103.19
346.625	104.19
346.853	86.19
347.08	102.19
347.308	87.19
347.535	103.19
347.763	112.19
347.99	97.19
348.218	96.19
348.445	102.19
348.673	99.19
348.9	103.19
349.128	99.19
349.355	98.19
349.583	95.19
349.81	101.19
350.037	101.19
350.265	76.19
350.492	95.19
350.72	104.19
350.947	98.19
351.174	111.19
351.402	108.19
351.629	103.19
351.856	101.19
352.083	115.19
352.311	102.19
352.538	121.19
352.765	119.19
352.992	110.19
353.22	106.19
353.447	98.19
353.674	96.19
353.901	84.19
354.128	113.19
354.355	86.19
354.583	101.19
354.81	108.19
355.037	88.19
355.264	92.19
355.491	99.19
355.718	97.19
355.945	94.19
356.172	91.19
356.399	100.19
356.626	102.19
356.853	87.19
357.08	108.19
357.307	105.19
357.534	110.19
357.761	101.19
357.988	96.19
358.215	91.19
358.441	87.19
358.668	91.19
358.895	97.19
359.122	94.19
359.349	101.19
359.576	91.19
359.802	100.19
360.029	115.19
360.256	129.19
360.483	107.19
360.709	93.19
360.936	94.19
361.163	88.19
361.39	98.19
361.616	96.19
361.843	84.19
362.07	107.19
362.296	90.19
362.523	97.19
362.749	89.19
362.976	98.19
363.203	104.19
363.429	88.19
363.656	95.19
363.882	84.19
364.109	97.19
364.335	82.19
364.562	109.19
364.788	99.19
365.015	94.19
365.241	89.19
365.468	107.19
365.694	111.19
365.92	83.19
366.147	100.19
366.373	80.19
366.599	88.19
366.826	92.19
367.052	96.19
367.278	96.19
367.505	87.19
367.731	102.19
367.957	117.19
368.184	105.19
368.41	106.19
368.636	128.19
368.862	126.19
369.089	104.19
369.315	96.19
369.541	80.19
369.767	87.19
369.993	95.19
370.219	88.19
370.445	87.19
370.672	84.19
370.898	100.19
371.124	75.19
371.35	86.19
371.576	82.19
371.802	75.19
372.028	85.19
372.254	87.19
372.48	83.19
372.706	83.19
372.932	90.19
373.158	90.19
373.384	102.19
373.61	86.19
373.835	103.19
374.061	99.19
374.287	95.19
374.513	100.19
374.739	96.19
374.965	74.19
375.191	83.19
375.416	87.19
375.642	99.19
375.868	105.19
376.094	82.19
376.319	95.19
376.545	83.19
376.771	75.19
376.997	76.19
377.222	103.19
377.448	82.19
377.674	97.19
377.899	100.19
378.125	82.19
378.35	103.19
378.576	102.19
378.802	98.19
379.027	78.19
379.253	72.19
379.478	96.19
379.704	88.19
379.929	99.19
380.155	108.19
380.38	91.19
380.606	86.19
380.831	92.19
381.057	98.19
381.282	92.19
381.507	102.19
381.733	101.19
381.958	96.19
382.184	90.19
382.409	106.19
382.634	103.19
382.86	111.19
383.085	109.19
383.31	98.19
383.535	102.19
383.761	95.19
383.986	94.19
384.211	98.19
384.436	99.19
384.662	89.19
384.887	98.19
385.112	94.19
385.337	105.19
385.562	106.19
385.787	91.19
386.013	102.19
386.238	107.19
386.463	101.19
386.688	116.19
386.913	100.19
387.138	99.19
387.363	93.19
387.588	97.19
387.813	100.19
388.038	99.19
388.263	104.19
388.488	108.19
388.713	114.19
388.938	99.19
389.163	101.19
389.387	103.19
389.612	86.19
389.837	95.19
390.062	86.19
390.287	90.19
390.512	108.19
390.736	95.19
390.961	85.19
391.186	107.19
391.411	103.19
391.636	97.19
391.86	92.19
392.085	85.19
392.31	77.19
392.534	75.19
392.759	94.19
392.984	86.19
393.208	95.19
393.433	84.19
393.658	88.19
393.882	85.19
394.107	83.19
394.331	98.19
394.556	104.19
394.78	90.19
395.005	89.19
395.229	99.19
395.454	78.19
395.678	86.19
395.903	80.19
396.127	91.19
396.352	98.19
396.576	90.19
396.801	81.19
397.025	90.19
397.249	87.19
397.474	84.19
397.698	88.19
397.922	89.19
398.147	84.19
398.371	88.19
398.595	95.19
398.82	81.19
399.044	104.19
399.268	98.19
399.492	92.19
399.717	91.19
399.941	98.19
400.165	98.19
400.389	85.19
400.613	86.19
400.837	81.19
401.062	114.19
401.286	104.19
401.51	89.19
401.734	96.19
401.958	110.19
402.182	128.19
402.406	165.19
402.63	124.19
402.854	106.19
403.078	99.19
403.302	90.19
403.526	89.19
403.75	82.19
403.974	90.19
404.198	80.19
404.422	82.19
404.645	72.19
404.869	76.19
405.093	100.19
405.317	105.19
405.541	99.19
405.765	97.19
405.988	136.19
406.212	187.19
406.436	261.19
406.66	171.19
406.883	91.19
407.107	96.19
407.331	95.19
407.555	104.19
407.778	95.19
408.002	108.19
408.226	84.19
408.449	97.19
408.673	100.19
408.896	99.19
409.12	95.19
409.344	91.19
409.567	93.19
409.791	95.19
410.014	99.19
410.238	94.19
410.461	84.19
410.685	79.19
410.908	108.19
411.132	128.19
411.355	95.19
411.578	94.19
411.802	86.19
412.025	99.19
412.249	88.19
412.472	96.19
412.695	89.19
412.919	90.19
413.142	87.19
413.365	76.19
413.589	98.19
413.812	99.19
414.035	106.19
414.258	92.19
414.482	92.19
414.705	94.19
414.928	88.19
415.151	83.19
415.374	98.19
415.597	90.19
415.821	86.19
416.044	91.19
416.267	85.19
416.49	99.19
416.713	86.19
416.936	91.19
417.159	87.19
417.382	87.19
417.605	90.19
417.828	104.19
418.051	104.19
418.274	101.19
418.497	93.19
418.72	78.19
418.943	95.19
419.166	89.19
419.389	92.19
419.611	96.19
419.834	94.19
420.057	102.19
420.28	98.19
420.503	87.19
420.726	93.19
420.948	88.19
421.171	98.19
421.394	104.19
421.617	95.19
421.839	93.19
422.062	90.19
422.285	94.19
422.507	90.19
422.73	106.19
422.953	93.19
423.175	100.19
423.398	92.19
423.621	76.19
423.843	88.19
424.066	90.19
424.288	100.19
424.511	95.19
424.733	105.19
424.956	111.19
425.178	98.19
425.401	91.19
425.623	93.19
425.846	102.19
426.068	105.19
426.291	99.19
426.513	98.19
426.735	97.19
426.958	111.19
427.18	122.19
427.402	144.19
427.625	171.19
427.847	132.19
428.069	122.19
428.292	90.19
428.514	92.19
428.736	89.19
428.958	103.19
429.181	98.19
429.403	79.19
429.625	90.19
429.847	93.19
430.069	100.19
430.292	87.19
430.514	98.19
430.736	99.19
430.958	91.19
431.18	68.19
431.402	75.19
431.624	91.19
431.846	84.19
432.068	79.19
432.29	96.19
432.512	83.19
432.734	94.19
432.956	84.19
433.178	102.19
433.4	108.19
433.622	94.19
433.844	100.19
434.066	99.19
434.287	96.19
434.509	92.19
434.731	80.19
434.953	89.19
435.175	91.19
435.397	97.19
435.618	97.19
435.84	114.19
436.062	130.19
436.284	111.19
436.505	103.19
436.727	98.19
436.949	96.19
437.17	92.19
437.392	92.19
437.614	98.19
437.835	126.19
438.057	114.19
438.278	104.19
438.5	112.19
438.721	131.19
438.943	111.19
439.165	87.19
439.386	90.19
439.608	88.19
439.829	102.19
440.05	129.19
440.272	155.19
440.493	98.19
440.715	88.19
440.936	93.19
441.158	85.19
441.379	83.19
441.6	98.19
441.822	105.19
442.043	90.19
442.264	112.19
442.486	90.19
442.707	93.19
442.928	112.19
443.149	135.19
443.371	118.19
443.592	103.19
443.813	115.19
444.034	106.19
444.255	102.19
444.476	80.19
444.698	84.19
444.919	84.19
445.14	129.19
445.361	134.19
445.582	138.19
445.803	135.19
446.024	139.19
446.245	152.19
446.466	120.19
446.687	94.19
446.908	95.19
447.129	96.19
447.35	103.19
447.571	101.19
447.792	101.19
448.013	109.19
448.234	112.19
448.455	97.19
448.675	124.19
448.896	117.19
449.117	110.19
449.338	110.19
449.559	131.19
449.779	150.19
450	99.19
450.221	89.19
450.442	106.19
450.662	94.19
450.883	99.19
451.104	112.19
451.324	113.19
451.545	84.19
451.766	84.19
451.986	96.19
452.207	81.19
452.428	92.19
452.648	98.19
452.869	117.19
453.089	107.19
453.31	113.19
453.53	100.19
453.751	90.19
453.971	99.19
454.192	118.19
454.412	92.19
454.633	86.19
454.853	79.19
455.073	66.19
455.294	77.19
455.514	110.19
455.734	107.19
455.955	94.19
456.175	94.19
456.395	80.19
456.616	96.19
456.836	94.19
457.056	91.19
457.276	102.19
457.497	87.19
457.717	94.19
457.937	73.19
458.157	95.19
458.377	95.19
458.598	121.19
458.818	148.19
459.038	156.19
459.258	116.19
459.478	104.19
459.698	89.19
459.918	91.19
460.138	89.19
460.358	85.19
460.578	84.19
460.798	95.19
461.018	92.19
461.238	84.19
461.458	74.19
461.678	74.19
461.898	98.19
462.118	84.19
462.338	73.19
462.558	90.19
462.777	90.19
462.997	86.19
463.217	89.19
463.437	91.19
463.657	75.19
463.876	93.19
464.096	88.19
464.316	90.19
464.536	105.19
464.755	97.19
464.975	123.19
465.195	206.19
465.414	151.19
465.634	89.19
465.854	88.19
466.073	80.19
466.293	84.19
466.512	102.19
466.732	87.19
466.951	95.19
467.171	98.19
467.391	96.19
467.61	117.19
467.829	110.19
468.049	88.19
468.268	99.19
468.488	96.19
468.707	113.19
468.927	89.19
469.146	84.19
469.365	85.19
469.585	78.19
469.804	104.19
470.023	119.19
470.243	91.19
470.462	110.19
470.681	118.19
470.901	90.19
471.12	95.19
471.339	82.19
471.558	85.19
471.777	94.19
471.997	90.19
472.216	99.19
472.435	114.19
472.654	78.19
472.873	99.19
473.092	80.19
473.311	85.19
473.53	71.19
473.749	86.19
473.968	98.19
474.187	110.19
474.406	107.19
474.625	98.19
474.844	90.19
475.063	88.19
475.282	89.19
475.501	81.19
475.72	91.19
475.939	85.19
476.158	80.19
476.377	97.19
476.596	97.19
476.814	93.19
477.033	92.19
477.252	113.19
477.471	95.19
477.69	90.19
477.908	81.19
478.127	90.19
478.346	100.19
478.564	100.19
478.783	108.19
479.002	101.19
479.22	88.19
479.439	103.19
479.658	97.19
479.876	95.19
480.095	91.19
480.313	82.19
480.532	84.19
480.751	90.19
480.969	96.19
481.188	141.19
481.406	116.19
481.624	83.19
481.843	85.19
482.061	95.19
482.28	87.19
482.498	83.19
482.717	92.19
482.935	88.19
483.153	97.19
483.372	102.19
483.59	98.19
483.808	98.19
484.027	90.19
484.245	87.19
484.463	105.19
484.681	93.19
484.9	89.19
485.118	110.19
485.336	91.19
485.554	107.19
485.772	94.19
485.99	92.19
486.209	104.19
486.427	119.19
486.645	109.19
486.863	104.19
487.081	100.19
487.299	94.19
487.517	106.19
487.735	100.19
487.953	96.19
488.171	102.19
488.389	102.19
488.607	84.19
488.825	88.19
489.043	94.19
489.261	118.19
489.479	74.19
489.696	94.19
489.914	98.19
490.132	83.19
490.35	95.19
490.568	94.19
490.786	81.19
491.003	83.19
491.221	98.19
491.439	107.19
491.657	98.19
491.874	87.19
492.092	101.19
492.31	99.19
492.527	79.19
492.745	88.19
492.963	92.19
493.18	108.19
493.398	94.19
493.615	102.19
493.833	99.19
494.05	100.19
494.268	98.19
494.485	79.19
494.703	88.19
494.92	85.19
495.138	97.19
495.355	102.19
495.573	98.19
495.79	68.19
496.008	78.19
496.225	83.19
496.442	90.19
496.66	90.19
496.877	90.19
497.094	104.19
497.312	96.19
497.529	107.19
497.746	92.19
497.963	84.19
498.181	95.19
498.398	94.19
498.615	127.19
498.832	87.19
499.049	74.19
499.267	103.19
499.484	94.19
499.701	86.19
499.918	90.19
500.135	88.19
500.352	105.19
500.569	98.19
500.786	103.19
501.003	100.19
501.22	87.19
501.437	91.19
501.654	95.19
501.871	95.19
502.088	85.19
502.305	102.19
502.522	95.19
502.739	97.19
502.956	86.19
503.172	95.19
503.389	103.19
503.606	98.19
503.823	93.19
504.04	89.19
504.256	91.19
504.473	91.19
504.69	97.19
504.907	89.19
505.123	102.19
505.34	95.19
505.557	95.19
505.773	93.19
505.99	87.19
506.207	94.19
506.423	90.19
506.64	80.19
506.856	84.19
507.073	99.19
507.289	98.19
507.506	116.19
507.722	110.19
507.939	114.19
508.155	103.19
508.372	98.19
508.588	94.19
508.805	96.19
509.021	98.19
509.238	97.19
509.454	105.19
509.67	109.19
509.887	112.19
510.103	144.19
510.319	205.19
510.536	813.19
510.752	2668.19
510.968	701.19
511.184	162.19
511.401	107.19
511.617	102.19
511.833	93.19
512.049	103.19
512.265	107.19
512.481	81.19
512.698	94.19
512.914	107.19
513.13	78.19
513.346	94.19
513.562	97.19
513.778	91.19
513.994	79.19
514.21	103.19
514.426	130.19
514.642	140.19
514.858	128.19
