Data from Uncirc_1987_H10_HRD10591_00013.txt Node
Date: Wed Jan 03 12:08:51 EST 2024
User: Yrep
Spectrometer: HR+D1059
Trigger mode: 1
Integration Time (sec): 1.000000E-1
Scans to average: 1
Electric dark correction enabled: true
Nonlinearity correction enabled: false
Boxcar width: 0
XAxis mode: Wavelengths
Number of Pixels in Spectrum: 2048
>>>>>Begin Spectral Data<<<<<
223.165	-16.19
223.4	-16.19
223.635	-16.19
223.869	-17.19
224.104	-28.19
224.338	-24.19
224.573	-12.19
224.808	-20.19
225.042	-4.19
225.277	-10.19
225.511	-4.19
225.746	8.81
225.98	12.81
226.215	19.81
226.449	15.81
226.683	19.81
226.918	20.81
227.152	38.81
227.387	33.81
227.621	46.81
227.856	43.81
228.09	52.81
228.324	55.81
228.559	47.81
228.793	53.81
229.027	72.81
229.262	80.81
229.496	69.81
229.73	81.81
229.964	81.81
230.199	74.81
230.433	69.81
230.667	78.81
230.901	65.81
231.136	81.81
231.37	83.81
231.604	74.81
231.838	69.81
232.072	80.81
232.306	78.81
232.541	78.81
232.775	86.81
233.009	79.81
233.243	88.81
233.477	79.81
233.711	86.81
233.945	81.81
234.179	86.81
234.413	85.81
234.647	80.81
234.881	78.81
235.115	84.81
235.349	84.81
235.583	78.81
235.817	79.81
236.051	69.81
236.285	89.81
236.519	85.81
236.753	77.81
236.987	72.81
237.221	88.81
237.455	90.81
237.689	79.81
237.922	86.81
238.156	71.81
238.39	66.81
238.624	83.81
238.858	81.81
239.091	65.81
239.325	72.81
239.559	67.81
239.793	84.81
240.027	87.81
240.26	83.81
240.494	80.81
240.728	64.81
240.961	74.81
241.195	84.81
241.429	71.81
241.662	88.81
241.896	81.81
242.13	80.81
242.363	67.81
242.597	79.81
242.83	81.81
243.064	95.81
243.298	73.81
243.531	70.81
243.765	86.81
243.998	75.81
244.232	71.81
244.465	83.81
244.699	94.81
244.932	72.81
245.166	69.81
245.399	87.81
245.633	85.81
245.866	89.81
246.099	80.81
246.333	81.81
246.566	79.81
246.8	96.81
247.033	86.81
247.266	83.81
247.5	76.81
247.733	68.81
247.966	64.81
248.2	78.81
248.433	67.81
248.666	91.81
248.899	79.81
249.133	91.81
249.366	93.81
249.599	99.81
249.832	87.81
250.066	79.81
250.299	86.81
250.532	93.81
250.765	76.81
250.998	84.81
251.231	75.81
251.465	90.81
251.698	71.81
251.931	80.81
252.164	67.81
252.397	77.81
252.63	86.81
252.863	76.81
253.096	91.81
253.329	73.81
253.562	85.81
253.795	90.81
254.028	67.81
254.261	88.81
254.494	83.81
254.727	79.81
254.96	68.81
255.193	85.81
255.426	75.81
255.659	75.81
255.892	90.81
256.124	88.81
256.357	89.81
256.59	77.81
256.823	77.81
257.056	89.81
257.289	95.81
257.521	95.81
257.754	82.81
257.987	79.81
258.22	78.81
258.452	80.81
258.685	89.81
258.918	95.81
259.151	81.81
259.383	82.81
259.616	73.81
259.849	89.81
260.081	79.81
260.314	74.81
260.547	80.81
260.779	85.81
261.012	83.81
261.244	77.81
261.477	81.81
261.71	91.81
261.942	100.81
262.175	107.81
262.407	88.81
262.64	83.81
262.872	80.81
263.105	102.81
263.337	89.81
263.57	90.81
263.802	73.81
264.035	92.81
264.267	77.81
264.499	88.81
264.732	92.81
264.964	85.81
265.197	92.81
265.429	83.81
265.661	71.81
265.894	93.81
266.126	86.81
266.358	83.81
266.591	87.81
266.823	91.81
267.055	82.81
267.287	76.81
267.52	80.81
267.752	77.81
267.984	79.81
268.216	89.81
268.448	77.81
268.681	99.81
268.913	86.81
269.145	79.81
269.377	74.81
269.609	81.81
269.841	89.81
270.073	83.81
270.306	84.81
270.538	93.81
270.77	71.81
271.002	95.81
271.234	85.81
271.466	88.81
271.698	85.81
271.93	83.81
272.162	76.81
272.394	91.81
272.626	92.81
272.858	81.81
273.09	97.81
273.322	74.81
273.553	90.81
273.785	83.81
274.017	81.81
274.249	79.81
274.481	94.81
274.713	92.81
274.945	71.81
275.176	87.81
275.408	84.81
275.64	86.81
275.872	97.81
276.104	82.81
276.335	83.81
276.567	87.81
276.799	94.81
277.031	74.81
277.262	91.81
277.494	89.81
277.726	99.81
277.957	81.81
278.189	74.81
278.421	85.81
278.652	89.81
278.884	86.81
279.115	90.81
279.347	77.81
279.579	83.81
279.81	89.81
280.042	81.81
280.273	85.81
280.505	91.81
280.736	97.81
280.968	93.81
281.199	95.81
281.431	86.81
281.662	88.81
281.894	93.81
282.125	99.81
282.356	115.81
282.588	122.81
282.819	114.81
283.051	89.81
283.282	71.81
283.513	86.81
283.745	93.81
283.976	81.81
284.207	83.81
284.439	81.81
284.67	82.81
284.901	86.81
285.132	90.81
285.364	84.81
285.595	93.81
285.826	86.81
286.057	78.81
286.288	82.81
286.52	90.81
286.751	72.81
286.982	83.81
287.213	85.81
287.444	83.81
287.675	81.81
287.906	88.81
288.138	81.81
288.369	84.81
288.6	67.81
288.831	86.81
289.062	90.81
289.293	82.81
289.524	86.81
289.755	89.81
289.986	67.81
290.217	101.81
290.448	98.81
290.679	91.81
290.91	95.81
291.141	89.81
291.371	89.81
291.602	90.81
291.833	76.81
292.064	80.81
292.295	91.81
292.526	102.81
292.757	94.81
292.987	82.81
293.218	86.81
293.449	97.81
293.68	101.81
293.91	84.81
294.141	101.81
294.372	83.81
294.603	93.81
294.833	82.81
295.064	82.81
295.295	99.81
295.525	97.81
295.756	102.81
295.987	111.81
296.217	134.81
296.448	109.81
296.679	90.81
296.909	98.81
297.14	88.81
297.37	88.81
297.601	80.81
297.831	86.81
298.062	80.81
298.292	78.81
298.523	85.81
298.753	87.81
298.984	78.81
299.214	90.81
299.445	95.81
299.675	96.81
299.905	86.81
300.136	99.81
300.366	93.81
300.597	91.81
300.827	76.81
301.057	100.81
301.288	102.81
301.518	101.81
301.748	94.81
301.979	106.81
302.209	84.81
302.439	90.81
302.669	82.81
302.9	79.81
303.13	69.81
303.36	95.81
303.59	97.81
303.82	95.81
304.051	100.81
304.281	95.81
304.511	93.81
304.741	88.81
304.971	83.81
305.201	84.81
305.431	91.81
305.661	79.81
305.891	96.81
306.121	95.81
306.352	100.81
306.582	97.81
306.812	90.81
307.042	81.81
307.272	84.81
307.502	104.81
307.731	101.81
307.961	101.81
308.191	103.81
308.421	97.81
308.651	86.81
308.881	91.81
309.111	91.81
309.341	100.81
309.571	103.81
309.8	99.81
310.03	83.81
310.26	90.81
310.49	99.81
310.72	107.81
310.949	83.81
311.179	100.81
311.409	102.81
311.639	97.81
311.868	97.81
312.098	92.81
312.328	94.81
312.557	98.81
312.787	93.81
313.017	107.81
313.246	115.81
313.476	103.81
313.706	102.81
313.935	117.81
314.165	102.81
314.394	97.81
314.624	87.81
314.853	96.81
315.083	85.81
315.312	98.81
315.542	88.81
315.771	95.81
316.001	101.81
316.23	102.81
316.46	99.81
316.689	102.81
316.919	95.81
317.148	87.81
317.377	93.81
317.607	90.81
317.836	88.81
318.065	93.81
318.295	95.81
318.524	73.81
318.753	94.81
318.983	86.81
319.212	110.81
319.441	107.81
319.67	105.81
319.9	107.81
320.129	106.81
320.358	100.81
320.587	91.81
320.816	95.81
321.046	103.81
321.275	96.81
321.504	86.81
321.733	96.81
321.962	105.81
322.191	108.81
322.42	103.81
322.649	91.81
322.878	108.81
323.108	121.81
323.337	114.81
323.566	132.81
323.795	143.81
324.024	187.81
324.253	348.81
324.482	717.81
324.71	1523.81
324.939	2030.81
325.168	730.81
325.397	219.81
325.626	142.81
325.855	112.81
326.084	117.81
326.313	134.81
326.542	138.81
326.77	200.81
326.999	417.81
327.228	881.81
327.457	1593.81
327.686	1286.81
327.914	349.81
328.143	168.81
328.372	136.81
328.6	106.81
328.829	102.81
329.058	114.81
329.287	105.81
329.515	108.81
329.744	98.81
329.972	101.81
330.201	104.81
330.43	110.81
330.658	127.81
330.887	124.81
331.115	110.81
331.344	106.81
331.572	102.81
331.801	112.81
332.03	97.81
332.258	99.81
332.486	85.81
332.715	83.81
332.943	106.81
333.172	94.81
333.4	88.81
333.629	101.81
333.857	118.81
334.085	97.81
334.314	98.81
334.542	110.81
334.771	98.81
334.999	103.81
335.227	95.81
335.455	93.81
335.684	86.81
335.912	105.81
336.14	105.81
336.369	88.81
336.597	83.81
336.825	87.81
337.053	88.81
337.281	96.81
337.51	81.81
337.738	97.81
337.966	101.81
338.194	93.81
338.422	90.81
338.65	102.81
338.878	96.81
339.106	98.81
339.334	99.81
339.562	99.81
339.79	78.81
340.018	94.81
340.246	86.81
340.474	93.81
340.702	91.81
340.93	80.81
341.158	95.81
341.386	95.81
341.614	98.81
341.842	109.81
342.07	97.81
342.298	94.81
342.526	110.81
342.754	80.81
342.981	83.81
343.209	95.81
343.437	90.81
343.665	95.81
343.893	95.81
344.12	98.81
344.348	98.81
344.576	97.81
344.804	81.81
345.031	99.81
345.259	97.81
345.487	88.81
345.714	102.81
345.942	103.81
346.17	98.81
346.397	86.81
346.625	93.81
346.853	85.81
347.08	90.81
347.308	89.81
347.535	93.81
347.763	97.81
347.99	97.81
348.218	94.81
348.445	112.81
348.673	104.81
348.9	102.81
349.128	103.81
349.355	104.81
349.583	78.81
349.81	88.81
350.037	86.81
350.265	93.81
350.492	98.81
350.72	74.81
350.947	94.81
351.174	96.81
351.402	97.81
351.629	99.81
351.856	110.81
352.083	110.81
352.311	98.81
352.538	106.81
352.765	109.81
352.992	105.81
353.22	106.81
353.447	116.81
353.674	95.81
353.901	83.81
354.128	100.81
354.355	105.81
354.583	89.81
354.81	102.81
355.037	98.81
355.264	101.81
355.491	95.81
355.718	90.81
355.945	112.81
356.172	95.81
356.399	94.81
356.626	94.81
356.853	95.81
357.08	94.81
357.307	102.81
357.534	98.81
357.761	87.81
357.988	88.81
358.215	88.81
358.441	94.81
358.668	90.81
358.895	92.81
359.122	85.81
359.349	92.81
359.576	100.81
359.802	93.81
360.029	101.81
360.256	105.81
360.483	98.81
360.709	81.81
360.936	81.81
361.163	95.81
361.39	92.81
361.616	96.81
361.843	102.81
362.07	93.81
362.296	84.81
362.523	81.81
362.749	97.81
362.976	89.81
363.203	90.81
363.429	82.81
363.656	116.81
363.882	84.81
364.109	97.81
364.335	98.81
364.562	94.81
364.788	93.81
365.015	87.81
365.241	97.81
365.468	115.81
365.694	96.81
365.92	91.81
366.147	95.81
366.373	79.81
366.599	96.81
366.826	97.81
367.052	86.81
367.278	99.81
367.505	93.81
367.731	98.81
367.957	94.81
368.184	82.81
368.41	94.81
368.636	95.81
368.862	121.81
369.089	107.81
369.315	76.81
369.541	97.81
369.767	83.81
369.993	89.81
370.219	83.81
370.445	90.81
370.672	101.81
370.898	87.81
371.124	89.81
371.35	98.81
371.576	97.81
371.802	99.81
372.028	103.81
372.254	100.81
372.48	81.81
372.706	88.81
372.932	96.81
373.158	93.81
373.384	97.81
373.61	100.81
373.835	93.81
374.061	78.81
374.287	94.81
374.513	94.81
374.739	88.81
374.965	95.81
375.191	94.81
375.416	88.81
375.642	101.81
375.868	97.81
376.094	97.81
376.319	88.81
376.545	75.81
376.771	89.81
376.997	93.81
377.222	94.81
377.448	85.81
377.674	96.81
377.899	94.81
378.125	98.81
378.35	86.81
378.576	96.81
378.802	104.81
379.027	96.81
379.253	93.81
379.478	104.81
379.704	98.81
379.929	113.81
380.155	94.81
380.38	83.81
380.606	100.81
380.831	96.81
381.057	102.81
381.282	94.81
381.507	91.81
381.733	101.81
381.958	117.81
382.184	97.81
382.409	111.81
382.634	104.81
382.86	97.81
383.085	93.81
383.31	91.81
383.535	95.81
383.761	97.81
383.986	102.81
384.211	95.81
384.436	87.81
384.662	87.81
384.887	85.81
385.112	91.81
385.337	97.81
385.562	115.81
385.787	106.81
386.013	100.81
386.238	115.81
386.463	107.81
386.688	101.81
386.913	103.81
387.138	100.81
387.363	101.81
387.588	93.81
387.813	91.81
388.038	106.81
388.263	105.81
388.488	97.81
388.713	99.81
388.938	105.81
389.163	102.81
389.387	108.81
389.612	96.81
389.837	108.81
390.062	103.81
390.287	92.81
390.512	101.81
390.736	101.81
390.961	90.81
391.186	79.81
391.411	99.81
391.636	86.81
391.86	83.81
392.085	84.81
392.31	83.81
392.534	74.81
392.759	97.81
392.984	72.81
393.208	100.81
393.433	96.81
393.658	93.81
393.882	106.81
394.107	97.81
394.331	74.81
394.556	81.81
394.78	82.81
395.005	103.81
395.229	87.81
395.454	90.81
395.678	98.81
395.903	77.81
396.127	77.81
396.352	91.81
396.576	90.81
396.801	85.81
397.025	94.81
397.249	90.81
397.474	86.81
397.698	89.81
397.922	86.81
398.147	91.81
398.371	83.81
398.595	90.81
398.82	79.81
399.044	81.81
399.268	88.81
399.492	81.81
399.717	82.81
399.941	94.81
400.165	95.81
400.389	79.81
400.613	99.81
400.837	77.81
401.062	105.81
401.286	91.81
401.51	82.81
401.734	93.81
401.958	87.81
402.182	119.81
402.406	135.81
402.63	105.81
402.854	79.81
403.078	82.81
403.302	79.81
403.526	85.81
403.75	84.81
403.974	107.81
404.198	93.81
404.422	89.81
404.645	92.81
404.869	101.81
405.093	103.81
405.317	101.81
405.541	94.81
405.765	87.81
405.988	106.81
406.212	145.81
406.436	210.81
406.66	127.81
406.883	100.81
407.107	113.81
407.331	114.81
407.555	95.81
407.778	81.81
408.002	87.81
408.226	79.81
408.449	87.81
408.673	91.81
408.896	88.81
409.12	90.81
409.344	102.81
409.567	86.81
409.791	89.81
410.014	92.81
410.238	94.81
410.461	107.81
410.685	100.81
410.908	105.81
411.132	98.81
411.355	120.81
411.578	105.81
411.802	79.81
412.025	87.81
412.249	94.81
412.472	97.81
412.695	91.81
412.919	88.81
413.142	88.81
413.365	87.81
413.589	84.81
413.812	79.81
414.035	72.81
414.258	85.81
414.482	69.81
414.705	85.81
414.928	100.81
415.151	98.81
415.374	89.81
415.597	90.81
415.821	86.81
416.044	85.81
416.267	96.81
416.49	84.81
416.713	95.81
416.936	110.81
417.159	87.81
417.382	92.81
417.605	83.81
417.828	88.81
418.051	87.81
418.274	97.81
418.497	81.81
418.72	98.81
418.943	97.81
419.166	78.81
419.389	89.81
419.611	90.81
419.834	88.81
420.057	90.81
420.28	81.81
420.503	80.81
420.726	81.81
420.948	98.81
421.171	88.81
421.394	76.81
421.617	78.81
421.839	83.81
422.062	89.81
422.285	83.81
422.507	81.81
422.73	97.81
422.953	83.81
423.175	87.81
423.398	89.81
423.621	95.81
423.843	101.81
424.066	85.81
424.288	87.81
424.511	90.81
424.733	102.81
424.956	113.81
425.178	111.81
425.401	120.81
425.623	105.81
425.846	67.81
426.068	85.81
426.291	101.81
426.513	92.81
426.735	82.81
426.958	87.81
427.18	100.81
427.402	127.81
427.625	142.81
427.847	115.81
428.069	102.81
428.292	85.81
428.514	95.81
428.736	83.81
428.958	77.81
429.181	94.81
429.403	101.81
429.625	93.81
429.847	99.81
430.069	102.81
430.292	97.81
430.514	78.81
430.736	81.81
430.958	78.81
431.18	82.81
431.402	88.81
431.624	81.81
431.846	102.81
432.068	94.81
432.29	88.81
432.512	91.81
432.734	96.81
432.956	100.81
433.178	88.81
433.4	103.81
433.622	77.81
433.844	86.81
434.066	91.81
434.287	84.81
434.509	101.81
434.731	92.81
434.953	87.81
435.175	88.81
435.397	92.81
435.618	99.81
435.84	91.81
436.062	126.81
436.284	112.81
436.505	105.81
436.727	101.81
436.949	104.81
437.17	103.81
437.392	101.81
437.614	83.81
437.835	104.81
438.057	108.81
438.278	97.81
438.5	94.81
438.721	119.81
438.943	99.81
439.165	94.81
439.386	88.81
439.608	86.81
439.829	101.81
440.05	110.81
440.272	123.81
440.493	99.81
440.715	95.81
440.936	87.81
441.158	80.81
441.379	93.81
441.6	81.81
441.822	83.81
442.043	102.81
442.264	93.81
442.486	93.81
442.707	91.81
442.928	94.81
443.149	126.81
443.371	118.81
443.592	101.81
443.813	94.81
444.034	114.81
444.255	107.81
444.476	83.81
444.698	78.81
444.919	95.81
445.14	126.81
445.361	129.81
445.582	112.81
445.803	121.81
446.024	130.81
446.245	105.81
446.466	114.81
446.687	90.81
446.908	98.81
447.129	96.81
447.35	87.81
447.571	86.81
447.792	95.81
448.013	100.81
448.234	95.81
448.455	100.81
448.675	111.81
448.896	104.81
449.117	105.81
449.338	104.81
449.559	134.81
449.779	135.81
450	97.81
450.221	99.81
450.442	88.81
450.662	88.81
450.883	89.81
451.104	88.81
451.324	88.81
451.545	87.81
451.766	94.81
451.986	82.81
452.207	94.81
452.428	86.81
452.648	94.81
452.869	107.81
453.089	112.81
453.31	100.81
453.53	90.81
453.751	105.81
453.971	100.81
454.192	97.81
454.412	96.81
454.633	87.81
454.853	99.81
455.073	82.81
455.294	96.81
455.514	86.81
455.734	89.81
455.955	89.81
456.175	86.81
456.395	92.81
456.616	94.81
456.836	78.81
457.056	78.81
457.276	73.81
457.497	87.81
457.717	82.81
457.937	74.81
458.157	104.81
458.377	91.81
458.598	94.81
458.818	116.81
459.038	142.81
459.258	115.81
459.478	94.81
459.698	85.81
459.918	99.81
460.138	104.81
460.358	77.81
460.578	84.81
460.798	88.81
461.018	89.81
461.238	83.81
461.458	95.81
461.678	92.81
461.898	86.81
462.118	91.81
462.338	80.81
462.558	78.81
462.777	84.81
462.997	98.81
463.217	86.81
463.437	102.81
463.657	97.81
463.876	87.81
464.096	87.81
464.316	90.81
464.536	101.81
464.755	98.81
464.975	110.81
465.195	143.81
465.414	135.81
465.634	90.81
465.854	104.81
466.073	80.81
466.293	89.81
466.512	100.81
466.732	78.81
466.951	96.81
467.171	104.81
467.391	88.81
467.61	105.81
467.829	96.81
468.049	81.81
468.268	90.81
468.488	72.81
468.707	83.81
468.927	77.81
469.146	93.81
469.365	70.81
469.585	88.81
469.804	89.81
470.023	106.81
470.243	97.81
470.462	94.81
470.681	93.81
470.901	87.81
471.12	87.81
471.339	73.81
471.558	97.81
471.777	81.81
471.997	81.81
472.216	93.81
472.435	86.81
472.654	89.81
472.873	79.81
473.092	73.81
473.311	97.81
473.53	96.81
473.749	93.81
473.968	112.81
474.187	105.81
474.406	88.81
474.625	85.81
474.844	91.81
475.063	91.81
475.282	81.81
475.501	88.81
475.72	79.81
475.939	83.81
476.158	92.81
476.377	82.81
476.596	64.81
476.814	85.81
477.033	91.81
477.252	96.81
477.471	70.81
477.69	86.81
477.908	89.81
478.127	89.81
478.346	89.81
478.564	82.81
478.783	89.81
479.002	88.81
479.22	96.81
479.439	101.81
479.658	96.81
479.876	104.81
480.095	95.81
480.313	95.81
480.532	87.81
480.751	95.81
480.969	102.81
481.188	88.81
481.406	102.81
481.624	85.81
481.843	81.81
482.061	92.81
482.28	87.81
482.498	95.81
482.717	99.81
482.935	94.81
483.153	88.81
483.372	81.81
483.59	82.81
483.808	87.81
484.027	77.81
484.245	97.81
484.463	86.81
484.681	89.81
484.9	91.81
485.118	96.81
485.336	105.81
485.554	89.81
485.772	90.81
485.99	98.81
486.209	107.81
486.427	88.81
486.645	109.81
486.863	114.81
487.081	94.81
487.299	102.81
487.517	95.81
487.735	91.81
487.953	101.81
488.171	105.81
488.389	98.81
488.607	101.81
488.825	89.81
489.043	97.81
489.261	97.81
489.479	103.81
489.696	97.81
489.914	84.81
490.132	84.81
490.35	94.81
490.568	88.81
490.786	99.81
491.003	89.81
491.221	79.81
491.439	82.81
491.657	86.81
491.874	88.81
492.092	82.81
492.31	93.81
492.527	81.81
492.745	81.81
492.963	78.81
493.18	88.81
493.398	91.81
493.615	90.81
493.833	99.81
494.05	95.81
494.268	95.81
494.485	98.81
494.703	97.81
494.92	101.81
495.138	81.81
495.355	89.81
495.573	78.81
495.79	87.81
496.008	96.81
496.225	86.81
496.442	88.81
496.66	102.81
496.877	103.81
497.094	91.81
497.312	85.81
497.529	90.81
497.746	92.81
497.963	99.81
498.181	84.81
498.398	97.81
498.615	109.81
498.832	99.81
499.049	99.81
499.267	96.81
499.484	93.81
499.701	96.81
499.918	69.81
500.135	109.81
500.352	104.81
500.569	83.81
500.786	85.81
501.003	93.81
501.22	107.81
501.437	97.81
501.654	94.81
501.871	101.81
502.088	89.81
502.305	89.81
502.522	91.81
502.739	99.81
502.956	80.81
503.172	93.81
503.389	89.81
503.606	96.81
503.823	90.81
504.04	93.81
504.256	86.81
504.473	98.81
504.69	89.81
504.907	95.81
505.123	99.81
505.34	96.81
505.557	86.81
505.773	98.81
505.99	88.81
506.207	92.81
506.423	95.81
506.64	84.81
506.856	89.81
507.073	95.81
507.289	90.81
507.506	97.81
507.722	95.81
507.939	92.81
508.155	104.81
508.372	98.81
508.588	92.81
508.805	93.81
509.021	104.81
509.238	102.81
509.454	99.81
509.67	105.81
509.887	105.81
510.103	128.81
510.319	200.81
510.536	610.81
510.752	1855.81
510.968	522.81
511.184	142.81
511.401	100.81
511.617	99.81
511.833	102.81
512.049	90.81
512.265	91.81
512.481	85.81
512.698	90.81
512.914	71.81
513.13	99.81
513.346	95.81
513.562	91.81
513.778	98.81
513.994	91.81
514.21	101.81
514.426	114.81
514.642	117.81
514.858	121.81
515.074	133.81
515.29	357.81
515.506	1159.81
515.721	433.81
