Data from Uncirc_1987_H10_HRD10591_00012.txt Node
Date: Wed Jan 03 12:08:50 EST 2024
User: Yrep
Spectrometer: HR+D1059
Trigger mode: 1
Integration Time (sec): 1.000000E-1
Scans to average: 1
Electric dark correction enabled: true
Nonlinearity correction enabled: false
Boxcar width: 0
XAxis mode: Wavelengths
Number of Pixels in Spectrum: 2048
>>>>>Begin Spectral Data<<<<<
223.165	-19.62
223.4	-19.62
223.635	-19.62
223.869	-21.62
224.104	-11.62
224.338	-16.62
224.573	-14.62
224.808	-9.62
225.042	-21.62
225.277	-11.62
225.511	-0.62
225.746	3.38
225.98	1.38
226.215	11.38
226.449	29.38
226.683	14.38
226.918	37.38
227.152	30.38
227.387	24.38
227.621	22.38
227.856	30.38
228.09	33.38
228.324	55.38
228.559	53.38
228.793	55.38
229.027	59.38
229.262	55.38
229.496	70.38
229.73	76.38
229.964	75.38
230.199	75.38
230.433	75.38
230.667	64.38
230.901	84.38
231.136	62.38
231.37	74.38
231.604	75.38
231.838	86.38
232.072	86.38
232.306	76.38
232.541	71.38
232.775	78.38
233.009	83.38
233.243	63.38
233.477	74.38
233.711	86.38
233.945	69.38
234.179	74.38
234.413	80.38
234.647	87.38
234.881	85.38
235.115	76.38
235.349	71.38
235.583	66.38
235.817	75.38
236.051	62.38
236.285	74.38
236.519	72.38
236.753	81.38
236.987	69.38
237.221	72.38
237.455	76.38
237.689	71.38
237.922	68.38
238.156	76.38
238.39	81.38
238.624	82.38
238.858	78.38
239.091	68.38
239.325	92.38
239.559	95.38
239.793	72.38
240.027	81.38
240.26	84.38
240.494	95.38
240.728	63.38
240.961	68.38
241.195	82.38
241.429	83.38
241.662	75.38
241.896	78.38
242.13	68.38
242.363	71.38
242.597	63.38
242.83	74.38
243.064	76.38
243.298	76.38
243.531	75.38
243.765	82.38
243.998	77.38
244.232	62.38
244.465	80.38
244.699	77.38
244.932	71.38
245.166	69.38
245.399	75.38
245.633	68.38
245.866	74.38
246.099	78.38
246.333	78.38
246.566	60.38
246.8	74.38
247.033	76.38
247.266	87.38
247.5	67.38
247.733	60.38
247.966	69.38
248.2	70.38
248.433	68.38
248.666	74.38
248.899	78.38
249.133	77.38
249.366	90.38
249.599	86.38
249.832	80.38
250.066	69.38
250.299	76.38
250.532	80.38
250.765	67.38
250.998	69.38
251.231	70.38
251.465	75.38
251.698	82.38
251.931	75.38
252.164	79.38
252.397	78.38
252.63	79.38
252.863	79.38
253.096	81.38
253.329	80.38
253.562	73.38
253.795	85.38
254.028	83.38
254.261	88.38
254.494	89.38
254.727	78.38
254.96	87.38
255.193	77.38
255.426	81.38
255.659	83.38
255.892	75.38
256.124	64.38
256.357	71.38
256.59	81.38
256.823	78.38
257.056	84.38
257.289	68.38
257.521	68.38
257.754	76.38
257.987	86.38
258.22	68.38
258.452	78.38
258.685	65.38
258.918	83.38
259.151	94.38
259.383	75.38
259.616	79.38
259.849	76.38
260.081	67.38
260.314	84.38
260.547	105.38
260.779	78.38
261.012	83.38
261.244	80.38
261.477	77.38
261.71	77.38
261.942	90.38
262.175	94.38
262.407	77.38
262.64	76.38
262.872	81.38
263.105	87.38
263.337	81.38
263.57	86.38
263.802	59.38
264.035	74.38
264.267	77.38
264.499	72.38
264.732	82.38
264.964	79.38
265.197	82.38
265.429	70.38
265.661	86.38
265.894	81.38
266.126	71.38
266.358	68.38
266.591	80.38
266.823	78.38
267.055	84.38
267.287	78.38
267.52	76.38
267.752	76.38
267.984	72.38
268.216	75.38
268.448	87.38
268.681	78.38
268.913	75.38
269.145	74.38
269.377	78.38
269.609	64.38
269.841	79.38
270.073	68.38
270.306	82.38
270.538	83.38
270.77	80.38
271.002	93.38
271.234	100.38
271.466	83.38
271.698	86.38
271.93	92.38
272.162	83.38
272.394	91.38
272.626	81.38
272.858	83.38
273.09	86.38
273.322	90.38
273.553	72.38
273.785	78.38
274.017	86.38
274.249	84.38
274.481	88.38
274.713	92.38
274.945	79.38
275.176	81.38
275.408	76.38
275.64	89.38
275.872	82.38
276.104	76.38
276.335	83.38
276.567	84.38
276.799	100.38
277.031	81.38
277.262	80.38
277.494	98.38
277.726	80.38
277.957	75.38
278.189	88.38
278.421	80.38
278.652	87.38
278.884	59.38
279.115	63.38
279.347	81.38
279.579	75.38
279.81	87.38
280.042	87.38
280.273	76.38
280.505	86.38
280.736	81.38
280.968	76.38
281.199	83.38
281.431	86.38
281.662	78.38
281.894	92.38
282.125	90.38
282.356	112.38
282.588	120.38
282.819	104.38
283.051	80.38
283.282	74.38
283.513	78.38
283.745	83.38
283.976	99.38
284.207	80.38
284.439	72.38
284.67	85.38
284.901	84.38
285.132	91.38
285.364	81.38
285.595	90.38
285.826	75.38
286.057	78.38
286.288	83.38
286.52	88.38
286.751	75.38
286.982	80.38
287.213	78.38
287.444	91.38
287.675	76.38
287.906	74.38
288.138	96.38
288.369	95.38
288.6	88.38
288.831	80.38
289.062	77.38
289.293	75.38
289.524	90.38
289.755	93.38
289.986	89.38
290.217	96.38
290.448	85.38
290.679	70.38
290.91	83.38
291.141	93.38
291.371	69.38
291.602	80.38
291.833	68.38
292.064	86.38
292.295	85.38
292.526	84.38
292.757	96.38
292.987	84.38
293.218	86.38
293.449	82.38
293.68	95.38
293.91	71.38
294.141	89.38
294.372	76.38
294.603	88.38
294.833	81.38
295.064	105.38
295.295	81.38
295.525	94.38
295.756	87.38
295.987	99.38
296.217	116.38
296.448	105.38
296.679	90.38
296.909	89.38
297.14	88.38
297.37	82.38
297.601	84.38
297.831	87.38
298.062	82.38
298.292	98.38
298.523	89.38
298.753	66.38
298.984	68.38
299.214	81.38
299.445	76.38
299.675	87.38
299.905	86.38
300.136	81.38
300.366	92.38
300.597	75.38
300.827	78.38
301.057	109.38
301.288	104.38
301.518	86.38
301.748	98.38
301.979	98.38
302.209	95.38
302.439	96.38
302.669	80.38
302.9	88.38
303.13	77.38
303.36	94.38
303.59	93.38
303.82	99.38
304.051	93.38
304.281	110.38
304.511	85.38
304.741	88.38
304.971	87.38
305.201	83.38
305.431	85.38
305.661	67.38
305.891	82.38
306.121	84.38
306.352	112.38
306.582	107.38
306.812	84.38
307.042	77.38
307.272	84.38
307.502	90.38
307.731	83.38
307.961	82.38
308.191	86.38
308.421	78.38
308.651	102.38
308.881	83.38
309.111	85.38
309.341	96.38
309.571	107.38
309.8	94.38
310.03	82.38
310.26	94.38
310.49	99.38
310.72	101.38
310.949	88.38
311.179	85.38
311.409	99.38
311.639	92.38
311.868	80.38
312.098	80.38
312.328	91.38
312.557	96.38
312.787	92.38
313.017	92.38
313.246	99.38
313.476	92.38
313.706	70.38
313.935	87.38
314.165	104.38
314.394	99.38
314.624	86.38
314.853	83.38
315.083	94.38
315.312	85.38
315.542	94.38
315.771	86.38
316.001	89.38
316.23	90.38
316.46	69.38
316.689	84.38
316.919	88.38
317.148	83.38
317.377	83.38
317.607	84.38
317.836	94.38
318.065	82.38
318.295	83.38
318.524	86.38
318.753	79.38
318.983	95.38
319.212	102.38
319.441	100.38
319.67	99.38
319.9	98.38
320.129	87.38
320.358	93.38
320.587	92.38
320.816	93.38
321.046	112.38
321.275	92.38
321.504	91.38
321.733	79.38
321.962	94.38
322.191	109.38
322.42	102.38
322.649	94.38
322.878	106.38
323.108	103.38
323.337	106.38
323.566	110.38
323.795	139.38
324.024	176.38
324.253	335.38
324.482	710.38
324.71	1413.38
324.939	1869.38
325.168	683.38
325.397	203.38
325.626	117.38
325.855	122.38
326.084	123.38
326.313	113.38
326.542	144.38
326.77	193.38
326.999	389.38
327.228	814.38
327.457	1451.38
327.686	1160.38
327.914	314.38
328.143	160.38
328.372	125.38
328.6	110.38
328.829	117.38
329.058	111.38
329.287	116.38
329.515	122.38
329.744	89.38
329.972	113.38
330.201	104.38
330.43	96.38
330.658	104.38
330.887	94.38
331.115	96.38
331.344	74.38
331.572	106.38
331.801	84.38
332.03	90.38
332.258	90.38
332.486	83.38
332.715	79.38
332.943	88.38
333.172	101.38
333.4	99.38
333.629	104.38
333.857	100.38
334.085	97.38
334.314	88.38
334.542	102.38
334.771	91.38
334.999	94.38
335.227	84.38
335.455	87.38
335.684	90.38
335.912	97.38
336.14	102.38
336.369	100.38
336.597	103.38
336.825	83.38
337.053	97.38
337.281	84.38
337.51	86.38
337.738	99.38
337.966	84.38
338.194	83.38
338.422	95.38
338.65	97.38
338.878	85.38
339.106	87.38
339.334	99.38
339.562	96.38
339.79	74.38
340.018	104.38
340.246	90.38
340.474	90.38
340.702	80.38
340.93	82.38
341.158	97.38
341.386	97.38
341.614	93.38
341.842	92.38
342.07	81.38
342.298	87.38
342.526	83.38
342.754	94.38
342.981	90.38
343.209	91.38
343.437	94.38
343.665	100.38
343.893	80.38
344.12	99.38
344.348	86.38
344.576	93.38
344.804	99.38
345.031	79.38
345.259	84.38
345.487	79.38
345.714	93.38
345.942	87.38
346.17	96.38
346.397	98.38
346.625	99.38
346.853	85.38
347.08	81.38
347.308	85.38
347.535	84.38
347.763	85.38
347.99	99.38
348.218	92.38
348.445	91.38
348.673	100.38
348.9	103.38
349.128	93.38
349.355	95.38
349.583	89.38
349.81	90.38
350.037	90.38
350.265	96.38
350.492	89.38
350.72	101.38
350.947	116.38
351.174	103.38
351.402	107.38
351.629	95.38
351.856	88.38
352.083	94.38
352.311	99.38
352.538	96.38
352.765	101.38
352.992	109.38
353.22	106.38
353.447	104.38
353.674	98.38
353.901	85.38
354.128	86.38
354.355	97.38
354.583	90.38
354.81	93.38
355.037	83.38
355.264	111.38
355.491	87.38
355.718	102.38
355.945	102.38
356.172	93.38
356.399	88.38
356.626	77.38
356.853	82.38
357.08	96.38
357.307	96.38
357.534	93.38
357.761	98.38
357.988	82.38
358.215	93.38
358.441	99.38
358.668	93.38
358.895	91.38
359.122	87.38
359.349	84.38
359.576	76.38
359.802	88.38
360.029	110.38
360.256	92.38
360.483	97.38
360.709	81.38
360.936	100.38
361.163	104.38
361.39	91.38
361.616	84.38
361.843	91.38
362.07	91.38
362.296	87.38
362.523	96.38
362.749	81.38
362.976	83.38
363.203	84.38
363.429	92.38
363.656	78.38
363.882	84.38
364.109	98.38
364.335	74.38
364.562	95.38
364.788	96.38
365.015	83.38
365.241	95.38
365.468	90.38
365.694	87.38
365.92	87.38
366.147	84.38
366.373	87.38
366.599	91.38
366.826	94.38
367.052	84.38
367.278	96.38
367.505	84.38
367.731	93.38
367.957	90.38
368.184	81.38
368.41	94.38
368.636	105.38
368.862	103.38
369.089	86.38
369.315	76.38
369.541	104.38
369.767	72.38
369.993	94.38
370.219	90.38
370.445	84.38
370.672	84.38
370.898	78.38
371.124	87.38
371.35	96.38
371.576	71.38
371.802	88.38
372.028	72.38
372.254	86.38
372.48	90.38
372.706	102.38
372.932	78.38
373.158	79.38
373.384	87.38
373.61	96.38
373.835	90.38
374.061	71.38
374.287	79.38
374.513	94.38
374.739	81.38
374.965	93.38
375.191	91.38
375.416	81.38
375.642	78.38
375.868	97.38
376.094	92.38
376.319	83.38
376.545	78.38
376.771	99.38
376.997	94.38
377.222	90.38
377.448	81.38
377.674	84.38
377.899	105.38
378.125	97.38
378.35	85.38
378.576	95.38
378.802	84.38
379.027	86.38
379.253	83.38
379.478	77.38
379.704	95.38
379.929	90.38
380.155	94.38
380.38	97.38
380.606	88.38
380.831	83.38
381.057	93.38
381.282	81.38
381.507	96.38
381.733	94.38
381.958	83.38
382.184	84.38
382.409	86.38
382.634	96.38
382.86	97.38
383.085	91.38
383.31	103.38
383.535	96.38
383.761	97.38
383.986	101.38
384.211	100.38
384.436	103.38
384.662	93.38
384.887	106.38
385.112	99.38
385.337	103.38
385.562	113.38
385.787	105.38
386.013	92.38
386.238	110.38
386.463	101.38
386.688	98.38
386.913	91.38
387.138	100.38
387.363	88.38
387.588	101.38
387.813	98.38
388.038	105.38
388.263	109.38
388.488	107.38
388.713	104.38
388.938	91.38
389.163	84.38
389.387	90.38
389.612	93.38
389.837	88.38
390.062	92.38
390.287	78.38
390.512	86.38
390.736	87.38
390.961	82.38
391.186	98.38
391.411	103.38
391.636	94.38
391.86	81.38
392.085	95.38
392.31	99.38
392.534	90.38
392.759	84.38
392.984	65.38
393.208	88.38
393.433	100.38
393.658	90.38
393.882	91.38
394.107	83.38
394.331	79.38
394.556	79.38
394.78	75.38
395.005	95.38
395.229	89.38
395.454	83.38
395.678	80.38
395.903	92.38
396.127	72.38
396.352	88.38
396.576	82.38
396.801	86.38
397.025	88.38
397.249	82.38
397.474	66.38
397.698	71.38
397.922	75.38
398.147	87.38
398.371	67.38
398.595	93.38
398.82	79.38
399.044	82.38
399.268	84.38
399.492	89.38
399.717	105.38
399.941	74.38
400.165	94.38
400.389	86.38
400.613	83.38
400.837	94.38
401.062	64.38
401.286	93.38
401.51	79.38
401.734	79.38
401.958	76.38
402.182	124.38
402.406	134.38
402.63	100.38
402.854	87.38
403.078	75.38
403.302	80.38
403.526	85.38
403.75	93.38
403.974	68.38
404.198	81.38
404.422	93.38
404.645	79.38
404.869	88.38
405.093	81.38
405.317	88.38
405.541	98.38
405.765	91.38
405.988	99.38
406.212	151.38
406.436	172.38
406.66	123.38
406.883	89.38
407.107	86.38
407.331	95.38
407.555	104.38
407.778	90.38
408.002	82.38
408.226	90.38
408.449	82.38
408.673	86.38
408.896	93.38
409.12	93.38
409.344	87.38
409.567	84.38
409.791	97.38
410.014	94.38
410.238	92.38
410.461	92.38
410.685	75.38
410.908	85.38
411.132	99.38
411.355	98.38
411.578	96.38
411.802	81.38
412.025	73.38
412.249	99.38
412.472	78.38
412.695	74.38
412.919	97.38
413.142	103.38
413.365	84.38
413.589	83.38
413.812	78.38
414.035	89.38
414.258	92.38
414.482	78.38
414.705	94.38
414.928	80.38
415.151	96.38
415.374	98.38
415.597	91.38
415.821	86.38
416.044	69.38
416.267	95.38
416.49	78.38
416.713	75.38
416.936	82.38
417.159	91.38
417.382	80.38
417.605	77.38
417.828	85.38
418.051	93.38
418.274	82.38
418.497	90.38
418.72	84.38
418.943	90.38
419.166	69.38
419.389	93.38
419.611	81.38
419.834	88.38
420.057	83.38
420.28	79.38
420.503	86.38
420.726	90.38
420.948	78.38
421.171	92.38
421.394	88.38
421.617	87.38
421.839	80.38
422.062	74.38
422.285	104.38
422.507	106.38
422.73	94.38
422.953	79.38
423.175	83.38
423.398	78.38
423.621	94.38
423.843	81.38
424.066	79.38
424.288	88.38
424.511	76.38
424.733	85.38
424.956	87.38
425.178	91.38
425.401	79.38
425.623	87.38
425.846	78.38
426.068	100.38
426.291	80.38
426.513	85.38
426.735	85.38
426.958	85.38
427.18	102.38
427.402	125.38
427.625	131.38
427.847	100.38
428.069	82.38
428.292	88.38
428.514	74.38
428.736	83.38
428.958	86.38
429.181	66.38
429.403	75.38
429.625	82.38
429.847	96.38
430.069	94.38
430.292	100.38
430.514	73.38
430.736	74.38
430.958	80.38
431.18	75.38
431.402	101.38
431.624	85.38
431.846	72.38
432.068	98.38
432.29	76.38
432.512	83.38
432.734	82.38
432.956	77.38
433.178	98.38
433.4	88.38
433.622	78.38
433.844	95.38
434.066	81.38
434.287	96.38
434.509	83.38
434.731	90.38
434.953	80.38
435.175	71.38
435.397	86.38
435.618	94.38
435.84	102.38
436.062	117.38
436.284	100.38
436.505	92.38
436.727	99.38
436.949	102.38
437.17	85.38
437.392	82.38
437.614	90.38
437.835	107.38
438.057	101.38
438.278	84.38
438.5	83.38
438.721	100.38
438.943	99.38
439.165	86.38
439.386	92.38
439.608	77.38
439.829	79.38
440.05	108.38
440.272	115.38
440.493	78.38
440.715	90.38
440.936	87.38
441.158	93.38
441.379	71.38
441.6	89.38
441.822	84.38
442.043	91.38
442.264	82.38
442.486	90.38
442.707	103.38
442.928	90.38
443.149	102.38
443.371	105.38
443.592	105.38
443.813	111.38
444.034	96.38
444.255	93.38
444.476	90.38
444.698	91.38
444.919	94.38
445.14	120.38
445.361	119.38
445.582	88.38
445.803	108.38
446.024	118.38
446.245	111.38
446.466	102.38
446.687	87.38
446.908	86.38
447.129	84.38
447.35	86.38
447.571	95.38
447.792	86.38
448.013	91.38
448.234	97.38
448.455	87.38
448.675	96.38
448.896	104.38
449.117	93.38
449.338	110.38
449.559	109.38
449.779	120.38
450	94.38
450.221	83.38
450.442	64.38
450.662	73.38
450.883	94.38
451.104	92.38
451.324	72.38
451.545	94.38
451.766	72.38
451.986	82.38
452.207	95.38
452.428	90.38
452.648	88.38
452.869	95.38
453.089	102.38
453.31	101.38
453.53	92.38
453.751	100.38
453.971	87.38
454.192	93.38
454.412	85.38
454.633	86.38
454.853	65.38
455.073	84.38
455.294	88.38
455.514	94.38
455.734	88.38
455.955	90.38
456.175	86.38
456.395	86.38
456.616	80.38
456.836	92.38
457.056	97.38
457.276	72.38
457.497	74.38
457.717	82.38
457.937	81.38
458.157	88.38
458.377	95.38
458.598	89.38
458.818	126.38
459.038	138.38
459.258	108.38
459.478	92.38
459.698	92.38
459.918	90.38
460.138	81.38
460.358	88.38
460.578	75.38
460.798	82.38
461.018	94.38
461.238	91.38
461.458	86.38
461.678	92.38
461.898	78.38
462.118	93.38
462.338	78.38
462.558	88.38
462.777	78.38
462.997	83.38
463.217	80.38
463.437	96.38
463.657	94.38
463.876	87.38
464.096	79.38
464.316	75.38
464.536	90.38
464.755	94.38
464.975	96.38
465.195	141.38
465.414	117.38
465.634	78.38
465.854	86.38
466.073	69.38
466.293	91.38
466.512	98.38
466.732	99.38
466.951	90.38
467.171	83.38
467.391	80.38
467.61	105.38
467.829	103.38
468.049	88.38
468.268	97.38
468.488	88.38
468.707	75.38
468.927	94.38
469.146	88.38
469.365	78.38
469.585	97.38
469.804	92.38
470.023	104.38
470.243	111.38
470.462	90.38
470.681	94.38
470.901	96.38
471.12	82.38
471.339	74.38
471.558	74.38
471.777	79.38
471.997	94.38
472.216	90.38
472.435	85.38
472.654	79.38
472.873	87.38
473.092	90.38
473.311	76.38
473.53	89.38
473.749	89.38
473.968	84.38
474.187	105.38
474.406	90.38
474.625	96.38
474.844	76.38
475.063	84.38
475.282	91.38
475.501	95.38
475.72	89.38
475.939	90.38
476.158	83.38
476.377	87.38
476.596	90.38
476.814	81.38
477.033	82.38
477.252	90.38
477.471	84.38
477.69	80.38
477.908	79.38
478.127	91.38
478.346	85.38
478.564	80.38
478.783	96.38
479.002	81.38
479.22	81.38
479.439	97.38
479.658	97.38
479.876	84.38
480.095	84.38
480.313	77.38
480.532	82.38
480.751	74.38
480.969	84.38
481.188	99.38
481.406	94.38
481.624	81.38
481.843	91.38
482.061	82.38
482.28	78.38
482.498	80.38
482.717	83.38
482.935	89.38
483.153	93.38
483.372	100.38
483.59	85.38
483.808	93.38
484.027	97.38
484.245	94.38
484.463	78.38
484.681	94.38
484.9	87.38
485.118	90.38
485.336	88.38
485.554	99.38
485.772	86.38
485.99	85.38
486.209	91.38
486.427	104.38
486.645	108.38
486.863	104.38
487.081	93.38
487.299	94.38
487.517	100.38
487.735	94.38
487.953	93.38
488.171	76.38
488.389	81.38
488.607	101.38
488.825	82.38
489.043	89.38
489.261	88.38
489.479	90.38
489.696	64.38
489.914	90.38
490.132	86.38
490.35	93.38
490.568	103.38
490.786	85.38
491.003	82.38
491.221	85.38
491.439	79.38
491.657	88.38
491.874	84.38
492.092	87.38
492.31	88.38
492.527	93.38
492.745	87.38
492.963	96.38
493.18	89.38
493.398	98.38
493.615	93.38
493.833	92.38
494.05	94.38
494.268	87.38
494.485	103.38
494.703	92.38
494.92	92.38
495.138	103.38
495.355	92.38
495.573	92.38
495.79	85.38
496.008	109.38
496.225	77.38
496.442	96.38
496.66	93.38
496.877	79.38
497.094	90.38
497.312	99.38
497.529	78.38
497.746	75.38
497.963	95.38
498.181	70.38
498.398	84.38
498.615	104.38
498.832	104.38
499.049	88.38
499.267	90.38
499.484	68.38
499.701	79.38
499.918	98.38
500.135	98.38
500.352	84.38
500.569	95.38
500.786	90.38
501.003	83.38
501.22	82.38
501.437	99.38
501.654	81.38
501.871	97.38
502.088	85.38
502.305	99.38
502.522	87.38
502.739	84.38
502.956	86.38
503.172	94.38
503.389	93.38
503.606	93.38
503.823	91.38
504.04	86.38
504.256	86.38
504.473	79.38
504.69	83.38
504.907	90.38
505.123	81.38
505.34	86.38
505.557	70.38
505.773	99.38
505.99	89.38
506.207	96.38
506.423	100.38
506.64	90.38
506.856	93.38
507.073	86.38
507.289	84.38
507.506	87.38
507.722	94.38
507.939	96.38
508.155	84.38
508.372	82.38
508.588	93.38
508.805	85.38
509.021	87.38
509.238	97.38
509.454	81.38
509.67	101.38
509.887	107.38
510.103	122.38
510.319	183.38
510.536	601.38
510.752	1852.38
510.968	532.38
511.184	131.38
511.401	90.38
511.617	88.38
511.833	99.38
512.049	90.38
512.265	83.38
512.481	98.38
512.698	84.38
512.914	86.38
513.13	98.38
513.346	71.38
513.562	103.38
513.778	94.38
513.994	94.38
514.21	88.38
514.426	115.38
514.642	119.38
514.858	113.38
515.074	138.38
515.29	340.38
515.506	1090.38
515.721	402.38
515.937	133.38
516.153	98.38
516.369	91.38
516.585	86.38
516.801	72.38
517.016	96.38
517.232	81.38
517.448	87.38
