Data from Uncirc_1987_H10_HRD10591_00029.txt Node
Date: Wed Jan 03 12:08:54 EST 2024
User: Yrep
Spectrometer: HR+D1059
Trigger mode: 1
Integration Time (sec): 1.000000E-1
Scans to average: 1
Electric dark correction enabled: true
Nonlinearity correction enabled: false
Boxcar width: 0
XAxis mode: Wavelengths
Number of Pixels in Spectrum: 2048
>>>>>Begin Spectral Data<<<<<
223.165	-20.56
223.4	-20.56
223.635	-20.56
223.869	-11.56
224.104	-28.56
224.338	-28.56
224.573	-16.56
224.808	2.44
225.042	1.44
225.277	0.44
225.511	-15.56
225.746	0.44
225.98	9.44
226.215	21.44
226.449	21.44
226.683	12.44
226.918	18.44
227.152	33.44
227.387	51.44
227.621	29.44
227.856	53.44
228.09	62.44
228.324	51.44
228.559	58.44
228.793	71.44
229.027	59.44
229.262	65.44
229.496	75.44
229.73	93.44
229.964	77.44
230.199	90.44
230.433	81.44
230.667	82.44
230.901	77.44
231.136	72.44
231.37	84.44
231.604	78.44
231.838	81.44
232.072	81.44
232.306	85.44
232.541	73.44
232.775	83.44
233.009	81.44
233.243	80.44
233.477	83.44
233.711	90.44
233.945	71.44
234.179	68.44
234.413	75.44
234.647	85.44
234.881	73.44
235.115	94.44
235.349	71.44
235.583	85.44
235.817	68.44
236.051	72.44
236.285	76.44
236.519	63.44
236.753	73.44
236.987	77.44
237.221	82.44
237.455	97.44
237.689	72.44
237.922	85.44
238.156	60.44
238.39	80.44
238.624	73.44
238.858	86.44
239.091	82.44
239.325	63.44
239.559	79.44
239.793	75.44
240.027	85.44
240.26	72.44
240.494	73.44
240.728	92.44
240.961	87.44
241.195	71.44
241.429	74.44
241.662	75.44
241.896	72.44
242.13	65.44
242.363	78.44
242.597	79.44
242.83	85.44
243.064	67.44
243.298	67.44
243.531	77.44
243.765	77.44
243.998	74.44
244.232	74.44
244.465	73.44
244.699	81.44
244.932	73.44
245.166	75.44
245.399	82.44
245.633	82.44
245.866	72.44
246.099	86.44
246.333	77.44
246.566	89.44
246.8	78.44
247.033	75.44
247.266	69.44
247.5	82.44
247.733	81.44
247.966	86.44
248.2	88.44
248.433	81.44
248.666	74.44
248.899	91.44
249.133	64.44
249.366	107.44
249.599	99.44
249.832	74.44
250.066	69.44
250.299	80.44
250.532	75.44
250.765	90.44
250.998	84.44
251.231	85.44
251.465	78.44
251.698	71.44
251.931	88.44
252.164	85.44
252.397	84.44
252.63	81.44
252.863	88.44
253.096	79.44
253.329	90.44
253.562	87.44
253.795	57.44
254.028	81.44
254.261	80.44
254.494	73.44
254.727	79.44
254.96	90.44
255.193	69.44
255.426	79.44
255.659	79.44
255.892	73.44
256.124	86.44
256.357	83.44
256.59	77.44
256.823	69.44
257.056	87.44
257.289	77.44
257.521	80.44
257.754	76.44
257.987	84.44
258.22	108.44
258.452	78.44
258.685	69.44
258.918	74.44
259.151	84.44
259.383	88.44
259.616	86.44
259.849	80.44
260.081	77.44
260.314	78.44
260.547	78.44
260.779	66.44
261.012	79.44
261.244	81.44
261.477	95.44
261.71	98.44
261.942	95.44
262.175	111.44
262.407	93.44
262.64	87.44
262.872	86.44
263.105	82.44
263.337	82.44
263.57	75.44
263.802	94.44
264.035	82.44
264.267	77.44
264.499	79.44
264.732	83.44
264.964	78.44
265.197	79.44
265.429	83.44
265.661	81.44
265.894	86.44
266.126	77.44
266.358	85.44
266.591	74.44
266.823	94.44
267.055	95.44
267.287	84.44
267.52	81.44
267.752	81.44
267.984	67.44
268.216	79.44
268.448	94.44
268.681	81.44
268.913	98.44
269.145	102.44
269.377	89.44
269.609	80.44
269.841	82.44
270.073	74.44
270.306	81.44
270.538	83.44
270.77	82.44
271.002	94.44
271.234	80.44
271.466	89.44
271.698	92.44
271.93	80.44
272.162	68.44
272.394	89.44
272.626	87.44
272.858	82.44
273.09	82.44
273.322	81.44
273.553	70.44
273.785	80.44
274.017	93.44
274.249	85.44
274.481	86.44
274.713	79.44
274.945	95.44
275.176	83.44
275.408	87.44
275.64	89.44
275.872	88.44
276.104	85.44
276.335	77.44
276.567	99.44
276.799	109.44
277.031	90.44
277.262	99.44
277.494	96.44
277.726	87.44
277.957	79.44
278.189	75.44
278.421	95.44
278.652	87.44
278.884	77.44
279.115	68.44
279.347	86.44
279.579	87.44
279.81	85.44
280.042	100.44
280.273	85.44
280.505	83.44
280.736	77.44
280.968	83.44
281.199	84.44
281.431	81.44
281.662	96.44
281.894	87.44
282.125	85.44
282.356	105.44
282.588	115.44
282.819	103.44
283.051	86.44
283.282	77.44
283.513	98.44
283.745	102.44
283.976	88.44
284.207	87.44
284.439	91.44
284.67	83.44
284.901	80.44
285.132	96.44
285.364	84.44
285.595	79.44
285.826	98.44
286.057	90.44
286.288	84.44
286.52	100.44
286.751	90.44
286.982	88.44
287.213	75.44
287.444	93.44
287.675	79.44
287.906	81.44
288.138	91.44
288.369	96.44
288.6	93.44
288.831	73.44
289.062	91.44
289.293	89.44
289.524	81.44
289.755	88.44
289.986	102.44
290.217	79.44
290.448	87.44
290.679	87.44
290.91	88.44
291.141	77.44
291.371	77.44
291.602	104.44
291.833	86.44
292.064	99.44
292.295	89.44
292.526	86.44
292.757	93.44
292.987	88.44
293.218	93.44
293.449	93.44
293.68	93.44
293.91	92.44
294.141	76.44
294.372	92.44
294.603	86.44
294.833	94.44
295.064	89.44
295.295	72.44
295.525	86.44
295.756	95.44
295.987	117.44
296.217	138.44
296.448	111.44
296.679	91.44
296.909	98.44
297.14	84.44
297.37	87.44
297.601	82.44
297.831	81.44
298.062	96.44
298.292	84.44
298.523	97.44
298.753	84.44
298.984	93.44
299.214	97.44
299.445	89.44
299.675	90.44
299.905	102.44
300.136	95.44
300.366	84.44
300.597	78.44
300.827	82.44
301.057	91.44
301.288	105.44
301.518	82.44
301.748	94.44
301.979	87.44
302.209	88.44
302.439	93.44
302.669	89.44
302.9	78.44
303.13	86.44
303.36	86.44
303.59	79.44
303.82	97.44
304.051	99.44
304.281	92.44
304.511	86.44
304.741	87.44
304.971	77.44
305.201	86.44
305.431	81.44
305.661	84.44
305.891	90.44
306.121	98.44
306.352	87.44
306.582	100.44
306.812	101.44
307.042	83.44
307.272	81.44
307.502	99.44
307.731	102.44
307.961	103.44
308.191	79.44
308.421	90.44
308.651	105.44
308.881	93.44
309.111	88.44
309.341	101.44
309.571	103.44
309.8	86.44
310.03	94.44
310.26	92.44
310.49	98.44
310.72	99.44
310.949	111.44
311.179	106.44
311.409	93.44
311.639	102.44
311.868	89.44
312.098	104.44
312.328	97.44
312.557	83.44
312.787	82.44
313.017	97.44
313.246	99.44
313.476	79.44
313.706	95.44
313.935	94.44
314.165	93.44
314.394	107.44
314.624	105.44
314.853	112.44
315.083	95.44
315.312	91.44
315.542	97.44
315.771	93.44
316.001	98.44
316.23	91.44
316.46	85.44
316.689	74.44
316.919	79.44
317.148	91.44
317.377	105.44
317.607	99.44
317.836	77.44
318.065	102.44
318.295	85.44
318.524	94.44
318.753	83.44
318.983	84.44
319.212	86.44
319.441	107.44
319.67	96.44
319.9	101.44
320.129	94.44
320.358	97.44
320.587	90.44
320.816	101.44
321.046	112.44
321.275	88.44
321.504	102.44
321.733	114.44
321.962	98.44
322.191	105.44
322.42	102.44
322.649	104.44
322.878	120.44
323.108	102.44
323.337	121.44
323.566	133.44
323.795	137.44
324.024	183.44
324.253	365.44
324.482	758.44
324.71	1565.44
324.939	2125.44
325.168	771.44
325.397	225.44
325.626	147.44
325.855	136.44
326.084	126.44
326.313	129.44
326.542	134.44
326.77	218.44
326.999	427.44
327.228	849.44
327.457	1629.44
327.686	1285.44
327.914	326.44
328.143	182.44
328.372	160.44
328.6	110.44
328.829	107.44
329.058	115.44
329.287	122.44
329.515	115.44
329.744	104.44
329.972	101.44
330.201	91.44
330.43	110.44
330.658	117.44
330.887	126.44
331.115	120.44
331.344	99.44
331.572	97.44
331.801	114.44
332.03	109.44
332.258	99.44
332.486	89.44
332.715	100.44
332.943	112.44
333.172	83.44
333.4	103.44
333.629	112.44
333.857	116.44
334.085	107.44
334.314	113.44
334.542	92.44
334.771	112.44
334.999	99.44
335.227	86.44
335.455	97.44
335.684	83.44
335.912	114.44
336.14	101.44
336.369	87.44
336.597	104.44
336.825	95.44
337.053	72.44
337.281	90.44
337.51	102.44
337.738	99.44
337.966	90.44
338.194	95.44
338.422	100.44
338.65	101.44
338.878	101.44
339.106	86.44
339.334	91.44
339.562	112.44
339.79	110.44
340.018	87.44
340.246	87.44
340.474	76.44
340.702	89.44
340.93	93.44
341.158	77.44
341.386	88.44
341.614	94.44
341.842	98.44
342.07	88.44
342.298	89.44
342.526	84.44
342.754	94.44
342.981	100.44
343.209	95.44
343.437	104.44
343.665	89.44
343.893	98.44
344.12	96.44
344.348	89.44
344.576	95.44
344.804	78.44
345.031	93.44
345.259	91.44
345.487	106.44
345.714	91.44
345.942	99.44
346.17	86.44
346.397	90.44
346.625	90.44
346.853	93.44
347.08	81.44
347.308	102.44
347.535	103.44
347.763	99.44
347.99	106.44
348.218	101.44
348.445	106.44
348.673	98.44
348.9	95.44
349.128	93.44
349.355	79.44
349.583	97.44
349.81	102.44
350.037	93.44
350.265	98.44
350.492	87.44
350.72	94.44
350.947	94.44
351.174	94.44
351.402	102.44
351.629	96.44
351.856	95.44
352.083	119.44
352.311	95.44
352.538	109.44
352.765	99.44
352.992	118.44
353.22	102.44
353.447	101.44
353.674	104.44
353.901	115.44
354.128	102.44
354.355	83.44
354.583	121.44
354.81	89.44
355.037	74.44
355.264	79.44
355.491	91.44
355.718	96.44
355.945	91.44
356.172	95.44
356.399	99.44
356.626	95.44
356.853	88.44
357.08	95.44
357.307	79.44
357.534	87.44
357.761	88.44
357.988	98.44
358.215	97.44
358.441	96.44
358.668	74.44
358.895	91.44
359.122	92.44
359.349	99.44
359.576	100.44
359.802	105.44
360.029	107.44
360.256	102.44
360.483	84.44
360.709	82.44
360.936	94.44
361.163	101.44
361.39	90.44
361.616	91.44
361.843	113.44
362.07	93.44
362.296	85.44
362.523	90.44
362.749	104.44
362.976	98.44
363.203	98.44
363.429	73.44
363.656	79.44
363.882	88.44
364.109	95.44
364.335	96.44
364.562	94.44
364.788	94.44
365.015	89.44
365.241	100.44
365.468	107.44
365.694	102.44
365.92	89.44
366.147	79.44
366.373	95.44
366.599	86.44
366.826	71.44
367.052	98.44
367.278	93.44
367.505	90.44
367.731	91.44
367.957	88.44
368.184	76.44
368.41	82.44
368.636	98.44
368.862	121.44
369.089	113.44
369.315	96.44
369.541	85.44
369.767	87.44
369.993	104.44
370.219	85.44
370.445	91.44
370.672	105.44
370.898	91.44
371.124	70.44
371.35	84.44
371.576	91.44
371.802	97.44
372.028	88.44
372.254	79.44
372.48	90.44
372.706	83.44
372.932	90.44
373.158	93.44
373.384	85.44
373.61	91.44
373.835	95.44
374.061	94.44
374.287	87.44
374.513	81.44
374.739	92.44
374.965	87.44
375.191	87.44
375.416	88.44
375.642	95.44
375.868	98.44
376.094	97.44
376.319	87.44
376.545	91.44
376.771	90.44
376.997	97.44
377.222	86.44
377.448	100.44
377.674	88.44
377.899	96.44
378.125	87.44
378.35	107.44
378.576	90.44
378.802	96.44
379.027	91.44
379.253	90.44
379.478	97.44
379.704	89.44
379.929	90.44
380.155	97.44
380.38	107.44
380.606	95.44
380.831	80.44
381.057	104.44
381.282	92.44
381.507	97.44
381.733	70.44
381.958	101.44
382.184	109.44
382.409	101.44
382.634	107.44
382.86	98.44
383.085	81.44
383.31	102.44
383.535	102.44
383.761	101.44
383.986	91.44
384.211	89.44
384.436	94.44
384.662	89.44
384.887	98.44
385.112	102.44
385.337	94.44
385.562	96.44
385.787	103.44
386.013	98.44
386.238	107.44
386.463	109.44
386.688	97.44
386.913	93.44
387.138	92.44
387.363	104.44
387.588	106.44
387.813	109.44
388.038	102.44
388.263	108.44
388.488	110.44
388.713	84.44
388.938	90.44
389.163	96.44
389.387	90.44
389.612	88.44
389.837	97.44
390.062	109.44
390.287	95.44
390.512	98.44
390.736	87.44
390.961	89.44
391.186	78.44
391.411	87.44
391.636	98.44
391.86	93.44
392.085	101.44
392.31	92.44
392.534	81.44
392.759	71.44
392.984	89.44
393.208	81.44
393.433	101.44
393.658	66.44
393.882	86.44
394.107	87.44
394.331	86.44
394.556	90.44
394.78	79.44
395.005	81.44
395.229	80.44
395.454	71.44
395.678	77.44
395.903	91.44
396.127	86.44
396.352	85.44
396.576	89.44
396.801	84.44
397.025	86.44
397.249	88.44
397.474	101.44
397.698	87.44
397.922	87.44
398.147	84.44
398.371	82.44
398.595	99.44
398.82	84.44
399.044	83.44
399.268	90.44
399.492	90.44
399.717	75.44
399.941	85.44
400.165	98.44
400.389	89.44
400.613	87.44
400.837	99.44
401.062	87.44
401.286	87.44
401.51	81.44
401.734	87.44
401.958	115.44
402.182	103.44
402.406	155.44
402.63	132.44
402.854	93.44
403.078	89.44
403.302	88.44
403.526	85.44
403.75	77.44
403.974	99.44
404.198	98.44
404.422	75.44
404.645	95.44
404.869	80.44
405.093	79.44
405.317	99.44
405.541	79.44
405.765	101.44
405.988	102.44
406.212	164.44
406.436	202.44
406.66	121.44
406.883	87.44
407.107	91.44
407.331	98.44
407.555	107.44
407.778	95.44
408.002	100.44
408.226	93.44
408.449	83.44
408.673	90.44
408.896	91.44
409.12	94.44
409.344	89.44
409.567	91.44
409.791	93.44
410.014	95.44
410.238	95.44
410.461	78.44
410.685	98.44
410.908	98.44
411.132	105.44
411.355	83.44
411.578	72.44
411.802	75.44
412.025	93.44
412.249	95.44
412.472	91.44
412.695	104.44
412.919	81.44
413.142	88.44
413.365	89.44
413.589	86.44
413.812	99.44
414.035	95.44
414.258	86.44
414.482	88.44
414.705	82.44
414.928	94.44
415.151	94.44
415.374	109.44
415.597	95.44
415.821	70.44
416.044	94.44
416.267	94.44
416.49	83.44
416.713	86.44
416.936	96.44
417.159	90.44
417.382	86.44
417.605	111.44
417.828	89.44
418.051	83.44
418.274	91.44
418.497	95.44
418.72	83.44
418.943	81.44
419.166	107.44
419.389	83.44
419.611	90.44
419.834	98.44
420.057	102.44
420.28	97.44
420.503	89.44
420.726	95.44
420.948	94.44
421.171	86.44
421.394	86.44
421.617	89.44
421.839	86.44
422.062	88.44
422.285	98.44
422.507	96.44
422.73	83.44
422.953	90.44
423.175	99.44
423.398	77.44
423.621	100.44
423.843	87.44
424.066	90.44
424.288	92.44
424.511	93.44
424.733	95.44
424.956	101.44
425.178	100.44
425.401	85.44
425.623	111.44
425.846	90.44
426.068	89.44
426.291	89.44
426.513	81.44
426.735	89.44
426.958	90.44
427.18	104.44
427.402	124.44
427.625	139.44
427.847	117.44
428.069	74.44
428.292	91.44
428.514	82.44
428.736	85.44
428.958	85.44
429.181	89.44
429.403	87.44
429.625	87.44
429.847	80.44
430.069	100.44
430.292	90.44
430.514	104.44
430.736	82.44
430.958	91.44
431.18	81.44
431.402	81.44
431.624	92.44
431.846	95.44
432.068	92.44
432.29	102.44
432.512	90.44
432.734	94.44
432.956	102.44
433.178	102.44
433.4	96.44
433.622	81.44
433.844	90.44
434.066	77.44
434.287	96.44
434.509	87.44
434.731	108.44
434.953	87.44
435.175	88.44
435.397	95.44
435.618	87.44
435.84	98.44
436.062	122.44
436.284	108.44
436.505	108.44
436.727	107.44
436.949	87.44
437.17	97.44
437.392	92.44
437.614	103.44
437.835	95.44
438.057	109.44
438.278	117.44
438.5	109.44
438.721	114.44
438.943	88.44
439.165	77.44
439.386	84.44
439.608	79.44
439.829	97.44
440.05	120.44
440.272	140.44
440.493	111.44
440.715	98.44
440.936	94.44
441.158	89.44
441.379	98.44
441.6	86.44
441.822	86.44
442.043	94.44
442.264	91.44
442.486	88.44
442.707	84.44
442.928	98.44
443.149	106.44
443.371	119.44
443.592	108.44
443.813	110.44
444.034	104.44
444.255	84.44
444.476	81.44
444.698	91.44
444.919	89.44
445.14	115.44
445.361	119.44
445.582	96.44
445.803	110.44
446.024	131.44
446.245	129.44
446.466	112.44
446.687	87.44
446.908	80.44
447.129	93.44
447.35	96.44
447.571	96.44
447.792	101.44
448.013	105.44
448.234	110.44
448.455	93.44
448.675	112.44
448.896	109.44
449.117	99.44
449.338	112.44
449.559	130.44
449.779	141.44
450	101.44
450.221	105.44
450.442	91.44
450.662	99.44
450.883	79.44
451.104	103.44
451.324	95.44
451.545	84.44
451.766	80.44
451.986	90.44
452.207	73.44
452.428	74.44
452.648	98.44
452.869	104.44
453.089	106.44
453.31	106.44
453.53	95.44
453.751	91.44
453.971	97.44
454.192	112.44
454.412	82.44
454.633	91.44
454.853	84.44
455.073	71.44
455.294	77.44
455.514	109.44
455.734	78.44
455.955	84.44
456.175	74.44
456.395	83.44
456.616	93.44
456.836	93.44
457.056	86.44
457.276	81.44
457.497	77.44
457.717	75.44
457.937	109.44
458.157	82.44
458.377	79.44
458.598	95.44
458.818	129.44
459.038	155.44
459.258	110.44
459.478	98.44
459.698	92.44
459.918	89.44
460.138	81.44
460.358	87.44
460.578	95.44
460.798	83.44
461.018	87.44
461.238	94.44
461.458	65.44
461.678	74.44
461.898	80.44
462.118	88.44
462.338	81.44
462.558	88.44
462.777	79.44
462.997	69.44
463.217	79.44
463.437	91.44
463.657	90.44
463.876	78.44
464.096	89.44
464.316	84.44
464.536	111.44
464.755	94.44
464.975	105.44
465.195	139.44
465.414	132.44
465.634	77.44
465.854	97.44
466.073	85.44
466.293	93.44
466.512	89.44
466.732	85.44
466.951	74.44
467.171	89.44
467.391	99.44
467.61	112.44
467.829	95.44
468.049	94.44
468.268	83.44
468.488	88.44
468.707	94.44
468.927	73.44
469.146	78.44
469.365	88.44
469.585	88.44
469.804	90.44
470.023	81.44
470.243	99.44
470.462	84.44
470.681	101.44
470.901	109.44
471.12	92.44
471.339	87.44
471.558	74.44
471.777	96.44
471.997	81.44
472.216	106.44
472.435	103.44
472.654	91.44
472.873	88.44
473.092	80.44
473.311	74.44
473.53	89.44
473.749	76.44
473.968	92.44
474.187	94.44
474.406	79.44
474.625	91.44
474.844	95.44
475.063	94.44
475.282	95.44
475.501	78.44
475.72	81.44
475.939	87.44
476.158	79.44
476.377	79.44
476.596	81.44
476.814	93.44
477.033	72.44
477.252	90.44
477.471	89.44
477.69	88.44
477.908	99.44
478.127	85.44
478.346	77.44
478.564	91.44
478.783	97.44
479.002	98.44
479.22	93.44
479.439	96.44
479.658	115.44
479.876	89.44
480.095	89.44
480.313	88.44
480.532	107.44
480.751	103.44
480.969	95.44
481.188	100.44
481.406	97.44
481.624	77.44
481.843	78.44
482.061	98.44
482.28	88.44
482.498	89.44
482.717	78.44
482.935	79.44
483.153	80.44
483.372	95.44
483.59	98.44
483.808	78.44
484.027	95.44
484.245	90.44
484.463	102.44
484.681	87.44
484.9	86.44
485.118	99.44
485.336	94.44
485.554	108.44
485.772	97.44
485.99	106.44
486.209	93.44
486.427	112.44
486.645	104.44
486.863	99.44
487.081	90.44
487.299	97.44
487.517	98.44
487.735	89.44
487.953	108.44
488.171	96.44
488.389	87.44
488.607	107.44
488.825	79.44
489.043	101.44
489.261	82.44
489.479	98.44
489.696	74.44
489.914	94.44
490.132	99.44
490.35	98.44
490.568	80.44
490.786	81.44
491.003	78.44
491.221	99.44
491.439	100.44
491.657	85.44
491.874	88.44
492.092	89.44
492.31	104.44
492.527	96.44
492.745	94.44
492.963	88.44
493.18	88.44
493.398	92.44
493.615	99.44
493.833	106.44
494.05	94.44
494.268	85.44
494.485	93.44
494.703	89.44
494.92	83.44
495.138	87.44
495.355	90.44
495.573	89.44
495.79	92.44
496.008	106.44
496.225	97.44
496.442	97.44
496.66	100.44
496.877	94.44
497.094	93.44
497.312	84.44
497.529	85.44
497.746	79.44
497.963	83.44
498.181	81.44
498.398	98.44
498.615	116.44
498.832	111.44
499.049	100.44
499.267	99.44
499.484	95.44
499.701	94.44
499.918	85.44
500.135	102.44
500.352	87.44
500.569	96.44
500.786	90.44
501.003	92.44
501.22	96.44
501.437	85.44
501.654	86.44
501.871	73.44
502.088	83.44
502.305	79.44
502.522	94.44
502.739	91.44
502.956	90.44
503.172	82.44
503.389	83.44
503.606	106.44
503.823	94.44
504.04	88.44
504.256	80.44
504.473	88.44
504.69	81.44
504.907	99.44
505.123	96.44
505.34	77.44
505.557	83.44
505.773	103.44
505.99	92.44
506.207	85.44
506.423	99.44
506.64	106.44
506.856	91.44
507.073	81.44
507.289	91.44
507.506	80.44
507.722	105.44
507.939	104.44
508.155	88.44
508.372	81.44
508.588	111.44
508.805	102.44
509.021	91.44
509.238	97.44
509.454	95.44
509.67	97.44
509.887	98.44
510.103	110.44
510.319	181.44
510.536	661.44
510.752	2017.44
510.968	553.44
511.184	147.44
511.401	89.44
511.617	112.44
511.833	94.44
512.049	86.44
512.265	90.44
512.481	87.44
512.698	87.44
512.914	81.44
513.13	90.44
513.346	88.44
513.562	99.44
513.778	103.44
513.994	115.44
514.21	91.44
514.426	103.44
514.642	130.44
514.858	105.44
515.074	143.44
515.29	392.44
515.506	1269.44
515.721	459.44
515.937	143.44
516.153	99.44
