Data from Uncirc_1987_H10_HRD10591_00002.txt Node
Date: Wed Jan 03 12:08:48 EST 2024
User: Yrep
Spectrometer: HR+D1059
Trigger mode: 1
Integration Time (sec): 1.000000E-1
Scans to average: 1
Electric dark correction enabled: true
Nonlinearity correction enabled: false
Boxcar width: 0
XAxis mode: Wavelengths
Number of Pixels in Spectrum: 2048
>>>>>Begin Spectral Data<<<<<
223.165	-5.88
223.4	-5.88
223.635	-5.88
223.869	-11.88
224.104	-16.88
224.338	-12.88
224.573	-25.88
224.808	-16.88
225.042	2.12
225.277	1.12
225.511	9.12
225.746	-1.88
225.98	-3.88
226.215	5.12
226.449	18.12
226.683	5.12
226.918	26.12
227.152	29.12
227.387	32.12
227.621	36.12
227.856	44.12
228.09	44.12
228.324	52.12
228.559	52.12
228.793	64.12
229.027	50.12
229.262	72.12
229.496	70.12
229.73	76.12
229.964	72.12
230.199	72.12
230.433	83.12
230.667	76.12
230.901	82.12
231.136	78.12
231.37	79.12
231.604	92.12
231.838	71.12
232.072	70.12
232.306	90.12
232.541	86.12
232.775	80.12
233.009	66.12
233.243	77.12
233.477	81.12
233.711	89.12
233.945	79.12
234.179	82.12
234.413	85.12
234.647	77.12
234.881	86.12
235.115	84.12
235.349	83.12
235.583	89.12
235.817	86.12
236.051	85.12
236.285	72.12
236.519	78.12
236.753	80.12
236.987	84.12
237.221	72.12
237.455	79.12
237.689	73.12
237.922	89.12
238.156	78.12
238.39	85.12
238.624	65.12
238.858	76.12
239.091	65.12
239.325	81.12
239.559	73.12
239.793	85.12
240.027	80.12
240.26	78.12
240.494	79.12
240.728	70.12
240.961	60.12
241.195	86.12
241.429	78.12
241.662	63.12
241.896	75.12
242.13	80.12
242.363	66.12
242.597	85.12
242.83	71.12
243.064	77.12
243.298	78.12
243.531	79.12
243.765	80.12
243.998	82.12
244.232	80.12
244.465	80.12
244.699	94.12
244.932	78.12
245.166	68.12
245.399	92.12
245.633	76.12
245.866	72.12
246.099	91.12
246.333	79.12
246.566	85.12
246.8	81.12
247.033	93.12
247.266	80.12
247.5	81.12
247.733	77.12
247.966	71.12
248.2	71.12
248.433	76.12
248.666	80.12
248.899	77.12
249.133	77.12
249.366	77.12
249.599	90.12
249.832	89.12
250.066	69.12
250.299	73.12
250.532	87.12
250.765	79.12
250.998	68.12
251.231	77.12
251.465	82.12
251.698	66.12
251.931	73.12
252.164	80.12
252.397	61.12
252.63	85.12
252.863	70.12
253.096	76.12
253.329	76.12
253.562	76.12
253.795	74.12
254.028	62.12
254.261	78.12
254.494	72.12
254.727	69.12
254.96	78.12
255.193	101.12
255.426	77.12
255.659	73.12
255.892	91.12
256.124	72.12
256.357	76.12
256.59	71.12
256.823	78.12
257.056	83.12
257.289	82.12
257.521	87.12
257.754	87.12
257.987	77.12
258.22	87.12
258.452	87.12
258.685	80.12
258.918	73.12
259.151	84.12
259.383	83.12
259.616	72.12
259.849	76.12
260.081	80.12
260.314	77.12
260.547	88.12
260.779	78.12
261.012	84.12
261.244	90.12
261.477	92.12
261.71	83.12
261.942	93.12
262.175	101.12
262.407	96.12
262.64	96.12
262.872	77.12
263.105	77.12
263.337	80.12
263.57	89.12
263.802	80.12
264.035	89.12
264.267	64.12
264.499	92.12
264.732	75.12
264.964	69.12
265.197	74.12
265.429	76.12
265.661	86.12
265.894	83.12
266.126	76.12
266.358	74.12
266.591	74.12
266.823	97.12
267.055	89.12
267.287	65.12
267.52	80.12
267.752	77.12
267.984	81.12
268.216	96.12
268.448	74.12
268.681	78.12
268.913	72.12
269.145	82.12
269.377	92.12
269.609	88.12
269.841	79.12
270.073	82.12
270.306	83.12
270.538	84.12
270.77	88.12
271.002	97.12
271.234	88.12
271.466	92.12
271.698	87.12
271.93	80.12
272.162	77.12
272.394	97.12
272.626	71.12
272.858	85.12
273.09	79.12
273.322	97.12
273.553	92.12
273.785	76.12
274.017	82.12
274.249	82.12
274.481	76.12
274.713	82.12
274.945	98.12
275.176	92.12
275.408	94.12
275.64	87.12
275.872	84.12
276.104	94.12
276.335	85.12
276.567	86.12
276.799	113.12
277.031	79.12
277.262	88.12
277.494	89.12
277.726	82.12
277.957	85.12
278.189	97.12
278.421	76.12
278.652	91.12
278.884	87.12
279.115	94.12
279.347	79.12
279.579	73.12
279.81	71.12
280.042	95.12
280.273	92.12
280.505	86.12
280.736	93.12
280.968	88.12
281.199	89.12
281.431	75.12
281.662	98.12
281.894	103.12
282.125	94.12
282.356	110.12
282.588	121.12
282.819	100.12
283.051	94.12
283.282	96.12
283.513	79.12
283.745	92.12
283.976	70.12
284.207	89.12
284.439	81.12
284.67	83.12
284.901	69.12
285.132	76.12
285.364	95.12
285.595	100.12
285.826	89.12
286.057	73.12
286.288	88.12
286.52	92.12
286.751	92.12
286.982	85.12
287.213	86.12
287.444	88.12
287.675	88.12
287.906	77.12
288.138	95.12
288.369	86.12
288.6	87.12
288.831	99.12
289.062	77.12
289.293	86.12
289.524	73.12
289.755	68.12
289.986	67.12
290.217	79.12
290.448	83.12
290.679	85.12
290.91	83.12
291.141	87.12
291.371	89.12
291.602	93.12
291.833	88.12
292.064	93.12
292.295	88.12
292.526	86.12
292.757	97.12
292.987	94.12
293.218	93.12
293.449	102.12
293.68	79.12
293.91	83.12
294.141	86.12
294.372	90.12
294.603	87.12
294.833	103.12
295.064	100.12
295.295	100.12
295.525	98.12
295.756	89.12
295.987	101.12
296.217	115.12
296.448	92.12
296.679	104.12
296.909	82.12
297.14	92.12
297.37	92.12
297.601	73.12
297.831	76.12
298.062	81.12
298.292	94.12
298.523	87.12
298.753	86.12
298.984	92.12
299.214	102.12
299.445	92.12
299.675	92.12
299.905	99.12
300.136	103.12
300.366	82.12
300.597	90.12
300.827	97.12
301.057	95.12
301.288	99.12
301.518	82.12
301.748	91.12
301.979	110.12
302.209	103.12
302.439	80.12
302.669	76.12
302.9	85.12
303.13	81.12
303.36	97.12
303.59	84.12
303.82	96.12
304.051	99.12
304.281	85.12
304.511	74.12
304.741	72.12
304.971	92.12
305.201	100.12
305.431	88.12
305.661	70.12
305.891	85.12
306.121	95.12
306.352	91.12
306.582	81.12
306.812	99.12
307.042	77.12
307.272	84.12
307.502	82.12
307.731	96.12
307.961	95.12
308.191	84.12
308.421	100.12
308.651	93.12
308.881	94.12
309.111	90.12
309.341	102.12
309.571	86.12
309.8	87.12
310.03	85.12
310.26	94.12
310.49	102.12
310.72	94.12
310.949	102.12
311.179	92.12
311.409	78.12
311.639	79.12
311.868	94.12
312.098	86.12
312.328	88.12
312.557	97.12
312.787	96.12
313.017	78.12
313.246	92.12
313.476	88.12
313.706	107.12
313.935	93.12
314.165	101.12
314.394	88.12
314.624	86.12
314.853	88.12
315.083	86.12
315.312	89.12
315.542	93.12
315.771	89.12
316.001	102.12
316.23	98.12
316.46	76.12
316.689	97.12
316.919	92.12
317.148	90.12
317.377	89.12
317.607	81.12
317.836	106.12
318.065	94.12
318.295	100.12
318.524	83.12
318.753	92.12
318.983	94.12
319.212	98.12
319.441	113.12
319.67	97.12
319.9	108.12
320.129	80.12
320.358	98.12
320.587	104.12
320.816	92.12
321.046	98.12
321.275	99.12
321.504	85.12
321.733	97.12
321.962	82.12
322.191	106.12
322.42	105.12
322.649	98.12
322.878	97.12
323.108	116.12
323.337	116.12
323.566	108.12
323.795	131.12
324.024	178.12
324.253	311.12
324.482	678.12
324.71	1360.12
324.939	1846.12
325.168	688.12
325.397	212.12
325.626	136.12
325.855	118.12
326.084	119.12
326.313	126.12
326.542	136.12
326.77	183.12
326.999	390.12
327.228	820.12
327.457	1408.12
327.686	1144.12
327.914	328.12
328.143	173.12
328.372	140.12
328.6	102.12
328.829	114.12
329.058	95.12
329.287	100.12
329.515	106.12
329.744	95.12
329.972	104.12
330.201	107.12
330.43	103.12
330.658	116.12
330.887	121.12
331.115	104.12
331.344	98.12
331.572	98.12
331.801	120.12
332.03	100.12
332.258	97.12
332.486	89.12
332.715	101.12
332.943	93.12
333.172	93.12
333.4	80.12
333.629	96.12
333.857	117.12
334.085	101.12
334.314	100.12
334.542	88.12
334.771	99.12
334.999	86.12
335.227	89.12
335.455	90.12
335.684	94.12
335.912	93.12
336.14	98.12
336.369	96.12
336.597	101.12
336.825	83.12
337.053	90.12
337.281	95.12
337.51	93.12
337.738	91.12
337.966	86.12
338.194	103.12
338.422	97.12
338.65	92.12
338.878	90.12
339.106	82.12
339.334	88.12
339.562	88.12
339.79	88.12
340.018	77.12
340.246	95.12
340.474	92.12
340.702	97.12
340.93	105.12
341.158	94.12
341.386	89.12
341.614	96.12
341.842	88.12
342.07	94.12
342.298	103.12
342.526	88.12
342.754	88.12
342.981	86.12
343.209	84.12
343.437	109.12
343.665	91.12
343.893	76.12
344.12	86.12
344.348	115.12
344.576	113.12
344.804	90.12
345.031	98.12
345.259	89.12
345.487	83.12
345.714	94.12
345.942	87.12
346.17	106.12
346.397	96.12
346.625	96.12
346.853	90.12
347.08	89.12
347.308	100.12
347.535	92.12
347.763	101.12
347.99	93.12
348.218	100.12
348.445	101.12
348.673	106.12
348.9	96.12
349.128	78.12
349.355	80.12
349.583	94.12
349.81	89.12
350.037	87.12
350.265	90.12
350.492	91.12
350.72	106.12
350.947	94.12
351.174	112.12
351.402	108.12
351.629	85.12
351.856	95.12
352.083	94.12
352.311	96.12
352.538	101.12
352.765	106.12
352.992	110.12
353.22	109.12
353.447	100.12
353.674	112.12
353.901	89.12
354.128	105.12
354.355	93.12
354.583	94.12
354.81	91.12
355.037	84.12
355.264	92.12
355.491	99.12
355.718	98.12
355.945	94.12
356.172	100.12
356.399	112.12
356.626	95.12
356.853	86.12
357.08	94.12
357.307	99.12
357.534	106.12
357.761	87.12
357.988	96.12
358.215	110.12
358.441	111.12
358.668	74.12
358.895	80.12
359.122	88.12
359.349	85.12
359.576	93.12
359.802	84.12
360.029	94.12
360.256	108.12
360.483	82.12
360.709	90.12
360.936	80.12
361.163	87.12
361.39	92.12
361.616	100.12
361.843	81.12
362.07	94.12
362.296	99.12
362.523	78.12
362.749	88.12
362.976	108.12
363.203	93.12
363.429	101.12
363.656	102.12
363.882	89.12
364.109	94.12
364.335	102.12
364.562	76.12
364.788	86.12
365.015	86.12
365.241	99.12
365.468	97.12
365.694	94.12
365.92	92.12
366.147	85.12
366.373	93.12
366.599	98.12
366.826	97.12
367.052	90.12
367.278	84.12
367.505	88.12
367.731	107.12
367.957	97.12
368.184	97.12
368.41	97.12
368.636	99.12
368.862	116.12
369.089	99.12
369.315	96.12
369.541	76.12
369.767	96.12
369.993	100.12
370.219	80.12
370.445	84.12
370.672	84.12
370.898	95.12
371.124	81.12
371.35	98.12
371.576	95.12
371.802	88.12
372.028	85.12
372.254	89.12
372.48	83.12
372.706	95.12
372.932	89.12
373.158	92.12
373.384	84.12
373.61	86.12
373.835	100.12
374.061	88.12
374.287	92.12
374.513	95.12
374.739	77.12
374.965	94.12
375.191	90.12
375.416	92.12
375.642	101.12
375.868	92.12
376.094	88.12
376.319	86.12
376.545	89.12
376.771	84.12
376.997	88.12
377.222	96.12
377.448	84.12
377.674	98.12
377.899	82.12
378.125	90.12
378.35	98.12
378.576	95.12
378.802	93.12
379.027	88.12
379.253	88.12
379.478	94.12
379.704	102.12
379.929	84.12
380.155	100.12
380.38	89.12
380.606	94.12
380.831	95.12
381.057	92.12
381.282	112.12
381.507	98.12
381.733	98.12
381.958	101.12
382.184	104.12
382.409	98.12
382.634	102.12
382.86	107.12
383.085	96.12
383.31	95.12
383.535	96.12
383.761	95.12
383.986	102.12
384.211	94.12
384.436	90.12
384.662	101.12
384.887	102.12
385.112	95.12
385.337	98.12
385.562	107.12
385.787	108.12
386.013	104.12
386.238	104.12
386.463	100.12
386.688	108.12
386.913	96.12
387.138	94.12
387.363	111.12
387.588	96.12
387.813	110.12
388.038	103.12
388.263	114.12
388.488	90.12
388.713	98.12
388.938	87.12
389.163	105.12
389.387	94.12
389.612	96.12
389.837	91.12
390.062	96.12
390.287	94.12
390.512	105.12
390.736	91.12
390.961	80.12
391.186	96.12
391.411	97.12
391.636	95.12
391.86	96.12
392.085	84.12
392.31	86.12
392.534	74.12
392.759	95.12
392.984	87.12
393.208	97.12
393.433	103.12
393.658	98.12
393.882	81.12
394.107	96.12
394.331	84.12
394.556	82.12
394.78	104.12
395.005	84.12
395.229	67.12
395.454	80.12
395.678	80.12
395.903	101.12
396.127	87.12
396.352	101.12
396.576	90.12
396.801	92.12
397.025	101.12
397.249	89.12
397.474	74.12
397.698	84.12
397.922	86.12
398.147	91.12
398.371	82.12
398.595	92.12
398.82	77.12
399.044	73.12
399.268	87.12
399.492	73.12
399.717	83.12
399.941	80.12
400.165	77.12
400.389	93.12
400.613	90.12
400.837	82.12
401.062	84.12
401.286	88.12
401.51	81.12
401.734	98.12
401.958	106.12
402.182	121.12
402.406	131.12
402.63	112.12
402.854	80.12
403.078	96.12
403.302	84.12
403.526	96.12
403.75	80.12
403.974	87.12
404.198	84.12
404.422	87.12
404.645	75.12
404.869	72.12
405.093	87.12
405.317	82.12
405.541	81.12
405.765	103.12
405.988	99.12
406.212	140.12
406.436	171.12
406.66	111.12
406.883	94.12
407.107	96.12
407.331	98.12
407.555	97.12
407.778	104.12
408.002	93.12
408.226	77.12
408.449	86.12
408.673	80.12
408.896	84.12
409.12	94.12
409.344	90.12
409.567	93.12
409.791	77.12
410.014	99.12
410.238	86.12
410.461	101.12
410.685	94.12
410.908	102.12
411.132	95.12
411.355	98.12
411.578	89.12
411.802	82.12
412.025	82.12
412.249	90.12
412.472	81.12
412.695	92.12
412.919	92.12
413.142	97.12
413.365	84.12
413.589	84.12
413.812	69.12
414.035	103.12
414.258	75.12
414.482	76.12
414.705	92.12
414.928	96.12
415.151	94.12
415.374	78.12
415.597	89.12
415.821	78.12
416.044	90.12
416.267	90.12
416.49	59.12
416.713	80.12
416.936	69.12
417.159	87.12
417.382	85.12
417.605	85.12
417.828	92.12
418.051	88.12
418.274	98.12
418.497	78.12
418.72	104.12
418.943	91.12
419.166	86.12
419.389	88.12
419.611	100.12
419.834	91.12
420.057	83.12
420.28	91.12
420.503	78.12
420.726	87.12
420.948	82.12
421.171	93.12
421.394	92.12
421.617	98.12
421.839	85.12
422.062	88.12
422.285	96.12
422.507	106.12
422.73	103.12
422.953	87.12
423.175	85.12
423.398	80.12
423.621	86.12
423.843	89.12
424.066	86.12
424.288	81.12
424.511	86.12
424.733	87.12
424.956	93.12
425.178	111.12
425.401	90.12
425.623	99.12
425.846	95.12
426.068	88.12
426.291	85.12
426.513	82.12
426.735	88.12
426.958	92.12
427.18	105.12
427.402	107.12
427.625	145.12
427.847	117.12
428.069	99.12
428.292	89.12
428.514	84.12
428.736	78.12
428.958	90.12
429.181	86.12
429.403	81.12
429.625	81.12
429.847	79.12
430.069	88.12
430.292	104.12
430.514	93.12
430.736	90.12
430.958	93.12
431.18	93.12
431.402	79.12
431.624	70.12
431.846	75.12
432.068	98.12
432.29	80.12
432.512	92.12
432.734	77.12
432.956	89.12
433.178	96.12
433.4	83.12
433.622	71.12
433.844	89.12
434.066	79.12
434.287	91.12
434.509	83.12
434.731	80.12
434.953	80.12
435.175	100.12
435.397	90.12
435.618	80.12
435.84	86.12
436.062	99.12
436.284	110.12
436.505	86.12
436.727	87.12
436.949	86.12
437.17	89.12
437.392	84.12
437.614	73.12
437.835	90.12
438.057	106.12
438.278	96.12
438.5	101.12
438.721	95.12
438.943	98.12
439.165	84.12
439.386	84.12
439.608	89.12
439.829	85.12
440.05	92.12
440.272	115.12
440.493	102.12
440.715	78.12
440.936	81.12
441.158	84.12
441.379	89.12
441.6	86.12
441.822	88.12
442.043	83.12
442.264	111.12
442.486	85.12
442.707	96.12
442.928	103.12
443.149	126.12
443.371	113.12
443.592	101.12
443.813	116.12
444.034	101.12
444.255	80.12
444.476	88.12
444.698	77.12
444.919	88.12
445.14	125.12
445.361	100.12
445.582	100.12
445.803	121.12
446.024	123.12
446.245	116.12
446.466	106.12
446.687	84.12
446.908	85.12
447.129	93.12
447.35	84.12
447.571	87.12
447.792	96.12
448.013	92.12
448.234	98.12
448.455	93.12
448.675	102.12
448.896	104.12
449.117	94.12
449.338	94.12
449.559	106.12
449.779	132.12
450	93.12
450.221	94.12
450.442	89.12
450.662	101.12
450.883	103.12
451.104	88.12
451.324	103.12
451.545	75.12
451.766	92.12
451.986	71.12
452.207	85.12
452.428	84.12
452.648	90.12
452.869	94.12
453.089	101.12
453.31	99.12
453.53	88.12
453.751	105.12
453.971	89.12
454.192	87.12
454.412	75.12
454.633	88.12
454.853	88.12
455.073	80.12
455.294	64.12
455.514	72.12
455.734	79.12
455.955	68.12
456.175	85.12
456.395	86.12
456.616	90.12
456.836	72.12
457.056	80.12
457.276	80.12
457.497	69.12
457.717	86.12
457.937	89.12
458.157	99.12
458.377	95.12
458.598	117.12
458.818	135.12
459.038	121.12
459.258	87.12
459.478	86.12
459.698	90.12
459.918	73.12
460.138	88.12
460.358	79.12
460.578	97.12
460.798	78.12
461.018	80.12
461.238	81.12
461.458	72.12
461.678	88.12
461.898	90.12
462.118	77.12
462.338	85.12
462.558	94.12
462.777	81.12
462.997	91.12
463.217	89.12
463.437	80.12
463.657	84.12
463.876	88.12
464.096	79.12
464.316	84.12
464.536	94.12
464.755	96.12
464.975	94.12
465.195	138.12
465.414	125.12
465.634	84.12
465.854	78.12
466.073	76.12
466.293	94.12
466.512	88.12
466.732	67.12
466.951	84.12
467.171	83.12
467.391	83.12
467.61	106.12
467.829	104.12
468.049	103.12
468.268	98.12
468.488	92.12
468.707	89.12
468.927	84.12
469.146	78.12
469.365	86.12
469.585	89.12
469.804	91.12
470.023	90.12
470.243	86.12
470.462	93.12
470.681	103.12
470.901	87.12
471.12	85.12
471.339	86.12
471.558	86.12
471.777	97.12
471.997	79.12
472.216	82.12
472.435	83.12
472.654	90.12
472.873	89.12
473.092	89.12
473.311	88.12
473.53	84.12
473.749	85.12
473.968	89.12
474.187	99.12
474.406	94.12
474.625	84.12
474.844	88.12
475.063	72.12
475.282	88.12
475.501	86.12
475.72	71.12
475.939	89.12
476.158	91.12
476.377	82.12
476.596	80.12
476.814	95.12
477.033	83.12
477.252	92.12
477.471	88.12
477.69	93.12
477.908	98.12
478.127	82.12
478.346	68.12
478.564	87.12
478.783	100.12
479.002	83.12
479.22	89.12
479.439	85.12
479.658	96.12
479.876	78.12
480.095	90.12
480.313	91.12
480.532	84.12
480.751	85.12
480.969	85.12
481.188	94.12
481.406	101.12
481.624	89.12
481.843	85.12
482.061	78.12
482.28	90.12
482.498	77.12
482.717	84.12
482.935	77.12
483.153	82.12
483.372	87.12
483.59	84.12
483.808	86.12
484.027	92.12
484.245	90.12
484.463	101.12
484.681	90.12
484.9	87.12
485.118	98.12
485.336	77.12
485.554	109.12
485.772	102.12
485.99	98.12
486.209	97.12
486.427	98.12
486.645	109.12
486.863	98.12
487.081	103.12
487.299	103.12
487.517	77.12
487.735	79.12
487.953	101.12
488.171	97.12
488.389	96.12
488.607	111.12
488.825	101.12
489.043	86.12
489.261	97.12
489.479	85.12
489.696	87.12
489.914	78.12
490.132	70.12
490.35	80.12
490.568	78.12
490.786	92.12
491.003	95.12
491.221	92.12
491.439	86.12
491.657	93.12
491.874	97.12
492.092	92.12
492.31	85.12
492.527	88.12
492.745	100.12
492.963	92.12
493.18	97.12
493.398	81.12
493.615	97.12
493.833	92.12
494.05	87.12
494.268	89.12
494.485	82.12
494.703	77.12
494.92	98.12
495.138	98.12
495.355	83.12
495.573	100.12
495.79	87.12
496.008	82.12
496.225	90.12
496.442	81.12
496.66	93.12
496.877	84.12
497.094	78.12
497.312	93.12
497.529	83.12
497.746	83.12
497.963	83.12
498.181	84.12
498.398	80.12
498.615	112.12
498.832	93.12
499.049	91.12
499.267	82.12
499.484	80.12
499.701	83.12
499.918	84.12
500.135	79.12
500.352	91.12
500.569	94.12
500.786	94.12
501.003	72.12
501.22	87.12
501.437	86.12
501.654	92.12
501.871	89.12
502.088	81.12
502.305	86.12
502.522	102.12
502.739	102.12
502.956	80.12
503.172	103.12
503.389	81.12
503.606	97.12
503.823	94.12
504.04	93.12
504.256	96.12
504.473	85.12
504.69	88.12
504.907	88.12
505.123	90.12
505.34	87.12
505.557	89.12
505.773	82.12
505.99	97.12
506.207	92.12
506.423	93.12
506.64	92.12
506.856	90.12
507.073	92.12
507.289	80.12
507.506	84.12
507.722	102.12
507.939	90.12
508.155	88.12
508.372	94.12
508.588	89.12
508.805	94.12
509.021	97.12
509.238	84.12
509.454	104.12
509.67	101.12
509.887	92.12
510.103	112.12
510.319	174.12
510.536	554.12
510.752	1669.12
510.968	478.12
511.184	145.12
511.401	107.12
511.617	115.12
511.833	94.12
512.049	102.12
512.265	74.12
512.481	90.12
512.698	78.12
512.914	92.12
513.13	97.12
513.346	95.12
513.562	75.12
513.778	82.12
513.994	87.12
514.21	102.12
514.426	101.12
514.642	97.12
514.858	113.12
515.074	135.12
515.29	327.12
515.506	1032.12
515.721	376.12
515.937	122.12
516.153	93.12
516.369	97.12
516.585	98.12
516.801	97.12
