Data from Uncirc_1987_H10_HRD10591_00022.txt Node
Date: Wed Jan 03 12:08:52 EST 2024
User: Yrep
Spectrometer: HR+D1059
Trigger mode: 1
Integration Time (sec): 1.000000E-1
Scans to average: 1
Electric dark correction enabled: true
Nonlinearity correction enabled: false
Boxcar width: 0
XAxis mode: Wavelengths
Number of Pixels in Spectrum: 2048
>>>>>Begin Spectral Data<<<<<
223.165	-21
223.4	-21
223.635	-21
223.869	-25
224.104	-2
224.338	-27
224.573	-24
224.808	-13
225.042	-3
225.277	-5
225.511	-7
225.746	5
225.98	10
226.215	14
226.449	17
226.683	24
226.918	26
227.152	31
227.387	32
227.621	52
227.856	46
228.09	55
228.324	39
228.559	43
228.793	145
229.027	403
229.262	512
229.496	572
229.73	736
229.964	743
230.199	522
230.433	474
230.667	445
230.901	436
231.136	436
231.37	423
231.604	441
231.838	454
232.072	464
232.306	449
232.541	445
232.775	465
233.009	471
233.243	465
233.477	485
233.711	483
233.945	508
234.179	497
234.413	502
234.647	496
234.881	496
235.115	487
235.349	538
235.583	558
235.817	581
236.051	601
236.285	597
236.519	624
236.753	672
236.987	834
237.221	1244
237.455	1405
237.689	841
237.922	739
238.156	691
238.39	647
238.624	634
238.858	656
239.091	653
239.325	624
239.559	650
239.793	702
240.027	730
240.26	876
240.494	894
240.728	894
240.961	831
241.195	785
241.429	789
241.662	768
241.896	795
242.13	770
242.363	768
242.597	774
242.83	826
243.064	814
243.298	830
243.531	822
243.765	826
243.998	834
244.232	819
244.465	889
244.699	903
244.932	886
245.166	887
245.399	882
245.633	856
245.866	928
246.099	922
246.333	902
246.566	946
246.8	962
247.033	976
247.266	1041
247.5	1067
247.733	1121
247.966	1141
248.2	1103
248.433	1157
248.666	1167
248.899	1276
249.133	1382
249.366	1381
249.599	1250
249.832	1175
250.066	1180
250.299	1183
250.532	1262
250.765	1440
250.998	1593
251.231	1599
251.465	1437
251.698	1404
251.931	1349
252.164	1354
252.397	1393
252.63	1416
252.863	1490
253.096	1621
253.329	1675
253.562	1584
253.795	1472
254.028	1556
254.261	1552
254.494	1717
254.727	1984
254.96	2132
255.193	1920
255.426	1682
255.659	1580
255.892	1544
256.124	1505
256.357	1509
256.59	1512
256.823	1472
257.056	1492
257.289	1485
257.521	1456
257.754	1511
257.987	1489
258.22	1524
258.452	1491
258.685	1507
258.918	1553
259.151	1560
259.383	1641
259.616	1634
259.849	1695
260.081	1857
260.314	1993
260.547	1943
260.779	1818
261.012	1729
261.244	1638
261.477	1658
261.71	1633
261.942	1694
262.175	1746
262.407	1670
262.64	1647
262.872	1621
263.105	1583
263.337	1630
263.57	1593
263.802	1658
264.035	1660
264.267	1623
264.499	1663
264.732	1691
264.964	1681
265.197	1683
265.429	1712
265.661	1670
265.894	1674
266.126	1683
266.358	1766
266.591	1761
266.823	1839
267.055	1794
267.287	1837
267.52	1809
267.752	1778
267.984	1837
268.216	1836
268.448	1892
268.681	1983
268.913	2069
269.145	2177
269.377	2236
269.609	2192
269.841	2165
270.073	2262
270.306	2458
270.538	2656
270.77	2529
271.002	2433
271.234	2374
271.466	2487
271.698	2605
271.93	2600
272.162	2603
272.394	2556
272.626	2418
272.858	2362
273.09	2213
273.322	2214
273.553	2175
273.785	2213
274.017	2188
274.249	2194
274.481	2230
274.713	2176
274.945	2174
275.176	2211
275.408	2184
275.64	2206
275.872	2214
276.104	2206
276.335	2260
276.567	2296
276.799	2395
277.031	2602
277.262	2694
277.494	2601
277.726	2536
277.957	2396
278.189	2357
278.421	2301
278.652	2293
278.884	2310
279.115	2305
279.347	2344
279.579	2302
279.81	2318
280.042	2304
280.273	2301
280.505	2329
280.736	2328
280.968	2386
281.199	2369
281.431	2332
281.662	2359
281.894	2361
282.125	2421
282.356	2596
282.588	2684
282.819	2566
283.051	2469
283.282	2434
283.513	2501
283.745	2538
283.976	2551
284.207	2531
284.439	2558
284.67	2547
284.901	2549
285.132	2577
285.364	2540
285.595	2601
285.826	2583
286.057	2654
286.288	2566
286.52	2644
286.751	2659
286.982	2596
287.213	2609
287.444	2731
287.675	2734
287.906	2788
288.138	2812
288.369	2807
288.6	2819
288.831	2738
289.062	2762
289.293	2776
289.524	2759
289.755	2748
289.986	2742
290.217	2699
290.448	2744
290.679	2748
290.91	2732
291.141	2740
291.371	2730
291.602	2718
291.833	2738
292.064	2776
292.295	2739
292.526	2760
292.757	2720
292.987	2679
293.218	2685
293.449	2793
293.68	2768
293.91	2746
294.141	2773
294.372	2720
294.603	2762
294.833	2766
295.064	2817
295.295	2819
295.525	2778
295.756	2887
295.987	2897
296.217	3096
296.448	3028
296.679	2888
296.909	2908
297.14	2879
297.37	2915
297.601	2957
297.831	2996
298.062	2968
298.292	2985
298.523	3031
298.753	3035
298.984	2983
299.214	3005
299.445	2988
299.675	3005
299.905	3058
300.136	3061
300.366	3034
300.597	3075
300.827	3137
301.057	3208
301.288	3266
301.518	3230
301.748	3213
301.979	3287
302.209	3240
302.439	3257
302.669	3197
302.9	3215
303.13	3182
303.36	3271
303.59	3293
303.82	3282
304.051	3259
304.281	3273
304.511	3157
304.741	3207
304.971	3176
305.201	3191
305.431	3222
305.661	3116
305.891	3171
306.121	3215
306.352	3277
306.582	3188
306.812	3128
307.042	3141
307.272	3145
307.502	3130
307.731	3234
307.961	3193
308.191	3188
308.421	3131
308.651	3187
308.881	3256
309.111	3215
309.341	3255
309.571	3298
309.8	3360
310.03	3375
310.26	3406
310.49	3432
310.72	3500
310.949	3536
311.179	3547
311.409	3492
311.639	3451
311.868	3497
312.098	3528
312.328	3604
312.557	3684
312.787	3755
313.017	3660
313.246	3581
313.476	3488
313.706	3596
313.935	3680
314.165	3772
314.394	3750
314.624	3785
314.853	3666
315.083	3622
315.312	3596
315.542	3573
315.771	3562
316.001	3536
316.23	3550
316.46	3575
316.689	3570
316.919	3566
317.148	3588
317.377	3635
317.607	3612
317.836	3579
318.065	3516
318.295	3528
318.524	3540
318.753	3492
318.983	3556
319.212	3523
319.441	3576
319.67	3606
319.9	3533
320.129	3554
320.358	3552
320.587	3590
320.816	3652
321.046	3644
321.275	3654
321.504	3647
321.733	3707
321.962	3744
322.191	3876
322.42	3865
322.649	3956
322.878	4036
323.108	4012
323.337	4282
323.566	4387
323.795	4634
324.024	5149
324.253	6536
324.482	9686
324.71	14270
324.939	15626
325.168	11036
325.397	6115
325.626	4946
325.855	4613
326.084	4532
326.313	4543
326.542	4590
326.77	5128
326.999	6445
327.228	9126
327.457	13292
327.686	12516
327.914	6719
328.143	5427
328.372	5055
328.6	4811
328.829	4860
329.058	4972
329.287	4925
329.515	4575
329.744	4424
329.972	4537
330.201	4570
330.43	4766
330.658	4976
330.887	5225
331.115	4943
331.344	4669
331.572	4613
331.801	4700
332.03	4753
332.258	4780
332.486	4759
332.715	4838
332.943	4966
333.172	5158
333.4	5213
333.629	5295
333.857	5300
334.085	5365
334.314	5211
334.542	5116
334.771	5144
334.999	5028
335.227	4990
335.455	4905
335.684	4834
335.912	4846
336.14	4784
336.369	4795
336.597	4790
336.825	4746
337.053	4677
337.281	4585
337.51	4574
337.738	4569
337.966	4505
338.194	4538
338.422	4365
338.65	4351
338.878	4388
339.106	4428
339.334	4337
339.562	4242
339.79	4229
340.018	4222
340.246	4238
340.474	4244
340.702	4149
340.93	4199
341.158	4210
341.386	4198
341.614	4242
341.842	4182
342.07	4165
342.298	4140
342.526	4079
342.754	4112
342.981	4165
343.209	4265
343.437	4409
343.665	4764
343.893	4942
344.12	4968
344.348	4758
344.576	4587
344.804	4526
345.031	4450
345.259	4357
345.487	4230
345.714	4164
345.942	4053
346.17	4036
346.397	4137
346.625	4024
346.853	3978
347.08	4035
347.308	4096
347.535	4078
347.763	4186
347.99	4026
348.218	4118
348.445	4183
348.673	3961
348.9	4020
349.128	3956
349.355	3855
349.583	3976
349.81	3882
350.037	3912
350.265	3869
350.492	3918
350.72	3926
350.947	3939
351.174	3997
351.402	4032
351.629	3943
351.856	3960
352.083	4039
352.311	4029
352.538	3953
352.765	4003
352.992	3957
353.22	3937
353.447	3866
353.674	3806
353.901	3769
354.128	3843
354.355	3804
354.583	3824
354.81	3835
355.037	3821
355.264	3809
355.491	3794
355.718	3824
355.945	3840
356.172	3811
356.399	3777
356.626	3834
356.853	3772
357.08	3743
357.307	3793
357.534	3757
357.761	3849
357.988	3878
358.215	3784
358.441	3804
358.668	3890
358.895	3842
359.122	3908
359.349	4000
359.576	4117
359.802	4213
360.029	4305
360.256	4298
360.483	4148
360.709	4029
360.936	4008
361.163	3988
361.39	3982
361.616	4010
361.843	3998
362.07	4018
362.296	3983
362.523	3973
362.749	4023
362.976	3880
363.203	3926
363.429	3889
363.656	3857
363.882	3868
364.109	3818
364.335	3874
364.562	3860
364.788	3919
365.015	3905
365.241	3863
365.468	3904
365.694	3974
365.92	3900
366.147	3905
366.373	3868
366.599	3836
366.826	3794
367.052	3817
367.278	3870
367.505	3898
367.731	3898
367.957	3931
368.184	3947
368.41	3969
368.636	4052
368.862	4072
369.089	3988
369.315	3960
369.541	3997
369.767	3939
369.993	4017
370.219	4076
370.445	4067
370.672	4023
370.898	4039
371.124	4156
371.35	4168
371.576	4154
371.802	4111
372.028	4095
372.254	4095
372.48	4173
372.706	4244
372.932	4284
373.158	4286
373.384	4215
373.61	4152
373.835	4170
374.061	4207
374.287	4276
374.513	4309
374.739	4445
374.965	4516
375.191	4579
375.416	4528
375.642	4326
375.868	4373
376.094	4364
376.319	4245
376.545	4282
376.771	4181
376.997	4201
377.222	4176
377.448	4165
377.674	4181
377.899	4119
378.125	4116
378.35	4076
378.576	4075
378.802	4112
379.027	4156
379.253	4136
379.478	4102
379.704	4130
379.929	4120
380.155	4132
380.38	4133
380.606	4182
380.831	4152
381.057	4264
381.282	4184
381.507	4139
381.733	4186
381.958	4218
382.184	4283
382.409	4363
382.634	4406
382.86	4368
383.085	4430
383.31	4528
383.535	4574
383.761	4646
383.986	4690
384.211	4826
384.436	4857
384.662	4916
384.887	4999
385.112	4935
385.337	5056
385.562	4983
385.787	5069
386.013	5080
386.238	5118
386.463	5093
386.688	5109
386.913	4969
387.138	4966
387.363	4944
387.588	4924
387.813	4966
388.038	4936
388.263	4983
388.488	4956
388.713	4958
388.938	5034
389.163	4860
389.387	4974
389.612	4935
389.837	4884
390.062	4880
390.287	4886
390.512	4871
390.736	4985
390.961	5041
391.186	5181
391.411	5284
391.636	5388
391.86	5560
392.085	5620
392.31	5500
392.534	5378
392.759	5312
392.984	5186
393.208	5245
393.433	5191
393.658	5199
393.882	5173
394.107	5127
394.331	5261
394.556	5163
394.78	5276
395.005	5299
395.229	5297
395.454	5569
395.678	5651
395.903	5614
396.127	5596
396.352	5412
396.576	5300
396.801	5241
397.025	5318
397.249	5472
397.474	5554
397.698	5628
397.922	5695
398.147	5800
398.371	5877
398.595	6092
398.82	6375
399.044	6916
399.268	7670
399.492	8572
399.717	9329
399.941	9100
400.165	8457
400.389	7806
400.613	6944
400.837	6522
401.062	6433
401.286	6369
401.51	6288
401.734	6287
401.958	6375
402.182	6406
402.406	6614
402.63	6640
402.854	6755
403.078	6844
403.302	6967
403.526	7052
403.75	7156
403.974	7028
404.198	7078
404.422	7228
404.645	7075
404.869	7050
405.093	7192
405.317	7211
405.541	7238
405.765	6973
405.988	6986
406.212	7092
406.436	7238
406.66	7467
406.883	7417
407.107	7922
407.331	8492
407.555	8999
407.778	8585
408.002	7961
408.226	7638
408.449	7425
408.673	7312
408.896	7464
409.12	7628
409.344	7249
409.567	6940
409.791	6901
410.014	6802
410.238	6766
410.461	6769
410.685	6767
410.908	6860
411.132	7066
411.355	7163
411.578	6783
411.802	6562
412.025	6546
412.249	6541
412.472	6534
412.695	6361
412.919	6276
413.142	6227
413.365	6186
413.589	6272
413.812	6216
414.035	6096
414.258	6108
414.482	6257
414.705	6286
414.928	6168
415.151	6202
415.374	6142
415.597	6092
415.821	6031
416.044	6064
416.267	6052
416.49	5988
416.713	5965
416.936	6079
417.159	6035
417.382	6084
417.605	6066
417.828	6269
418.051	6375
418.274	6309
418.497	6197
418.72	6285
418.943	6288
419.166	6658
419.389	7054
419.611	6890
419.834	6624
420.057	6506
420.28	6409
420.503	6215
420.726	6229
420.948	6389
421.171	6824
421.394	6743
421.617	6333
421.839	6289
422.062	6326
422.285	6582
422.507	7191
422.73	7575
422.953	7061
423.175	6738
423.398	6713
423.621	6705
423.843	7081
424.066	6988
424.288	6866
424.511	7080
424.733	7457
424.956	7918
425.178	7490
425.401	7519
425.623	7419
425.846	6556
426.068	6369
426.291	6281
426.513	6302
426.735	6398
426.958	6792
427.18	7434
427.402	8578
427.625	8521
427.847	7192
428.069	6382
428.292	6151
428.514	5860
428.736	5757
428.958	5767
429.181	5593
429.403	5628
429.625	5774
429.847	6008
430.069	6530
430.292	6150
430.514	5611
430.736	5588
430.958	5533
431.18	5447
431.402	5494
431.624	5422
431.846	5558
432.068	5494
432.29	5616
432.512	5493
432.734	5649
432.956	5582
433.178	5582
433.4	5640
433.622	5541
433.844	5627
434.066	5608
434.287	5678
434.509	5962
434.731	6083
434.953	6216
435.175	6386
435.397	6482
435.618	6367
435.84	6728
436.062	7441
436.284	7417
436.505	6292
436.727	6024
436.949	5782
437.17	5599
437.392	5547
437.614	5756
437.835	6128
438.057	6952
438.278	7538
438.5	7553
438.721	8312
438.943	7232
439.165	6105
439.386	5914
439.608	5937
439.829	6083
440.05	6388
440.272	6705
440.493	6192
440.715	5911
440.936	5856
441.158	5928
441.379	6086
441.6	6326
441.822	6583
442.043	6926
442.264	7701
442.486	7419
442.707	6564
442.928	6465
443.149	6618
443.371	6780
443.592	7380
443.813	8321
444.034	8268
444.255	7244
444.476	7109
444.698	7282
444.919	7351
445.14	7171
445.361	6908
445.582	7072
445.803	7544
446.024	8201
446.245	7832
446.466	6982
446.687	6254
446.908	5864
447.129	5660
447.35	5453
447.571	5461
447.792	5282
448.013	5435
448.234	5603
448.455	6228
448.675	7475
448.896	7768
449.117	6496
449.338	6599
449.559	7856
449.779	8030
450	6182
450.221	5481
450.442	5328
450.662	5262
450.883	5290
451.104	5406
451.324	5188
451.545	5095
451.766	5076
451.986	4898
452.207	4888
452.428	4854
452.648	4942
452.869	4920
453.089	4933
453.31	5065
453.53	4928
453.751	4873
453.971	4804
454.192	4983
454.412	4740
454.633	4784
454.853	4725
455.073	4791
455.294	5134
455.514	5630
455.734	5084
455.955	4643
456.175	4558
456.395	4504
456.616	4503
456.836	4547
457.056	4469
457.276	4366
457.497	4581
457.717	4506
457.937	4636
458.157	4696
458.377	4780
458.598	5061
458.818	5654
459.038	6371
459.258	6323
459.478	5653
459.698	5524
459.918	5631
460.138	5836
460.358	6101
460.578	6091
460.798	6119
461.018	6140
461.238	5991
461.458	5995
461.678	5872
461.898	6112
462.118	6172
462.338	6431
462.558	6675
462.777	6850
462.997	7485
463.217	7921
463.437	7611
463.657	7142
463.876	6945
464.096	6940
464.316	6916
464.536	7036
464.755	6653
464.975	6602
465.195	6574
465.414	6585
465.634	5871
465.854	5660
466.073	5477
466.293	5269
466.512	5073
466.732	4993
466.951	4983
467.171	5036
467.391	5072
467.61	5166
467.829	5033
468.049	4999
468.268	4877
468.488	4772
468.707	4730
468.927	4798
469.146	4837
469.365	4895
469.585	4886
469.804	5098
470.023	5252
470.243	5189
470.462	5295
470.681	5369
470.901	5310
471.12	5137
471.339	5100
471.558	5087
471.777	5002
471.997	4984
472.216	4857
472.435	4908
472.654	4710
472.873	4742
473.092	4788
473.311	4812
473.53	4833
473.749	4916
473.968	5359
474.187	6322
474.406	5825
474.625	5101
474.844	4899
475.063	4774
475.282	4849
475.501	4930
475.72	4917
475.939	4930
476.158	4975
476.377	5055
476.596	4988
476.814	5149
477.033	5162
477.252	5229
477.471	5318
477.69	5443
477.908	5533
478.127	5685
478.346	5738
478.564	5841
478.783	5929
479.002	6098
479.22	6098
479.439	6163
479.658	6188
479.876	6334
480.095	6399
480.313	6827
480.532	6697
480.751	6656
480.969	6488
481.188	6322
481.406	6146
481.624	5931
481.843	5920
482.061	5729
482.28	5678
482.498	5625
482.717	5657
482.935	5645
483.153	5564
483.372	5666
483.59	5588
483.808	5676
484.027	5580
484.245	5658
484.463	5785
484.681	5857
484.9	5870
485.118	5831
485.336	5937
485.554	6025
485.772	5982
485.99	5934
486.209	6089
486.427	6138
486.645	6116
486.863	6173
487.081	6116
487.299	6089
487.517	6042
487.735	6054
487.953	6053
488.171	6004
488.389	5976
488.607	5950
488.825	5978
489.043	6014
489.261	6163
489.479	6064
489.696	6157
489.914	6188
490.132	6213
490.35	6319
490.568	6312
490.786	6484
491.003	6469
491.221	6530
491.439	6639
491.657	6734
491.874	6709
492.092	6749
492.31	6822
492.527	6796
492.745	6808
492.963	6912
493.18	7006
493.398	7052
493.615	7164
493.833	7124
494.05	7138
494.268	7108
494.485	7131
494.703	7137
494.92	7150
495.138	7112
495.355	7073
495.573	7119
495.79	7038
496.008	7268
496.225	7140
496.442	7185
496.66	7216
496.877	7315
497.094	7391
497.312	7549
497.529	7717
497.746	7874
497.963	8126
498.181	8630
498.398	8742
498.615	9120
498.832	9617
499.049	10165
499.267	10768
499.484	11389
499.701	12361
499.918	13150
500.135	14093
500.352	14604
500.569	14792
500.786	14613
501.003	14154
501.22	13465
501.437	12654
501.654	11709
501.871	11126
502.088	10368
502.305	9840
502.522	9288
502.739	8987
502.956	8560
503.172	8251
503.389	7969
503.606	7850
503.823	7780
504.04	7776
504.256	7743
504.473	8063
504.69	8024
504.907	7689
505.123	7308
505.34	7195
505.557	6863
505.773	6850
505.99	6753
506.207	6713
506.423	6659
506.64	6544
506.856	6472
507.073	6369
507.289	6415
507.506	6350
507.722	6376
507.939	6384
508.155	6154
508.372	6110
508.588	6051
508.805	6010
509.021	6040
509.238	6172
509.454	6196
509.67	6167
509.887	6064
510.103	5942
510.319	6097
510.536	7149
510.752	10230
510.968	6942
511.184	5820
511.401	5783
511.617	5679
511.833	5655
512.049	5570
512.265	5630
512.481	5647
512.698	5544
512.914	5597
513.13	5561
513.346	5593
513.562	5626
513.778	5581
513.994	5608
514.21	5767
514.426	5973
514.642	6127
514.858	6262
515.074	6564
515.29	7748
515.506	9904
515.721	7472
515.937	6463
516.153	6375
516.369	6328
516.585	6427
516.801	6595
517.016	6684
517.232	6933
517.448	7088
517.664	7326
517.879	7281
518.095	7198
518.311	7153
518.527	6906
518.742	6621
518.958	6372
519.173	6151
519.389	6076
519.605	6003
519.82	5817
520.036	5964
520.251	6040
520.467	6097
520.682	6009
520.898	6023
521.113	6024
521.329	6244
521.544	6800
521.76	8312
521.975	12384
522.19	9536
522.406	6413
522.621	5765
522.836	5492
523.052	5265
523.267	5114
523.482	5098
523.698	5035
523.913	5039
524.128	4963
524.343	4870
524.559	4809
524.774	4840
524.989	4793
525.204	4886
525.419	4793
525.634	4770
525.849	4677
526.064	4732
526.28	4645
526.495	4602
526.71	4638
526.925	4518
527.14	4601
527.355	4627
527.57	4560
527.785	4590
527.999	4589
528.214	4600
528.429	4601
528.644	4564
528.859	4554
529.074	4622
529.289	4780
529.503	5150
529.718	4937
529.933	4718
530.148	4653
530.363	4560
530.577	4558
530.792	4575
531.007	4521
531.221	4579
531.436	4541
531.651	4539
531.865	4517
532.08	4526
532.295	4547
532.509	4494
532.724	4489
532.938	4465
533.153	4504
533.367	4483
533.582	4548
533.796	4438
534.011	4432
534.225	4469
534.44	4342
534.654	4390
534.868	4362
535.083	4386
535.297	4380
535.511	4425
535.726	4374
535.94	4379
536.154	4320
536.369	4216
536.583	4248
536.797	4260
537.011	4231
537.225	4144
537.44	4132
537.654	4117
537.868	4148
538.082	4210
538.296	4190
538.51	4185
538.724	4124
538.938	4070
539.153	4092
539.367	4115
539.581	4131
539.795	4133
540.009	4041
540.222	4037
540.436	4103
540.65	4124
540.864	4116
541.078	4166
541.292	4109
541.506	4012
541.72	4044
541.934	3951
542.147	3930
