Data from Uncirc_1987_H10_HRD10591_00069.txt Node
Date: Wed Jan 03 12:09:02 EST 2024
User: Yrep
Spectrometer: HR+D1059
Trigger mode: 1
Integration Time (sec): 1.000000E-1
Scans to average: 1
Electric dark correction enabled: true
Nonlinearity correction enabled: false
Boxcar width: 0
XAxis mode: Wavelengths
Number of Pixels in Spectrum: 2048
>>>>>Begin Spectral Data<<<<<
223.165	-17.75
223.4	-17.75
223.635	-17.75
223.869	-12.75
224.104	-26.75
224.338	-20.75
224.573	-32.75
224.808	-10.75
225.042	-7.75
225.277	-1.75
225.511	-3.75
225.746	8.25
225.98	2.25
226.215	1.25
226.449	23.25
226.683	22.25
226.918	35.25
227.152	42.25
227.387	26.25
227.621	39.25
227.856	39.25
228.09	48.25
228.324	52.25
228.559	50.25
228.793	46.25
229.027	54.25
229.262	64.25
229.496	65.25
229.73	80.25
229.964	86.25
230.199	61.25
230.433	66.25
230.667	75.25
230.901	68.25
231.136	63.25
231.37	77.25
231.604	68.25
231.838	84.25
232.072	88.25
232.306	87.25
232.541	84.25
232.775	82.25
233.009	84.25
233.243	88.25
233.477	66.25
233.711	98.25
233.945	78.25
234.179	79.25
234.413	80.25
234.647	77.25
234.881	78.25
235.115	75.25
235.349	87.25
235.583	65.25
235.817	63.25
236.051	84.25
236.285	76.25
236.519	66.25
236.753	74.25
236.987	89.25
237.221	87.25
237.455	82.25
237.689	88.25
237.922	76.25
238.156	80.25
238.39	79.25
238.624	67.25
238.858	62.25
239.091	65.25
239.325	80.25
239.559	82.25
239.793	67.25
240.027	76.25
240.26	64.25
240.494	61.25
240.728	70.25
240.961	82.25
241.195	75.25
241.429	70.25
241.662	63.25
241.896	57.25
242.13	87.25
242.363	74.25
242.597	59.25
242.83	58.25
243.064	63.25
243.298	79.25
243.531	82.25
243.765	83.25
243.998	76.25
244.232	89.25
244.465	82.25
244.699	78.25
244.932	91.25
245.166	83.25
245.399	85.25
245.633	69.25
245.866	68.25
246.099	69.25
246.333	59.25
246.566	73.25
246.8	65.25
247.033	80.25
247.266	81.25
247.5	79.25
247.733	77.25
247.966	75.25
248.2	75.25
248.433	63.25
248.666	77.25
248.899	74.25
249.133	94.25
249.366	98.25
249.599	95.25
249.832	68.25
250.066	53.25
250.299	80.25
250.532	64.25
250.765	74.25
250.998	73.25
251.231	84.25
251.465	80.25
251.698	78.25
251.931	75.25
252.164	76.25
252.397	63.25
252.63	70.25
252.863	71.25
253.096	79.25
253.329	73.25
253.562	85.25
253.795	84.25
254.028	77.25
254.261	86.25
254.494	73.25
254.727	91.25
254.96	86.25
255.193	78.25
255.426	85.25
255.659	64.25
255.892	82.25
256.124	80.25
256.357	85.25
256.59	86.25
256.823	78.25
257.056	87.25
257.289	78.25
257.521	86.25
257.754	87.25
257.987	75.25
258.22	92.25
258.452	74.25
258.685	76.25
258.918	82.25
259.151	70.25
259.383	90.25
259.616	70.25
259.849	83.25
260.081	87.25
260.314	78.25
260.547	78.25
260.779	80.25
261.012	89.25
261.244	67.25
261.477	94.25
261.71	82.25
261.942	119.25
262.175	111.25
262.407	84.25
262.64	87.25
262.872	92.25
263.105	79.25
263.337	87.25
263.57	82.25
263.802	83.25
264.035	92.25
264.267	83.25
264.499	91.25
264.732	70.25
264.964	71.25
265.197	80.25
265.429	69.25
265.661	82.25
265.894	91.25
266.126	84.25
266.358	85.25
266.591	76.25
266.823	78.25
267.055	68.25
267.287	86.25
267.52	94.25
267.752	86.25
267.984	74.25
268.216	84.25
268.448	71.25
268.681	74.25
268.913	76.25
269.145	92.25
269.377	80.25
269.609	85.25
269.841	77.25
270.073	76.25
270.306	89.25
270.538	80.25
270.77	78.25
271.002	84.25
271.234	97.25
271.466	88.25
271.698	80.25
271.93	77.25
272.162	78.25
272.394	95.25
272.626	77.25
272.858	92.25
273.09	94.25
273.322	80.25
273.553	84.25
273.785	78.25
274.017	82.25
274.249	79.25
274.481	87.25
274.713	68.25
274.945	85.25
275.176	68.25
275.408	91.25
275.64	81.25
275.872	72.25
276.104	86.25
276.335	95.25
276.567	84.25
276.799	87.25
277.031	87.25
277.262	88.25
277.494	83.25
277.726	90.25
277.957	93.25
278.189	71.25
278.421	88.25
278.652	76.25
278.884	87.25
279.115	77.25
279.347	78.25
279.579	91.25
279.81	71.25
280.042	87.25
280.273	94.25
280.505	71.25
280.736	79.25
280.968	68.25
281.199	78.25
281.431	80.25
281.662	91.25
281.894	86.25
282.125	98.25
282.356	113.25
282.588	135.25
282.819	108.25
283.051	93.25
283.282	91.25
283.513	79.25
283.745	86.25
283.976	80.25
284.207	86.25
284.439	88.25
284.67	85.25
284.901	89.25
285.132	88.25
285.364	83.25
285.595	85.25
285.826	90.25
286.057	88.25
286.288	82.25
286.52	91.25
286.751	83.25
286.982	72.25
287.213	82.25
287.444	90.25
287.675	87.25
287.906	81.25
288.138	75.25
288.369	100.25
288.6	86.25
288.831	87.25
289.062	89.25
289.293	87.25
289.524	81.25
289.755	90.25
289.986	82.25
290.217	88.25
290.448	93.25
290.679	80.25
290.91	69.25
291.141	74.25
291.371	82.25
291.602	103.25
291.833	89.25
292.064	83.25
292.295	86.25
292.526	84.25
292.757	84.25
292.987	89.25
293.218	86.25
293.449	88.25
293.68	87.25
293.91	83.25
294.141	96.25
294.372	85.25
294.603	85.25
294.833	93.25
295.064	82.25
295.295	85.25
295.525	102.25
295.756	96.25
295.987	118.25
296.217	134.25
296.448	115.25
296.679	95.25
296.909	72.25
297.14	92.25
297.37	89.25
297.601	75.25
297.831	87.25
298.062	75.25
298.292	93.25
298.523	106.25
298.753	113.25
298.984	79.25
299.214	101.25
299.445	90.25
299.675	89.25
299.905	104.25
300.136	88.25
300.366	96.25
300.597	92.25
300.827	90.25
301.057	96.25
301.288	101.25
301.518	93.25
301.748	85.25
301.979	89.25
302.209	92.25
302.439	96.25
302.669	89.25
302.9	91.25
303.13	70.25
303.36	86.25
303.59	97.25
303.82	117.25
304.051	85.25
304.281	86.25
304.511	81.25
304.741	102.25
304.971	83.25
305.201	98.25
305.431	86.25
305.661	96.25
305.891	93.25
306.121	96.25
306.352	90.25
306.582	98.25
306.812	95.25
307.042	65.25
307.272	88.25
307.502	97.25
307.731	89.25
307.961	94.25
308.191	82.25
308.421	92.25
308.651	79.25
308.881	98.25
309.111	83.25
309.341	92.25
309.571	99.25
309.8	104.25
310.03	102.25
310.26	94.25
310.49	98.25
310.72	86.25
310.949	91.25
311.179	93.25
311.409	77.25
311.639	88.25
311.868	93.25
312.098	84.25
312.328	99.25
312.557	98.25
312.787	92.25
313.017	90.25
313.246	88.25
313.476	95.25
313.706	91.25
313.935	103.25
314.165	101.25
314.394	100.25
314.624	91.25
314.853	86.25
315.083	78.25
315.312	79.25
315.542	90.25
315.771	82.25
316.001	82.25
316.23	98.25
316.46	85.25
316.689	94.25
316.919	81.25
317.148	95.25
317.377	102.25
317.607	94.25
317.836	96.25
318.065	93.25
318.295	81.25
318.524	98.25
318.753	82.25
318.983	87.25
319.212	97.25
319.441	95.25
319.67	101.25
319.9	93.25
320.129	92.25
320.358	94.25
320.587	87.25
320.816	92.25
321.046	98.25
321.275	95.25
321.504	95.25
321.733	93.25
321.962	78.25
322.191	94.25
322.42	104.25
322.649	103.25
322.878	102.25
323.108	106.25
323.337	127.25
323.566	132.25
323.795	141.25
324.024	194.25
324.253	372.25
324.482	785.25
324.71	1619.25
324.939	2209.25
325.168	774.25
325.397	228.25
325.626	132.25
325.855	129.25
326.084	125.25
326.313	125.25
326.542	155.25
326.77	226.25
326.999	446.25
327.228	922.25
327.457	1680.25
327.686	1312.25
327.914	336.25
328.143	196.25
328.372	149.25
328.6	115.25
328.829	127.25
329.058	116.25
329.287	118.25
329.515	95.25
329.744	103.25
329.972	106.25
330.201	120.25
330.43	118.25
330.658	117.25
330.887	139.25
331.115	123.25
331.344	106.25
331.572	97.25
331.801	101.25
332.03	117.25
332.258	101.25
332.486	93.25
332.715	84.25
332.943	99.25
333.172	92.25
333.4	95.25
333.629	99.25
333.857	114.25
334.085	95.25
334.314	99.25
334.542	108.25
334.771	99.25
334.999	109.25
335.227	91.25
335.455	93.25
335.684	96.25
335.912	99.25
336.14	113.25
336.369	94.25
336.597	96.25
336.825	94.25
337.053	80.25
337.281	88.25
337.51	79.25
337.738	84.25
337.966	95.25
338.194	81.25
338.422	78.25
338.65	92.25
338.878	88.25
339.106	78.25
339.334	89.25
339.562	73.25
339.79	77.25
340.018	94.25
340.246	101.25
340.474	93.25
340.702	86.25
340.93	85.25
341.158	92.25
341.386	98.25
341.614	88.25
341.842	87.25
342.07	78.25
342.298	94.25
342.526	78.25
342.754	99.25
342.981	87.25
343.209	83.25
343.437	76.25
343.665	96.25
343.893	72.25
344.12	90.25
344.348	80.25
344.576	103.25
344.804	82.25
345.031	82.25
345.259	103.25
345.487	106.25
345.714	102.25
345.942	90.25
346.17	81.25
346.397	81.25
346.625	84.25
346.853	82.25
347.08	100.25
347.308	91.25
347.535	87.25
347.763	88.25
347.99	91.25
348.218	90.25
348.445	116.25
348.673	108.25
348.9	82.25
349.128	94.25
349.355	83.25
349.583	84.25
349.81	85.25
350.037	102.25
350.265	97.25
350.492	80.25
350.72	100.25
350.947	91.25
351.174	103.25
351.402	107.25
351.629	110.25
351.856	102.25
352.083	100.25
352.311	106.25
352.538	98.25
352.765	124.25
352.992	110.25
353.22	110.25
353.447	98.25
353.674	97.25
353.901	96.25
354.128	92.25
354.355	86.25
354.583	95.25
354.81	105.25
355.037	85.25
355.264	96.25
355.491	84.25
355.718	92.25
355.945	94.25
356.172	93.25
356.399	95.25
356.626	96.25
356.853	93.25
357.08	93.25
357.307	94.25
357.534	90.25
357.761	99.25
357.988	91.25
358.215	102.25
358.441	76.25
358.668	91.25
358.895	104.25
359.122	100.25
359.349	87.25
359.576	87.25
359.802	100.25
360.029	104.25
360.256	111.25
360.483	103.25
360.709	93.25
360.936	94.25
361.163	96.25
361.39	82.25
361.616	90.25
361.843	105.25
362.07	85.25
362.296	98.25
362.523	87.25
362.749	94.25
362.976	94.25
363.203	91.25
363.429	98.25
363.656	89.25
363.882	86.25
364.109	76.25
364.335	90.25
364.562	85.25
364.788	88.25
365.015	105.25
365.241	103.25
365.468	105.25
365.694	92.25
365.92	114.25
366.147	95.25
366.373	92.25
366.599	95.25
366.826	89.25
367.052	83.25
367.278	68.25
367.505	81.25
367.731	98.25
367.957	85.25
368.184	97.25
368.41	104.25
368.636	95.25
368.862	118.25
369.089	102.25
369.315	81.25
369.541	98.25
369.767	83.25
369.993	92.25
370.219	79.25
370.445	103.25
370.672	95.25
370.898	98.25
371.124	77.25
371.35	79.25
371.576	78.25
371.802	78.25
372.028	87.25
372.254	100.25
372.48	86.25
372.706	70.25
372.932	69.25
373.158	95.25
373.384	89.25
373.61	89.25
373.835	83.25
374.061	85.25
374.287	93.25
374.513	87.25
374.739	99.25
374.965	89.25
375.191	76.25
375.416	90.25
375.642	104.25
375.868	92.25
376.094	74.25
376.319	84.25
376.545	93.25
376.771	91.25
376.997	77.25
377.222	81.25
377.448	87.25
377.674	86.25
377.899	87.25
378.125	75.25
378.35	81.25
378.576	98.25
378.802	87.25
379.027	92.25
379.253	80.25
379.478	80.25
379.704	87.25
379.929	90.25
380.155	88.25
380.38	108.25
380.606	105.25
380.831	108.25
381.057	96.25
381.282	89.25
381.507	91.25
381.733	84.25
381.958	106.25
382.184	102.25
382.409	95.25
382.634	106.25
382.86	94.25
383.085	106.25
383.31	92.25
383.535	113.25
383.761	93.25
383.986	92.25
384.211	115.25
384.436	93.25
384.662	79.25
384.887	96.25
385.112	81.25
385.337	96.25
385.562	85.25
385.787	90.25
386.013	117.25
386.238	114.25
386.463	88.25
386.688	102.25
386.913	107.25
387.138	99.25
387.363	97.25
387.588	98.25
387.813	99.25
388.038	109.25
388.263	118.25
388.488	95.25
388.713	82.25
388.938	84.25
389.163	100.25
389.387	85.25
389.612	96.25
389.837	103.25
390.062	97.25
390.287	85.25
390.512	82.25
390.736	79.25
390.961	95.25
391.186	76.25
391.411	100.25
391.636	90.25
391.86	101.25
392.085	78.25
392.31	84.25
392.534	79.25
392.759	77.25
392.984	82.25
393.208	76.25
393.433	74.25
393.658	83.25
393.882	78.25
394.107	74.25
394.331	87.25
394.556	86.25
394.78	94.25
395.005	83.25
395.229	89.25
395.454	80.25
395.678	91.25
395.903	94.25
396.127	87.25
396.352	102.25
396.576	97.25
396.801	76.25
397.025	93.25
397.249	83.25
397.474	78.25
397.698	87.25
397.922	79.25
398.147	80.25
398.371	98.25
398.595	96.25
398.82	87.25
399.044	80.25
399.268	84.25
399.492	87.25
399.717	77.25
399.941	77.25
400.165	113.25
400.389	80.25
400.613	84.25
400.837	85.25
401.062	102.25
401.286	80.25
401.51	77.25
401.734	91.25
401.958	99.25
402.182	117.25
402.406	156.25
402.63	109.25
402.854	96.25
403.078	90.25
403.302	87.25
403.526	78.25
403.75	98.25
403.974	78.25
404.198	91.25
404.422	76.25
404.645	76.25
404.869	83.25
405.093	88.25
405.317	97.25
405.541	103.25
405.765	87.25
405.988	116.25
406.212	175.25
406.436	223.25
406.66	144.25
406.883	82.25
407.107	95.25
407.331	87.25
407.555	99.25
407.778	101.25
408.002	94.25
408.226	97.25
408.449	76.25
408.673	91.25
408.896	95.25
409.12	107.25
409.344	90.25
409.567	101.25
409.791	102.25
410.014	87.25
410.238	85.25
410.461	90.25
410.685	98.25
410.908	85.25
411.132	104.25
411.355	100.25
411.578	84.25
411.802	86.25
412.025	89.25
412.249	91.25
412.472	95.25
412.695	95.25
412.919	87.25
413.142	99.25
413.365	86.25
413.589	82.25
413.812	100.25
414.035	99.25
414.258	84.25
414.482	102.25
414.705	94.25
414.928	89.25
415.151	103.25
415.374	92.25
415.597	93.25
415.821	88.25
416.044	86.25
416.267	87.25
416.49	86.25
416.713	97.25
416.936	91.25
417.159	93.25
417.382	99.25
417.605	93.25
417.828	86.25
418.051	88.25
418.274	69.25
418.497	76.25
418.72	92.25
418.943	99.25
419.166	91.25
419.389	83.25
419.611	85.25
419.834	85.25
420.057	84.25
420.28	82.25
420.503	79.25
420.726	85.25
420.948	93.25
421.171	88.25
421.394	84.25
421.617	88.25
421.839	101.25
422.062	85.25
422.285	89.25
422.507	110.25
422.73	96.25
422.953	79.25
423.175	91.25
423.398	78.25
423.621	87.25
423.843	70.25
424.066	89.25
424.288	86.25
424.511	86.25
424.733	101.25
424.956	99.25
425.178	102.25
425.401	100.25
425.623	88.25
425.846	90.25
426.068	92.25
426.291	86.25
426.513	86.25
426.735	99.25
426.958	85.25
427.18	98.25
427.402	140.25
427.625	160.25
427.847	122.25
428.069	100.25
428.292	92.25
428.514	91.25
428.736	78.25
428.958	92.25
429.181	80.25
429.403	94.25
429.625	81.25
429.847	91.25
430.069	86.25
430.292	94.25
430.514	83.25
430.736	74.25
430.958	76.25
431.18	90.25
431.402	72.25
431.624	74.25
431.846	82.25
432.068	92.25
432.29	78.25
432.512	85.25
432.734	83.25
432.956	92.25
433.178	94.25
433.4	92.25
433.622	104.25
433.844	97.25
434.066	88.25
434.287	86.25
434.509	87.25
434.731	97.25
434.953	78.25
435.175	92.25
435.397	91.25
435.618	90.25
435.84	109.25
436.062	122.25
436.284	117.25
436.505	103.25
436.727	86.25
436.949	81.25
437.17	87.25
437.392	64.25
437.614	98.25
437.835	100.25
438.057	130.25
438.278	98.25
438.5	102.25
438.721	125.25
438.943	101.25
439.165	76.25
439.386	93.25
439.608	98.25
439.829	94.25
440.05	123.25
440.272	150.25
440.493	93.25
440.715	74.25
440.936	88.25
441.158	85.25
441.379	94.25
441.6	90.25
441.822	103.25
442.043	87.25
442.264	98.25
442.486	90.25
442.707	86.25
442.928	110.25
443.149	117.25
443.371	116.25
443.592	109.25
443.813	99.25
444.034	104.25
444.255	84.25
444.476	82.25
444.698	75.25
444.919	96.25
445.14	114.25
445.361	125.25
445.582	119.25
445.803	141.25
446.024	132.25
446.245	128.25
446.466	115.25
446.687	86.25
446.908	88.25
447.129	95.25
447.35	95.25
447.571	83.25
447.792	87.25
448.013	90.25
448.234	96.25
448.455	110.25
448.675	93.25
448.896	112.25
449.117	114.25
449.338	105.25
449.559	133.25
449.779	127.25
450	99.25
450.221	77.25
450.442	91.25
450.662	91.25
450.883	105.25
451.104	105.25
451.324	92.25
451.545	83.25
451.766	83.25
451.986	90.25
452.207	82.25
452.428	81.25
452.648	96.25
452.869	100.25
453.089	113.25
453.31	104.25
453.53	95.25
453.751	85.25
453.971	104.25
454.192	97.25
454.412	86.25
454.633	84.25
454.853	71.25
455.073	86.25
455.294	91.25
455.514	103.25
455.734	90.25
455.955	67.25
456.175	67.25
456.395	85.25
456.616	74.25
456.836	80.25
457.056	74.25
457.276	83.25
457.497	77.25
457.717	79.25
457.937	71.25
458.157	83.25
458.377	87.25
458.598	103.25
458.818	135.25
459.038	138.25
459.258	106.25
459.478	88.25
459.698	86.25
459.918	76.25
460.138	84.25
460.358	87.25
460.578	84.25
460.798	81.25
461.018	84.25
461.238	97.25
461.458	76.25
461.678	79.25
461.898	91.25
462.118	77.25
462.338	100.25
462.558	78.25
462.777	82.25
462.997	67.25
463.217	88.25
463.437	63.25
463.657	92.25
463.876	80.25
464.096	82.25
464.316	93.25
464.536	106.25
464.755	98.25
464.975	102.25
465.195	160.25
465.414	157.25
465.634	100.25
465.854	78.25
466.073	80.25
466.293	84.25
466.512	86.25
466.732	79.25
466.951	96.25
467.171	83.25
467.391	88.25
467.61	112.25
467.829	93.25
468.049	88.25
468.268	103.25
468.488	90.25
468.707	96.25
468.927	93.25
469.146	78.25
469.365	77.25
469.585	78.25
469.804	98.25
470.023	88.25
470.243	85.25
470.462	92.25
470.681	103.25
470.901	86.25
471.12	85.25
471.339	82.25
471.558	81.25
471.777	91.25
471.997	82.25
472.216	96.25
472.435	103.25
472.654	82.25
472.873	84.25
473.092	84.25
473.311	92.25
473.53	94.25
473.749	87.25
473.968	87.25
474.187	99.25
474.406	92.25
474.625	83.25
474.844	86.25
475.063	87.25
475.282	88.25
475.501	80.25
475.72	75.25
475.939	86.25
476.158	91.25
476.377	72.25
476.596	86.25
476.814	84.25
477.033	88.25
477.252	90.25
477.471	92.25
477.69	96.25
477.908	77.25
478.127	80.25
478.346	91.25
478.564	87.25
478.783	99.25
479.002	96.25
479.22	90.25
479.439	94.25
479.658	103.25
479.876	91.25
480.095	90.25
480.313	85.25
480.532	103.25
480.751	90.25
480.969	102.25
481.188	143.25
481.406	124.25
481.624	95.25
481.843	80.25
482.061	86.25
482.28	87.25
482.498	90.25
482.717	83.25
482.935	91.25
483.153	86.25
483.372	92.25
483.59	87.25
483.808	92.25
484.027	100.25
484.245	99.25
484.463	88.25
484.681	90.25
484.9	96.25
485.118	95.25
485.336	94.25
485.554	90.25
485.772	96.25
485.99	115.25
486.209	112.25
486.427	117.25
486.645	99.25
486.863	102.25
487.081	104.25
487.299	79.25
487.517	92.25
487.735	87.25
487.953	96.25
488.171	79.25
488.389	97.25
488.607	101.25
488.825	85.25
489.043	79.25
489.261	78.25
489.479	79.25
489.696	87.25
489.914	84.25
490.132	76.25
490.35	81.25
490.568	80.25
490.786	81.25
491.003	76.25
491.221	80.25
491.439	93.25
491.657	84.25
491.874	79.25
492.092	78.25
492.31	94.25
492.527	71.25
492.745	67.25
492.963	79.25
493.18	93.25
493.398	80.25
493.615	98.25
493.833	91.25
494.05	87.25
494.268	90.25
494.485	88.25
494.703	98.25
494.92	90.25
495.138	86.25
495.355	93.25
495.573	95.25
495.79	88.25
496.008	96.25
496.225	94.25
496.442	86.25
496.66	88.25
496.877	96.25
497.094	83.25
497.312	102.25
497.529	94.25
497.746	96.25
497.963	94.25
498.181	99.25
498.398	93.25
498.615	108.25
498.832	113.25
499.049	96.25
499.267	90.25
499.484	84.25
499.701	87.25
499.918	82.25
500.135	83.25
500.352	78.25
500.569	83.25
500.786	85.25
501.003	91.25
501.22	84.25
501.437	99.25
501.654	97.25
501.871	85.25
502.088	96.25
502.305	99.25
502.522	83.25
502.739	87.25
502.956	94.25
503.172	98.25
503.389	89.25
503.606	109.25
503.823	88.25
504.04	81.25
504.256	84.25
504.473	90.25
504.69	86.25
504.907	98.25
505.123	94.25
505.34	80.25
505.557	94.25
505.773	85.25
505.99	74.25
506.207	91.25
506.423	82.25
506.64	84.25
506.856	88.25
507.073	77.25
507.289	98.25
507.506	90.25
507.722	105.25
507.939	99.25
508.155	97.25
508.372	88.25
508.588	100.25
508.805	90.25
509.021	92.25
509.238	95.25
509.454	104.25
509.67	94.25
509.887	114.25
510.103	108.25
510.319	206.25
510.536	732.25
510.752	2348.25
510.968	614.25
511.184	143.25
511.401	98.25
511.617	92.25
511.833	88.25
512.049	84.25
512.265	95.25
512.481	86.25
512.698	98.25
512.914	94.25
513.13	93.25
513.346	84.25
513.562	107.25
513.778	97.25
513.994	87.25
514.21	99.25
514.426	104.25
514.642	118.25
514.858	116.25
515.074	151.25
515.29	456.25
515.506	1474.25
515.721	512.25
515.937	160.25
516.153	101.25
516.369	95.25
516.585	99.25
