Data from Uncirc_1987_H10_HRD10591_00086.txt Node
Date: Wed Jan 03 12:09:05 EST 2024
User: Yrep
Spectrometer: HR+D1059
Trigger mode: 1
Integration Time (sec): 1.000000E-1
Scans to average: 1
Electric dark correction enabled: true
Nonlinearity correction enabled: false
Boxcar width: 0
XAxis mode: Wavelengths
Number of Pixels in Spectrum: 2048
>>>>>Begin Spectral Data<<<<<
223.165	-11.25
223.4	-11.25
223.635	-11.25
223.869	-29.25
224.104	-23.25
224.338	-13.25
224.573	-13.25
224.808	-9.25
225.042	-13.25
225.277	-8.25
225.511	-11.25
225.746	6.75
225.98	14.75
226.215	9.75
226.449	23.75
226.683	21.75
226.918	30.75
227.152	24.75
227.387	46.75
227.621	26.75
227.856	41.75
228.09	53.75
228.324	46.75
228.559	62.75
228.793	166.75
229.027	438.75
229.262	527.75
229.496	606.75
229.73	818.75
229.964	814.75
230.199	551.75
230.433	509.75
230.667	501.75
230.901	470.75
231.136	452.75
231.37	446.75
231.604	443.75
231.838	444.75
232.072	468.75
232.306	496.75
232.541	476.75
232.775	489.75
233.009	482.75
233.243	475.75
233.477	516.75
233.711	510.75
233.945	511.75
234.179	520.75
234.413	520.75
234.647	508.75
234.881	517.75
235.115	522.75
235.349	563.75
235.583	581.75
235.817	598.75
236.051	647.75
236.285	608.75
236.519	634.75
236.753	732.75
236.987	908.75
237.221	1365.75
237.455	1516.75
237.689	893.75
237.922	775.75
238.156	747.75
238.39	726.75
238.624	673.75
238.858	663.75
239.091	688.75
239.325	690.75
239.559	696.75
239.793	716.75
240.027	760.75
240.26	935.75
240.494	964.75
240.728	965.75
240.961	910.75
241.195	830.75
241.429	821.75
241.662	803.75
241.896	795.75
242.13	780.75
242.363	794.75
242.597	794.75
242.83	846.75
243.064	838.75
243.298	861.75
243.531	849.75
243.765	854.75
243.998	885.75
244.232	888.75
244.465	902.75
244.699	912.75
244.932	936.75
245.166	943.75
245.399	926.75
245.633	895.75
245.866	919.75
246.099	926.75
246.333	962.75
246.566	1000.75
246.8	959.75
247.033	1035.75
247.266	1056.75
247.5	1120.75
247.733	1171.75
247.966	1156.75
248.2	1182.75
248.433	1213.75
248.666	1235.75
248.899	1316.75
249.133	1487.75
249.366	1464.75
249.599	1342.75
249.832	1258.75
250.066	1270.75
250.299	1315.75
250.532	1389.75
250.765	1570.75
250.998	1731.75
251.231	1675.75
251.465	1541.75
251.698	1454.75
251.931	1473.75
252.164	1440.75
252.397	1456.75
252.63	1461.75
252.863	1578.75
253.096	1739.75
253.329	1769.75
253.562	1654.75
253.795	1590.75
254.028	1591.75
254.261	1645.75
254.494	1825.75
254.727	2132.75
254.96	2285.75
255.193	2001.75
255.426	1770.75
255.659	1652.75
255.892	1683.75
256.124	1687.75
256.357	1637.75
256.59	1614.75
256.823	1575.75
257.056	1567.75
257.289	1559.75
257.521	1616.75
257.754	1562.75
257.987	1567.75
258.22	1578.75
258.452	1568.75
258.685	1557.75
258.918	1605.75
259.151	1630.75
259.383	1720.75
259.616	1766.75
259.849	1807.75
260.081	1946.75
260.314	2177.75
260.547	2082.75
260.779	1925.75
261.012	1797.75
261.244	1784.75
261.477	1708.75
261.71	1722.75
261.942	1789.75
262.175	1825.75
262.407	1781.75
262.64	1683.75
262.872	1690.75
263.105	1662.75
263.337	1677.75
263.57	1700.75
263.802	1712.75
264.035	1711.75
264.267	1698.75
264.499	1703.75
264.732	1746.75
264.964	1722.75
265.197	1776.75
265.429	1759.75
265.661	1746.75
265.894	1785.75
266.126	1794.75
266.358	1806.75
266.591	1819.75
266.823	1923.75
267.055	1917.75
267.287	1937.75
267.52	1912.75
267.752	1907.75
267.984	1917.75
268.216	1946.75
268.448	1972.75
268.681	2039.75
268.913	2128.75
269.145	2381.75
269.377	2412.75
269.609	2337.75
269.841	2300.75
270.073	2343.75
270.306	2666.75
270.538	2786.75
270.77	2758.75
271.002	2591.75
271.234	2501.75
271.466	2646.75
271.698	2766.75
271.93	2736.75
272.162	2789.75
272.394	2732.75
272.626	2621.75
272.858	2412.75
273.09	2368.75
273.322	2279.75
273.553	2278.75
273.785	2264.75
274.017	2275.75
274.249	2287.75
274.481	2322.75
274.713	2314.75
274.945	2354.75
275.176	2331.75
275.408	2335.75
275.64	2310.75
275.872	2306.75
276.104	2351.75
276.335	2352.75
276.567	2428.75
276.799	2626.75
277.031	2768.75
277.262	2911.75
277.494	2792.75
277.726	2592.75
277.957	2588.75
278.189	2523.75
278.421	2431.75
278.652	2417.75
278.884	2429.75
279.115	2414.75
279.347	2412.75
279.579	2405.75
279.81	2410.75
280.042	2425.75
280.273	2478.75
280.505	2452.75
280.736	2438.75
280.968	2439.75
281.199	2480.75
281.431	2548.75
281.662	2510.75
281.894	2509.75
282.125	2578.75
282.356	2704.75
282.588	2896.75
282.819	2704.75
283.051	2598.75
283.282	2581.75
283.513	2613.75
283.745	2645.75
283.976	2725.75
284.207	2719.75
284.439	2673.75
284.67	2699.75
284.901	2687.75
285.132	2693.75
285.364	2670.75
285.595	2674.75
285.826	2664.75
286.057	2707.75
286.288	2705.75
286.52	2692.75
286.751	2756.75
286.982	2797.75
287.213	2801.75
287.444	2747.75
287.675	2868.75
287.906	2888.75
288.138	3014.75
288.369	2939.75
288.6	2946.75
288.831	2930.75
289.062	2901.75
289.293	2854.75
289.524	2916.75
289.755	2854.75
289.986	2797.75
290.217	2840.75
290.448	2839.75
290.679	2853.75
290.91	2860.75
291.141	2834.75
291.371	2832.75
291.602	2885.75
291.833	2823.75
292.064	2863.75
292.295	2840.75
292.526	2860.75
292.757	2910.75
292.987	2883.75
293.218	2848.75
293.449	2986.75
293.68	2911.75
293.91	2906.75
294.141	2926.75
294.372	2951.75
294.603	2931.75
294.833	2945.75
295.064	2924.75
295.295	2917.75
295.525	2971.75
295.756	2983.75
295.987	3106.75
296.217	3303.75
296.448	3150.75
296.679	3023.75
296.909	2963.75
297.14	3040.75
297.37	3067.75
297.601	3119.75
297.831	3127.75
298.062	3151.75
298.292	3134.75
298.523	3167.75
298.753	3189.75
298.984	3109.75
299.214	3183.75
299.445	3132.75
299.675	3184.75
299.905	3188.75
300.136	3188.75
300.366	3188.75
300.597	3176.75
300.827	3262.75
301.057	3412.75
301.288	3457.75
301.518	3380.75
301.748	3352.75
301.979	3416.75
302.209	3445.75
302.439	3517.75
302.669	3427.75
302.9	3358.75
303.13	3350.75
303.36	3396.75
303.59	3374.75
303.82	3426.75
304.051	3411.75
304.281	3393.75
304.511	3304.75
304.741	3350.75
304.971	3378.75
305.201	3330.75
305.431	3310.75
305.661	3380.75
305.891	3262.75
306.121	3370.75
306.352	3393.75
306.582	3405.75
306.812	3230.75
307.042	3286.75
307.272	3336.75
307.502	3297.75
307.731	3342.75
307.961	3321.75
308.191	3307.75
308.421	3339.75
308.651	3375.75
308.881	3333.75
309.111	3422.75
309.341	3402.75
309.571	3563.75
309.8	3508.75
310.03	3543.75
310.26	3656.75
310.49	3622.75
310.72	3750.75
310.949	3838.75
311.179	3762.75
311.409	3632.75
311.639	3675.75
311.868	3755.75
312.098	3714.75
312.328	3792.75
312.557	3896.75
312.787	4014.75
313.017	3888.75
313.246	3842.75
313.476	3758.75
313.706	3750.75
313.935	3868.75
314.165	3997.75
314.394	4017.75
314.624	3947.75
314.853	3878.75
315.083	3823.75
315.312	3811.75
315.542	3813.75
315.771	3750.75
316.001	3707.75
316.23	3692.75
316.46	3694.75
316.689	3810.75
316.919	3840.75
317.148	3801.75
317.377	3773.75
317.607	3772.75
317.836	3759.75
318.065	3720.75
318.295	3740.75
318.524	3725.75
318.753	3707.75
318.983	3728.75
319.212	3716.75
319.441	3773.75
319.67	3818.75
319.9	3690.75
320.129	3737.75
320.358	3818.75
320.587	3803.75
320.816	3824.75
321.046	3820.75
321.275	3869.75
321.504	3870.75
321.733	3845.75
321.962	3920.75
322.191	4097.75
322.42	4082.75
322.649	4195.75
322.878	4283.75
323.108	4286.75
323.337	4590.75
323.566	4705.75
323.795	5070.75
324.024	5644.75
324.253	7268.75
324.482	10805.75
324.71	15149.75
324.939	15624.75
325.168	13132.75
325.397	6744.75
325.626	5337.75
325.855	4916.75
326.084	4834.75
326.313	4784.75
326.542	4998.75
326.77	5586.75
326.999	7090.75
327.228	10188.75
327.457	14347.75
327.686	13594.75
327.914	7402.75
328.143	5853.75
328.372	5518.75
328.6	5246.75
328.829	5239.75
329.058	5387.75
329.287	5361.75
329.515	5042.75
329.744	4894.75
329.972	4895.75
330.201	5064.75
330.43	5252.75
330.658	5498.75
330.887	5795.75
331.115	5402.75
331.344	4960.75
331.572	4934.75
331.801	5037.75
332.03	4978.75
332.258	4938.75
332.486	5015.75
332.715	5083.75
332.943	5247.75
333.172	5342.75
333.4	5454.75
333.629	5569.75
333.857	5669.75
334.085	5700.75
334.314	5687.75
334.542	5814.75
334.771	5685.75
334.999	5367.75
335.227	5241.75
335.455	5241.75
335.684	5086.75
335.912	5046.75
336.14	5020.75
336.369	4998.75
336.597	5027.75
336.825	4959.75
337.053	4963.75
337.281	4860.75
337.51	4811.75
337.738	4818.75
337.966	4754.75
338.194	4690.75
338.422	4660.75
338.65	4567.75
338.878	4538.75
339.106	4558.75
339.334	4563.75
339.562	4558.75
339.79	4430.75
340.018	4406.75
340.246	4452.75
340.474	4466.75
340.702	4444.75
340.93	4449.75
341.158	4426.75
341.386	4450.75
341.614	4389.75
341.842	4356.75
342.07	4402.75
342.298	4359.75
342.526	4274.75
342.754	4313.75
342.981	4322.75
343.209	4444.75
343.437	4640.75
343.665	4952.75
343.893	5184.75
344.12	5202.75
344.348	4936.75
344.576	4828.75
344.804	4791.75
345.031	4669.75
345.259	4646.75
345.487	4484.75
345.714	4373.75
345.942	4331.75
346.17	4287.75
346.397	4267.75
346.625	4241.75
346.853	4239.75
347.08	4234.75
347.308	4304.75
347.535	4309.75
347.763	4390.75
347.99	4291.75
348.218	4324.75
348.445	4403.75
348.673	4311.75
348.9	4228.75
349.128	4133.75
349.355	4095.75
349.583	4096.75
349.81	4123.75
350.037	4096.75
350.265	4079.75
350.492	4106.75
350.72	4182.75
350.947	4212.75
351.174	4210.75
351.402	4253.75
351.629	4196.75
351.856	4207.75
352.083	4216.75
352.311	4296.75
352.538	4229.75
352.765	4227.75
352.992	4192.75
353.22	4122.75
353.447	4117.75
353.674	4031.75
353.901	4035.75
354.128	4054.75
354.355	4060.75
354.583	4016.75
354.81	3986.75
355.037	4050.75
355.264	3920.75
355.491	3974.75
355.718	3997.75
355.945	3963.75
356.172	4046.75
356.399	3946.75
356.626	3988.75
356.853	3950.75
357.08	3965.75
357.307	4026.75
357.534	3992.75
357.761	4013.75
357.988	4018.75
358.215	4005.75
358.441	4030.75
358.668	3949.75
358.895	4048.75
359.122	4119.75
359.349	4196.75
359.576	4285.75
359.802	4455.75
360.029	4672.75
360.256	4643.75
360.483	4367.75
360.709	4234.75
360.936	4216.75
361.163	4207.75
361.39	4268.75
361.616	4271.75
361.843	4205.75
362.07	4193.75
362.296	4256.75
362.523	4122.75
362.749	4229.75
362.976	4149.75
363.203	4091.75
363.429	4012.75
363.656	4034.75
363.882	4041.75
364.109	4063.75
364.335	3992.75
364.562	4076.75
364.788	4002.75
365.015	4039.75
365.241	4076.75
365.468	4089.75
365.694	4134.75
365.92	4090.75
366.147	4085.75
366.373	4079.75
366.599	4082.75
366.826	4020.75
367.052	4002.75
367.278	4076.75
367.505	4136.75
367.731	4120.75
367.957	4053.75
368.184	4158.75
368.41	4238.75
368.636	4282.75
368.862	4272.75
369.089	4167.75
369.315	4151.75
369.541	4154.75
369.767	4221.75
369.993	4221.75
370.219	4210.75
370.445	4228.75
370.672	4272.75
370.898	4230.75
371.124	4290.75
371.35	4395.75
371.576	4343.75
371.802	4287.75
372.028	4274.75
372.254	4322.75
372.48	4396.75
372.706	4456.75
372.932	4491.75
373.158	4444.75
373.384	4404.75
373.61	4327.75
373.835	4362.75
374.061	4379.75
374.287	4447.75
374.513	4551.75
374.739	4667.75
374.965	4742.75
375.191	4764.75
375.416	4654.75
375.642	4506.75
375.868	4550.75
376.094	4412.75
376.319	4416.75
376.545	4445.75
376.771	4387.75
376.997	4389.75
377.222	4365.75
377.448	4345.75
377.674	4338.75
377.899	4320.75
378.125	4317.75
378.35	4304.75
378.576	4279.75
378.802	4237.75
379.027	4248.75
379.253	4306.75
379.478	4282.75
379.704	4244.75
379.929	4342.75
380.155	4289.75
380.38	4299.75
380.606	4393.75
380.831	4357.75
381.057	4382.75
381.282	4326.75
381.507	4383.75
381.733	4464.75
381.958	4422.75
382.184	4527.75
382.409	4559.75
382.634	4636.75
382.86	4608.75
383.085	4646.75
383.31	4685.75
383.535	4795.75
383.761	4881.75
383.986	4948.75
384.211	4989.75
384.436	5034.75
384.662	5084.75
384.887	5148.75
385.112	5234.75
385.337	5223.75
385.562	5276.75
385.787	5227.75
386.013	5339.75
386.238	5357.75
386.463	5250.75
386.688	5316.75
386.913	5142.75
387.138	5147.75
387.363	5227.75
387.588	5117.75
387.813	5227.75
388.038	5167.75
388.263	5210.75
388.488	5197.75
388.713	5192.75
388.938	5205.75
389.163	5110.75
389.387	5199.75
389.612	5036.75
389.837	5096.75
390.062	5142.75
390.287	5132.75
390.512	5054.75
390.736	5157.75
390.961	5344.75
391.186	5386.75
391.411	5486.75
391.636	5544.75
391.86	5789.75
392.085	5852.75
392.31	5825.75
392.534	5639.75
392.759	5548.75
392.984	5477.75
393.208	5388.75
393.433	5478.75
393.658	5374.75
393.882	5420.75
394.107	5473.75
394.331	5501.75
394.556	5459.75
394.78	5478.75
395.005	5552.75
395.229	5591.75
395.454	5687.75
395.678	5947.75
395.903	5928.75
396.127	5925.75
396.352	5664.75
396.576	5493.75
396.801	5530.75
397.025	5575.75
397.249	5698.75
397.474	5842.75
397.698	5902.75
397.922	5994.75
398.147	6129.75
398.371	6188.75
398.595	6310.75
398.82	6598.75
399.044	7104.75
399.268	7935.75
399.492	9034.75
399.717	9630.75
399.941	9378.75
400.165	8812.75
400.389	8038.75
400.613	7282.75
400.837	6879.75
401.062	6606.75
401.286	6604.75
401.51	6547.75
401.734	6508.75
401.958	6670.75
402.182	6753.75
402.406	6900.75
402.63	6997.75
402.854	7034.75
403.078	7096.75
403.302	7285.75
403.526	7374.75
403.75	7472.75
403.974	7533.75
404.198	7381.75
404.422	7527.75
404.645	7472.75
404.869	7396.75
405.093	7610.75
405.317	7754.75
405.541	7878.75
405.765	7407.75
405.988	7307.75
406.212	7451.75
406.436	7635.75
406.66	7809.75
406.883	7756.75
407.107	8318.75
407.331	8845.75
407.555	9411.75
407.778	9098.75
408.002	8383.75
408.226	7965.75
408.449	7859.75
408.673	7704.75
408.896	7862.75
409.12	8074.75
409.344	7551.75
409.567	7172.75
409.791	7197.75
410.014	7089.75
410.238	6971.75
410.461	7136.75
410.685	7068.75
410.908	7124.75
411.132	7460.75
411.355	7428.75
411.578	7020.75
411.802	6815.75
412.025	6801.75
412.249	6968.75
412.472	7018.75
412.695	7070.75
412.919	6728.75
413.142	6598.75
413.365	6514.75
413.589	6555.75
413.812	6488.75
414.035	6350.75
414.258	6481.75
414.482	6419.75
414.705	6500.75
414.928	6496.75
415.151	6442.75
415.374	6563.75
415.597	6397.75
415.821	6333.75
416.044	6343.75
416.267	6278.75
416.49	6286.75
416.713	6218.75
416.936	6357.75
417.159	6259.75
417.382	6446.75
417.605	6419.75
417.828	6561.75
418.051	6669.75
418.274	6536.75
418.497	6438.75
418.72	6636.75
418.943	6494.75
419.166	6935.75
419.389	7341.75
419.611	7110.75
419.834	6991.75
420.057	6818.75
420.28	6748.75
420.503	6523.75
420.726	6499.75
420.948	6745.75
421.171	7075.75
421.394	7047.75
421.617	6589.75
421.839	6561.75
422.062	6613.75
422.285	6830.75
422.507	7523.75
422.73	8017.75
422.953	7270.75
423.175	7027.75
423.398	7104.75
423.621	7066.75
423.843	7327.75
424.066	7304.75
424.288	7201.75
424.511	7334.75
424.733	7791.75
424.956	8254.75
425.178	7822.75
425.401	7981.75
425.623	7830.75
425.846	6860.75
426.068	6655.75
426.291	6611.75
426.513	6573.75
426.735	6717.75
426.958	7144.75
427.18	7911.75
427.402	9064.75
427.625	9122.75
427.847	7767.75
428.069	6956.75
428.292	6492.75
428.514	6227.75
428.736	6071.75
428.958	6071.75
429.181	5933.75
429.403	5882.75
429.625	6026.75
429.847	6339.75
430.069	6905.75
430.292	6398.75
430.514	5902.75
430.736	5886.75
430.958	5787.75
431.18	5750.75
431.402	5765.75
431.624	5734.75
431.846	5784.75
432.068	5777.75
432.29	5916.75
432.512	5822.75
432.734	5884.75
432.956	5814.75
433.178	5970.75
433.4	5898.75
433.622	5803.75
433.844	5804.75
434.066	5798.75
434.287	5934.75
434.509	6140.75
434.731	6343.75
434.953	6504.75
435.175	6655.75
435.397	6785.75
435.618	6674.75
435.84	7081.75
436.062	7866.75
436.284	7735.75
436.505	6620.75
436.727	6275.75
436.949	6087.75
437.17	5910.75
437.392	5856.75
437.614	5980.75
437.835	6375.75
438.057	7373.75
438.278	7998.75
438.5	7944.75
438.721	8762.75
438.943	7589.75
439.165	6461.75
439.386	6281.75
439.608	6284.75
439.829	6412.75
440.05	6725.75
440.272	7021.75
440.493	6480.75
440.715	6247.75
440.936	6126.75
441.158	6212.75
441.379	6346.75
441.6	6702.75
441.822	6910.75
442.043	7343.75
442.264	8190.75
442.486	7890.75
442.707	6919.75
442.928	6739.75
443.149	6983.75
443.371	7190.75
443.592	7777.75
443.813	8772.75
444.034	8629.75
444.255	7568.75
444.476	7349.75
444.698	7583.75
444.919	7690.75
445.14	7482.75
445.361	7342.75
445.582	7539.75
445.803	8107.75
446.024	8670.75
446.245	8236.75
446.466	7484.75
446.687	6637.75
446.908	6207.75
447.129	5909.75
447.35	5795.75
447.571	5736.75
447.792	5635.75
448.013	5758.75
448.234	6015.75
448.455	6516.75
448.675	7830.75
448.896	8254.75
449.117	6846.75
449.338	6981.75
449.559	8354.75
449.779	8517.75
450	6512.75
450.221	5788.75
450.442	5633.75
450.662	5483.75
450.883	5564.75
451.104	5712.75
451.324	5542.75
451.545	5388.75
451.766	5275.75
451.986	5152.75
452.207	5106.75
452.428	5156.75
452.648	5125.75
452.869	5157.75
453.089	5194.75
453.31	5374.75
453.53	5117.75
453.751	5134.75
453.971	5123.75
454.192	5248.75
454.412	5021.75
454.633	4948.75
454.853	4912.75
455.073	4976.75
455.294	5406.75
455.514	5921.75
455.734	5406.75
455.955	4838.75
456.175	4783.75
456.395	4720.75
456.616	4719.75
456.836	4682.75
457.056	4735.75
457.276	4673.75
457.497	4754.75
457.717	4754.75
457.937	4875.75
458.157	4950.75
458.377	4993.75
458.598	5370.75
458.818	6115.75
459.038	6817.75
459.258	6695.75
459.478	6001.75
459.698	5932.75
459.918	5893.75
460.138	6112.75
460.358	6393.75
460.578	6449.75
460.798	6504.75
461.018	6476.75
461.238	6365.75
461.458	6202.75
461.678	6235.75
461.898	6387.75
462.118	6423.75
462.338	6736.75
462.558	6930.75
462.777	7140.75
462.997	7778.75
463.217	8300.75
463.437	8001.75
463.657	7382.75
463.876	7204.75
464.096	7324.75
464.316	7253.75
464.536	7300.75
464.755	7102.75
464.975	6901.75
465.195	7053.75
465.414	7048.75
465.634	6238.75
465.854	6033.75
466.073	5702.75
466.293	5508.75
466.512	5396.75
466.732	5301.75
466.951	5310.75
467.171	5190.75
467.391	5361.75
467.61	5399.75
467.829	5260.75
468.049	5216.75
468.268	5135.75
468.488	5079.75
468.707	4997.75
468.927	5021.75
469.146	5023.75
469.365	5074.75
469.585	5121.75
469.804	5359.75
470.023	5432.75
470.243	5442.75
470.462	5560.75
470.681	5674.75
470.901	5652.75
471.12	5377.75
471.339	5343.75
471.558	5334.75
471.777	5225.75
471.997	5186.75
472.216	5192.75
472.435	5268.75
472.654	5164.75
472.873	5028.75
473.092	4963.75
473.311	5020.75
473.53	5044.75
473.749	5213.75
473.968	5676.75
474.187	6672.75
474.406	6276.75
474.625	5397.75
474.844	5068.75
475.063	5052.75
475.282	5087.75
475.501	5170.75
475.72	5183.75
475.939	5155.75
476.158	5218.75
476.377	5320.75
476.596	5254.75
476.814	5342.75
477.033	5445.75
477.252	5478.75
477.471	5636.75
477.69	5736.75
477.908	5831.75
478.127	5898.75
478.346	5953.75
478.564	6086.75
478.783	6174.75
479.002	6414.75
479.22	6362.75
479.439	6411.75
479.658	6452.75
479.876	6564.75
480.095	6796.75
480.313	7292.75
480.532	7089.75
480.751	6948.75
480.969	6906.75
481.188	7004.75
481.406	6802.75
481.624	6399.75
481.843	6126.75
482.061	6085.75
482.28	5994.75
482.498	5948.75
482.717	5917.75
482.935	5951.75
483.153	5854.75
483.372	5910.75
483.59	5871.75
483.808	5830.75
484.027	5931.75
484.245	6034.75
484.463	6038.75
484.681	6159.75
484.9	6202.75
485.118	6200.75
485.336	6205.75
485.554	6260.75
485.772	6333.75
485.99	6352.75
486.209	6328.75
486.427	6427.75
486.645	6462.75
486.863	6531.75
487.081	6419.75
487.299	6362.75
487.517	6367.75
487.735	6401.75
