Data from Uncirc_1987_H10_HRD10591_00045.txt Node
Date: Wed Jan 03 12:08:57 EST 2024
User: Yrep
Spectrometer: HR+D1059
Trigger mode: 1
Integration Time (sec): 1.000000E-1
Scans to average: 1
Electric dark correction enabled: true
Nonlinearity correction enabled: false
Boxcar width: 0
XAxis mode: Wavelengths
Number of Pixels in Spectrum: 2048
>>>>>Begin Spectral Data<<<<<
223.165	-11.31
223.4	-11.31
223.635	-11.31
223.869	-20.31
224.104	-8.31
224.338	-20.31
224.573	-21.31
224.808	-11.31
225.042	-4.31
225.277	-14.31
225.511	-7.31
225.746	4.69
225.98	-3.31
226.215	5.69
226.449	13.69
226.683	30.69
226.918	33.69
227.152	33.69
227.387	22.69
227.621	41.69
227.856	47.69
228.09	51.69
228.324	45.69
228.559	71.69
228.793	49.69
229.027	60.69
229.262	79.69
229.496	66.69
229.73	75.69
229.964	84.69
230.199	88.69
230.433	84.69
230.667	77.69
230.901	79.69
231.136	79.69
231.37	77.69
231.604	57.69
231.838	83.69
232.072	77.69
232.306	81.69
232.541	70.69
232.775	91.69
233.009	84.69
233.243	75.69
233.477	87.69
233.711	79.69
233.945	75.69
234.179	81.69
234.413	84.69
234.647	78.69
234.881	79.69
235.115	76.69
235.349	72.69
235.583	82.69
235.817	74.69
236.051	62.69
236.285	75.69
236.519	67.69
236.753	83.69
236.987	70.69
237.221	87.69
237.455	79.69
237.689	68.69
237.922	70.69
238.156	63.69
238.39	65.69
238.624	91.69
238.858	70.69
239.091	69.69
239.325	65.69
239.559	74.69
239.793	67.69
240.027	67.69
240.26	81.69
240.494	74.69
240.728	66.69
240.961	92.69
241.195	83.69
241.429	72.69
241.662	77.69
241.896	79.69
242.13	83.69
242.363	76.69
242.597	69.69
242.83	79.69
243.064	69.69
243.298	65.69
243.531	75.69
243.765	87.69
243.998	59.69
244.232	87.69
244.465	75.69
244.699	73.69
244.932	59.69
245.166	68.69
245.399	75.69
245.633	70.69
245.866	72.69
246.099	71.69
246.333	86.69
246.566	84.69
246.8	83.69
247.033	60.69
247.266	71.69
247.5	64.69
247.733	79.69
247.966	79.69
248.2	73.69
248.433	78.69
248.666	77.69
248.899	81.69
249.133	75.69
249.366	90.69
249.599	85.69
249.832	86.69
250.066	75.69
250.299	67.69
250.532	86.69
250.765	75.69
250.998	69.69
251.231	73.69
251.465	69.69
251.698	76.69
251.931	64.69
252.164	78.69
252.397	73.69
252.63	82.69
252.863	77.69
253.096	70.69
253.329	82.69
253.562	68.69
253.795	96.69
254.028	77.69
254.261	75.69
254.494	62.69
254.727	82.69
254.96	79.69
255.193	96.69
255.426	81.69
255.659	84.69
255.892	76.69
256.124	69.69
256.357	79.69
256.59	75.69
256.823	81.69
257.056	83.69
257.289	71.69
257.521	73.69
257.754	92.69
257.987	87.69
258.22	79.69
258.452	78.69
258.685	72.69
258.918	77.69
259.151	82.69
259.383	89.69
259.616	82.69
259.849	86.69
260.081	94.69
260.314	83.69
260.547	73.69
260.779	83.69
261.012	79.69
261.244	78.69
261.477	79.69
261.71	88.69
261.942	116.69
262.175	96.69
262.407	90.69
262.64	72.69
262.872	82.69
263.105	85.69
263.337	92.69
263.57	92.69
263.802	76.69
264.035	98.69
264.267	76.69
264.499	79.69
264.732	85.69
264.964	72.69
265.197	84.69
265.429	81.69
265.661	88.69
265.894	80.69
266.126	67.69
266.358	87.69
266.591	83.69
266.823	71.69
267.055	93.69
267.287	81.69
267.52	94.69
267.752	85.69
267.984	69.69
268.216	86.69
268.448	76.69
268.681	76.69
268.913	85.69
269.145	91.69
269.377	94.69
269.609	76.69
269.841	73.69
270.073	75.69
270.306	87.69
270.538	89.69
270.77	77.69
271.002	64.69
271.234	79.69
271.466	80.69
271.698	81.69
271.93	66.69
272.162	89.69
272.394	95.69
272.626	99.69
272.858	86.69
273.09	83.69
273.322	86.69
273.553	71.69
273.785	81.69
274.017	82.69
274.249	89.69
274.481	84.69
274.713	84.69
274.945	97.69
275.176	87.69
275.408	83.69
275.64	97.69
275.872	85.69
276.104	85.69
276.335	97.69
276.567	96.69
276.799	98.69
277.031	87.69
277.262	69.69
277.494	77.69
277.726	88.69
277.957	94.69
278.189	70.69
278.421	93.69
278.652	78.69
278.884	87.69
279.115	71.69
279.347	81.69
279.579	78.69
279.81	70.69
280.042	78.69
280.273	92.69
280.505	80.69
280.736	75.69
280.968	80.69
281.199	75.69
281.431	92.69
281.662	77.69
281.894	90.69
282.125	99.69
282.356	129.69
282.588	140.69
282.819	119.69
283.051	81.69
283.282	87.69
283.513	88.69
283.745	89.69
283.976	91.69
284.207	89.69
284.439	87.69
284.67	91.69
284.901	86.69
285.132	79.69
285.364	83.69
285.595	89.69
285.826	89.69
286.057	85.69
286.288	78.69
286.52	83.69
286.751	81.69
286.982	86.69
287.213	70.69
287.444	96.69
287.675	77.69
287.906	79.69
288.138	83.69
288.369	80.69
288.6	77.69
288.831	92.69
289.062	86.69
289.293	91.69
289.524	81.69
289.755	84.69
289.986	84.69
290.217	67.69
290.448	77.69
290.679	77.69
290.91	82.69
291.141	90.69
291.371	83.69
291.602	87.69
291.833	86.69
292.064	87.69
292.295	90.69
292.526	93.69
292.757	99.69
292.987	86.69
293.218	85.69
293.449	89.69
293.68	77.69
293.91	75.69
294.141	96.69
294.372	105.69
294.603	86.69
294.833	84.69
295.064	77.69
295.295	93.69
295.525	88.69
295.756	85.69
295.987	106.69
296.217	128.69
296.448	123.69
296.679	89.69
296.909	99.69
297.14	88.69
297.37	83.69
297.601	82.69
297.831	90.69
298.062	97.69
298.292	86.69
298.523	94.69
298.753	84.69
298.984	96.69
299.214	104.69
299.445	88.69
299.675	84.69
299.905	100.69
300.136	79.69
300.366	82.69
300.597	79.69
300.827	86.69
301.057	101.69
301.288	95.69
301.518	85.69
301.748	88.69
301.979	102.69
302.209	87.69
302.439	76.69
302.669	91.69
302.9	81.69
303.13	93.69
303.36	89.69
303.59	97.69
303.82	89.69
304.051	70.69
304.281	95.69
304.511	95.69
304.741	82.69
304.971	90.69
305.201	73.69
305.431	83.69
305.661	88.69
305.891	88.69
306.121	88.69
306.352	110.69
306.582	97.69
306.812	89.69
307.042	97.69
307.272	111.69
307.502	92.69
307.731	89.69
307.961	83.69
308.191	87.69
308.421	83.69
308.651	89.69
308.881	99.69
309.111	89.69
309.341	91.69
309.571	103.69
309.8	90.69
310.03	95.69
310.26	94.69
310.49	99.69
310.72	84.69
310.949	97.69
311.179	103.69
311.409	89.69
311.639	97.69
311.868	102.69
312.098	91.69
312.328	94.69
312.557	106.69
312.787	97.69
313.017	102.69
313.246	93.69
313.476	72.69
313.706	87.69
313.935	94.69
314.165	97.69
314.394	93.69
314.624	90.69
314.853	87.69
315.083	104.69
315.312	96.69
315.542	96.69
315.771	95.69
316.001	95.69
316.23	95.69
316.46	81.69
316.689	97.69
316.919	85.69
317.148	85.69
317.377	103.69
317.607	73.69
317.836	93.69
318.065	96.69
318.295	95.69
318.524	92.69
318.753	88.69
318.983	88.69
319.212	103.69
319.441	105.69
319.67	112.69
319.9	82.69
320.129	85.69
320.358	93.69
320.587	101.69
320.816	105.69
321.046	96.69
321.275	100.69
321.504	99.69
321.733	90.69
321.962	91.69
322.191	97.69
322.42	114.69
322.649	119.69
322.878	126.69
323.108	119.69
323.337	114.69
323.566	128.69
323.795	139.69
324.024	201.69
324.253	399.69
324.482	837.69
324.71	1767.69
324.939	2376.69
325.168	848.69
325.397	245.69
325.626	141.69
325.855	147.69
326.084	117.69
326.313	136.69
326.542	159.69
326.77	229.69
326.999	466.69
327.228	998.69
327.457	1856.69
327.686	1458.69
327.914	395.69
328.143	178.69
328.372	161.69
328.6	127.69
328.829	105.69
329.058	119.69
329.287	120.69
329.515	97.69
329.744	99.69
329.972	93.69
330.201	113.69
330.43	113.69
330.658	124.69
330.887	149.69
331.115	125.69
331.344	98.69
331.572	88.69
331.801	103.69
332.03	95.69
332.258	85.69
332.486	100.69
332.715	82.69
332.943	92.69
333.172	99.69
333.4	96.69
333.629	103.69
333.857	104.69
334.085	105.69
334.314	112.69
334.542	112.69
334.771	104.69
334.999	99.69
335.227	93.69
335.455	92.69
335.684	89.69
335.912	96.69
336.14	103.69
336.369	95.69
336.597	105.69
336.825	96.69
337.053	90.69
337.281	70.69
337.51	98.69
337.738	95.69
337.966	103.69
338.194	96.69
338.422	100.69
338.65	74.69
338.878	97.69
339.106	90.69
339.334	101.69
339.562	98.69
339.79	85.69
340.018	85.69
340.246	97.69
340.474	80.69
340.702	80.69
340.93	93.69
341.158	75.69
341.386	91.69
341.614	95.69
341.842	89.69
342.07	86.69
342.298	80.69
342.526	79.69
342.754	79.69
342.981	109.69
343.209	90.69
343.437	91.69
343.665	81.69
343.893	78.69
344.12	89.69
344.348	91.69
344.576	84.69
344.804	81.69
345.031	94.69
345.259	83.69
345.487	86.69
345.714	94.69
345.942	102.69
346.17	93.69
346.397	77.69
346.625	95.69
346.853	95.69
347.08	89.69
347.308	111.69
347.535	103.69
347.763	89.69
347.99	104.69
348.218	95.69
348.445	107.69
348.673	96.69
348.9	102.69
349.128	99.69
349.355	89.69
349.583	81.69
349.81	91.69
350.037	83.69
350.265	88.69
350.492	99.69
350.72	91.69
350.947	80.69
351.174	106.69
351.402	96.69
351.629	99.69
351.856	124.69
352.083	112.69
352.311	109.69
352.538	115.69
352.765	110.69
352.992	101.69
353.22	103.69
353.447	105.69
353.674	105.69
353.901	96.69
354.128	99.69
354.355	96.69
354.583	102.69
354.81	96.69
355.037	94.69
355.264	105.69
355.491	84.69
355.718	96.69
355.945	91.69
356.172	99.69
356.399	91.69
356.626	86.69
356.853	96.69
357.08	93.69
357.307	81.69
357.534	94.69
357.761	79.69
357.988	104.69
358.215	79.69
358.441	107.69
358.668	95.69
358.895	109.69
359.122	90.69
359.349	95.69
359.576	86.69
359.802	96.69
360.029	106.69
360.256	114.69
360.483	94.69
360.709	86.69
360.936	102.69
361.163	99.69
361.39	96.69
361.616	106.69
361.843	84.69
362.07	90.69
362.296	93.69
362.523	86.69
362.749	88.69
362.976	82.69
363.203	82.69
363.429	96.69
363.656	82.69
363.882	83.69
364.109	89.69
364.335	91.69
364.562	96.69
364.788	91.69
365.015	95.69
365.241	105.69
365.468	117.69
365.694	101.69
365.92	102.69
366.147	97.69
366.373	92.69
366.599	84.69
366.826	81.69
367.052	104.69
367.278	98.69
367.505	79.69
367.731	96.69
367.957	101.69
368.184	89.69
368.41	91.69
368.636	110.69
368.862	112.69
369.089	98.69
369.315	91.69
369.541	94.69
369.767	94.69
369.993	87.69
370.219	84.69
370.445	86.69
370.672	80.69
370.898	102.69
371.124	93.69
371.35	97.69
371.576	91.69
371.802	88.69
372.028	93.69
372.254	93.69
372.48	85.69
372.706	93.69
372.932	86.69
373.158	91.69
373.384	95.69
373.61	88.69
373.835	89.69
374.061	95.69
374.287	98.69
374.513	92.69
374.739	80.69
374.965	92.69
375.191	77.69
375.416	93.69
375.642	90.69
375.868	98.69
376.094	97.69
376.319	84.69
376.545	96.69
376.771	68.69
376.997	90.69
377.222	75.69
377.448	94.69
377.674	94.69
377.899	96.69
378.125	102.69
378.35	88.69
378.576	106.69
378.802	87.69
379.027	103.69
379.253	90.69
379.478	75.69
379.704	82.69
379.929	87.69
380.155	100.69
380.38	91.69
380.606	102.69
380.831	94.69
381.057	100.69
381.282	93.69
381.507	87.69
381.733	85.69
381.958	102.69
382.184	89.69
382.409	86.69
382.634	102.69
382.86	79.69
383.085	95.69
383.31	99.69
383.535	115.69
383.761	100.69
383.986	93.69
384.211	84.69
384.436	93.69
384.662	94.69
384.887	97.69
385.112	86.69
385.337	101.69
385.562	105.69
385.787	100.69
386.013	115.69
386.238	104.69
386.463	98.69
386.688	99.69
386.913	108.69
387.138	103.69
387.363	102.69
387.588	103.69
387.813	92.69
388.038	104.69
388.263	103.69
388.488	106.69
388.713	92.69
388.938	92.69
389.163	97.69
389.387	83.69
389.612	98.69
389.837	88.69
390.062	75.69
390.287	99.69
390.512	87.69
390.736	92.69
390.961	87.69
391.186	89.69
391.411	84.69
391.636	100.69
391.86	87.69
392.085	83.69
392.31	81.69
392.534	93.69
392.759	89.69
392.984	70.69
393.208	96.69
393.433	71.69
393.658	89.69
393.882	108.69
394.107	85.69
394.331	86.69
394.556	83.69
394.78	92.69
395.005	87.69
395.229	87.69
395.454	94.69
395.678	81.69
395.903	85.69
396.127	95.69
396.352	91.69
396.576	95.69
396.801	104.69
397.025	100.69
397.249	97.69
397.474	82.69
397.698	77.69
397.922	78.69
398.147	95.69
398.371	87.69
398.595	100.69
398.82	82.69
399.044	100.69
399.268	101.69
399.492	88.69
399.717	90.69
399.941	94.69
400.165	85.69
400.389	95.69
400.613	100.69
400.837	97.69
401.062	83.69
401.286	90.69
401.51	93.69
401.734	77.69
401.958	96.69
402.182	129.69
402.406	148.69
402.63	108.69
402.854	98.69
403.078	87.69
403.302	91.69
403.526	85.69
403.75	85.69
403.974	91.69
404.198	77.69
404.422	79.69
404.645	88.69
404.869	89.69
405.093	98.69
405.317	96.69
405.541	95.69
405.765	93.69
405.988	117.69
406.212	177.69
406.436	231.69
406.66	135.69
406.883	97.69
407.107	94.69
407.331	83.69
407.555	95.69
407.778	102.69
408.002	100.69
408.226	83.69
408.449	92.69
408.673	85.69
408.896	89.69
409.12	98.69
409.344	92.69
409.567	81.69
409.791	83.69
410.014	107.69
410.238	96.69
410.461	104.69
410.685	105.69
410.908	97.69
411.132	98.69
411.355	88.69
411.578	76.69
411.802	81.69
412.025	83.69
412.249	95.69
412.472	84.69
412.695	85.69
412.919	87.69
413.142	87.69
413.365	82.69
413.589	83.69
413.812	90.69
414.035	91.69
414.258	80.69
414.482	80.69
414.705	80.69
414.928	91.69
415.151	105.69
415.374	106.69
415.597	81.69
415.821	94.69
416.044	71.69
416.267	96.69
416.49	90.69
416.713	97.69
416.936	95.69
417.159	88.69
417.382	76.69
417.605	91.69
417.828	92.69
418.051	95.69
418.274	87.69
418.497	79.69
418.72	92.69
418.943	97.69
419.166	95.69
419.389	87.69
419.611	76.69
419.834	72.69
420.057	101.69
420.28	92.69
420.503	83.69
420.726	95.69
420.948	88.69
421.171	102.69
421.394	92.69
421.617	82.69
421.839	78.69
422.062	87.69
422.285	92.69
422.507	105.69
422.73	106.69
422.953	95.69
423.175	75.69
423.398	87.69
423.621	97.69
423.843	81.69
424.066	80.69
424.288	111.69
424.511	96.69
424.733	97.69
424.956	117.69
425.178	89.69
425.401	107.69
425.623	101.69
425.846	86.69
426.068	92.69
426.291	106.69
426.513	95.69
426.735	84.69
426.958	85.69
427.18	103.69
427.402	143.69
427.625	176.69
427.847	141.69
428.069	99.69
428.292	92.69
428.514	84.69
428.736	81.69
428.958	86.69
429.181	76.69
429.403	88.69
429.625	80.69
429.847	86.69
430.069	101.69
430.292	103.69
430.514	82.69
430.736	83.69
430.958	92.69
431.18	86.69
431.402	82.69
431.624	80.69
431.846	88.69
432.068	71.69
432.29	84.69
432.512	98.69
432.734	87.69
432.956	69.69
433.178	101.69
433.4	99.69
433.622	71.69
433.844	102.69
434.066	92.69
434.287	87.69
434.509	87.69
434.731	83.69
434.953	84.69
435.175	93.69
435.397	87.69
435.618	98.69
435.84	99.69
436.062	117.69
436.284	110.69
436.505	108.69
436.727	110.69
436.949	95.69
437.17	88.69
437.392	94.69
437.614	88.69
437.835	111.69
438.057	117.69
438.278	98.69
438.5	114.69
438.721	125.69
438.943	92.69
439.165	85.69
439.386	84.69
439.608	85.69
439.829	87.69
440.05	128.69
440.272	150.69
440.493	102.69
440.715	86.69
440.936	93.69
441.158	100.69
441.379	97.69
441.6	89.69
441.822	91.69
442.043	97.69
442.264	104.69
442.486	106.69
442.707	107.69
442.928	94.69
443.149	150.69
443.371	115.69
443.592	123.69
443.813	109.69
444.034	121.69
444.255	98.69
444.476	94.69
444.698	96.69
444.919	94.69
445.14	124.69
445.361	130.69
445.582	145.69
445.803	156.69
446.024	132.69
446.245	141.69
446.466	116.69
446.687	87.69
446.908	85.69
447.129	91.69
447.35	77.69
447.571	89.69
447.792	101.69
448.013	114.69
448.234	113.69
448.455	95.69
448.675	111.69
448.896	120.69
449.117	117.69
449.338	100.69
449.559	121.69
449.779	136.69
450	95.69
450.221	83.69
450.442	89.69
450.662	92.69
450.883	107.69
451.104	126.69
451.324	96.69
451.545	95.69
451.766	81.69
451.986	83.69
452.207	84.69
452.428	89.69
452.648	98.69
452.869	110.69
453.089	106.69
453.31	125.69
453.53	89.69
453.751	86.69
453.971	94.69
454.192	99.69
454.412	85.69
454.633	75.69
454.853	63.69
455.073	96.69
455.294	89.69
455.514	91.69
455.734	95.69
455.955	90.69
456.175	89.69
456.395	94.69
456.616	89.69
456.836	81.69
457.056	79.69
457.276	88.69
457.497	90.69
457.717	83.69
457.937	85.69
458.157	83.69
458.377	87.69
458.598	111.69
458.818	151.69
459.038	168.69
459.258	117.69
459.478	94.69
459.698	74.69
459.918	80.69
460.138	89.69
460.358	77.69
460.578	79.69
460.798	94.69
461.018	88.69
461.238	98.69
461.458	79.69
461.678	94.69
461.898	95.69
462.118	91.69
462.338	105.69
462.558	90.69
462.777	90.69
462.997	87.69
463.217	89.69
463.437	69.69
463.657	88.69
463.876	96.69
464.096	93.69
464.316	101.69
464.536	92.69
464.755	108.69
464.975	111.69
465.195	159.69
465.414	156.69
465.634	98.69
465.854	83.69
466.073	85.69
466.293	91.69
466.512	81.69
466.732	73.69
466.951	88.69
467.171	88.69
467.391	95.69
467.61	93.69
467.829	93.69
468.049	76.69
468.268	98.69
468.488	84.69
468.707	85.69
468.927	84.69
469.146	86.69
469.365	91.69
469.585	84.69
469.804	105.69
470.023	89.69
470.243	94.69
470.462	83.69
470.681	105.69
470.901	91.69
471.12	98.69
471.339	91.69
471.558	79.69
471.777	87.69
471.997	88.69
472.216	103.69
472.435	105.69
472.654	89.69
472.873	97.69
473.092	78.69
473.311	75.69
473.53	86.69
473.749	80.69
473.968	84.69
474.187	94.69
474.406	93.69
474.625	86.69
474.844	93.69
475.063	70.69
475.282	84.69
475.501	87.69
475.72	81.69
475.939	87.69
476.158	98.69
476.377	94.69
476.596	76.69
476.814	87.69
477.033	82.69
477.252	95.69
477.471	93.69
477.69	93.69
477.908	100.69
478.127	80.69
478.346	71.69
478.564	99.69
478.783	91.69
479.002	78.69
479.22	88.69
479.439	79.69
479.658	88.69
479.876	73.69
480.095	89.69
480.313	95.69
480.532	103.69
480.751	95.69
480.969	89.69
481.188	113.69
481.406	101.69
481.624	87.69
481.843	92.69
482.061	85.69
482.28	94.69
482.498	83.69
482.717	86.69
482.935	88.69
483.153	99.69
483.372	101.69
483.59	85.69
483.808	92.69
484.027	106.69
484.245	104.69
484.463	91.69
484.681	86.69
484.9	84.69
485.118	90.69
485.336	99.69
485.554	98.69
485.772	97.69
485.99	107.69
486.209	91.69
486.427	105.69
486.645	99.69
486.863	90.69
487.081	102.69
487.299	105.69
487.517	95.69
487.735	103.69
487.953	100.69
488.171	91.69
488.389	111.69
488.607	92.69
488.825	80.69
489.043	95.69
489.261	85.69
489.479	86.69
489.696	105.69
489.914	83.69
490.132	73.69
490.35	83.69
490.568	77.69
490.786	82.69
491.003	85.69
491.221	93.69
491.439	81.69
491.657	93.69
491.874	93.69
492.092	84.69
492.31	93.69
492.527	85.69
492.745	86.69
492.963	98.69
493.18	93.69
493.398	96.69
493.615	101.69
493.833	109.69
494.05	89.69
494.268	80.69
494.485	101.69
494.703	87.69
494.92	88.69
495.138	91.69
495.355	93.69
495.573	97.69
495.79	90.69
496.008	96.69
496.225	92.69
496.442	78.69
496.66	80.69
496.877	87.69
497.094	105.69
497.312	112.69
497.529	114.69
497.746	107.69
497.963	94.69
498.181	97.69
498.398	95.69
498.615	100.69
498.832	109.69
499.049	110.69
499.267	87.69
499.484	95.69
499.701	82.69
499.918	96.69
500.135	94.69
500.352	80.69
500.569	99.69
500.786	77.69
501.003	77.69
501.22	79.69
501.437	88.69
501.654	93.69
501.871	103.69
502.088	81.69
502.305	77.69
502.522	83.69
502.739	87.69
502.956	99.69
503.172	98.69
503.389	98.69
503.606	100.69
503.823	114.69
504.04	96.69
504.256	103.69
504.473	83.69
504.69	81.69
504.907	105.69
505.123	89.69
505.34	89.69
505.557	84.69
505.773	97.69
505.99	87.69
506.207	97.69
506.423	93.69
506.64	98.69
506.856	97.69
507.073	99.69
507.289	81.69
507.506	91.69
507.722	106.69
507.939	109.69
508.155	93.69
508.372	92.69
508.588	99.69
508.805	94.69
509.021	95.69
509.238	99.69
509.454	99.69
509.67	100.69
509.887	85.69
510.103	120.69
510.319	218.69
510.536	715.69
510.752	2250.69
510.968	613.69
511.184	131.69
511.401	102.69
511.617	119.69
511.833	91.69
512.049	116.69
512.265	97.69
512.481	88.69
512.698	78.69
512.914	104.69
513.13	81.69
513.346	87.69
513.562	89.69
513.778	76.69
513.994	89.69
514.21	105.69
514.426	113.69
514.642	131.69
514.858	127.69
515.074	169.69
515.29	435.69
515.506	1429.69
515.721	503.69
515.937	153.69
516.153	103.69
