Data from Uncirc_1987_H10_HRD10591_00025.txt Node
Date: Wed Jan 03 12:08:53 EST 2024
User: Yrep
Spectrometer: HR+D1059
Trigger mode: 1
Integration Time (sec): 1.000000E-1
Scans to average: 1
Electric dark correction enabled: true
Nonlinearity correction enabled: false
Boxcar width: 0
XAxis mode: Wavelengths
Number of Pixels in Spectrum: 2048
>>>>>Begin Spectral Data<<<<<
223.165	-20.56
223.4	-20.56
223.635	-20.56
223.869	-9.56
224.104	-23.56
224.338	-24.56
224.573	-22.56
224.808	-23.56
225.042	3.44
225.277	1.44
225.511	10.44
225.746	3.44
225.98	3.44
226.215	24.44
226.449	19.44
226.683	18.44
226.918	16.44
227.152	23.44
227.387	22.44
227.621	25.44
227.856	46.44
228.09	55.44
228.324	55.44
228.559	68.44
228.793	56.44
229.027	64.44
229.262	73.44
229.496	85.44
229.73	81.44
229.964	84.44
230.199	76.44
230.433	91.44
230.667	75.44
230.901	80.44
231.136	65.44
231.37	80.44
231.604	82.44
231.838	68.44
232.072	71.44
232.306	84.44
232.541	79.44
232.775	73.44
233.009	83.44
233.243	80.44
233.477	78.44
233.711	74.44
233.945	84.44
234.179	73.44
234.413	62.44
234.647	82.44
234.881	78.44
235.115	82.44
235.349	75.44
235.583	76.44
235.817	81.44
236.051	82.44
236.285	87.44
236.519	86.44
236.753	83.44
236.987	78.44
237.221	76.44
237.455	85.44
237.689	72.44
237.922	69.44
238.156	81.44
238.39	80.44
238.624	70.44
238.858	82.44
239.091	72.44
239.325	78.44
239.559	75.44
239.793	83.44
240.027	72.44
240.26	82.44
240.494	76.44
240.728	78.44
240.961	68.44
241.195	86.44
241.429	84.44
241.662	76.44
241.896	74.44
242.13	90.44
242.363	70.44
242.597	71.44
242.83	65.44
243.064	81.44
243.298	73.44
243.531	78.44
243.765	81.44
243.998	71.44
244.232	94.44
244.465	69.44
244.699	84.44
244.932	86.44
245.166	75.44
245.399	89.44
245.633	79.44
245.866	75.44
246.099	87.44
246.333	80.44
246.566	87.44
246.8	88.44
247.033	73.44
247.266	74.44
247.5	83.44
247.733	87.44
247.966	85.44
248.2	75.44
248.433	75.44
248.666	75.44
248.899	80.44
249.133	82.44
249.366	104.44
249.599	96.44
249.832	88.44
250.066	87.44
250.299	83.44
250.532	99.44
250.765	88.44
250.998	78.44
251.231	82.44
251.465	84.44
251.698	82.44
251.931	100.44
252.164	80.44
252.397	83.44
252.63	80.44
252.863	58.44
253.096	88.44
253.329	80.44
253.562	82.44
253.795	87.44
254.028	74.44
254.261	71.44
254.494	74.44
254.727	78.44
254.96	84.44
255.193	80.44
255.426	78.44
255.659	67.44
255.892	73.44
256.124	87.44
256.357	82.44
256.59	84.44
256.823	100.44
257.056	70.44
257.289	80.44
257.521	84.44
257.754	88.44
257.987	82.44
258.22	88.44
258.452	70.44
258.685	90.44
258.918	74.44
259.151	74.44
259.383	75.44
259.616	85.44
259.849	78.44
260.081	74.44
260.314	81.44
260.547	84.44
260.779	90.44
261.012	72.44
261.244	90.44
261.477	77.44
261.71	84.44
261.942	92.44
262.175	110.44
262.407	92.44
262.64	89.44
262.872	91.44
263.105	80.44
263.337	71.44
263.57	90.44
263.802	89.44
264.035	93.44
264.267	75.44
264.499	77.44
264.732	84.44
264.964	87.44
265.197	94.44
265.429	90.44
265.661	86.44
265.894	77.44
266.126	87.44
266.358	74.44
266.591	101.44
266.823	82.44
267.055	74.44
267.287	72.44
267.52	74.44
267.752	89.44
267.984	90.44
268.216	76.44
268.448	85.44
268.681	97.44
268.913	98.44
269.145	87.44
269.377	82.44
269.609	76.44
269.841	97.44
270.073	80.44
270.306	83.44
270.538	101.44
270.77	94.44
271.002	82.44
271.234	95.44
271.466	91.44
271.698	91.44
271.93	88.44
272.162	80.44
272.394	73.44
272.626	82.44
272.858	92.44
273.09	87.44
273.322	92.44
273.553	71.44
273.785	88.44
274.017	85.44
274.249	82.44
274.481	71.44
274.713	93.44
274.945	94.44
275.176	111.44
275.408	86.44
275.64	79.44
275.872	70.44
276.104	87.44
276.335	90.44
276.567	88.44
276.799	97.44
277.031	106.44
277.262	88.44
277.494	96.44
277.726	78.44
277.957	74.44
278.189	92.44
278.421	81.44
278.652	88.44
278.884	94.44
279.115	70.44
279.347	84.44
279.579	80.44
279.81	83.44
280.042	71.44
280.273	86.44
280.505	94.44
280.736	80.44
280.968	92.44
281.199	92.44
281.431	82.44
281.662	84.44
281.894	89.44
282.125	99.44
282.356	113.44
282.588	132.44
282.819	103.44
283.051	92.44
283.282	100.44
283.513	82.44
283.745	92.44
283.976	76.44
284.207	96.44
284.439	80.44
284.67	88.44
284.901	75.44
285.132	95.44
285.364	92.44
285.595	91.44
285.826	85.44
286.057	89.44
286.288	81.44
286.52	83.44
286.751	79.44
286.982	92.44
287.213	92.44
287.444	93.44
287.675	96.44
287.906	98.44
288.138	103.44
288.369	92.44
288.6	98.44
288.831	98.44
289.062	84.44
289.293	80.44
289.524	85.44
289.755	93.44
289.986	78.44
290.217	102.44
290.448	91.44
290.679	95.44
290.91	98.44
291.141	82.44
291.371	91.44
291.602	92.44
291.833	102.44
292.064	100.44
292.295	67.44
292.526	81.44
292.757	96.44
292.987	75.44
293.218	85.44
293.449	80.44
293.68	78.44
293.91	101.44
294.141	94.44
294.372	88.44
294.603	99.44
294.833	94.44
295.064	92.44
295.295	107.44
295.525	89.44
295.756	90.44
295.987	108.44
296.217	116.44
296.448	113.44
296.679	92.44
296.909	80.44
297.14	89.44
297.37	85.44
297.601	89.44
297.831	74.44
298.062	73.44
298.292	106.44
298.523	80.44
298.753	97.44
298.984	86.44
299.214	93.44
299.445	90.44
299.675	89.44
299.905	103.44
300.136	101.44
300.366	102.44
300.597	89.44
300.827	91.44
301.057	104.44
301.288	97.44
301.518	97.44
301.748	102.44
301.979	102.44
302.209	93.44
302.439	97.44
302.669	88.44
302.9	85.44
303.13	89.44
303.36	78.44
303.59	102.44
303.82	95.44
304.051	98.44
304.281	80.44
304.511	100.44
304.741	102.44
304.971	91.44
305.201	87.44
305.431	101.44
305.661	86.44
305.891	107.44
306.121	78.44
306.352	91.44
306.582	96.44
306.812	76.44
307.042	95.44
307.272	102.44
307.502	94.44
307.731	92.44
307.961	81.44
308.191	83.44
308.421	87.44
308.651	102.44
308.881	100.44
309.111	101.44
309.341	90.44
309.571	89.44
309.8	96.44
310.03	104.44
310.26	110.44
310.49	93.44
310.72	88.44
310.949	104.44
311.179	100.44
311.409	103.44
311.639	86.44
311.868	94.44
312.098	92.44
312.328	100.44
312.557	95.44
312.787	105.44
313.017	95.44
313.246	90.44
313.476	100.44
313.706	95.44
313.935	107.44
314.165	95.44
314.394	112.44
314.624	95.44
314.853	103.44
315.083	96.44
315.312	93.44
315.542	85.44
315.771	87.44
316.001	87.44
316.23	92.44
316.46	89.44
316.689	80.44
316.919	101.44
317.148	106.44
317.377	88.44
317.607	82.44
317.836	90.44
318.065	92.44
318.295	96.44
318.524	86.44
318.753	95.44
318.983	101.44
319.212	100.44
319.441	116.44
319.67	89.44
319.9	99.44
320.129	104.44
320.358	90.44
320.587	90.44
320.816	92.44
321.046	105.44
321.275	98.44
321.504	93.44
321.733	98.44
321.962	114.44
322.191	95.44
322.42	101.44
322.649	101.44
322.878	110.44
323.108	112.44
323.337	122.44
323.566	123.44
323.795	132.44
324.024	182.44
324.253	328.44
324.482	678.44
324.71	1406.44
324.939	1857.44
325.168	657.44
325.397	221.44
325.626	125.44
325.855	130.44
326.084	118.44
326.313	113.44
326.542	132.44
326.77	197.44
326.999	403.44
327.228	775.44
327.457	1430.44
327.686	1140.44
327.914	318.44
328.143	172.44
328.372	144.44
328.6	122.44
328.829	116.44
329.058	119.44
329.287	127.44
329.515	113.44
329.744	96.44
329.972	81.44
330.201	96.44
330.43	110.44
330.658	103.44
330.887	125.44
331.115	107.44
331.344	92.44
331.572	103.44
331.801	94.44
332.03	96.44
332.258	92.44
332.486	100.44
332.715	82.44
332.943	107.44
333.172	97.44
333.4	100.44
333.629	105.44
333.857	91.44
334.085	103.44
334.314	96.44
334.542	116.44
334.771	110.44
334.999	93.44
335.227	92.44
335.455	99.44
335.684	101.44
335.912	107.44
336.14	103.44
336.369	91.44
336.597	107.44
336.825	84.44
337.053	87.44
337.281	90.44
337.51	118.44
337.738	107.44
337.966	98.44
338.194	95.44
338.422	113.44
338.65	94.44
338.878	99.44
339.106	97.44
339.334	91.44
339.562	89.44
339.79	86.44
340.018	71.44
340.246	99.44
340.474	93.44
340.702	91.44
340.93	94.44
341.158	96.44
341.386	88.44
341.614	94.44
341.842	97.44
342.07	82.44
342.298	83.44
342.526	90.44
342.754	89.44
342.981	86.44
343.209	102.44
343.437	114.44
343.665	92.44
343.893	81.44
344.12	110.44
344.348	85.44
344.576	99.44
344.804	82.44
345.031	91.44
345.259	107.44
345.487	88.44
345.714	93.44
345.942	89.44
346.17	86.44
346.397	97.44
346.625	90.44
346.853	86.44
347.08	97.44
347.308	104.44
347.535	95.44
347.763	86.44
347.99	86.44
348.218	100.44
348.445	96.44
348.673	107.44
348.9	94.44
349.128	105.44
349.355	90.44
349.583	98.44
349.81	103.44
350.037	96.44
350.265	99.44
350.492	72.44
350.72	97.44
350.947	110.44
351.174	97.44
351.402	114.44
351.629	92.44
351.856	97.44
352.083	110.44
352.311	107.44
352.538	104.44
352.765	101.44
352.992	101.44
353.22	91.44
353.447	105.44
353.674	98.44
353.901	95.44
354.128	93.44
354.355	87.44
354.583	93.44
354.81	102.44
355.037	89.44
355.264	89.44
355.491	99.44
355.718	87.44
355.945	82.44
356.172	96.44
356.399	104.44
356.626	96.44
356.853	86.44
357.08	102.44
357.307	100.44
357.534	85.44
357.761	105.44
357.988	108.44
358.215	93.44
358.441	91.44
358.668	86.44
358.895	89.44
359.122	84.44
359.349	99.44
359.576	86.44
359.802	96.44
360.029	99.44
360.256	101.44
360.483	83.44
360.709	89.44
360.936	102.44
361.163	89.44
361.39	96.44
361.616	88.44
361.843	90.44
362.07	79.44
362.296	88.44
362.523	99.44
362.749	81.44
362.976	89.44
363.203	94.44
363.429	82.44
363.656	86.44
363.882	89.44
364.109	93.44
364.335	90.44
364.562	100.44
364.788	98.44
365.015	86.44
365.241	96.44
365.468	103.44
365.694	105.44
365.92	95.44
366.147	86.44
366.373	90.44
366.599	82.44
366.826	79.44
367.052	85.44
367.278	95.44
367.505	95.44
367.731	100.44
367.957	88.44
368.184	86.44
368.41	99.44
368.636	108.44
368.862	111.44
369.089	95.44
369.315	89.44
369.541	99.44
369.767	80.44
369.993	79.44
370.219	90.44
370.445	99.44
370.672	97.44
370.898	89.44
371.124	86.44
371.35	100.44
371.576	99.44
371.802	99.44
372.028	93.44
372.254	86.44
372.48	76.44
372.706	78.44
372.932	84.44
373.158	88.44
373.384	90.44
373.61	89.44
373.835	99.44
374.061	80.44
374.287	94.44
374.513	94.44
374.739	87.44
374.965	101.44
375.191	98.44
375.416	96.44
375.642	82.44
375.868	91.44
376.094	88.44
376.319	91.44
376.545	90.44
376.771	104.44
376.997	97.44
377.222	107.44
377.448	89.44
377.674	82.44
377.899	94.44
378.125	86.44
378.35	74.44
378.576	91.44
378.802	93.44
379.027	96.44
379.253	81.44
379.478	97.44
379.704	78.44
379.929	90.44
380.155	115.44
380.38	89.44
380.606	97.44
380.831	92.44
381.057	92.44
381.282	100.44
381.507	95.44
381.733	101.44
381.958	99.44
382.184	89.44
382.409	92.44
382.634	104.44
382.86	99.44
383.085	102.44
383.31	97.44
383.535	93.44
383.761	86.44
383.986	92.44
384.211	98.44
384.436	95.44
384.662	100.44
384.887	106.44
385.112	100.44
385.337	83.44
385.562	106.44
385.787	105.44
386.013	111.44
386.238	106.44
386.463	98.44
386.688	105.44
386.913	98.44
387.138	111.44
387.363	97.44
387.588	91.44
387.813	102.44
388.038	103.44
388.263	98.44
388.488	102.44
388.713	94.44
388.938	84.44
389.163	91.44
389.387	92.44
389.612	88.44
389.837	94.44
390.062	88.44
390.287	100.44
390.512	89.44
390.736	80.44
390.961	99.44
391.186	102.44
391.411	97.44
391.636	98.44
391.86	64.44
392.085	91.44
392.31	89.44
392.534	98.44
392.759	99.44
392.984	94.44
393.208	87.44
393.433	94.44
393.658	91.44
393.882	86.44
394.107	90.44
394.331	80.44
394.556	84.44
394.78	90.44
395.005	92.44
395.229	95.44
395.454	98.44
395.678	84.44
395.903	85.44
396.127	103.44
396.352	76.44
396.576	80.44
396.801	82.44
397.025	104.44
397.249	79.44
397.474	89.44
397.698	90.44
397.922	92.44
398.147	81.44
398.371	83.44
398.595	80.44
398.82	86.44
399.044	81.44
399.268	86.44
399.492	74.44
399.717	87.44
399.941	79.44
400.165	104.44
400.389	96.44
400.613	93.44
400.837	84.44
401.062	78.44
401.286	84.44
401.51	95.44
401.734	91.44
401.958	101.44
402.182	121.44
402.406	136.44
402.63	106.44
402.854	83.44
403.078	71.44
403.302	90.44
403.526	94.44
403.75	101.44
403.974	87.44
404.198	94.44
404.422	89.44
404.645	85.44
404.869	92.44
405.093	82.44
405.317	105.44
405.541	84.44
405.765	105.44
405.988	107.44
406.212	147.44
406.436	192.44
406.66	111.44
406.883	96.44
407.107	87.44
407.331	101.44
407.555	115.44
407.778	87.44
408.002	91.44
408.226	92.44
408.449	86.44
408.673	86.44
408.896	83.44
409.12	103.44
409.344	82.44
409.567	82.44
409.791	92.44
410.014	88.44
410.238	82.44
410.461	89.44
410.685	99.44
410.908	92.44
411.132	107.44
411.355	99.44
411.578	94.44
411.802	88.44
412.025	98.44
412.249	88.44
412.472	102.44
412.695	92.44
412.919	79.44
413.142	82.44
413.365	90.44
413.589	89.44
413.812	85.44
414.035	92.44
414.258	95.44
414.482	91.44
414.705	101.44
414.928	109.44
415.151	99.44
415.374	98.44
415.597	81.44
415.821	82.44
416.044	85.44
416.267	83.44
416.49	94.44
416.713	87.44
416.936	96.44
417.159	97.44
417.382	82.44
417.605	74.44
417.828	70.44
418.051	90.44
418.274	89.44
418.497	86.44
418.72	86.44
418.943	87.44
419.166	89.44
419.389	91.44
419.611	99.44
419.834	89.44
420.057	92.44
420.28	86.44
420.503	96.44
420.726	91.44
420.948	91.44
421.171	89.44
421.394	82.44
421.617	88.44
421.839	94.44
422.062	94.44
422.285	93.44
422.507	86.44
422.73	96.44
422.953	90.44
423.175	97.44
423.398	101.44
423.621	96.44
423.843	74.44
424.066	84.44
424.288	86.44
424.511	98.44
424.733	99.44
424.956	100.44
425.178	112.44
425.401	85.44
425.623	96.44
425.846	89.44
426.068	100.44
426.291	100.44
426.513	79.44
426.735	83.44
426.958	88.44
427.18	104.44
427.402	131.44
427.625	128.44
427.847	115.44
428.069	108.44
428.292	105.44
428.514	98.44
428.736	87.44
428.958	80.44
429.181	80.44
429.403	78.44
429.625	97.44
429.847	87.44
430.069	100.44
430.292	81.44
430.514	75.44
430.736	80.44
430.958	75.44
431.18	99.44
431.402	87.44
431.624	84.44
431.846	74.44
432.068	88.44
432.29	87.44
432.512	84.44
432.734	91.44
432.956	99.44
433.178	101.44
433.4	103.44
433.622	95.44
433.844	97.44
434.066	85.44
434.287	104.44
434.509	90.44
434.731	85.44
434.953	94.44
435.175	82.44
435.397	97.44
435.618	99.44
435.84	108.44
436.062	110.44
436.284	115.44
436.505	92.44
436.727	92.44
436.949	102.44
437.17	92.44
437.392	84.44
437.614	89.44
437.835	86.44
438.057	96.44
438.278	97.44
438.5	108.44
438.721	106.44
438.943	107.44
439.165	90.44
439.386	81.44
439.608	103.44
439.829	87.44
440.05	110.44
440.272	134.44
440.493	96.44
440.715	74.44
440.936	94.44
441.158	89.44
441.379	93.44
441.6	81.44
441.822	88.44
442.043	96.44
442.264	103.44
442.486	106.44
442.707	84.44
442.928	86.44
443.149	113.44
443.371	107.44
443.592	91.44
443.813	112.44
444.034	107.44
444.255	94.44
444.476	83.44
444.698	94.44
444.919	84.44
445.14	130.44
445.361	122.44
445.582	103.44
445.803	118.44
446.024	125.44
446.245	124.44
446.466	98.44
446.687	80.44
446.908	104.44
447.129	84.44
447.35	94.44
447.571	101.44
447.792	91.44
448.013	99.44
448.234	103.44
448.455	100.44
448.675	102.44
448.896	100.44
449.117	92.44
449.338	106.44
449.559	136.44
449.779	128.44
450	79.44
450.221	100.44
450.442	84.44
450.662	99.44
450.883	86.44
451.104	104.44
451.324	98.44
451.545	103.44
451.766	77.44
451.986	80.44
452.207	92.44
452.428	82.44
452.648	89.44
452.869	98.44
453.089	98.44
453.31	116.44
453.53	103.44
453.751	89.44
453.971	92.44
454.192	115.44
454.412	92.44
454.633	91.44
454.853	88.44
455.073	99.44
455.294	86.44
455.514	99.44
455.734	86.44
455.955	92.44
456.175	98.44
456.395	92.44
456.616	81.44
456.836	89.44
457.056	80.44
457.276	86.44
457.497	100.44
457.717	91.44
457.937	102.44
458.157	89.44
458.377	71.44
458.598	108.44
458.818	130.44
459.038	137.44
459.258	108.44
459.478	97.44
459.698	95.44
459.918	103.44
460.138	78.44
460.358	84.44
460.578	92.44
460.798	83.44
461.018	94.44
461.238	93.44
461.458	100.44
461.678	82.44
461.898	89.44
462.118	85.44
462.338	86.44
462.558	87.44
462.777	76.44
462.997	92.44
463.217	105.44
463.437	101.44
463.657	92.44
463.876	90.44
464.096	92.44
464.316	92.44
464.536	88.44
464.755	85.44
464.975	95.44
465.195	141.44
465.414	144.44
465.634	84.44
465.854	85.44
466.073	92.44
466.293	93.44
466.512	82.44
466.732	74.44
466.951	68.44
467.171	88.44
467.391	102.44
467.61	97.44
467.829	83.44
468.049	88.44
468.268	72.44
468.488	103.44
468.707	81.44
468.927	76.44
469.146	91.44
469.365	93.44
469.585	90.44
469.804	95.44
470.023	93.44
470.243	99.44
470.462	90.44
470.681	103.44
470.901	110.44
471.12	92.44
471.339	95.44
471.558	86.44
471.777	84.44
471.997	77.44
472.216	96.44
472.435	88.44
472.654	91.44
472.873	96.44
473.092	94.44
473.311	84.44
473.53	84.44
473.749	81.44
473.968	104.44
474.187	91.44
474.406	98.44
474.625	82.44
474.844	85.44
475.063	98.44
475.282	82.44
475.501	88.44
475.72	84.44
475.939	88.44
476.158	97.44
476.377	78.44
476.596	81.44
476.814	89.44
477.033	97.44
477.252	90.44
477.471	79.44
477.69	103.44
477.908	106.44
478.127	102.44
478.346	95.44
478.564	94.44
478.783	102.44
479.002	92.44
479.22	91.44
479.439	116.44
479.658	104.44
479.876	92.44
480.095	96.44
480.313	92.44
480.532	83.44
480.751	80.44
480.969	98.44
481.188	100.44
481.406	89.44
481.624	91.44
481.843	84.44
482.061	84.44
482.28	97.44
482.498	85.44
482.717	85.44
482.935	96.44
483.153	87.44
483.372	76.44
483.59	92.44
483.808	76.44
484.027	85.44
484.245	87.44
484.463	87.44
484.681	101.44
484.9	88.44
485.118	101.44
485.336	90.44
485.554	92.44
485.772	109.44
485.99	98.44
486.209	107.44
486.427	102.44
486.645	102.44
486.863	105.44
487.081	92.44
487.299	83.44
487.517	89.44
487.735	98.44
487.953	108.44
488.171	95.44
488.389	98.44
488.607	85.44
488.825	100.44
489.043	92.44
489.261	84.44
489.479	80.44
489.696	94.44
489.914	92.44
490.132	99.44
490.35	97.44
490.568	91.44
490.786	89.44
491.003	94.44
491.221	95.44
491.439	100.44
491.657	99.44
491.874	98.44
492.092	88.44
492.31	97.44
492.527	89.44
492.745	103.44
492.963	92.44
493.18	87.44
493.398	94.44
493.615	85.44
493.833	98.44
494.05	82.44
494.268	100.44
494.485	88.44
494.703	73.44
494.92	90.44
495.138	79.44
495.355	101.44
495.573	87.44
495.79	81.44
496.008	91.44
496.225	100.44
496.442	93.44
496.66	86.44
496.877	89.44
497.094	90.44
497.312	103.44
497.529	73.44
497.746	99.44
497.963	97.44
498.181	94.44
498.398	94.44
498.615	98.44
498.832	99.44
499.049	87.44
499.267	87.44
499.484	99.44
499.701	101.44
499.918	96.44
500.135	82.44
500.352	74.44
500.569	72.44
500.786	90.44
501.003	82.44
501.22	98.44
501.437	81.44
501.654	97.44
501.871	102.44
502.088	97.44
502.305	87.44
502.522	99.44
502.739	102.44
502.956	98.44
503.172	97.44
503.389	91.44
503.606	100.44
503.823	100.44
504.04	89.44
504.256	116.44
504.473	79.44
504.69	83.44
504.907	93.44
505.123	82.44
505.34	89.44
505.557	106.44
505.773	90.44
505.99	84.44
506.207	81.44
506.423	81.44
506.64	94.44
506.856	102.44
507.073	91.44
507.289	92.44
507.506	107.44
507.722	113.44
507.939	94.44
508.155	101.44
508.372	95.44
508.588	104.44
508.805	110.44
509.021	91.44
509.238	103.44
509.454	85.44
509.67	98.44
509.887	110.44
510.103	135.44
510.319	173.44
510.536	590.44
510.752	1826.44
510.968	523.44
511.184	136.44
511.401	104.44
511.617	90.44
511.833	85.44
512.049	100.44
512.265	102.44
512.481	94.44
512.698	88.44
512.914	89.44
513.13	89.44
513.346	102.44
513.562	101.44
513.778	102.44
513.994	92.44
514.21	108.44
514.426	112.44
514.642	117.44
514.858	100.44
515.074	148.44
515.29	358.44
515.506	1073.44
515.721	392.44
