Data from Uncirc_1987_H10_HRD10591_00096.txt Node
Date: Wed Jan 03 12:09:07 EST 2024
User: Yrep
Spectrometer: HR+D1059
Trigger mode: 1
Integration Time (sec): 1.000000E-1
Scans to average: 1
Electric dark correction enabled: true
Nonlinearity correction enabled: false
Boxcar width: 0
XAxis mode: Wavelengths
Number of Pixels in Spectrum: 2048
>>>>>Begin Spectral Data<<<<<
223.165	-13.38
223.4	-13.38
223.635	-13.38
223.869	-13.38
224.104	-22.38
224.338	-14.38
224.573	-11.38
224.808	-15.38
225.042	-0.38
225.277	-4.38
225.511	-3.38
225.746	3.62
225.98	11.62
226.215	5.62
226.449	18.62
226.683	6.62
226.918	19.62
227.152	32.62
227.387	30.62
227.621	36.62
227.856	40.62
228.09	57.62
228.324	39.62
228.559	57.62
228.793	58.62
229.027	66.62
229.262	54.62
229.496	54.62
229.73	81.62
229.964	82.62
230.199	70.62
230.433	67.62
230.667	78.62
230.901	75.62
231.136	75.62
231.37	78.62
231.604	73.62
231.838	78.62
232.072	75.62
232.306	82.62
232.541	84.62
232.775	65.62
233.009	68.62
233.243	75.62
233.477	73.62
233.711	78.62
233.945	70.62
234.179	74.62
234.413	77.62
234.647	80.62
234.881	85.62
235.115	88.62
235.349	65.62
235.583	87.62
235.817	80.62
236.051	81.62
236.285	68.62
236.519	76.62
236.753	67.62
236.987	81.62
237.221	80.62
237.455	75.62
237.689	76.62
237.922	61.62
238.156	67.62
238.39	69.62
238.624	75.62
238.858	64.62
239.091	72.62
239.325	89.62
239.559	86.62
239.793	77.62
240.027	69.62
240.26	66.62
240.494	66.62
240.728	72.62
240.961	73.62
241.195	81.62
241.429	64.62
241.662	65.62
241.896	75.62
242.13	65.62
242.363	62.62
242.597	70.62
242.83	82.62
243.064	87.62
243.298	68.62
243.531	85.62
243.765	80.62
243.998	62.62
244.232	71.62
244.465	81.62
244.699	60.62
244.932	83.62
245.166	79.62
245.399	66.62
245.633	81.62
245.866	86.62
246.099	79.62
246.333	86.62
246.566	67.62
246.8	74.62
247.033	81.62
247.266	77.62
247.5	86.62
247.733	77.62
247.966	71.62
248.2	75.62
248.433	82.62
248.666	85.62
248.899	89.62
249.133	91.62
249.366	78.62
249.599	100.62
249.832	78.62
250.066	66.62
250.299	69.62
250.532	81.62
250.765	64.62
250.998	78.62
251.231	78.62
251.465	84.62
251.698	81.62
251.931	76.62
252.164	70.62
252.397	73.62
252.63	75.62
252.863	78.62
253.096	74.62
253.329	74.62
253.562	82.62
253.795	80.62
254.028	80.62
254.261	78.62
254.494	68.62
254.727	82.62
254.96	81.62
255.193	68.62
255.426	58.62
255.659	76.62
255.892	74.62
256.124	66.62
256.357	77.62
256.59	81.62
256.823	68.62
257.056	66.62
257.289	74.62
257.521	57.62
257.754	87.62
257.987	81.62
258.22	85.62
258.452	74.62
258.685	66.62
258.918	76.62
259.151	77.62
259.383	65.62
259.616	71.62
259.849	87.62
260.081	95.62
260.314	77.62
260.547	75.62
260.779	85.62
261.012	75.62
261.244	84.62
261.477	79.62
261.71	89.62
261.942	101.62
262.175	120.62
262.407	89.62
262.64	72.62
262.872	66.62
263.105	87.62
263.337	77.62
263.57	78.62
263.802	78.62
264.035	78.62
264.267	67.62
264.499	70.62
264.732	81.62
264.964	69.62
265.197	92.62
265.429	92.62
265.661	63.62
265.894	81.62
266.126	78.62
266.358	83.62
266.591	70.62
266.823	73.62
267.055	69.62
267.287	73.62
267.52	87.62
267.752	77.62
267.984	63.62
268.216	81.62
268.448	93.62
268.681	70.62
268.913	93.62
269.145	86.62
269.377	75.62
269.609	85.62
269.841	92.62
270.073	92.62
270.306	75.62
270.538	68.62
270.77	60.62
271.002	86.62
271.234	68.62
271.466	73.62
271.698	87.62
271.93	89.62
272.162	65.62
272.394	76.62
272.626	83.62
272.858	85.62
273.09	77.62
273.322	87.62
273.553	94.62
273.785	84.62
274.017	81.62
274.249	71.62
274.481	75.62
274.713	87.62
274.945	89.62
275.176	77.62
275.408	77.62
275.64	95.62
275.872	98.62
276.104	95.62
276.335	89.62
276.567	93.62
276.799	108.62
277.031	94.62
277.262	82.62
277.494	87.62
277.726	67.62
277.957	77.62
278.189	86.62
278.421	73.62
278.652	81.62
278.884	82.62
279.115	85.62
279.347	84.62
279.579	85.62
279.81	77.62
280.042	79.62
280.273	78.62
280.505	86.62
280.736	78.62
280.968	75.62
281.199	82.62
281.431	85.62
281.662	79.62
281.894	85.62
282.125	88.62
282.356	101.62
282.588	140.62
282.819	96.62
283.051	102.62
283.282	68.62
283.513	83.62
283.745	88.62
283.976	80.62
284.207	89.62
284.439	76.62
284.67	73.62
284.901	82.62
285.132	74.62
285.364	74.62
285.595	78.62
285.826	82.62
286.057	98.62
286.288	66.62
286.52	83.62
286.751	83.62
286.982	106.62
287.213	84.62
287.444	84.62
287.675	79.62
287.906	80.62
288.138	84.62
288.369	90.62
288.6	91.62
288.831	87.62
289.062	74.62
289.293	92.62
289.524	88.62
289.755	71.62
289.986	74.62
290.217	82.62
290.448	99.62
290.679	87.62
290.91	82.62
291.141	74.62
291.371	76.62
291.602	80.62
291.833	95.62
292.064	73.62
292.295	79.62
292.526	71.62
292.757	84.62
292.987	81.62
293.218	86.62
293.449	81.62
293.68	89.62
293.91	91.62
294.141	96.62
294.372	91.62
294.603	81.62
294.833	77.62
295.064	97.62
295.295	68.62
295.525	91.62
295.756	87.62
295.987	120.62
296.217	122.62
296.448	116.62
296.679	88.62
296.909	86.62
297.14	77.62
297.37	85.62
297.601	76.62
297.831	84.62
298.062	90.62
298.292	96.62
298.523	89.62
298.753	67.62
298.984	77.62
299.214	95.62
299.445	84.62
299.675	92.62
299.905	89.62
300.136	101.62
300.366	85.62
300.597	84.62
300.827	77.62
301.057	84.62
301.288	94.62
301.518	85.62
301.748	88.62
301.979	97.62
302.209	91.62
302.439	69.62
302.669	87.62
302.9	97.62
303.13	86.62
303.36	92.62
303.59	90.62
303.82	89.62
304.051	91.62
304.281	94.62
304.511	89.62
304.741	79.62
304.971	86.62
305.201	86.62
305.431	82.62
305.661	94.62
305.891	95.62
306.121	101.62
306.352	96.62
306.582	88.62
306.812	96.62
307.042	78.62
307.272	82.62
307.502	94.62
307.731	85.62
307.961	91.62
308.191	94.62
308.421	98.62
308.651	92.62
308.881	86.62
309.111	85.62
309.341	92.62
309.571	99.62
309.8	93.62
310.03	92.62
310.26	98.62
310.49	92.62
310.72	87.62
310.949	100.62
311.179	98.62
311.409	84.62
311.639	94.62
311.868	97.62
312.098	94.62
312.328	89.62
312.557	93.62
312.787	91.62
313.017	92.62
313.246	88.62
313.476	74.62
313.706	84.62
313.935	81.62
314.165	103.62
314.394	90.62
314.624	98.62
314.853	91.62
315.083	71.62
315.312	82.62
315.542	98.62
315.771	94.62
316.001	91.62
316.23	77.62
316.46	91.62
316.689	93.62
316.919	98.62
317.148	97.62
317.377	85.62
317.607	79.62
317.836	72.62
318.065	79.62
318.295	85.62
318.524	83.62
318.753	101.62
318.983	92.62
319.212	106.62
319.441	114.62
319.67	106.62
319.9	86.62
320.129	97.62
320.358	94.62
320.587	86.62
320.816	97.62
321.046	94.62
321.275	95.62
321.504	96.62
321.733	109.62
321.962	93.62
322.191	97.62
322.42	108.62
322.649	85.62
322.878	106.62
323.108	98.62
323.337	115.62
323.566	118.62
323.795	134.62
324.024	207.62
324.253	370.62
324.482	768.62
324.71	1605.62
324.939	2105.62
325.168	773.62
325.397	226.62
325.626	130.62
325.855	116.62
326.084	114.62
326.313	122.62
326.542	148.62
326.77	189.62
326.999	423.62
327.228	886.62
327.457	1635.62
327.686	1290.62
327.914	344.62
328.143	180.62
328.372	131.62
328.6	109.62
328.829	105.62
329.058	110.62
329.287	113.62
329.515	85.62
329.744	95.62
329.972	100.62
330.201	102.62
330.43	125.62
330.658	127.62
330.887	138.62
331.115	114.62
331.344	93.62
331.572	85.62
331.801	77.62
332.03	87.62
332.258	76.62
332.486	93.62
332.715	81.62
332.943	80.62
333.172	89.62
333.4	89.62
333.629	101.62
333.857	109.62
334.085	107.62
334.314	110.62
334.542	126.62
334.771	114.62
334.999	109.62
335.227	93.62
335.455	91.62
335.684	90.62
335.912	83.62
336.14	98.62
336.369	99.62
336.597	88.62
336.825	86.62
337.053	106.62
337.281	80.62
337.51	81.62
337.738	90.62
337.966	85.62
338.194	79.62
338.422	75.62
338.65	97.62
338.878	97.62
339.106	85.62
339.334	89.62
339.562	81.62
339.79	86.62
340.018	85.62
340.246	85.62
340.474	95.62
340.702	92.62
340.93	87.62
341.158	81.62
341.386	78.62
341.614	86.62
341.842	91.62
342.07	103.62
342.298	104.62
342.526	81.62
342.754	90.62
342.981	86.62
343.209	89.62
343.437	101.62
343.665	79.62
343.893	85.62
344.12	98.62
344.348	83.62
344.576	74.62
344.804	69.62
345.031	94.62
345.259	105.62
345.487	85.62
345.714	86.62
345.942	86.62
346.17	87.62
346.397	91.62
346.625	94.62
346.853	93.62
347.08	94.62
347.308	91.62
347.535	77.62
347.763	97.62
347.99	82.62
348.218	89.62
348.445	111.62
348.673	101.62
348.9	98.62
349.128	95.62
349.355	80.62
349.583	81.62
349.81	92.62
350.037	82.62
350.265	86.62
350.492	89.62
350.72	87.62
350.947	88.62
351.174	106.62
351.402	95.62
351.629	84.62
351.856	98.62
352.083	92.62
352.311	96.62
352.538	105.62
352.765	107.62
352.992	116.62
353.22	89.62
353.447	89.62
353.674	107.62
353.901	102.62
354.128	86.62
354.355	93.62
354.583	76.62
354.81	84.62
355.037	89.62
355.264	90.62
355.491	83.62
355.718	75.62
355.945	100.62
356.172	85.62
356.399	86.62
356.626	92.62
356.853	91.62
357.08	78.62
357.307	84.62
357.534	82.62
357.761	97.62
357.988	101.62
358.215	97.62
358.441	96.62
358.668	96.62
358.895	95.62
359.122	77.62
359.349	80.62
359.576	91.62
359.802	91.62
360.029	99.62
360.256	97.62
360.483	90.62
360.709	86.62
360.936	98.62
361.163	91.62
361.39	100.62
361.616	105.62
361.843	76.62
362.07	87.62
362.296	86.62
362.523	84.62
362.749	92.62
362.976	91.62
363.203	99.62
363.429	77.62
363.656	89.62
363.882	88.62
364.109	92.62
364.335	82.62
364.562	90.62
364.788	80.62
365.015	109.62
365.241	99.62
365.468	79.62
365.694	109.62
365.92	89.62
366.147	78.62
366.373	83.62
366.599	85.62
366.826	69.62
367.052	83.62
367.278	90.62
367.505	62.62
367.731	86.62
367.957	92.62
368.184	86.62
368.41	96.62
368.636	101.62
368.862	122.62
369.089	109.62
369.315	97.62
369.541	89.62
369.767	92.62
369.993	94.62
370.219	87.62
370.445	81.62
370.672	79.62
370.898	71.62
371.124	86.62
371.35	86.62
371.576	92.62
371.802	86.62
372.028	73.62
372.254	86.62
372.48	82.62
372.706	89.62
372.932	97.62
373.158	69.62
373.384	93.62
373.61	91.62
373.835	103.62
374.061	66.62
374.287	85.62
374.513	92.62
374.739	91.62
374.965	83.62
375.191	76.62
375.416	87.62
375.642	78.62
375.868	83.62
376.094	88.62
376.319	87.62
376.545	73.62
376.771	70.62
376.997	75.62
377.222	88.62
377.448	97.62
377.674	93.62
377.899	87.62
378.125	93.62
378.35	95.62
378.576	89.62
378.802	94.62
379.027	83.62
379.253	79.62
379.478	84.62
379.704	91.62
379.929	87.62
380.155	94.62
380.38	85.62
380.606	83.62
380.831	86.62
381.057	107.62
381.282	96.62
381.507	92.62
381.733	88.62
381.958	96.62
382.184	103.62
382.409	85.62
382.634	97.62
382.86	102.62
383.085	89.62
383.31	89.62
383.535	100.62
383.761	72.62
383.986	100.62
384.211	95.62
384.436	94.62
384.662	85.62
384.887	94.62
385.112	97.62
385.337	89.62
385.562	95.62
385.787	74.62
386.013	105.62
386.238	101.62
386.463	95.62
386.688	107.62
386.913	95.62
387.138	93.62
387.363	95.62
387.588	91.62
387.813	103.62
388.038	94.62
388.263	87.62
388.488	91.62
388.713	85.62
388.938	105.62
389.163	86.62
389.387	86.62
389.612	86.62
389.837	82.62
390.062	104.62
390.287	92.62
390.512	100.62
390.736	89.62
390.961	72.62
391.186	95.62
391.411	91.62
391.636	88.62
391.86	84.62
392.085	83.62
392.31	79.62
392.534	83.62
392.759	78.62
392.984	93.62
393.208	90.62
393.433	80.62
393.658	90.62
393.882	82.62
394.107	92.62
394.331	77.62
394.556	88.62
394.78	79.62
395.005	93.62
395.229	95.62
395.454	88.62
395.678	83.62
395.903	99.62
396.127	93.62
396.352	88.62
396.576	87.62
396.801	92.62
397.025	77.62
397.249	79.62
397.474	89.62
397.698	93.62
397.922	73.62
398.147	76.62
398.371	83.62
398.595	62.62
398.82	79.62
399.044	76.62
399.268	79.62
399.492	76.62
399.717	87.62
399.941	96.62
400.165	91.62
400.389	80.62
400.613	82.62
400.837	77.62
401.062	82.62
401.286	80.62
401.51	67.62
401.734	96.62
401.958	83.62
402.182	122.62
402.406	153.62
402.63	107.62
402.854	91.62
403.078	81.62
403.302	85.62
403.526	76.62
403.75	76.62
403.974	86.62
404.198	83.62
404.422	87.62
404.645	84.62
404.869	86.62
405.093	95.62
405.317	94.62
405.541	99.62
405.765	93.62
405.988	102.62
406.212	155.62
406.436	220.62
406.66	130.62
406.883	97.62
407.107	93.62
407.331	84.62
407.555	102.62
407.778	102.62
408.002	86.62
408.226	83.62
408.449	91.62
408.673	85.62
408.896	81.62
409.12	75.62
409.344	84.62
409.567	93.62
409.791	95.62
410.014	111.62
410.238	95.62
410.461	70.62
410.685	95.62
410.908	87.62
411.132	98.62
411.355	100.62
411.578	95.62
411.802	75.62
412.025	81.62
412.249	86.62
412.472	84.62
412.695	92.62
412.919	97.62
413.142	74.62
413.365	77.62
413.589	93.62
413.812	80.62
414.035	104.62
414.258	82.62
414.482	87.62
414.705	81.62
414.928	81.62
415.151	89.62
415.374	93.62
415.597	78.62
415.821	81.62
416.044	77.62
416.267	91.62
416.49	94.62
416.713	89.62
416.936	92.62
417.159	82.62
417.382	82.62
417.605	77.62
417.828	98.62
418.051	93.62
418.274	83.62
418.497	81.62
418.72	97.62
418.943	106.62
419.166	79.62
419.389	69.62
419.611	75.62
419.834	89.62
420.057	81.62
420.28	84.62
420.503	84.62
420.726	83.62
420.948	79.62
421.171	70.62
421.394	96.62
421.617	89.62
421.839	88.62
422.062	74.62
422.285	85.62
422.507	102.62
422.73	92.62
422.953	76.62
423.175	91.62
423.398	83.62
423.621	97.62
423.843	102.62
424.066	81.62
424.288	93.62
424.511	91.62
424.733	76.62
424.956	108.62
425.178	101.62
425.401	92.62
425.623	82.62
425.846	89.62
426.068	85.62
426.291	94.62
426.513	81.62
426.735	81.62
426.958	85.62
427.18	108.62
427.402	136.62
427.625	152.62
427.847	126.62
428.069	107.62
428.292	82.62
428.514	77.62
428.736	81.62
428.958	84.62
429.181	76.62
429.403	89.62
429.625	69.62
429.847	87.62
430.069	106.62
430.292	87.62
430.514	90.62
430.736	73.62
430.958	71.62
431.18	73.62
431.402	89.62
431.624	96.62
431.846	79.62
432.068	75.62
432.29	66.62
432.512	86.62
432.734	80.62
432.956	100.62
433.178	107.62
433.4	87.62
433.622	94.62
433.844	88.62
434.066	75.62
434.287	85.62
434.509	91.62
434.731	89.62
434.953	69.62
435.175	85.62
435.397	81.62
435.618	98.62
435.84	108.62
436.062	111.62
436.284	103.62
436.505	86.62
436.727	96.62
436.949	102.62
437.17	87.62
437.392	75.62
437.614	87.62
437.835	97.62
438.057	122.62
438.278	107.62
438.5	112.62
438.721	103.62
438.943	100.62
439.165	82.62
439.386	77.62
439.608	77.62
439.829	98.62
440.05	117.62
440.272	126.62
440.493	86.62
440.715	85.62
440.936	80.62
441.158	90.62
441.379	98.62
441.6	85.62
441.822	94.62
442.043	102.62
442.264	96.62
442.486	105.62
442.707	91.62
442.928	109.62
443.149	123.62
443.371	101.62
443.592	91.62
443.813	112.62
444.034	99.62
444.255	77.62
444.476	85.62
444.698	81.62
444.919	75.62
445.14	130.62
445.361	122.62
445.582	122.62
445.803	148.62
446.024	142.62
446.245	137.62
446.466	111.62
446.687	89.62
446.908	79.62
447.129	91.62
447.35	89.62
447.571	78.62
447.792	83.62
448.013	94.62
448.234	91.62
448.455	90.62
448.675	102.62
448.896	111.62
449.117	87.62
449.338	116.62
449.559	124.62
449.779	118.62
450	99.62
450.221	82.62
450.442	91.62
450.662	95.62
450.883	92.62
451.104	96.62
451.324	94.62
451.545	85.62
451.766	93.62
451.986	92.62
452.207	84.62
452.428	77.62
452.648	84.62
452.869	114.62
453.089	107.62
453.31	115.62
453.53	94.62
453.751	74.62
453.971	86.62
454.192	111.62
454.412	73.62
454.633	79.62
454.853	90.62
455.073	77.62
455.294	86.62
455.514	89.62
455.734	92.62
455.955	88.62
456.175	89.62
456.395	77.62
456.616	64.62
456.836	96.62
457.056	77.62
457.276	83.62
457.497	95.62
457.717	69.62
457.937	70.62
458.157	77.62
458.377	93.62
458.598	112.62
458.818	135.62
459.038	150.62
459.258	111.62
459.478	98.62
459.698	74.62
459.918	79.62
460.138	99.62
460.358	82.62
460.578	89.62
460.798	94.62
461.018	84.62
461.238	82.62
461.458	96.62
461.678	82.62
461.898	101.62
462.118	76.62
462.338	79.62
462.558	88.62
462.777	83.62
462.997	68.62
463.217	77.62
463.437	91.62
463.657	91.62
463.876	77.62
464.096	93.62
464.316	97.62
464.536	100.62
464.755	75.62
464.975	92.62
465.195	144.62
465.414	151.62
465.634	85.62
465.854	90.62
466.073	84.62
466.293	86.62
466.512	75.62
466.732	75.62
466.951	74.62
467.171	94.62
467.391	96.62
467.61	98.62
467.829	88.62
468.049	99.62
468.268	89.62
468.488	70.62
468.707	86.62
468.927	84.62
469.146	72.62
469.365	94.62
469.585	90.62
469.804	97.62
470.023	82.62
470.243	87.62
470.462	90.62
470.681	102.62
470.901	90.62
471.12	79.62
471.339	84.62
471.558	63.62
471.777	88.62
471.997	85.62
472.216	98.62
472.435	129.62
472.654	79.62
472.873	86.62
473.092	89.62
473.311	83.62
473.53	89.62
473.749	90.62
473.968	98.62
474.187	103.62
474.406	100.62
474.625	84.62
474.844	83.62
475.063	69.62
475.282	85.62
475.501	68.62
475.72	85.62
475.939	93.62
476.158	95.62
476.377	94.62
476.596	93.62
476.814	76.62
477.033	90.62
477.252	89.62
477.471	91.62
477.69	83.62
477.908	80.62
478.127	90.62
478.346	91.62
478.564	71.62
478.783	86.62
479.002	66.62
479.22	84.62
479.439	113.62
479.658	94.62
479.876	94.62
480.095	82.62
480.313	86.62
480.532	92.62
480.751	92.62
480.969	105.62
481.188	180.62
481.406	120.62
481.624	86.62
481.843	87.62
482.061	96.62
482.28	67.62
482.498	84.62
482.717	97.62
482.935	80.62
483.153	100.62
483.372	84.62
483.59	79.62
483.808	88.62
484.027	91.62
484.245	95.62
484.463	89.62
484.681	104.62
484.9	96.62
485.118	90.62
485.336	91.62
485.554	79.62
485.772	93.62
485.99	104.62
486.209	95.62
486.427	103.62
486.645	94.62
486.863	106.62
487.081	110.62
487.299	90.62
487.517	87.62
487.735	85.62
487.953	92.62
488.171	91.62
488.389	96.62
488.607	99.62
488.825	99.62
489.043	89.62
489.261	87.62
489.479	77.62
489.696	87.62
489.914	83.62
490.132	76.62
490.35	84.62
490.568	96.62
490.786	96.62
491.003	95.62
491.221	79.62
491.439	96.62
491.657	93.62
491.874	97.62
492.092	84.62
492.31	99.62
492.527	85.62
492.745	79.62
492.963	77.62
493.18	89.62
493.398	92.62
493.615	86.62
493.833	83.62
494.05	80.62
494.268	101.62
494.485	74.62
494.703	79.62
494.92	92.62
495.138	86.62
495.355	91.62
495.573	81.62
495.79	91.62
496.008	88.62
496.225	87.62
496.442	77.62
496.66	101.62
496.877	106.62
497.094	105.62
497.312	70.62
497.529	85.62
497.746	88.62
497.963	85.62
498.181	75.62
498.398	92.62
498.615	109.62
498.832	97.62
499.049	91.62
499.267	103.62
499.484	93.62
499.701	71.62
499.918	81.62
500.135	79.62
500.352	74.62
500.569	95.62
500.786	100.62
501.003	97.62
501.22	89.62
501.437	82.62
501.654	82.62
501.871	94.62
502.088	93.62
502.305	96.62
502.522	94.62
502.739	83.62
502.956	90.62
503.172	78.62
503.389	104.62
503.606	95.62
503.823	82.62
504.04	90.62
504.256	84.62
504.473	100.62
504.69	82.62
504.907	88.62
505.123	100.62
505.34	98.62
505.557	93.62
505.773	85.62
505.99	92.62
506.207	99.62
506.423	88.62
506.64	85.62
506.856	71.62
507.073	92.62
507.289	84.62
507.506	91.62
507.722	113.62
507.939	107.62
508.155	96.62
508.372	91.62
508.588	91.62
508.805	94.62
509.021	101.62
509.238	83.62
509.454	91.62
509.67	86.62
509.887	109.62
510.103	126.62
510.319	195.62
510.536	731.62
510.752	2354.62
510.968	619.62
511.184	149.62
511.401	109.62
511.617	111.62
511.833	98.62
512.049	93.62
512.265	105.62
512.481	99.62
512.698	87.62
512.914	91.62
513.13	94.62
513.346	99.62
513.562	93.62
513.778	99.62
513.994	96.62
514.21	109.62
514.426	115.62
514.642	117.62
514.858	123.62
515.074	159.62
515.29	423.62
515.506	1420.62
515.721	496.62
515.937	143.62
516.153	107.62
516.369	90.62
516.585	85.62
516.801	99.62
517.016	92.62
