Data from Uncirc_1987_H10_HRD10591_00040.txt Node
Date: Wed Jan 03 12:08:56 EST 2024
User: Yrep
Spectrometer: HR+D1059
Trigger mode: 1
Integration Time (sec): 1.000000E-1
Scans to average: 1
Electric dark correction enabled: true
Nonlinearity correction enabled: false
Boxcar width: 0
XAxis mode: Wavelengths
Number of Pixels in Spectrum: 2048
>>>>>Begin Spectral Data<<<<<
223.165	-9
223.4	-9
223.635	-9
223.869	-15
224.104	-12
224.338	-19
224.573	-16
224.808	-10
225.042	-2
225.277	-15
225.511	4
225.746	-21
225.98	4
226.215	12
226.449	18
226.683	29
226.918	23
227.152	29
227.387	37
227.621	53
227.856	46
228.09	46
228.324	65
228.559	55
228.793	55
229.027	70
229.262	77
229.496	85
229.73	74
229.964	79
230.199	51
230.433	72
230.667	84
230.901	82
231.136	73
231.37	64
231.604	85
231.838	89
232.072	80
232.306	72
232.541	81
232.775	82
233.009	80
233.243	81
233.477	76
233.711	84
233.945	84
234.179	75
234.413	76
234.647	84
234.881	82
235.115	66
235.349	84
235.583	73
235.817	72
236.051	62
236.285	77
236.519	84
236.753	82
236.987	88
237.221	84
237.455	82
237.689	82
237.922	67
238.156	71
238.39	81
238.624	68
238.858	80
239.091	66
239.325	78
239.559	77
239.793	82
240.027	76
240.26	73
240.494	92
240.728	84
240.961	80
241.195	80
241.429	78
241.662	72
241.896	75
242.13	86
242.363	86
242.597	83
242.83	72
243.064	76
243.298	79
243.531	73
243.765	82
243.998	87
244.232	86
244.465	78
244.699	73
244.932	78
245.166	80
245.399	78
245.633	89
245.866	70
246.099	77
246.333	82
246.566	60
246.8	62
247.033	90
247.266	85
247.5	71
247.733	78
247.966	83
248.2	80
248.433	90
248.666	80
248.899	74
249.133	100
249.366	90
249.599	86
249.832	92
250.066	83
250.299	69
250.532	70
250.765	85
250.998	93
251.231	85
251.465	82
251.698	71
251.931	73
252.164	86
252.397	84
252.63	88
252.863	84
253.096	84
253.329	77
253.562	90
253.795	88
254.028	78
254.261	74
254.494	72
254.727	88
254.96	74
255.193	79
255.426	86
255.659	80
255.892	60
256.124	86
256.357	78
256.59	80
256.823	82
257.056	82
257.289	87
257.521	88
257.754	81
257.987	80
258.22	82
258.452	81
258.685	70
258.918	88
259.151	79
259.383	84
259.616	70
259.849	80
260.081	82
260.314	73
260.547	84
260.779	77
261.012	84
261.244	91
261.477	93
261.71	83
261.942	106
262.175	119
262.407	91
262.64	90
262.872	63
263.105	104
263.337	91
263.57	83
263.802	74
264.035	83
264.267	96
264.499	76
264.732	100
264.964	72
265.197	89
265.429	88
265.661	84
265.894	90
266.126	86
266.358	95
266.591	92
266.823	80
267.055	84
267.287	89
267.52	85
267.752	90
267.984	88
268.216	79
268.448	91
268.681	86
268.913	78
269.145	71
269.377	82
269.609	86
269.841	85
270.073	89
270.306	77
270.538	88
270.77	88
271.002	105
271.234	86
271.466	83
271.698	84
271.93	99
272.162	79
272.394	80
272.626	81
272.858	73
273.09	81
273.322	74
273.553	82
273.785	82
274.017	88
274.249	78
274.481	82
274.713	72
274.945	83
275.176	83
275.408	78
275.64	74
275.872	84
276.104	99
276.335	80
276.567	89
276.799	92
277.031	94
277.262	76
277.494	82
277.726	86
277.957	80
278.189	80
278.421	94
278.652	84
278.884	85
279.115	73
279.347	80
279.579	93
279.81	97
280.042	90
280.273	101
280.505	91
280.736	94
280.968	87
281.199	85
281.431	86
281.662	78
281.894	72
282.125	98
282.356	107
282.588	141
282.819	105
283.051	100
283.282	82
283.513	92
283.745	85
283.976	89
284.207	94
284.439	94
284.67	90
284.901	77
285.132	92
285.364	80
285.595	84
285.826	86
286.057	85
286.288	70
286.52	88
286.751	78
286.982	84
287.213	90
287.444	82
287.675	78
287.906	81
288.138	77
288.369	88
288.6	85
288.831	99
289.062	97
289.293	94
289.524	90
289.755	80
289.986	95
290.217	77
290.448	88
290.679	102
290.91	84
291.141	90
291.371	85
291.602	92
291.833	85
292.064	103
292.295	75
292.526	86
292.757	85
292.987	77
293.218	86
293.449	91
293.68	92
293.91	95
294.141	94
294.372	89
294.603	96
294.833	89
295.064	84
295.295	79
295.525	100
295.756	103
295.987	106
296.217	130
296.448	118
296.679	88
296.909	97
297.14	95
297.37	95
297.601	79
297.831	93
298.062	87
298.292	86
298.523	83
298.753	83
298.984	96
299.214	95
299.445	99
299.675	95
299.905	97
300.136	97
300.366	79
300.597	83
300.827	74
301.057	109
301.288	103
301.518	100
301.748	97
301.979	103
302.209	93
302.439	96
302.669	92
302.9	85
303.13	92
303.36	88
303.59	106
303.82	96
304.051	93
304.281	89
304.511	92
304.741	100
304.971	101
305.201	97
305.431	88
305.661	102
305.891	106
306.121	87
306.352	99
306.582	95
306.812	87
307.042	95
307.272	101
307.502	89
307.731	76
307.961	83
308.191	83
308.421	87
308.651	104
308.881	102
309.111	88
309.341	97
309.571	89
309.8	90
310.03	106
310.26	101
310.49	91
310.72	96
310.949	106
311.179	87
311.409	84
311.639	96
311.868	93
312.098	88
312.328	92
312.557	94
312.787	97
313.017	108
313.246	92
313.476	93
313.706	98
313.935	92
314.165	101
314.394	93
314.624	103
314.853	99
315.083	85
315.312	94
315.542	107
315.771	95
316.001	85
316.23	92
316.46	84
316.689	95
316.919	93
317.148	99
317.377	84
317.607	95
317.836	84
318.065	84
318.295	91
318.524	87
318.753	89
318.983	98
319.212	98
319.441	110
319.67	104
319.9	99
320.129	93
320.358	91
320.587	103
320.816	89
321.046	103
321.275	104
321.504	91
321.733	104
321.962	93
322.191	95
322.42	106
322.649	106
322.878	106
323.108	120
323.337	113
323.566	119
323.795	158
324.024	199
324.253	391
324.482	839
324.71	1735
324.939	2273
325.168	829
325.397	246
325.626	144
325.855	132
326.084	114
326.313	126
326.542	149
326.77	210
326.999	450
327.228	986
327.457	1809
327.686	1390
327.914	366
328.143	182
328.372	145
328.6	120
328.829	110
329.058	137
329.287	135
329.515	103
329.744	101
329.972	89
330.201	96
330.43	101
330.658	118
330.887	137
331.115	125
331.344	98
331.572	92
331.801	102
332.03	95
332.258	87
332.486	88
332.715	86
332.943	89
333.172	102
333.4	93
333.629	89
333.857	113
334.085	86
334.314	86
334.542	102
334.771	111
334.999	110
335.227	102
335.455	95
335.684	91
335.912	89
336.14	84
336.369	97
336.597	85
336.825	97
337.053	73
337.281	97
337.51	98
337.738	91
337.966	100
338.194	96
338.422	84
338.65	84
338.878	89
339.106	91
339.334	89
339.562	85
339.79	90
340.018	84
340.246	99
340.474	86
340.702	98
340.93	95
341.158	90
341.386	84
341.614	102
341.842	98
342.07	89
342.298	89
342.526	90
342.754	103
342.981	86
343.209	86
343.437	109
343.665	89
343.893	69
344.12	82
344.348	76
344.576	85
344.804	88
345.031	81
345.259	94
345.487	92
345.714	91
345.942	96
346.17	88
346.397	93
346.625	84
346.853	85
347.08	85
347.308	104
347.535	97
347.763	100
347.99	85
348.218	88
348.445	94
348.673	107
348.9	87
349.128	97
349.355	102
349.583	80
349.81	94
350.037	84
350.265	92
350.492	96
350.72	96
350.947	98
351.174	113
351.402	116
351.629	98
351.856	107
352.083	90
352.311	106
352.538	97
352.765	106
352.992	120
353.22	114
353.447	101
353.674	91
353.901	89
354.128	81
354.355	100
354.583	94
354.81	102
355.037	90
355.264	85
355.491	86
355.718	85
355.945	91
356.172	104
356.399	108
356.626	92
356.853	91
357.08	96
357.307	85
357.534	98
357.761	77
357.988	95
358.215	90
358.441	93
358.668	82
358.895	97
359.122	76
359.349	88
359.576	87
359.802	99
360.029	110
360.256	109
360.483	88
360.709	81
360.936	94
361.163	99
361.39	92
361.616	102
361.843	82
362.07	91
362.296	105
362.523	102
362.749	80
362.976	89
363.203	89
363.429	73
363.656	93
363.882	110
364.109	92
364.335	83
364.562	94
364.788	89
365.015	93
365.241	96
365.468	96
365.694	106
365.92	81
366.147	101
366.373	88
366.599	78
366.826	84
367.052	89
367.278	88
367.505	97
367.731	99
367.957	87
368.184	99
368.41	93
368.636	93
368.862	104
369.089	104
369.315	100
369.541	83
369.767	102
369.993	85
370.219	88
370.445	80
370.672	101
370.898	88
371.124	86
371.35	92
371.576	93
371.802	82
372.028	90
372.254	92
372.48	83
372.706	93
372.932	98
373.158	81
373.384	91
373.61	86
373.835	86
374.061	93
374.287	71
374.513	80
374.739	87
374.965	84
375.191	94
375.416	88
375.642	80
375.868	85
376.094	90
376.319	72
376.545	77
376.771	80
376.997	92
377.222	97
377.448	81
377.674	81
377.899	96
378.125	84
378.35	87
378.576	95
378.802	89
379.027	99
379.253	96
379.478	94
379.704	82
379.929	87
380.155	90
380.38	93
380.606	100
380.831	96
381.057	88
381.282	90
381.507	77
381.733	84
381.958	104
382.184	97
382.409	83
382.634	98
382.86	89
383.085	96
383.31	93
383.535	92
383.761	96
383.986	95
384.211	101
384.436	97
384.662	91
384.887	101
385.112	98
385.337	95
385.562	102
385.787	98
386.013	100
386.238	105
386.463	96
386.688	109
386.913	114
387.138	89
387.363	96
387.588	98
387.813	81
388.038	95
388.263	87
388.488	100
388.713	104
388.938	83
389.163	74
389.387	88
389.612	98
389.837	82
390.062	99
390.287	104
390.512	83
390.736	82
390.961	94
391.186	96
391.411	94
391.636	89
391.86	72
392.085	95
392.31	76
392.534	85
392.759	88
392.984	89
393.208	81
393.433	78
393.658	82
393.882	88
394.107	88
394.331	85
394.556	85
394.78	84
395.005	98
395.229	93
395.454	94
395.678	98
395.903	88
396.127	91
396.352	97
396.576	86
396.801	82
397.025	85
397.249	92
397.474	81
397.698	66
397.922	89
398.147	103
398.371	88
398.595	73
398.82	77
399.044	85
399.268	83
399.492	101
399.717	84
399.941	90
400.165	96
400.389	83
400.613	95
400.837	99
401.062	93
401.286	97
401.51	92
401.734	94
401.958	99
402.182	113
402.406	153
402.63	106
402.854	87
403.078	84
403.302	81
403.526	80
403.75	99
403.974	88
404.198	104
404.422	91
404.645	93
404.869	86
405.093	94
405.317	98
405.541	107
405.765	84
405.988	120
406.212	156
406.436	197
406.66	135
406.883	96
407.107	94
407.331	100
407.555	81
407.778	111
408.002	97
408.226	73
408.449	94
408.673	88
408.896	102
409.12	116
409.344	89
409.567	77
409.791	93
410.014	84
410.238	96
410.461	97
410.685	89
410.908	87
411.132	114
411.355	90
411.578	92
411.802	83
412.025	102
412.249	86
412.472	84
412.695	98
412.919	93
413.142	82
413.365	92
413.589	82
413.812	86
414.035	92
414.258	88
414.482	83
414.705	88
414.928	84
415.151	78
415.374	92
415.597	83
415.821	94
416.044	89
416.267	88
416.49	82
416.713	93
416.936	93
417.159	104
417.382	88
417.605	78
417.828	94
418.051	86
418.274	88
418.497	88
418.72	87
418.943	87
419.166	81
419.389	84
419.611	92
419.834	88
420.057	87
420.28	88
420.503	99
420.726	82
420.948	103
421.171	96
421.394	82
421.617	93
421.839	98
422.062	95
422.285	100
422.507	103
422.73	102
422.953	111
423.175	94
423.398	98
423.621	82
423.843	84
424.066	98
424.288	89
424.511	83
424.733	100
424.956	94
425.178	96
425.401	89
425.623	109
425.846	96
426.068	94
426.291	87
426.513	92
426.735	89
426.958	97
427.18	91
427.402	125
427.625	157
427.847	123
428.069	94
428.292	98
428.514	85
428.736	79
428.958	84
429.181	89
429.403	73
429.625	88
429.847	91
430.069	100
430.292	94
430.514	81
430.736	86
430.958	80
431.18	88
431.402	86
431.624	91
431.846	98
432.068	90
432.29	77
432.512	92
432.734	70
432.956	82
433.178	92
433.4	111
433.622	94
433.844	92
434.066	92
434.287	93
434.509	88
434.731	84
434.953	89
435.175	94
435.397	88
435.618	93
435.84	116
436.062	125
436.284	122
436.505	105
436.727	89
436.949	84
437.17	77
437.392	90
437.614	105
437.835	101
438.057	113
438.278	85
438.5	106
438.721	108
438.943	91
439.165	92
439.386	85
439.608	89
439.829	111
440.05	127
440.272	130
440.493	94
440.715	81
440.936	80
441.158	70
441.379	89
441.6	87
441.822	103
442.043	94
442.264	105
442.486	109
442.707	87
442.928	103
443.149	107
443.371	120
443.592	115
443.813	121
444.034	118
444.255	80
444.476	98
444.698	80
444.919	89
445.14	122
445.361	114
445.582	122
445.803	127
446.024	131
446.245	119
446.466	109
446.687	93
446.908	83
447.129	91
447.35	85
447.571	90
447.792	96
448.013	109
448.234	98
448.455	99
448.675	105
448.896	113
449.117	106
449.338	107
449.559	136
449.779	116
450	91
450.221	86
450.442	80
450.662	85
450.883	95
451.104	109
451.324	104
451.545	82
451.766	81
451.986	86
452.207	83
452.428	81
452.648	95
452.869	87
453.089	113
453.31	91
453.53	92
453.751	97
453.971	97
454.192	102
454.412	74
454.633	80
454.853	78
455.073	80
455.294	89
455.514	80
455.734	80
455.955	92
456.175	96
456.395	79
456.616	77
456.836	65
457.056	89
457.276	84
457.497	71
457.717	90
457.937	92
458.157	82
458.377	86
458.598	100
458.818	142
459.038	140
459.258	108
459.478	98
459.698	94
459.918	93
460.138	77
460.358	90
460.578	91
460.798	88
461.018	96
461.238	100
461.458	97
461.678	96
461.898	86
462.118	70
462.338	85
462.558	89
462.777	80
462.997	95
463.217	91
463.437	86
463.657	90
463.876	82
464.096	78
464.316	92
464.536	88
464.755	84
464.975	103
465.195	165
465.414	134
465.634	81
465.854	82
466.073	79
466.293	78
466.512	92
466.732	82
466.951	96
467.171	98
467.391	103
467.61	104
467.829	88
468.049	94
468.268	100
468.488	80
468.707	87
468.927	75
469.146	77
469.365	93
469.585	87
469.804	100
470.023	81
470.243	85
470.462	109
470.681	101
470.901	84
471.12	76
471.339	85
471.558	86
471.777	84
471.997	92
472.216	98
472.435	89
472.654	84
472.873	84
473.092	102
473.311	101
473.53	84
473.749	80
473.968	100
474.187	93
474.406	103
474.625	100
474.844	86
475.063	90
475.282	89
475.501	94
475.72	107
475.939	90
476.158	89
476.377	92
476.596	88
476.814	89
477.033	104
477.252	78
477.471	90
477.69	92
477.908	86
478.127	90
478.346	89
478.564	83
478.783	93
479.002	100
479.22	88
479.439	73
479.658	98
479.876	82
480.095	89
480.313	87
480.532	98
480.751	73
480.969	97
481.188	99
481.406	101
481.624	108
481.843	109
482.061	73
482.28	79
482.498	86
482.717	96
482.935	96
483.153	96
483.372	80
483.59	90
483.808	101
484.027	101
484.245	93
484.463	97
484.681	97
484.9	92
485.118	89
485.336	100
485.554	95
485.772	97
485.99	102
486.209	112
486.427	103
486.645	117
486.863	111
487.081	101
487.299	100
487.517	103
487.735	102
487.953	86
488.171	89
488.389	82
488.607	109
488.825	73
489.043	96
489.261	86
489.479	92
489.696	89
489.914	92
490.132	104
490.35	98
490.568	80
490.786	90
491.003	108
491.221	84
491.439	89
491.657	94
491.874	99
492.092	85
492.31	96
492.527	76
492.745	88
492.963	98
493.18	91
493.398	95
493.615	100
493.833	97
494.05	88
494.268	78
494.485	93
494.703	85
494.92	95
495.138	96
495.355	89
495.573	97
495.79	81
496.008	103
496.225	83
496.442	98
496.66	92
496.877	83
497.094	86
497.312	104
497.529	115
497.746	96
497.963	81
498.181	103
498.398	99
498.615	119
498.832	105
499.049	92
499.267	85
499.484	92
499.701	103
499.918	102
500.135	86
500.352	88
500.569	72
500.786	90
501.003	97
501.22	87
501.437	87
501.654	97
501.871	113
502.088	100
502.305	94
502.522	89
502.739	88
502.956	92
503.172	97
503.389	94
503.606	112
503.823	90
504.04	103
504.256	89
504.473	85
504.69	92
504.907	90
505.123	86
505.34	93
505.557	84
505.773	100
505.99	71
506.207	97
506.423	90
506.64	97
506.856	92
507.073	93
507.289	75
507.506	92
507.722	111
507.939	108
508.155	93
508.372	92
508.588	91
508.805	91
509.021	99
509.238	83
509.454	106
509.67	96
509.887	86
510.103	124
510.319	206
510.536	724
510.752	2215
510.968	604
511.184	148
511.401	100
511.617	91
511.833	90
512.049	85
512.265	96
512.481	110
512.698	91
512.914	96
513.13	100
513.346	93
513.562	93
513.778	103
513.994	99
514.21	108
514.426	117
514.642	140
514.858	124
515.074	156
515.29	425
515.506	1377
515.721	482
515.937	136
516.153	111
516.369	99
516.585	97
516.801	101
517.016	99
517.232	86
517.448	100
517.664	81
517.879	98
518.095	74
518.311	88
518.527	89
518.742	108
518.958	87
519.173	97
519.389	101
519.605	92
519.82	79
520.036	94
520.251	119
520.467	109
520.682	108
520.898	107
521.113	110
521.329	137
521.544	201
521.76	519
521.975	2244
522.19	1302
522.406	286
522.621	133
522.836	103
523.052	90
523.267	95
523.482	100
523.698	106
523.913	118
524.128	89
524.343	92
524.559	100
524.774	93
524.989	92
525.204	89
525.419	96
525.634	102
525.849	88
526.064	89
526.28	94
526.495	97
526.71	78
526.925	86
527.14	88
527.355	78
527.57	94
527.785	88
527.999	83
528.214	83
528.429	97
528.644	97
528.859	83
529.074	100
529.289	123
529.503	162
529.718	89
529.933	87
530.148	77
530.363	106
530.577	83
530.792	86
531.007	96
531.221	95
531.436	96
531.651	81
531.865	76
532.08	94
532.295	84
532.509	91
532.724	80
532.938	88
533.153	104
533.367	102
533.582	108
533.796	95
534.011	110
534.225	102
534.44	90
534.654	98
534.868	108
535.083	84
535.297	89
535.511	100
535.726	116
535.94	92
536.154	95
536.369	96
536.583	93
536.797	76
537.011	86
537.225	79
537.44	88
537.654	99
537.868	90
538.082	94
538.296	99
538.51	84
538.724	92
538.938	84
539.153	86
539.367	93
539.581	96
539.795	100
540.009	102
540.222	88
540.436	94
540.65	86
540.864	92
541.078	86
541.292	84
541.506	94
541.72	92
541.934	74
542.147	93
542.361	80
542.575	80
542.789	89
543.002	91
543.216	89
543.43	110
543.644	106
543.857	87
544.071	85
544.285	94
544.498	97
544.712	88
544.925	95
545.139	91
545.352	77
545.566	92
545.779	93
545.993	102
546.206	74
546.42	85
546.633	94
546.847	91
547.06	90
547.274	94
547.487	93
547.7	89
547.914	69
548.127	100
548.34	89
548.554	82
548.767	105
548.98	81
549.193	89
549.407	90
549.62	76
549.833	98
550.046	97
550.259	100
550.473	100
550.686	87
550.899	99
551.112	84
551.325	82
551.538	94
551.751	87
551.964	79
552.177	94
552.39	110
552.603	86
552.816	109
553.029	84
553.242	97
553.455	91
553.667	97
553.88	105
554.093	93
554.306	103
554.519	90
554.732	93
554.944	82
555.157	78
555.37	71
555.583	96
555.795	90
556.008	89
556.221	90
556.433	104
556.646	85
556.859	92
557.071	91
557.284	88
557.496	102
557.709	92
557.921	86
558.134	84
558.346	99
558.559	99
558.771	94
558.984	99
559.196	83
559.409	73
559.621	89
559.833	86
560.046	82
560.258	96
560.47	71
560.683	81
560.895	89
561.107	97
561.32	77
561.532	95
561.744	96
561.956	92
562.168	106
562.381	95
562.593	94
562.805	95
563.017	80
563.229	104
563.441	95
563.653	102
563.865	86
564.077	96
564.289	85
564.501	76
564.713	92
564.925	91
565.137	103
565.349	95
565.561	89
565.773	84
565.985	80
566.197	78
566.408	93
566.62	98
566.832	85
567.044	81
567.255	89
567.467	74
567.679	80
567.891	84
568.102	98
568.314	89
568.526	97
568.737	90
568.949	73
569.161	90
569.372	93
569.584	83
569.795	93
570.007	114
570.218	220
570.43	137
570.641	78
570.853	90
571.064	77
571.276	86
571.487	93
571.698	80
571.91	97
572.121	90
572.333	100
572.544	76
572.755	82
572.966	101
573.178	85
573.389	102
573.6	86
573.811	96
574.023	76
574.234	84
574.445	89
574.656	91
574.867	92
575.078	79
575.289	100
575.501	79
575.712	103
575.923	86
576.134	92
576.345	79
576.556	96
576.767	89
576.978	90
577.188	72
577.399	89
577.61	98
577.821	99
578.032	113
578.243	275
578.454	724
578.665	196
578.875	106
579.086	92
579.297	98
579.508	91
579.718	95
579.929	87
580.14	97
580.35	73
580.561	84
580.772	96
580.982	95
581.193	80
581.403	96
581.614	77
581.825	81
582.035	92
582.246	98
582.456	89
582.667	72
582.877	88
583.087	90
583.298	76
583.508	95
583.719	81
583.929	84
584.139	83
584.35	92
584.56	94
584.77	103
