Data from Uncirc_1987_H10_HRD10591_00089.txt Node
Date: Wed Jan 03 12:09:06 EST 2024
User: Yrep
Spectrometer: HR+D1059
Trigger mode: 1
Integration Time (sec): 1.000000E-1
Scans to average: 1
Electric dark correction enabled: true
Nonlinearity correction enabled: false
Boxcar width: 0
XAxis mode: Wavelengths
Number of Pixels in Spectrum: 2048
>>>>>Begin Spectral Data<<<<<
223.165	-22.5
223.4	-22.5
223.635	-22.5
223.869	-33.5
224.104	-23.5
224.338	-13.5
224.573	-21.5
224.808	-10.5
225.042	-1.5
225.277	-4.5
225.511	1.5
225.746	6.5
225.98	-0.5
226.215	14.5
226.449	20.5
226.683	4.5
226.918	41.5
227.152	42.5
227.387	44.5
227.621	31.5
227.856	22.5
228.09	44.5
228.324	52.5
228.559	56.5
228.793	58.5
229.027	75.5
229.262	55.5
229.496	58.5
229.73	96.5
229.964	89.5
230.199	68.5
230.433	66.5
230.667	65.5
230.901	79.5
231.136	84.5
231.37	77.5
231.604	80.5
231.838	90.5
232.072	83.5
232.306	86.5
232.541	74.5
232.775	75.5
233.009	74.5
233.243	68.5
233.477	75.5
233.711	85.5
233.945	94.5
234.179	77.5
234.413	74.5
234.647	75.5
234.881	67.5
235.115	73.5
235.349	72.5
235.583	95.5
235.817	97.5
236.051	86.5
236.285	69.5
236.519	67.5
236.753	76.5
236.987	83.5
237.221	76.5
237.455	80.5
237.689	78.5
237.922	69.5
238.156	73.5
238.39	71.5
238.624	71.5
238.858	76.5
239.091	81.5
239.325	80.5
239.559	77.5
239.793	83.5
240.027	66.5
240.26	78.5
240.494	75.5
240.728	85.5
240.961	87.5
241.195	86.5
241.429	85.5
241.662	69.5
241.896	83.5
242.13	85.5
242.363	65.5
242.597	81.5
242.83	84.5
243.064	78.5
243.298	71.5
243.531	71.5
243.765	68.5
243.998	87.5
244.232	84.5
244.465	80.5
244.699	80.5
244.932	73.5
245.166	79.5
245.399	72.5
245.633	81.5
245.866	79.5
246.099	90.5
246.333	77.5
246.566	82.5
246.8	81.5
247.033	89.5
247.266	78.5
247.5	88.5
247.733	75.5
247.966	79.5
248.2	83.5
248.433	86.5
248.666	68.5
248.899	81.5
249.133	75.5
249.366	90.5
249.599	93.5
249.832	86.5
250.066	85.5
250.299	86.5
250.532	80.5
250.765	70.5
250.998	81.5
251.231	85.5
251.465	74.5
251.698	99.5
251.931	79.5
252.164	74.5
252.397	74.5
252.63	78.5
252.863	81.5
253.096	85.5
253.329	93.5
253.562	79.5
253.795	83.5
254.028	79.5
254.261	75.5
254.494	80.5
254.727	87.5
254.96	73.5
255.193	65.5
255.426	78.5
255.659	84.5
255.892	74.5
256.124	73.5
256.357	77.5
256.59	85.5
256.823	79.5
257.056	81.5
257.289	89.5
257.521	78.5
257.754	77.5
257.987	73.5
258.22	70.5
258.452	73.5
258.685	81.5
258.918	78.5
259.151	81.5
259.383	73.5
259.616	70.5
259.849	82.5
260.081	83.5
260.314	77.5
260.547	84.5
260.779	75.5
261.012	72.5
261.244	85.5
261.477	89.5
261.71	85.5
261.942	111.5
262.175	107.5
262.407	101.5
262.64	85.5
262.872	92.5
263.105	92.5
263.337	83.5
263.57	93.5
263.802	77.5
264.035	73.5
264.267	82.5
264.499	81.5
264.732	79.5
264.964	82.5
265.197	83.5
265.429	90.5
265.661	92.5
265.894	82.5
266.126	82.5
266.358	104.5
266.591	79.5
266.823	80.5
267.055	81.5
267.287	88.5
267.52	73.5
267.752	75.5
267.984	84.5
268.216	83.5
268.448	79.5
268.681	86.5
268.913	84.5
269.145	93.5
269.377	81.5
269.609	80.5
269.841	85.5
270.073	86.5
270.306	89.5
270.538	88.5
270.77	92.5
271.002	79.5
271.234	74.5
271.466	85.5
271.698	69.5
271.93	82.5
272.162	88.5
272.394	86.5
272.626	95.5
272.858	81.5
273.09	79.5
273.322	88.5
273.553	72.5
273.785	67.5
274.017	83.5
274.249	72.5
274.481	85.5
274.713	83.5
274.945	87.5
275.176	83.5
275.408	88.5
275.64	79.5
275.872	81.5
276.104	86.5
276.335	84.5
276.567	98.5
276.799	118.5
277.031	102.5
277.262	99.5
277.494	90.5
277.726	100.5
277.957	82.5
278.189	76.5
278.421	88.5
278.652	86.5
278.884	88.5
279.115	98.5
279.347	93.5
279.579	82.5
279.81	73.5
280.042	85.5
280.273	88.5
280.505	95.5
280.736	67.5
280.968	88.5
281.199	84.5
281.431	73.5
281.662	79.5
281.894	77.5
282.125	86.5
282.356	96.5
282.588	137.5
282.819	105.5
283.051	98.5
283.282	91.5
283.513	94.5
283.745	89.5
283.976	83.5
284.207	88.5
284.439	85.5
284.67	100.5
284.901	100.5
285.132	94.5
285.364	80.5
285.595	83.5
285.826	93.5
286.057	88.5
286.288	99.5
286.52	97.5
286.751	92.5
286.982	90.5
287.213	85.5
287.444	93.5
287.675	93.5
287.906	78.5
288.138	87.5
288.369	107.5
288.6	95.5
288.831	101.5
289.062	79.5
289.293	85.5
289.524	75.5
289.755	79.5
289.986	69.5
290.217	85.5
290.448	81.5
290.679	88.5
290.91	87.5
291.141	89.5
291.371	103.5
291.602	93.5
291.833	77.5
292.064	95.5
292.295	83.5
292.526	97.5
292.757	89.5
292.987	77.5
293.218	94.5
293.449	87.5
293.68	96.5
293.91	85.5
294.141	93.5
294.372	83.5
294.603	79.5
294.833	92.5
295.064	109.5
295.295	85.5
295.525	78.5
295.756	101.5
295.987	118.5
296.217	142.5
296.448	117.5
296.679	97.5
296.909	82.5
297.14	84.5
297.37	97.5
297.601	87.5
297.831	83.5
298.062	93.5
298.292	90.5
298.523	91.5
298.753	82.5
298.984	84.5
299.214	93.5
299.445	96.5
299.675	83.5
299.905	90.5
300.136	101.5
300.366	90.5
300.597	91.5
300.827	87.5
301.057	96.5
301.288	117.5
301.518	88.5
301.748	90.5
301.979	107.5
302.209	97.5
302.439	89.5
302.669	88.5
302.9	95.5
303.13	102.5
303.36	90.5
303.59	92.5
303.82	101.5
304.051	85.5
304.281	82.5
304.511	77.5
304.741	93.5
304.971	88.5
305.201	85.5
305.431	86.5
305.661	103.5
305.891	88.5
306.121	77.5
306.352	102.5
306.582	96.5
306.812	99.5
307.042	101.5
307.272	106.5
307.502	85.5
307.731	90.5
307.961	72.5
308.191	93.5
308.421	85.5
308.651	83.5
308.881	91.5
309.111	103.5
309.341	95.5
309.571	83.5
309.8	95.5
310.03	93.5
310.26	95.5
310.49	108.5
310.72	105.5
310.949	90.5
311.179	85.5
311.409	94.5
311.639	99.5
311.868	95.5
312.098	105.5
312.328	96.5
312.557	90.5
312.787	98.5
313.017	95.5
313.246	115.5
313.476	107.5
313.706	89.5
313.935	93.5
314.165	101.5
314.394	96.5
314.624	103.5
314.853	110.5
315.083	101.5
315.312	85.5
315.542	88.5
315.771	96.5
316.001	95.5
316.23	88.5
316.46	91.5
316.689	90.5
316.919	90.5
317.148	97.5
317.377	105.5
317.607	95.5
317.836	112.5
318.065	105.5
318.295	91.5
318.524	106.5
318.753	97.5
318.983	104.5
319.212	103.5
319.441	107.5
319.67	99.5
319.9	94.5
320.129	101.5
320.358	94.5
320.587	99.5
320.816	109.5
321.046	109.5
321.275	105.5
321.504	81.5
321.733	90.5
321.962	100.5
322.191	88.5
322.42	102.5
322.649	107.5
322.878	115.5
323.108	118.5
323.337	115.5
323.566	131.5
323.795	160.5
324.024	207.5
324.253	377.5
324.482	797.5
324.71	1645.5
324.939	2167.5
325.168	797.5
325.397	233.5
325.626	157.5
325.855	148.5
326.084	121.5
326.313	111.5
326.542	145.5
326.77	209.5
326.999	437.5
327.228	903.5
327.457	1671.5
327.686	1309.5
327.914	369.5
328.143	197.5
328.372	146.5
328.6	137.5
328.829	127.5
329.058	127.5
329.287	125.5
329.515	116.5
329.744	108.5
329.972	88.5
330.201	113.5
330.43	102.5
330.658	121.5
330.887	136.5
331.115	121.5
331.344	107.5
331.572	113.5
331.801	103.5
332.03	102.5
332.258	94.5
332.486	99.5
332.715	85.5
332.943	101.5
333.172	96.5
333.4	91.5
333.629	104.5
333.857	110.5
334.085	103.5
334.314	105.5
334.542	125.5
334.771	111.5
334.999	98.5
335.227	103.5
335.455	87.5
335.684	105.5
335.912	95.5
336.14	88.5
336.369	99.5
336.597	99.5
336.825	103.5
337.053	99.5
337.281	94.5
337.51	93.5
337.738	89.5
337.966	93.5
338.194	84.5
338.422	104.5
338.65	106.5
338.878	99.5
339.106	98.5
339.334	96.5
339.562	93.5
339.79	99.5
340.018	92.5
340.246	102.5
340.474	99.5
340.702	89.5
340.93	99.5
341.158	87.5
341.386	94.5
341.614	88.5
341.842	103.5
342.07	97.5
342.298	103.5
342.526	72.5
342.754	87.5
342.981	95.5
343.209	98.5
343.437	115.5
343.665	93.5
343.893	95.5
344.12	96.5
344.348	92.5
344.576	81.5
344.804	82.5
345.031	87.5
345.259	116.5
345.487	97.5
345.714	82.5
345.942	94.5
346.17	86.5
346.397	84.5
346.625	90.5
346.853	93.5
347.08	89.5
347.308	99.5
347.535	100.5
347.763	83.5
347.99	93.5
348.218	107.5
348.445	85.5
348.673	116.5
348.9	101.5
349.128	79.5
349.355	94.5
349.583	106.5
349.81	86.5
350.037	103.5
350.265	99.5
350.492	95.5
350.72	89.5
350.947	97.5
351.174	90.5
351.402	104.5
351.629	105.5
351.856	96.5
352.083	111.5
352.311	94.5
352.538	107.5
352.765	111.5
352.992	113.5
353.22	103.5
353.447	97.5
353.674	99.5
353.901	111.5
354.128	94.5
354.355	98.5
354.583	86.5
354.81	106.5
355.037	91.5
355.264	93.5
355.491	108.5
355.718	92.5
355.945	99.5
356.172	97.5
356.399	105.5
356.626	101.5
356.853	106.5
357.08	97.5
357.307	97.5
357.534	103.5
357.761	98.5
357.988	94.5
358.215	101.5
358.441	97.5
358.668	81.5
358.895	101.5
359.122	94.5
359.349	82.5
359.576	91.5
359.802	92.5
360.029	105.5
360.256	111.5
360.483	93.5
360.709	97.5
360.936	88.5
361.163	101.5
361.39	95.5
361.616	105.5
361.843	97.5
362.07	85.5
362.296	96.5
362.523	94.5
362.749	104.5
362.976	84.5
363.203	102.5
363.429	101.5
363.656	83.5
363.882	99.5
364.109	94.5
364.335	105.5
364.562	84.5
364.788	89.5
365.015	107.5
365.241	105.5
365.468	104.5
365.694	102.5
365.92	99.5
366.147	78.5
366.373	84.5
366.599	95.5
366.826	81.5
367.052	104.5
367.278	101.5
367.505	95.5
367.731	93.5
367.957	88.5
368.184	100.5
368.41	96.5
368.636	109.5
368.862	104.5
369.089	100.5
369.315	106.5
369.541	96.5
369.767	87.5
369.993	102.5
370.219	86.5
370.445	74.5
370.672	85.5
370.898	92.5
371.124	96.5
371.35	86.5
371.576	97.5
371.802	101.5
372.028	87.5
372.254	90.5
372.48	101.5
372.706	98.5
372.932	95.5
373.158	96.5
373.384	97.5
373.61	96.5
373.835	93.5
374.061	91.5
374.287	93.5
374.513	81.5
374.739	107.5
374.965	96.5
375.191	94.5
375.416	103.5
375.642	86.5
375.868	94.5
376.094	98.5
376.319	85.5
376.545	93.5
376.771	82.5
376.997	90.5
377.222	101.5
377.448	79.5
377.674	91.5
377.899	95.5
378.125	87.5
378.35	88.5
378.576	96.5
378.802	89.5
379.027	101.5
379.253	97.5
379.478	100.5
379.704	97.5
379.929	88.5
380.155	65.5
380.38	90.5
380.606	91.5
380.831	105.5
381.057	101.5
381.282	81.5
381.507	81.5
381.733	96.5
381.958	88.5
382.184	86.5
382.409	115.5
382.634	109.5
382.86	91.5
383.085	101.5
383.31	95.5
383.535	97.5
383.761	106.5
383.986	103.5
384.211	86.5
384.436	97.5
384.662	91.5
384.887	87.5
385.112	109.5
385.337	112.5
385.562	103.5
385.787	93.5
386.013	98.5
386.238	107.5
386.463	104.5
386.688	104.5
386.913	98.5
387.138	111.5
387.363	115.5
387.588	105.5
387.813	91.5
388.038	105.5
388.263	89.5
388.488	103.5
388.713	86.5
388.938	90.5
389.163	87.5
389.387	100.5
389.612	93.5
389.837	94.5
390.062	98.5
390.287	106.5
390.512	93.5
390.736	91.5
390.961	102.5
391.186	90.5
391.411	79.5
391.636	88.5
391.86	83.5
392.085	87.5
392.31	86.5
392.534	88.5
392.759	88.5
392.984	94.5
393.208	93.5
393.433	102.5
393.658	94.5
393.882	89.5
394.107	90.5
394.331	90.5
394.556	97.5
394.78	88.5
395.005	97.5
395.229	83.5
395.454	89.5
395.678	94.5
395.903	88.5
396.127	93.5
396.352	83.5
396.576	75.5
396.801	86.5
397.025	84.5
397.249	90.5
397.474	84.5
397.698	78.5
397.922	77.5
398.147	98.5
398.371	90.5
398.595	81.5
398.82	85.5
399.044	80.5
399.268	91.5
399.492	70.5
399.717	98.5
399.941	89.5
400.165	89.5
400.389	90.5
400.613	90.5
400.837	82.5
401.062	92.5
401.286	93.5
401.51	89.5
401.734	91.5
401.958	95.5
402.182	124.5
402.406	131.5
402.63	107.5
402.854	95.5
403.078	81.5
403.302	92.5
403.526	74.5
403.75	81.5
403.974	89.5
404.198	93.5
404.422	89.5
404.645	90.5
404.869	100.5
405.093	91.5
405.317	89.5
405.541	87.5
405.765	109.5
405.988	126.5
406.212	166.5
406.436	238.5
406.66	136.5
406.883	91.5
407.107	94.5
407.331	81.5
407.555	105.5
407.778	89.5
408.002	86.5
408.226	86.5
408.449	83.5
408.673	88.5
408.896	75.5
409.12	94.5
409.344	92.5
409.567	87.5
409.791	96.5
410.014	84.5
410.238	83.5
410.461	102.5
410.685	93.5
410.908	106.5
411.132	104.5
411.355	111.5
411.578	93.5
411.802	88.5
412.025	102.5
412.249	93.5
412.472	77.5
412.695	94.5
412.919	93.5
413.142	86.5
413.365	94.5
413.589	83.5
413.812	85.5
414.035	102.5
414.258	86.5
414.482	96.5
414.705	77.5
414.928	90.5
415.151	99.5
415.374	96.5
415.597	77.5
415.821	94.5
416.044	85.5
416.267	100.5
416.49	77.5
416.713	82.5
416.936	89.5
417.159	84.5
417.382	88.5
417.605	92.5
417.828	84.5
418.051	86.5
418.274	95.5
418.497	84.5
418.72	94.5
418.943	99.5
419.166	94.5
419.389	90.5
419.611	92.5
419.834	76.5
420.057	69.5
420.28	86.5
420.503	95.5
420.726	94.5
420.948	94.5
421.171	94.5
421.394	93.5
421.617	75.5
421.839	98.5
422.062	81.5
422.285	97.5
422.507	103.5
422.73	111.5
422.953	90.5
423.175	94.5
423.398	94.5
423.621	82.5
423.843	89.5
424.066	72.5
424.288	77.5
424.511	95.5
424.733	99.5
424.956	109.5
425.178	85.5
425.401	100.5
425.623	108.5
425.846	104.5
426.068	85.5
426.291	90.5
426.513	81.5
426.735	94.5
426.958	90.5
427.18	114.5
427.402	135.5
427.625	149.5
427.847	134.5
428.069	106.5
428.292	97.5
428.514	97.5
428.736	91.5
428.958	94.5
429.181	79.5
429.403	84.5
429.625	86.5
429.847	89.5
430.069	89.5
430.292	75.5
430.514	98.5
430.736	95.5
430.958	89.5
431.18	89.5
431.402	82.5
431.624	81.5
431.846	77.5
432.068	84.5
432.29	90.5
432.512	88.5
432.734	101.5
432.956	79.5
433.178	87.5
433.4	94.5
433.622	87.5
433.844	93.5
434.066	91.5
434.287	92.5
434.509	97.5
434.731	84.5
434.953	89.5
435.175	81.5
435.397	95.5
435.618	86.5
435.84	94.5
436.062	117.5
436.284	118.5
436.505	106.5
436.727	95.5
436.949	86.5
437.17	79.5
437.392	81.5
437.614	87.5
437.835	103.5
438.057	122.5
438.278	99.5
438.5	103.5
438.721	120.5
438.943	93.5
439.165	86.5
439.386	77.5
439.608	97.5
439.829	112.5
440.05	114.5
440.272	133.5
440.493	103.5
440.715	82.5
440.936	93.5
441.158	74.5
441.379	82.5
441.6	96.5
441.822	95.5
442.043	88.5
442.264	101.5
442.486	110.5
442.707	94.5
442.928	107.5
443.149	141.5
443.371	134.5
443.592	106.5
443.813	115.5
444.034	116.5
444.255	103.5
444.476	76.5
444.698	89.5
444.919	101.5
445.14	133.5
445.361	104.5
445.582	121.5
445.803	141.5
446.024	125.5
446.245	135.5
446.466	102.5
446.687	93.5
446.908	102.5
447.129	83.5
447.35	91.5
447.571	95.5
447.792	89.5
448.013	90.5
448.234	106.5
448.455	104.5
448.675	112.5
448.896	109.5
449.117	90.5
449.338	97.5
449.559	130.5
449.779	125.5
450	92.5
450.221	97.5
450.442	83.5
450.662	89.5
450.883	94.5
451.104	113.5
451.324	87.5
451.545	79.5
451.766	99.5
451.986	91.5
452.207	85.5
452.428	98.5
452.648	80.5
452.869	109.5
453.089	108.5
453.31	120.5
453.53	90.5
453.751	90.5
453.971	97.5
454.192	103.5
454.412	85.5
454.633	79.5
454.853	83.5
455.073	79.5
455.294	75.5
455.514	92.5
455.734	88.5
455.955	95.5
456.175	82.5
456.395	78.5
456.616	78.5
456.836	66.5
457.056	77.5
457.276	89.5
457.497	83.5
457.717	91.5
457.937	90.5
458.157	88.5
458.377	96.5
458.598	109.5
458.818	139.5
459.038	163.5
459.258	106.5
459.478	86.5
459.698	74.5
459.918	89.5
460.138	92.5
460.358	79.5
460.578	83.5
460.798	94.5
461.018	85.5
461.238	89.5
461.458	91.5
461.678	86.5
461.898	89.5
462.118	98.5
462.338	89.5
462.558	78.5
462.777	85.5
462.997	84.5
463.217	96.5
463.437	89.5
463.657	91.5
463.876	83.5
464.096	94.5
464.316	91.5
464.536	91.5
464.755	96.5
464.975	107.5
465.195	152.5
465.414	161.5
465.634	109.5
465.854	104.5
466.073	79.5
466.293	77.5
466.512	72.5
466.732	85.5
466.951	93.5
467.171	98.5
467.391	107.5
467.61	91.5
467.829	90.5
468.049	95.5
468.268	97.5
468.488	81.5
468.707	82.5
468.927	86.5
469.146	99.5
469.365	86.5
469.585	91.5
469.804	102.5
470.023	88.5
470.243	94.5
470.462	95.5
470.681	106.5
470.901	107.5
471.12	87.5
471.339	81.5
471.558	95.5
471.777	103.5
471.997	96.5
472.216	106.5
472.435	139.5
472.654	100.5
472.873	99.5
473.092	93.5
473.311	78.5
473.53	70.5
473.749	95.5
473.968	94.5
474.187	93.5
474.406	93.5
474.625	98.5
474.844	96.5
475.063	90.5
475.282	86.5
475.501	85.5
475.72	103.5
475.939	84.5
476.158	78.5
476.377	83.5
476.596	87.5
476.814	93.5
477.033	106.5
477.252	96.5
477.471	87.5
477.69	85.5
477.908	79.5
478.127	83.5
478.346	91.5
478.564	100.5
478.783	112.5
479.002	83.5
479.22	94.5
479.439	93.5
479.658	94.5
479.876	87.5
480.095	104.5
480.313	77.5
480.532	87.5
480.751	79.5
480.969	106.5
481.188	157.5
481.406	147.5
481.624	97.5
481.843	85.5
482.061	82.5
482.28	91.5
482.498	90.5
482.717	79.5
482.935	102.5
483.153	82.5
483.372	93.5
483.59	98.5
483.808	80.5
484.027	82.5
484.245	93.5
484.463	89.5
484.681	117.5
484.9	103.5
485.118	107.5
485.336	94.5
485.554	99.5
485.772	105.5
485.99	103.5
486.209	104.5
486.427	97.5
486.645	95.5
486.863	101.5
487.081	105.5
487.299	102.5
487.517	89.5
487.735	97.5
487.953	93.5
488.171	95.5
488.389	99.5
488.607	87.5
488.825	87.5
489.043	80.5
489.261	85.5
489.479	103.5
489.696	90.5
489.914	88.5
490.132	85.5
490.35	104.5
490.568	89.5
490.786	73.5
491.003	84.5
491.221	95.5
491.439	91.5
491.657	98.5
491.874	85.5
492.092	82.5
492.31	93.5
492.527	87.5
492.745	110.5
492.963	91.5
493.18	93.5
493.398	96.5
493.615	98.5
493.833	96.5
494.05	88.5
494.268	88.5
494.485	77.5
494.703	98.5
494.92	93.5
495.138	88.5
495.355	85.5
495.573	94.5
495.79	79.5
496.008	111.5
496.225	102.5
496.442	80.5
496.66	89.5
496.877	98.5
497.094	77.5
497.312	85.5
497.529	87.5
497.746	78.5
497.963	100.5
498.181	103.5
498.398	83.5
498.615	114.5
498.832	110.5
499.049	92.5
499.267	84.5
499.484	92.5
499.701	88.5
499.918	98.5
500.135	88.5
500.352	95.5
500.569	79.5
500.786	85.5
501.003	88.5
501.22	86.5
501.437	83.5
501.654	97.5
501.871	116.5
502.088	82.5
502.305	98.5
502.522	85.5
502.739	87.5
502.956	72.5
503.172	95.5
503.389	90.5
503.606	89.5
503.823	90.5
504.04	81.5
504.256	97.5
504.473	82.5
504.69	90.5
504.907	101.5
505.123	91.5
505.34	88.5
505.557	96.5
505.773	86.5
505.99	88.5
506.207	72.5
506.423	97.5
506.64	96.5
506.856	90.5
507.073	89.5
507.289	92.5
507.506	88.5
507.722	97.5
507.939	122.5
508.155	97.5
508.372	92.5
508.588	95.5
508.805	95.5
509.021	86.5
509.238	94.5
509.454	100.5
509.67	103.5
509.887	124.5
510.103	129.5
510.319	197.5
510.536	746.5
510.752	2421.5
510.968	644.5
511.184	149.5
511.401	112.5
511.617	110.5
511.833	98.5
512.049	95.5
512.265	87.5
512.481	85.5
512.698	90.5
512.914	102.5
513.13	105.5
513.346	98.5
513.562	104.5
513.778	98.5
513.994	97.5
514.21	105.5
514.426	104.5
514.642	120.5
514.858	113.5
515.074	163.5
515.29	463.5
515.506	1491.5
515.721	539.5
515.937	160.5
516.153	117.5
516.369	111.5
516.585	94.5
516.801	102.5
517.016	86.5
517.232	89.5
517.448	96.5
517.664	91.5
517.879	90.5
518.095	82.5
518.311	89.5
518.527	91.5
518.742	96.5
518.958	107.5
519.173	105.5
519.389	86.5
519.605	93.5
519.82	86.5
520.036	101.5
520.251	126.5
520.467	110.5
520.682	112.5
520.898	96.5
521.113	111.5
521.329	141.5
521.544	221.5
521.76	575.5
521.975	2429.5
522.19	1455.5
522.406	300.5
522.621	137.5
522.836	104.5
523.052	107.5
523.267	105.5
523.482	104.5
523.698	96.5
523.913	119.5
524.128	117.5
524.343	84.5
524.559	105.5
524.774	97.5
524.989	94.5
525.204	99.5
525.419	67.5
525.634	98.5
525.849	93.5
526.064	78.5
526.28	93.5
526.495	90.5
526.71	95.5
526.925	90.5
527.14	97.5
527.355	88.5
527.57	89.5
527.785	91.5
527.999	98.5
528.214	96.5
528.429	93.5
528.644	68.5
528.859	99.5
529.074	99.5
529.289	126.5
529.503	175.5
529.718	107.5
529.933	97.5
530.148	93.5
530.363	97.5
530.577	87.5
530.792	81.5
531.007	76.5
531.221	90.5
531.436	88.5
531.651	97.5
531.865	99.5
532.08	89.5
532.295	79.5
532.509	101.5
532.724	101.5
532.938	93.5
533.153	102.5
533.367	96.5
533.582	93.5
533.796	88.5
534.011	111.5
534.225	92.5
534.44	91.5
534.654	98.5
534.868	95.5
535.083	78.5
