Data from Uncirc_1987_H10_HRD10591_00059.txt Node
Date: Wed Jan 03 12:09:00 EST 2024
User: Yrep
Spectrometer: HR+D1059
Trigger mode: 1
Integration Time (sec): 1.000000E-1
Scans to average: 1
Electric dark correction enabled: true
Nonlinearity correction enabled: false
Boxcar width: 0
XAxis mode: Wavelengths
Number of Pixels in Spectrum: 2048
>>>>>Begin Spectral Data<<<<<
223.165	-19.56
223.4	-19.56
223.635	-19.56
223.869	-15.56
224.104	-17.56
224.338	1.44
224.573	-11.56
224.808	-14.56
225.042	-17.56
225.277	-4.56
225.511	2.44
225.746	-0.56
225.98	8.44
226.215	7.44
226.449	21.44
226.683	16.44
226.918	14.44
227.152	29.44
227.387	28.44
227.621	37.44
227.856	57.44
228.09	42.44
228.324	44.44
228.559	42.44
228.793	47.44
229.027	52.44
229.262	69.44
229.496	80.44
229.73	76.44
229.964	78.44
230.199	75.44
230.433	72.44
230.667	62.44
230.901	70.44
231.136	80.44
231.37	93.44
231.604	86.44
231.838	70.44
232.072	82.44
232.306	89.44
232.541	69.44
232.775	72.44
233.009	82.44
233.243	95.44
233.477	78.44
233.711	73.44
233.945	74.44
234.179	80.44
234.413	78.44
234.647	67.44
234.881	80.44
235.115	82.44
235.349	90.44
235.583	77.44
235.817	74.44
236.051	64.44
236.285	81.44
236.519	82.44
236.753	84.44
236.987	76.44
237.221	80.44
237.455	86.44
237.689	83.44
237.922	64.44
238.156	78.44
238.39	61.44
238.624	78.44
238.858	76.44
239.091	64.44
239.325	72.44
239.559	76.44
239.793	71.44
240.027	76.44
240.26	76.44
240.494	81.44
240.728	71.44
240.961	85.44
241.195	68.44
241.429	87.44
241.662	72.44
241.896	70.44
242.13	82.44
242.363	79.44
242.597	86.44
242.83	84.44
243.064	74.44
243.298	61.44
243.531	77.44
243.765	77.44
243.998	82.44
244.232	80.44
244.465	80.44
244.699	89.44
244.932	73.44
245.166	67.44
245.399	72.44
245.633	90.44
245.866	79.44
246.099	96.44
246.333	80.44
246.566	91.44
246.8	69.44
247.033	60.44
247.266	80.44
247.5	78.44
247.733	71.44
247.966	81.44
248.2	88.44
248.433	68.44
248.666	68.44
248.899	76.44
249.133	84.44
249.366	104.44
249.599	92.44
249.832	82.44
250.066	71.44
250.299	83.44
250.532	80.44
250.765	69.44
250.998	71.44
251.231	62.44
251.465	88.44
251.698	64.44
251.931	69.44
252.164	76.44
252.397	82.44
252.63	73.44
252.863	86.44
253.096	84.44
253.329	85.44
253.562	84.44
253.795	81.44
254.028	62.44
254.261	87.44
254.494	82.44
254.727	74.44
254.96	92.44
255.193	80.44
255.426	89.44
255.659	89.44
255.892	83.44
256.124	92.44
256.357	70.44
256.59	80.44
256.823	80.44
257.056	87.44
257.289	85.44
257.521	81.44
257.754	73.44
257.987	86.44
258.22	92.44
258.452	86.44
258.685	98.44
258.918	87.44
259.151	80.44
259.383	68.44
259.616	79.44
259.849	84.44
260.081	97.44
260.314	86.44
260.547	71.44
260.779	80.44
261.012	99.44
261.244	74.44
261.477	94.44
261.71	93.44
261.942	102.44
262.175	96.44
262.407	82.44
262.64	85.44
262.872	72.44
263.105	81.44
263.337	87.44
263.57	78.44
263.802	70.44
264.035	65.44
264.267	78.44
264.499	81.44
264.732	105.44
264.964	84.44
265.197	89.44
265.429	80.44
265.661	78.44
265.894	85.44
266.126	93.44
266.358	87.44
266.591	86.44
266.823	84.44
267.055	70.44
267.287	81.44
267.52	66.44
267.752	69.44
267.984	93.44
268.216	81.44
268.448	82.44
268.681	79.44
268.913	84.44
269.145	70.44
269.377	79.44
269.609	82.44
269.841	80.44
270.073	89.44
270.306	90.44
270.538	70.44
270.77	72.44
271.002	71.44
271.234	85.44
271.466	67.44
271.698	90.44
271.93	98.44
272.162	89.44
272.394	76.44
272.626	79.44
272.858	82.44
273.09	94.44
273.322	92.44
273.553	84.44
273.785	77.44
274.017	73.44
274.249	76.44
274.481	94.44
274.713	86.44
274.945	86.44
275.176	85.44
275.408	94.44
275.64	85.44
275.872	88.44
276.104	72.44
276.335	98.44
276.567	94.44
276.799	107.44
277.031	97.44
277.262	88.44
277.494	87.44
277.726	86.44
277.957	73.44
278.189	89.44
278.421	72.44
278.652	91.44
278.884	80.44
279.115	88.44
279.347	82.44
279.579	86.44
279.81	85.44
280.042	85.44
280.273	81.44
280.505	84.44
280.736	76.44
280.968	73.44
281.199	92.44
281.431	101.44
281.662	82.44
281.894	79.44
282.125	97.44
282.356	112.44
282.588	137.44
282.819	114.44
283.051	87.44
283.282	80.44
283.513	88.44
283.745	78.44
283.976	91.44
284.207	92.44
284.439	68.44
284.67	94.44
284.901	90.44
285.132	80.44
285.364	92.44
285.595	91.44
285.826	91.44
286.057	70.44
286.288	82.44
286.52	78.44
286.751	84.44
286.982	89.44
287.213	93.44
287.444	76.44
287.675	80.44
287.906	83.44
288.138	90.44
288.369	92.44
288.6	101.44
288.831	86.44
289.062	85.44
289.293	95.44
289.524	72.44
289.755	76.44
289.986	80.44
290.217	89.44
290.448	93.44
290.679	86.44
290.91	99.44
291.141	86.44
291.371	83.44
291.602	96.44
291.833	84.44
292.064	89.44
292.295	96.44
292.526	83.44
292.757	84.44
292.987	98.44
293.218	73.44
293.449	83.44
293.68	85.44
293.91	96.44
294.141	96.44
294.372	98.44
294.603	93.44
294.833	100.44
295.064	85.44
295.295	86.44
295.525	91.44
295.756	100.44
295.987	103.44
296.217	116.44
296.448	131.44
296.679	87.44
296.909	87.44
297.14	86.44
297.37	95.44
297.601	89.44
297.831	99.44
298.062	80.44
298.292	82.44
298.523	95.44
298.753	93.44
298.984	85.44
299.214	90.44
299.445	95.44
299.675	87.44
299.905	94.44
300.136	83.44
300.366	84.44
300.597	95.44
300.827	87.44
301.057	89.44
301.288	98.44
301.518	83.44
301.748	84.44
301.979	96.44
302.209	95.44
302.439	80.44
302.669	85.44
302.9	88.44
303.13	81.44
303.36	86.44
303.59	103.44
303.82	103.44
304.051	101.44
304.281	94.44
304.511	86.44
304.741	83.44
304.971	89.44
305.201	97.44
305.431	68.44
305.661	86.44
305.891	80.44
306.121	96.44
306.352	102.44
306.582	83.44
306.812	93.44
307.042	100.44
307.272	97.44
307.502	90.44
307.731	101.44
307.961	76.44
308.191	93.44
308.421	89.44
308.651	86.44
308.881	103.44
309.111	85.44
309.341	97.44
309.571	102.44
309.8	100.44
310.03	89.44
310.26	96.44
310.49	96.44
310.72	79.44
310.949	94.44
311.179	83.44
311.409	106.44
311.639	95.44
311.868	82.44
312.098	100.44
312.328	99.44
312.557	91.44
312.787	88.44
313.017	93.44
313.246	89.44
313.476	86.44
313.706	88.44
313.935	100.44
314.165	95.44
314.394	80.44
314.624	98.44
314.853	81.44
315.083	86.44
315.312	94.44
315.542	84.44
315.771	79.44
316.001	91.44
316.23	104.44
316.46	86.44
316.689	97.44
316.919	96.44
317.148	104.44
317.377	104.44
317.607	91.44
317.836	90.44
318.065	100.44
318.295	90.44
318.524	78.44
318.753	82.44
318.983	105.44
319.212	96.44
319.441	97.44
319.67	100.44
319.9	88.44
320.129	97.44
320.358	92.44
320.587	98.44
320.816	98.44
321.046	102.44
321.275	114.44
321.504	96.44
321.733	101.44
321.962	110.44
322.191	102.44
322.42	96.44
322.649	87.44
322.878	90.44
323.108	106.44
323.337	112.44
323.566	118.44
323.795	132.44
324.024	193.44
324.253	379.44
324.482	817.44
324.71	1636.44
324.939	2111.44
325.168	775.44
325.397	247.44
325.626	145.44
325.855	129.44
326.084	116.44
326.313	132.44
326.542	152.44
326.77	232.44
326.999	445.44
327.228	898.44
327.457	1658.44
327.686	1305.44
327.914	348.44
328.143	194.44
328.372	150.44
328.6	132.44
328.829	129.44
329.058	120.44
329.287	123.44
329.515	96.44
329.744	103.44
329.972	106.44
330.201	104.44
330.43	101.44
330.658	112.44
330.887	124.44
331.115	112.44
331.344	96.44
331.572	106.44
331.801	117.44
332.03	121.44
332.258	95.44
332.486	92.44
332.715	95.44
332.943	93.44
333.172	92.44
333.4	107.44
333.629	116.44
333.857	116.44
334.085	106.44
334.314	89.44
334.542	103.44
334.771	103.44
334.999	105.44
335.227	100.44
335.455	100.44
335.684	99.44
335.912	109.44
336.14	107.44
336.369	112.44
336.597	108.44
336.825	103.44
337.053	97.44
337.281	94.44
337.51	97.44
337.738	96.44
337.966	82.44
338.194	98.44
338.422	90.44
338.65	78.44
338.878	85.44
339.106	88.44
339.334	100.44
339.562	92.44
339.79	101.44
340.018	94.44
340.246	78.44
340.474	102.44
340.702	96.44
340.93	86.44
341.158	75.44
341.386	90.44
341.614	105.44
341.842	115.44
342.07	88.44
342.298	90.44
342.526	86.44
342.754	94.44
342.981	86.44
343.209	87.44
343.437	101.44
343.665	90.44
343.893	90.44
344.12	104.44
344.348	102.44
344.576	91.44
344.804	95.44
345.031	92.44
345.259	90.44
345.487	79.44
345.714	92.44
345.942	92.44
346.17	89.44
346.397	82.44
346.625	94.44
346.853	91.44
347.08	80.44
347.308	95.44
347.535	97.44
347.763	97.44
347.99	106.44
348.218	101.44
348.445	101.44
348.673	90.44
348.9	92.44
349.128	97.44
349.355	100.44
349.583	102.44
349.81	113.44
350.037	89.44
350.265	98.44
350.492	86.44
350.72	88.44
350.947	87.44
351.174	103.44
351.402	107.44
351.629	101.44
351.856	98.44
352.083	113.44
352.311	97.44
352.538	111.44
352.765	106.44
352.992	117.44
353.22	119.44
353.447	107.44
353.674	87.44
353.901	106.44
354.128	95.44
354.355	89.44
354.583	94.44
354.81	105.44
355.037	83.44
355.264	109.44
355.491	82.44
355.718	85.44
355.945	92.44
356.172	81.44
356.399	104.44
356.626	101.44
356.853	96.44
357.08	90.44
357.307	90.44
357.534	98.44
357.761	82.44
357.988	94.44
358.215	86.44
358.441	95.44
358.668	76.44
358.895	84.44
359.122	77.44
359.349	93.44
359.576	81.44
359.802	101.44
360.029	112.44
360.256	113.44
360.483	95.44
360.709	81.44
360.936	83.44
361.163	85.44
361.39	87.44
361.616	98.44
361.843	100.44
362.07	93.44
362.296	94.44
362.523	100.44
362.749	89.44
362.976	100.44
363.203	97.44
363.429	93.44
363.656	87.44
363.882	96.44
364.109	89.44
364.335	83.44
364.562	89.44
364.788	92.44
365.015	82.44
365.241	96.44
365.468	107.44
365.694	94.44
365.92	89.44
366.147	93.44
366.373	105.44
366.599	95.44
366.826	93.44
367.052	86.44
367.278	97.44
367.505	96.44
367.731	88.44
367.957	88.44
368.184	96.44
368.41	95.44
368.636	100.44
368.862	100.44
369.089	102.44
369.315	106.44
369.541	90.44
369.767	94.44
369.993	77.44
370.219	88.44
370.445	95.44
370.672	87.44
370.898	82.44
371.124	94.44
371.35	96.44
371.576	106.44
371.802	94.44
372.028	86.44
372.254	84.44
372.48	102.44
372.706	83.44
372.932	86.44
373.158	92.44
373.384	92.44
373.61	84.44
373.835	95.44
374.061	102.44
374.287	84.44
374.513	81.44
374.739	88.44
374.965	90.44
375.191	95.44
375.416	94.44
375.642	98.44
375.868	85.44
376.094	98.44
376.319	68.44
376.545	81.44
376.771	92.44
376.997	84.44
377.222	82.44
377.448	91.44
377.674	81.44
377.899	83.44
378.125	78.44
378.35	88.44
378.576	99.44
378.802	100.44
379.027	98.44
379.253	87.44
379.478	92.44
379.704	92.44
379.929	99.44
380.155	98.44
380.38	91.44
380.606	90.44
380.831	88.44
381.057	92.44
381.282	95.44
381.507	91.44
381.733	93.44
381.958	92.44
382.184	84.44
382.409	95.44
382.634	105.44
382.86	87.44
383.085	113.44
383.31	94.44
383.535	106.44
383.761	81.44
383.986	99.44
384.211	96.44
384.436	98.44
384.662	96.44
384.887	99.44
385.112	107.44
385.337	85.44
385.562	101.44
385.787	106.44
386.013	114.44
386.238	103.44
386.463	109.44
386.688	109.44
386.913	90.44
387.138	110.44
387.363	91.44
387.588	100.44
387.813	102.44
388.038	109.44
388.263	95.44
388.488	96.44
388.713	98.44
388.938	93.44
389.163	88.44
389.387	104.44
389.612	93.44
389.837	86.44
390.062	84.44
390.287	83.44
390.512	97.44
390.736	85.44
390.961	101.44
391.186	88.44
391.411	97.44
391.636	89.44
391.86	88.44
392.085	97.44
392.31	75.44
392.534	93.44
392.759	87.44
392.984	94.44
393.208	89.44
393.433	104.44
393.658	86.44
393.882	81.44
394.107	93.44
394.331	83.44
394.556	79.44
394.78	71.44
395.005	95.44
395.229	72.44
395.454	92.44
395.678	87.44
395.903	83.44
396.127	83.44
396.352	91.44
396.576	85.44
396.801	91.44
397.025	94.44
397.249	98.44
397.474	85.44
397.698	86.44
397.922	82.44
398.147	84.44
398.371	84.44
398.595	95.44
398.82	68.44
399.044	93.44
399.268	88.44
399.492	99.44
399.717	74.44
399.941	96.44
400.165	84.44
400.389	95.44
400.613	90.44
400.837	76.44
401.062	80.44
401.286	87.44
401.51	95.44
401.734	83.44
401.958	96.44
402.182	129.44
402.406	137.44
402.63	103.44
402.854	80.44
403.078	89.44
403.302	95.44
403.526	87.44
403.75	80.44
403.974	97.44
404.198	77.44
404.422	102.44
404.645	69.44
404.869	81.44
405.093	95.44
405.317	97.44
405.541	104.44
405.765	108.44
405.988	111.44
406.212	170.44
406.436	212.44
406.66	120.44
406.883	96.44
407.107	97.44
407.331	80.44
407.555	112.44
407.778	96.44
408.002	87.44
408.226	77.44
408.449	80.44
408.673	91.44
408.896	78.44
409.12	102.44
409.344	94.44
409.567	89.44
409.791	101.44
410.014	95.44
410.238	93.44
410.461	89.44
410.685	102.44
410.908	127.44
411.132	123.44
411.355	100.44
411.578	92.44
411.802	85.44
412.025	97.44
412.249	98.44
412.472	95.44
412.695	103.44
412.919	96.44
413.142	78.44
413.365	90.44
413.589	76.44
413.812	81.44
414.035	96.44
414.258	103.44
414.482	87.44
414.705	101.44
414.928	79.44
415.151	104.44
415.374	83.44
415.597	88.44
415.821	70.44
416.044	81.44
416.267	88.44
416.49	88.44
416.713	89.44
416.936	82.44
417.159	90.44
417.382	84.44
417.605	79.44
417.828	96.44
418.051	101.44
418.274	76.44
418.497	82.44
418.72	65.44
418.943	93.44
419.166	81.44
419.389	96.44
419.611	85.44
419.834	84.44
420.057	87.44
420.28	95.44
420.503	93.44
420.726	97.44
420.948	81.44
421.171	94.44
421.394	90.44
421.617	78.44
421.839	85.44
422.062	88.44
422.285	85.44
422.507	94.44
422.73	101.44
422.953	83.44
423.175	84.44
423.398	94.44
423.621	92.44
423.843	96.44
424.066	88.44
424.288	85.44
424.511	88.44
424.733	100.44
424.956	105.44
425.178	111.44
425.401	92.44
425.623	99.44
425.846	85.44
426.068	92.44
426.291	89.44
426.513	84.44
426.735	92.44
426.958	82.44
427.18	113.44
427.402	135.44
427.625	166.44
427.847	135.44
428.069	101.44
428.292	80.44
428.514	90.44
428.736	89.44
428.958	84.44
429.181	91.44
429.403	90.44
429.625	86.44
429.847	89.44
430.069	108.44
430.292	96.44
430.514	80.44
430.736	93.44
430.958	79.44
431.18	85.44
431.402	89.44
431.624	86.44
431.846	85.44
432.068	79.44
432.29	96.44
432.512	104.44
432.734	98.44
432.956	88.44
433.178	96.44
433.4	94.44
433.622	73.44
433.844	91.44
434.066	94.44
434.287	86.44
434.509	96.44
434.731	90.44
434.953	85.44
435.175	81.44
435.397	85.44
435.618	89.44
435.84	115.44
436.062	122.44
436.284	104.44
436.505	100.44
436.727	99.44
436.949	100.44
437.17	84.44
437.392	89.44
437.614	85.44
437.835	90.44
438.057	111.44
438.278	105.44
438.5	98.44
438.721	123.44
438.943	103.44
439.165	80.44
439.386	94.44
439.608	94.44
439.829	97.44
440.05	118.44
440.272	138.44
440.493	109.44
440.715	99.44
440.936	110.44
441.158	88.44
441.379	87.44
441.6	84.44
441.822	86.44
442.043	95.44
442.264	100.44
442.486	104.44
442.707	87.44
442.928	102.44
443.149	121.44
443.371	128.44
443.592	105.44
443.813	92.44
444.034	100.44
444.255	89.44
444.476	83.44
444.698	93.44
444.919	80.44
445.14	117.44
445.361	96.44
445.582	94.44
445.803	128.44
446.024	111.44
446.245	124.44
446.466	107.44
446.687	87.44
446.908	76.44
447.129	83.44
447.35	79.44
447.571	96.44
447.792	88.44
448.013	82.44
448.234	95.44
448.455	98.44
448.675	117.44
448.896	124.44
449.117	97.44
449.338	111.44
449.559	121.44
449.779	117.44
450	90.44
450.221	90.44
450.442	97.44
450.662	93.44
450.883	109.44
451.104	106.44
451.324	91.44
451.545	84.44
451.766	76.44
451.986	87.44
452.207	86.44
452.428	87.44
452.648	96.44
452.869	113.44
453.089	101.44
453.31	119.44
453.53	102.44
453.751	96.44
453.971	85.44
454.192	111.44
454.412	79.44
454.633	69.44
454.853	82.44
455.073	72.44
455.294	79.44
455.514	109.44
455.734	88.44
455.955	80.44
456.175	91.44
456.395	89.44
456.616	70.44
456.836	89.44
457.056	102.44
457.276	82.44
457.497	82.44
457.717	80.44
457.937	89.44
458.157	77.44
458.377	97.44
458.598	102.44
458.818	131.44
459.038	143.44
459.258	98.44
459.478	93.44
459.698	93.44
459.918	90.44
460.138	96.44
460.358	87.44
460.578	86.44
460.798	86.44
461.018	94.44
461.238	84.44
461.458	86.44
461.678	81.44
461.898	76.44
462.118	101.44
462.338	99.44
462.558	92.44
462.777	74.44
462.997	79.44
463.217	81.44
463.437	81.44
463.657	88.44
463.876	85.44
464.096	97.44
464.316	93.44
464.536	76.44
464.755	94.44
464.975	105.44
465.195	158.44
465.414	143.44
465.634	89.44
465.854	84.44
466.073	81.44
466.293	81.44
466.512	70.44
466.732	87.44
466.951	86.44
467.171	88.44
467.391	93.44
467.61	111.44
467.829	101.44
468.049	80.44
468.268	76.44
468.488	77.44
468.707	78.44
468.927	78.44
469.146	83.44
469.365	84.44
469.585	80.44
469.804	85.44
470.023	108.44
470.243	90.44
470.462	88.44
470.681	102.44
470.901	80.44
471.12	87.44
471.339	93.44
471.558	86.44
471.777	95.44
471.997	82.44
472.216	85.44
472.435	93.44
472.654	89.44
472.873	77.44
473.092	73.44
473.311	88.44
473.53	78.44
473.749	81.44
473.968	95.44
474.187	95.44
474.406	90.44
474.625	80.44
474.844	85.44
475.063	86.44
475.282	93.44
475.501	97.44
475.72	92.44
475.939	92.44
476.158	72.44
476.377	80.44
476.596	94.44
476.814	85.44
477.033	100.44
477.252	87.44
477.471	100.44
477.69	84.44
477.908	85.44
478.127	77.44
478.346	91.44
478.564	89.44
478.783	92.44
479.002	111.44
479.22	85.44
479.439	116.44
479.658	100.44
479.876	96.44
480.095	86.44
480.313	76.44
480.532	92.44
480.751	89.44
480.969	78.44
481.188	127.44
481.406	104.44
481.624	82.44
481.843	89.44
482.061	80.44
482.28	84.44
482.498	81.44
482.717	90.44
482.935	84.44
483.153	85.44
483.372	74.44
483.59	78.44
483.808	89.44
484.027	77.44
484.245	93.44
484.463	91.44
484.681	87.44
484.9	80.44
485.118	88.44
485.336	84.44
485.554	97.44
485.772	80.44
485.99	101.44
486.209	91.44
486.427	94.44
486.645	94.44
486.863	114.44
487.081	103.44
487.299	98.44
487.517	101.44
487.735	85.44
487.953	93.44
488.171	94.44
488.389	91.44
488.607	100.44
488.825	102.44
489.043	106.44
489.261	85.44
489.479	86.44
489.696	81.44
489.914	95.44
490.132	78.44
490.35	93.44
490.568	78.44
490.786	94.44
491.003	80.44
491.221	96.44
491.439	91.44
491.657	101.44
491.874	105.44
492.092	90.44
492.31	97.44
492.527	98.44
492.745	93.44
492.963	89.44
493.18	93.44
493.398	82.44
493.615	98.44
493.833	104.44
494.05	92.44
494.268	84.44
494.485	88.44
494.703	92.44
494.92	101.44
495.138	83.44
495.355	92.44
495.573	94.44
495.79	103.44
496.008	97.44
496.225	92.44
496.442	96.44
496.66	91.44
496.877	91.44
497.094	87.44
497.312	73.44
497.529	76.44
497.746	90.44
497.963	93.44
498.181	93.44
498.398	86.44
498.615	91.44
498.832	96.44
499.049	92.44
499.267	92.44
499.484	82.44
499.701	92.44
499.918	87.44
500.135	91.44
500.352	81.44
500.569	100.44
500.786	82.44
501.003	81.44
501.22	87.44
501.437	97.44
501.654	92.44
501.871	98.44
502.088	86.44
502.305	111.44
502.522	98.44
502.739	77.44
502.956	94.44
503.172	89.44
503.389	100.44
503.606	83.44
503.823	104.44
504.04	93.44
504.256	87.44
504.473	103.44
504.69	85.44
504.907	89.44
505.123	70.44
505.34	88.44
505.557	74.44
505.773	97.44
505.99	94.44
506.207	90.44
506.423	92.44
506.64	84.44
506.856	96.44
507.073	93.44
507.289	81.44
507.506	106.44
507.722	105.44
507.939	115.44
508.155	89.44
508.372	94.44
508.588	102.44
508.805	102.44
509.021	95.44
509.238	95.44
509.454	92.44
509.67	99.44
509.887	106.44
510.103	122.44
510.319	211.44
510.536	732.44
510.752	2233.44
510.968	585.44
511.184	174.44
511.401	94.44
511.617	95.44
511.833	105.44
512.049	83.44
512.265	90.44
512.481	91.44
512.698	86.44
512.914	93.44
513.13	101.44
513.346	88.44
513.562	81.44
513.778	97.44
513.994	105.44
514.21	98.44
514.426	102.44
514.642	115.44
514.858	117.44
515.074	152.44
515.29	442.44
515.506	1385.44
515.721	476.44
515.937	154.44
516.153	98.44
