Data from Uncirc_1987_H10_HRD10591_00080.txt Node
Date: Wed Jan 03 12:09:04 EST 2024
User: Yrep
Spectrometer: HR+D1059
Trigger mode: 1
Integration Time (sec): 1.000000E-1
Scans to average: 1
Electric dark correction enabled: true
Nonlinearity correction enabled: false
Boxcar width: 0
XAxis mode: Wavelengths
Number of Pixels in Spectrum: 2048
>>>>>Begin Spectral Data<<<<<
223.165	-24.25
223.4	-24.25
223.635	-24.25
223.869	-7.25
224.104	-13.25
224.338	-7.25
224.573	-27.25
224.808	-22.25
225.042	-14.25
225.277	1.75
225.511	8.75
225.746	3.75
225.98	-1.25
226.215	15.75
226.449	5.75
226.683	18.75
226.918	26.75
227.152	35.75
227.387	50.75
227.621	47.75
227.856	39.75
228.09	40.75
228.324	48.75
228.559	31.75
228.793	51.75
229.027	56.75
229.262	80.75
229.496	81.75
229.73	78.75
229.964	84.75
230.199	61.75
230.433	78.75
230.667	68.75
230.901	71.75
231.136	69.75
231.37	84.75
231.604	79.75
231.838	75.75
232.072	68.75
232.306	70.75
232.541	74.75
232.775	73.75
233.009	81.75
233.243	72.75
233.477	83.75
233.711	75.75
233.945	80.75
234.179	80.75
234.413	78.75
234.647	86.75
234.881	60.75
235.115	72.75
235.349	72.75
235.583	84.75
235.817	68.75
236.051	90.75
236.285	71.75
236.519	87.75
236.753	91.75
236.987	80.75
237.221	94.75
237.455	91.75
237.689	65.75
237.922	72.75
238.156	76.75
238.39	65.75
238.624	71.75
238.858	71.75
239.091	76.75
239.325	82.75
239.559	74.75
239.793	78.75
240.027	73.75
240.26	75.75
240.494	73.75
240.728	75.75
240.961	54.75
241.195	66.75
241.429	78.75
241.662	75.75
241.896	82.75
242.13	72.75
242.363	75.75
242.597	59.75
242.83	78.75
243.064	78.75
243.298	72.75
243.531	83.75
243.765	72.75
243.998	89.75
244.232	77.75
244.465	87.75
244.699	96.75
244.932	77.75
245.166	77.75
245.399	72.75
245.633	80.75
245.866	69.75
246.099	79.75
246.333	80.75
246.566	71.75
246.8	77.75
247.033	69.75
247.266	79.75
247.5	82.75
247.733	73.75
247.966	80.75
248.2	90.75
248.433	80.75
248.666	77.75
248.899	95.75
249.133	86.75
249.366	71.75
249.599	84.75
249.832	77.75
250.066	82.75
250.299	87.75
250.532	85.75
250.765	79.75
250.998	71.75
251.231	96.75
251.465	69.75
251.698	71.75
251.931	75.75
252.164	88.75
252.397	81.75
252.63	82.75
252.863	78.75
253.096	73.75
253.329	59.75
253.562	86.75
253.795	99.75
254.028	77.75
254.261	78.75
254.494	81.75
254.727	77.75
254.96	70.75
255.193	87.75
255.426	57.75
255.659	78.75
255.892	86.75
256.124	77.75
256.357	86.75
256.59	80.75
256.823	79.75
257.056	83.75
257.289	86.75
257.521	91.75
257.754	76.75
257.987	77.75
258.22	92.75
258.452	80.75
258.685	88.75
258.918	78.75
259.151	71.75
259.383	65.75
259.616	66.75
259.849	83.75
260.081	68.75
260.314	81.75
260.547	77.75
260.779	79.75
261.012	82.75
261.244	75.75
261.477	99.75
261.71	69.75
261.942	112.75
262.175	103.75
262.407	90.75
262.64	94.75
262.872	77.75
263.105	69.75
263.337	88.75
263.57	85.75
263.802	86.75
264.035	80.75
264.267	78.75
264.499	68.75
264.732	84.75
264.964	87.75
265.197	83.75
265.429	92.75
265.661	87.75
265.894	75.75
266.126	79.75
266.358	77.75
266.591	75.75
266.823	82.75
267.055	89.75
267.287	87.75
267.52	76.75
267.752	86.75
267.984	89.75
268.216	64.75
268.448	70.75
268.681	82.75
268.913	88.75
269.145	66.75
269.377	87.75
269.609	96.75
269.841	85.75
270.073	79.75
270.306	73.75
270.538	80.75
270.77	85.75
271.002	72.75
271.234	85.75
271.466	73.75
271.698	88.75
271.93	79.75
272.162	70.75
272.394	87.75
272.626	76.75
272.858	75.75
273.09	94.75
273.322	95.75
273.553	88.75
273.785	94.75
274.017	83.75
274.249	64.75
274.481	92.75
274.713	77.75
274.945	88.75
275.176	87.75
275.408	76.75
275.64	77.75
275.872	94.75
276.104	92.75
276.335	79.75
276.567	82.75
276.799	95.75
277.031	92.75
277.262	85.75
277.494	92.75
277.726	81.75
277.957	93.75
278.189	87.75
278.421	77.75
278.652	89.75
278.884	99.75
279.115	84.75
279.347	80.75
279.579	79.75
279.81	76.75
280.042	83.75
280.273	87.75
280.505	79.75
280.736	101.75
280.968	84.75
281.199	78.75
281.431	73.75
281.662	87.75
281.894	79.75
282.125	97.75
282.356	108.75
282.588	119.75
282.819	109.75
283.051	105.75
283.282	74.75
283.513	75.75
283.745	86.75
283.976	85.75
284.207	94.75
284.439	77.75
284.67	87.75
284.901	88.75
285.132	86.75
285.364	103.75
285.595	89.75
285.826	81.75
286.057	89.75
286.288	83.75
286.52	76.75
286.751	74.75
286.982	84.75
287.213	82.75
287.444	85.75
287.675	77.75
287.906	87.75
288.138	83.75
288.369	94.75
288.6	88.75
288.831	92.75
289.062	90.75
289.293	79.75
289.524	68.75
289.755	77.75
289.986	66.75
290.217	77.75
290.448	79.75
290.679	91.75
290.91	77.75
291.141	82.75
291.371	78.75
291.602	87.75
291.833	80.75
292.064	86.75
292.295	79.75
292.526	102.75
292.757	95.75
292.987	101.75
293.218	84.75
293.449	102.75
293.68	87.75
293.91	91.75
294.141	87.75
294.372	82.75
294.603	92.75
294.833	104.75
295.064	100.75
295.295	103.75
295.525	90.75
295.756	88.75
295.987	111.75
296.217	125.75
296.448	109.75
296.679	95.75
296.909	91.75
297.14	84.75
297.37	79.75
297.601	85.75
297.831	88.75
298.062	83.75
298.292	75.75
298.523	76.75
298.753	81.75
298.984	87.75
299.214	99.75
299.445	86.75
299.675	81.75
299.905	73.75
300.136	85.75
300.366	72.75
300.597	94.75
300.827	89.75
301.057	98.75
301.288	90.75
301.518	88.75
301.748	75.75
301.979	87.75
302.209	73.75
302.439	85.75
302.669	95.75
302.9	98.75
303.13	96.75
303.36	85.75
303.59	88.75
303.82	83.75
304.051	87.75
304.281	101.75
304.511	101.75
304.741	101.75
304.971	75.75
305.201	86.75
305.431	87.75
305.661	68.75
305.891	79.75
306.121	85.75
306.352	84.75
306.582	89.75
306.812	97.75
307.042	85.75
307.272	96.75
307.502	88.75
307.731	97.75
307.961	75.75
308.191	85.75
308.421	87.75
308.651	89.75
308.881	90.75
309.111	95.75
309.341	89.75
309.571	95.75
309.8	96.75
310.03	96.75
310.26	88.75
310.49	80.75
310.72	96.75
310.949	106.75
311.179	85.75
311.409	96.75
311.639	88.75
311.868	102.75
312.098	99.75
312.328	95.75
312.557	92.75
312.787	103.75
313.017	95.75
313.246	93.75
313.476	91.75
313.706	100.75
313.935	92.75
314.165	108.75
314.394	112.75
314.624	96.75
314.853	106.75
315.083	92.75
315.312	68.75
315.542	82.75
315.771	89.75
316.001	77.75
316.23	73.75
316.46	81.75
316.689	83.75
316.919	77.75
317.148	91.75
317.377	76.75
317.607	95.75
317.836	91.75
318.065	91.75
318.295	83.75
318.524	97.75
318.753	87.75
318.983	85.75
319.212	85.75
319.441	101.75
319.67	103.75
319.9	92.75
320.129	92.75
320.358	87.75
320.587	103.75
320.816	93.75
321.046	104.75
321.275	92.75
321.504	94.75
321.733	98.75
321.962	97.75
322.191	94.75
322.42	100.75
322.649	96.75
322.878	112.75
323.108	104.75
323.337	106.75
323.566	128.75
323.795	140.75
324.024	180.75
324.253	331.75
324.482	696.75
324.71	1424.75
324.939	1905.75
325.168	702.75
325.397	212.75
325.626	146.75
325.855	119.75
326.084	110.75
326.313	131.75
326.542	137.75
326.77	212.75
326.999	399.75
327.228	827.75
327.457	1487.75
327.686	1183.75
327.914	325.75
328.143	187.75
328.372	147.75
328.6	120.75
328.829	121.75
329.058	106.75
329.287	130.75
329.515	105.75
329.744	111.75
329.972	117.75
330.201	94.75
330.43	107.75
330.658	127.75
330.887	122.75
331.115	104.75
331.344	97.75
331.572	89.75
331.801	106.75
332.03	113.75
332.258	96.75
332.486	85.75
332.715	84.75
332.943	91.75
333.172	85.75
333.4	77.75
333.629	110.75
333.857	110.75
334.085	104.75
334.314	103.75
334.542	120.75
334.771	114.75
334.999	93.75
335.227	111.75
335.455	96.75
335.684	96.75
335.912	105.75
336.14	88.75
336.369	97.75
336.597	104.75
336.825	105.75
337.053	91.75
337.281	87.75
337.51	82.75
337.738	83.75
337.966	82.75
338.194	81.75
338.422	90.75
338.65	94.75
338.878	83.75
339.106	88.75
339.334	81.75
339.562	86.75
339.79	91.75
340.018	87.75
340.246	88.75
340.474	81.75
340.702	83.75
340.93	72.75
341.158	83.75
341.386	91.75
341.614	95.75
341.842	94.75
342.07	94.75
342.298	95.75
342.526	99.75
342.754	92.75
342.981	79.75
343.209	75.75
343.437	94.75
343.665	99.75
343.893	89.75
344.12	82.75
344.348	85.75
344.576	91.75
344.804	87.75
345.031	100.75
345.259	93.75
345.487	81.75
345.714	100.75
345.942	94.75
346.17	84.75
346.397	82.75
346.625	82.75
346.853	96.75
347.08	88.75
347.308	98.75
347.535	92.75
347.763	87.75
347.99	100.75
348.218	103.75
348.445	99.75
348.673	104.75
348.9	97.75
349.128	82.75
349.355	87.75
349.583	101.75
349.81	89.75
350.037	104.75
350.265	85.75
350.492	100.75
350.72	94.75
350.947	102.75
351.174	115.75
351.402	103.75
351.629	86.75
351.856	104.75
352.083	104.75
352.311	105.75
352.538	113.75
352.765	103.75
352.992	117.75
353.22	104.75
353.447	82.75
353.674	84.75
353.901	98.75
354.128	97.75
354.355	86.75
354.583	111.75
354.81	95.75
355.037	102.75
355.264	88.75
355.491	99.75
355.718	76.75
355.945	85.75
356.172	66.75
356.399	94.75
356.626	87.75
356.853	81.75
357.08	83.75
357.307	84.75
357.534	98.75
357.761	86.75
357.988	65.75
358.215	94.75
358.441	77.75
358.668	98.75
358.895	92.75
359.122	90.75
359.349	92.75
359.576	92.75
359.802	96.75
360.029	92.75
360.256	92.75
360.483	89.75
360.709	79.75
360.936	79.75
361.163	104.75
361.39	95.75
361.616	83.75
361.843	87.75
362.07	77.75
362.296	91.75
362.523	107.75
362.749	91.75
362.976	78.75
363.203	97.75
363.429	94.75
363.656	83.75
363.882	79.75
364.109	85.75
364.335	79.75
364.562	70.75
364.788	87.75
365.015	79.75
365.241	102.75
365.468	102.75
365.694	104.75
365.92	101.75
366.147	80.75
366.373	80.75
366.599	85.75
366.826	95.75
367.052	87.75
367.278	94.75
367.505	76.75
367.731	99.75
367.957	91.75
368.184	91.75
368.41	88.75
368.636	97.75
368.862	108.75
369.089	102.75
369.315	99.75
369.541	90.75
369.767	75.75
369.993	68.75
370.219	87.75
370.445	80.75
370.672	78.75
370.898	87.75
371.124	88.75
371.35	91.75
371.576	85.75
371.802	83.75
372.028	87.75
372.254	85.75
372.48	77.75
372.706	84.75
372.932	76.75
373.158	86.75
373.384	91.75
373.61	89.75
373.835	97.75
374.061	86.75
374.287	85.75
374.513	103.75
374.739	86.75
374.965	91.75
375.191	94.75
375.416	89.75
375.642	82.75
375.868	100.75
376.094	98.75
376.319	88.75
376.545	78.75
376.771	77.75
376.997	96.75
377.222	90.75
377.448	91.75
377.674	91.75
377.899	93.75
378.125	78.75
378.35	91.75
378.576	84.75
378.802	90.75
379.027	95.75
379.253	89.75
379.478	84.75
379.704	85.75
379.929	88.75
380.155	77.75
380.38	74.75
380.606	85.75
380.831	72.75
381.057	99.75
381.282	97.75
381.507	101.75
381.733	88.75
381.958	94.75
382.184	96.75
382.409	95.75
382.634	96.75
382.86	94.75
383.085	103.75
383.31	99.75
383.535	88.75
383.761	95.75
383.986	81.75
384.211	100.75
384.436	89.75
384.662	84.75
384.887	105.75
385.112	88.75
385.337	104.75
385.562	92.75
385.787	89.75
386.013	101.75
386.238	101.75
386.463	88.75
386.688	102.75
386.913	103.75
387.138	91.75
387.363	93.75
387.588	106.75
387.813	98.75
388.038	91.75
388.263	105.75
388.488	108.75
388.713	99.75
388.938	94.75
389.163	87.75
389.387	86.75
389.612	89.75
389.837	91.75
390.062	91.75
390.287	78.75
390.512	94.75
390.736	90.75
390.961	92.75
391.186	98.75
391.411	98.75
391.636	88.75
391.86	85.75
392.085	90.75
392.31	88.75
392.534	95.75
392.759	90.75
392.984	85.75
393.208	93.75
393.433	99.75
393.658	76.75
393.882	77.75
394.107	87.75
394.331	93.75
394.556	83.75
394.78	85.75
395.005	82.75
395.229	89.75
395.454	91.75
395.678	98.75
395.903	82.75
396.127	78.75
396.352	70.75
396.576	85.75
396.801	86.75
397.025	84.75
397.249	98.75
397.474	78.75
397.698	85.75
397.922	84.75
398.147	88.75
398.371	70.75
398.595	79.75
398.82	74.75
399.044	78.75
399.268	85.75
399.492	89.75
399.717	85.75
399.941	88.75
400.165	99.75
400.389	84.75
400.613	72.75
400.837	96.75
401.062	84.75
401.286	86.75
401.51	83.75
401.734	84.75
401.958	87.75
402.182	119.75
402.406	149.75
402.63	116.75
402.854	81.75
403.078	91.75
403.302	79.75
403.526	71.75
403.75	79.75
403.974	84.75
404.198	84.75
404.422	113.75
404.645	99.75
404.869	87.75
405.093	96.75
405.317	95.75
405.541	82.75
405.765	91.75
405.988	98.75
406.212	163.75
406.436	212.75
406.66	124.75
406.883	96.75
407.107	96.75
407.331	89.75
407.555	110.75
407.778	101.75
408.002	84.75
408.226	90.75
408.449	102.75
408.673	84.75
408.896	94.75
409.12	93.75
409.344	87.75
409.567	81.75
409.791	84.75
410.014	94.75
410.238	89.75
410.461	92.75
410.685	88.75
410.908	90.75
411.132	103.75
411.355	92.75
411.578	96.75
411.802	95.75
412.025	89.75
412.249	89.75
412.472	93.75
412.695	87.75
412.919	84.75
413.142	95.75
413.365	87.75
413.589	87.75
413.812	89.75
414.035	82.75
414.258	85.75
414.482	101.75
414.705	86.75
414.928	98.75
415.151	79.75
415.374	91.75
415.597	78.75
415.821	83.75
416.044	78.75
416.267	78.75
416.49	78.75
416.713	77.75
416.936	91.75
417.159	83.75
417.382	87.75
417.605	71.75
417.828	85.75
418.051	88.75
418.274	88.75
418.497	94.75
418.72	87.75
418.943	80.75
419.166	90.75
419.389	89.75
419.611	98.75
419.834	73.75
420.057	88.75
420.28	81.75
420.503	87.75
420.726	78.75
420.948	107.75
421.171	93.75
421.394	94.75
421.617	83.75
421.839	88.75
422.062	94.75
422.285	102.75
422.507	95.75
422.73	90.75
422.953	69.75
423.175	96.75
423.398	79.75
423.621	92.75
423.843	71.75
424.066	87.75
424.288	95.75
424.511	92.75
424.733	101.75
424.956	87.75
425.178	80.75
425.401	88.75
425.623	97.75
425.846	90.75
426.068	99.75
426.291	93.75
426.513	88.75
426.735	78.75
426.958	91.75
427.18	72.75
427.402	126.75
427.625	155.75
427.847	115.75
428.069	97.75
428.292	83.75
428.514	99.75
428.736	84.75
428.958	94.75
429.181	89.75
429.403	94.75
429.625	81.75
429.847	83.75
430.069	122.75
430.292	95.75
430.514	92.75
430.736	89.75
430.958	82.75
431.18	75.75
431.402	83.75
431.624	69.75
431.846	91.75
432.068	84.75
432.29	95.75
432.512	86.75
432.734	78.75
432.956	91.75
433.178	92.75
433.4	99.75
433.622	81.75
433.844	85.75
434.066	101.75
434.287	101.75
434.509	94.75
434.731	87.75
434.953	94.75
435.175	90.75
435.397	80.75
435.618	100.75
435.84	105.75
436.062	98.75
436.284	99.75
436.505	85.75
436.727	108.75
436.949	99.75
437.17	79.75
437.392	87.75
437.614	98.75
437.835	95.75
438.057	108.75
438.278	88.75
438.5	98.75
438.721	135.75
438.943	102.75
439.165	80.75
439.386	88.75
439.608	96.75
439.829	97.75
440.05	124.75
440.272	113.75
440.493	93.75
440.715	82.75
440.936	91.75
441.158	77.75
441.379	89.75
441.6	96.75
441.822	87.75
442.043	89.75
442.264	87.75
442.486	90.75
442.707	80.75
442.928	108.75
443.149	120.75
443.371	125.75
443.592	115.75
443.813	101.75
444.034	106.75
444.255	92.75
444.476	85.75
444.698	89.75
444.919	81.75
445.14	127.75
445.361	110.75
445.582	117.75
445.803	117.75
446.024	119.75
446.245	120.75
446.466	112.75
446.687	93.75
446.908	94.75
447.129	95.75
447.35	93.75
447.571	86.75
447.792	83.75
448.013	111.75
448.234	97.75
448.455	116.75
448.675	94.75
448.896	112.75
449.117	108.75
449.338	101.75
449.559	120.75
449.779	126.75
450	100.75
450.221	104.75
450.442	90.75
450.662	89.75
450.883	78.75
451.104	109.75
451.324	97.75
451.545	82.75
451.766	84.75
451.986	76.75
452.207	79.75
452.428	93.75
452.648	63.75
452.869	94.75
453.089	123.75
453.31	104.75
453.53	91.75
453.751	112.75
453.971	85.75
454.192	101.75
454.412	88.75
454.633	90.75
454.853	80.75
455.073	86.75
455.294	85.75
455.514	87.75
455.734	87.75
455.955	89.75
456.175	85.75
456.395	85.75
456.616	79.75
456.836	79.75
457.056	87.75
457.276	93.75
457.497	70.75
457.717	92.75
457.937	93.75
458.157	80.75
458.377	102.75
458.598	106.75
458.818	127.75
459.038	132.75
459.258	103.75
459.478	72.75
459.698	91.75
459.918	83.75
460.138	86.75
460.358	101.75
460.578	79.75
460.798	97.75
461.018	89.75
461.238	84.75
461.458	84.75
461.678	70.75
461.898	98.75
462.118	79.75
462.338	95.75
462.558	100.75
462.777	83.75
462.997	83.75
463.217	86.75
463.437	69.75
463.657	88.75
463.876	88.75
464.096	88.75
464.316	92.75
464.536	103.75
464.755	86.75
464.975	123.75
465.195	136.75
465.414	145.75
465.634	94.75
465.854	82.75
466.073	88.75
466.293	85.75
466.512	87.75
466.732	84.75
466.951	86.75
467.171	91.75
467.391	94.75
467.61	105.75
467.829	106.75
468.049	88.75
468.268	98.75
468.488	69.75
468.707	79.75
468.927	72.75
469.146	83.75
469.365	80.75
469.585	85.75
469.804	96.75
470.023	87.75
470.243	102.75
470.462	96.75
470.681	110.75
470.901	92.75
471.12	94.75
471.339	82.75
471.558	88.75
471.777	88.75
471.997	85.75
472.216	99.75
472.435	104.75
472.654	96.75
472.873	88.75
473.092	85.75
473.311	86.75
473.53	85.75
473.749	91.75
473.968	93.75
474.187	85.75
474.406	96.75
474.625	84.75
474.844	83.75
475.063	85.75
475.282	78.75
475.501	84.75
475.72	92.75
475.939	100.75
476.158	103.75
476.377	105.75
476.596	92.75
476.814	91.75
477.033	99.75
477.252	83.75
477.471	92.75
477.69	81.75
477.908	75.75
478.127	78.75
478.346	87.75
478.564	93.75
478.783	98.75
479.002	97.75
479.22	83.75
479.439	106.75
479.658	94.75
479.876	87.75
480.095	90.75
480.313	89.75
480.532	84.75
480.751	85.75
480.969	100.75
481.188	148.75
481.406	131.75
481.624	95.75
481.843	79.75
482.061	98.75
482.28	87.75
482.498	79.75
482.717	81.75
482.935	95.75
483.153	75.75
483.372	85.75
483.59	101.75
483.808	83.75
484.027	93.75
484.245	91.75
484.463	94.75
484.681	98.75
484.9	95.75
485.118	93.75
485.336	85.75
485.554	101.75
485.772	83.75
485.99	99.75
486.209	99.75
486.427	103.75
486.645	104.75
486.863	106.75
487.081	110.75
487.299	76.75
487.517	96.75
487.735	111.75
487.953	103.75
488.171	90.75
488.389	87.75
488.607	88.75
488.825	99.75
489.043	99.75
489.261	99.75
489.479	81.75
489.696	83.75
489.914	96.75
490.132	94.75
490.35	88.75
490.568	80.75
490.786	91.75
491.003	85.75
491.221	86.75
491.439	85.75
491.657	94.75
491.874	89.75
492.092	79.75
492.31	73.75
492.527	73.75
492.745	86.75
492.963	87.75
493.18	96.75
493.398	88.75
493.615	85.75
493.833	96.75
494.05	87.75
494.268	84.75
494.485	93.75
494.703	86.75
494.92	79.75
495.138	85.75
495.355	95.75
495.573	71.75
495.79	83.75
496.008	86.75
496.225	95.75
496.442	89.75
496.66	94.75
496.877	92.75
497.094	97.75
497.312	83.75
497.529	92.75
497.746	87.75
497.963	94.75
498.181	87.75
498.398	102.75
498.615	90.75
498.832	102.75
499.049	100.75
499.267	92.75
499.484	93.75
499.701	88.75
499.918	101.75
500.135	97.75
500.352	97.75
500.569	88.75
500.786	86.75
501.003	88.75
501.22	82.75
501.437	91.75
501.654	94.75
501.871	104.75
502.088	97.75
502.305	87.75
502.522	94.75
502.739	79.75
502.956	91.75
503.172	90.75
503.389	101.75
503.606	103.75
503.823	88.75
504.04	91.75
504.256	85.75
504.473	89.75
504.69	79.75
504.907	90.75
505.123	82.75
505.34	80.75
505.557	93.75
505.773	77.75
505.99	81.75
506.207	82.75
506.423	98.75
506.64	81.75
506.856	95.75
507.073	96.75
507.289	80.75
507.506	80.75
507.722	101.75
507.939	105.75
508.155	70.75
508.372	90.75
508.588	83.75
508.805	77.75
509.021	99.75
509.238	88.75
509.454	95.75
509.67	103.75
509.887	105.75
510.103	107.75
510.319	209.75
510.536	676.75
510.752	2077.75
510.968	583.75
511.184	133.75
511.401	114.75
511.617	95.75
511.833	87.75
512.049	76.75
512.265	83.75
512.481	100.75
512.698	87.75
512.914	91.75
513.13	91.75
513.346	84.75
513.562	100.75
513.778	93.75
513.994	81.75
514.21	99.75
514.426	110.75
514.642	127.75
514.858	122.75
515.074	161.75
515.29	398.75
515.506	1241.75
515.721	455.75
515.937	132.75
516.153	99.75
516.369	86.75
516.585	101.75
516.801	98.75
