Data from Uncirc_1987_H10_HRD10591_00036.txt Node
Date: Wed Jan 03 12:08:55 EST 2024
User: Yrep
Spectrometer: HR+D1059
Trigger mode: 1
Integration Time (sec): 1.000000E-1
Scans to average: 1
Electric dark correction enabled: true
Nonlinearity correction enabled: false
Boxcar width: 0
XAxis mode: Wavelengths
Number of Pixels in Spectrum: 2048
>>>>>Begin Spectral Data<<<<<
223.165	-13.38
223.4	-13.38
223.635	-13.38
223.869	-17.38
224.104	-16.38
224.338	-3.38
224.573	-25.38
224.808	-19.38
225.042	1.62
225.277	-11.38
225.511	-6.38
225.746	3.62
225.98	7.62
226.215	9.62
226.449	19.62
226.683	20.62
226.918	25.62
227.152	24.62
227.387	37.62
227.621	32.62
227.856	42.62
228.09	43.62
228.324	54.62
228.559	50.62
228.793	81.62
229.027	71.62
229.262	60.62
229.496	98.62
229.73	80.62
229.964	85.62
230.199	91.62
230.433	79.62
230.667	71.62
230.901	72.62
231.136	84.62
231.37	89.62
231.604	90.62
231.838	83.62
232.072	73.62
232.306	87.62
232.541	99.62
232.775	80.62
233.009	75.62
233.243	84.62
233.477	83.62
233.711	98.62
233.945	68.62
234.179	95.62
234.413	80.62
234.647	86.62
234.881	86.62
235.115	93.62
235.349	94.62
235.583	87.62
235.817	90.62
236.051	79.62
236.285	91.62
236.519	82.62
236.753	74.62
236.987	90.62
237.221	65.62
237.455	82.62
237.689	76.62
237.922	73.62
238.156	84.62
238.39	86.62
238.624	70.62
238.858	80.62
239.091	71.62
239.325	64.62
239.559	83.62
239.793	75.62
240.027	71.62
240.26	70.62
240.494	93.62
240.728	76.62
240.961	71.62
241.195	70.62
241.429	75.62
241.662	80.62
241.896	80.62
242.13	68.62
242.363	74.62
242.597	76.62
242.83	82.62
243.064	71.62
243.298	86.62
243.531	73.62
243.765	67.62
243.998	78.62
244.232	86.62
244.465	97.62
244.699	74.62
244.932	83.62
245.166	64.62
245.399	78.62
245.633	68.62
245.866	82.62
246.099	82.62
246.333	74.62
246.566	68.62
246.8	75.62
247.033	74.62
247.266	78.62
247.5	94.62
247.733	85.62
247.966	75.62
248.2	92.62
248.433	94.62
248.666	78.62
248.899	76.62
249.133	76.62
249.366	98.62
249.599	97.62
249.832	85.62
250.066	83.62
250.299	80.62
250.532	70.62
250.765	89.62
250.998	78.62
251.231	91.62
251.465	85.62
251.698	76.62
251.931	91.62
252.164	86.62
252.397	69.62
252.63	75.62
252.863	73.62
253.096	81.62
253.329	84.62
253.562	68.62
253.795	78.62
254.028	92.62
254.261	87.62
254.494	95.62
254.727	89.62
254.96	78.62
255.193	85.62
255.426	65.62
255.659	78.62
255.892	78.62
256.124	77.62
256.357	79.62
256.59	91.62
256.823	88.62
257.056	82.62
257.289	75.62
257.521	74.62
257.754	88.62
257.987	90.62
258.22	94.62
258.452	86.62
258.685	87.62
258.918	79.62
259.151	93.62
259.383	90.62
259.616	73.62
259.849	86.62
260.081	73.62
260.314	74.62
260.547	98.62
260.779	72.62
261.012	80.62
261.244	78.62
261.477	79.62
261.71	97.62
261.942	105.62
262.175	108.62
262.407	81.62
262.64	80.62
262.872	78.62
263.105	82.62
263.337	89.62
263.57	66.62
263.802	82.62
264.035	88.62
264.267	89.62
264.499	90.62
264.732	83.62
264.964	92.62
265.197	90.62
265.429	78.62
265.661	85.62
265.894	84.62
266.126	92.62
266.358	80.62
266.591	91.62
266.823	92.62
267.055	81.62
267.287	82.62
267.52	82.62
267.752	80.62
267.984	75.62
268.216	80.62
268.448	92.62
268.681	89.62
268.913	90.62
269.145	85.62
269.377	85.62
269.609	79.62
269.841	68.62
270.073	84.62
270.306	86.62
270.538	81.62
270.77	90.62
271.002	97.62
271.234	84.62
271.466	80.62
271.698	89.62
271.93	84.62
272.162	99.62
272.394	89.62
272.626	91.62
272.858	81.62
273.09	84.62
273.322	81.62
273.553	87.62
273.785	83.62
274.017	76.62
274.249	90.62
274.481	94.62
274.713	75.62
274.945	98.62
275.176	84.62
275.408	88.62
275.64	84.62
275.872	77.62
276.104	86.62
276.335	98.62
276.567	107.62
276.799	100.62
277.031	95.62
277.262	91.62
277.494	94.62
277.726	80.62
277.957	83.62
278.189	85.62
278.421	76.62
278.652	72.62
278.884	90.62
279.115	90.62
279.347	81.62
279.579	81.62
279.81	78.62
280.042	86.62
280.273	82.62
280.505	70.62
280.736	83.62
280.968	73.62
281.199	84.62
281.431	86.62
281.662	75.62
281.894	84.62
282.125	101.62
282.356	112.62
282.588	136.62
282.819	125.62
283.051	98.62
283.282	93.62
283.513	103.62
283.745	70.62
283.976	88.62
284.207	82.62
284.439	85.62
284.67	104.62
284.901	95.62
285.132	89.62
285.364	73.62
285.595	104.62
285.826	78.62
286.057	91.62
286.288	87.62
286.52	87.62
286.751	94.62
286.982	76.62
287.213	87.62
287.444	78.62
287.675	82.62
287.906	82.62
288.138	75.62
288.369	94.62
288.6	103.62
288.831	91.62
289.062	91.62
289.293	100.62
289.524	83.62
289.755	57.62
289.986	95.62
290.217	82.62
290.448	83.62
290.679	87.62
290.91	99.62
291.141	90.62
291.371	98.62
291.602	84.62
291.833	80.62
292.064	90.62
292.295	82.62
292.526	86.62
292.757	84.62
292.987	91.62
293.218	86.62
293.449	89.62
293.68	108.62
293.91	96.62
294.141	94.62
294.372	88.62
294.603	94.62
294.833	86.62
295.064	90.62
295.295	89.62
295.525	89.62
295.756	94.62
295.987	112.62
296.217	133.62
296.448	122.62
296.679	96.62
296.909	90.62
297.14	103.62
297.37	94.62
297.601	81.62
297.831	79.62
298.062	87.62
298.292	107.62
298.523	92.62
298.753	87.62
298.984	102.62
299.214	86.62
299.445	85.62
299.675	90.62
299.905	103.62
300.136	87.62
300.366	98.62
300.597	94.62
300.827	106.62
301.057	86.62
301.288	103.62
301.518	98.62
301.748	100.62
301.979	90.62
302.209	88.62
302.439	79.62
302.669	85.62
302.9	88.62
303.13	87.62
303.36	96.62
303.59	99.62
303.82	103.62
304.051	94.62
304.281	104.62
304.511	96.62
304.741	87.62
304.971	84.62
305.201	79.62
305.431	103.62
305.661	87.62
305.891	91.62
306.121	91.62
306.352	107.62
306.582	109.62
306.812	89.62
307.042	90.62
307.272	86.62
307.502	106.62
307.731	94.62
307.961	89.62
308.191	89.62
308.421	88.62
308.651	81.62
308.881	97.62
309.111	93.62
309.341	92.62
309.571	100.62
309.8	100.62
310.03	92.62
310.26	87.62
310.49	90.62
310.72	98.62
310.949	105.62
311.179	82.62
311.409	79.62
311.639	106.62
311.868	100.62
312.098	107.62
312.328	103.62
312.557	86.62
312.787	97.62
313.017	104.62
313.246	95.62
313.476	89.62
313.706	99.62
313.935	90.62
314.165	99.62
314.394	96.62
314.624	107.62
314.853	103.62
315.083	103.62
315.312	95.62
315.542	93.62
315.771	105.62
316.001	88.62
316.23	90.62
316.46	83.62
316.689	94.62
316.919	95.62
317.148	106.62
317.377	84.62
317.607	88.62
317.836	102.62
318.065	99.62
318.295	94.62
318.524	95.62
318.753	82.62
318.983	98.62
319.212	103.62
319.441	101.62
319.67	117.62
319.9	95.62
320.129	99.62
320.358	89.62
320.587	98.62
320.816	104.62
321.046	102.62
321.275	96.62
321.504	105.62
321.733	98.62
321.962	94.62
322.191	97.62
322.42	95.62
322.649	112.62
322.878	102.62
323.108	104.62
323.337	127.62
323.566	131.62
323.795	150.62
324.024	203.62
324.253	363.62
324.482	806.62
324.71	1662.62
324.939	2150.62
325.168	776.62
325.397	233.62
325.626	143.62
325.855	123.62
326.084	117.62
326.313	132.62
326.542	132.62
326.77	225.62
326.999	414.62
327.228	906.62
327.457	1699.62
327.686	1326.62
327.914	358.62
328.143	190.62
328.372	138.62
328.6	103.62
328.829	105.62
329.058	114.62
329.287	136.62
329.515	113.62
329.744	95.62
329.972	93.62
330.201	75.62
330.43	124.62
330.658	118.62
330.887	122.62
331.115	105.62
331.344	89.62
331.572	99.62
331.801	98.62
332.03	94.62
332.258	96.62
332.486	86.62
332.715	103.62
332.943	86.62
333.172	91.62
333.4	88.62
333.629	104.62
333.857	119.62
334.085	99.62
334.314	92.62
334.542	98.62
334.771	102.62
334.999	96.62
335.227	91.62
335.455	112.62
335.684	115.62
335.912	92.62
336.14	86.62
336.369	92.62
336.597	94.62
336.825	106.62
337.053	94.62
337.281	90.62
337.51	94.62
337.738	100.62
337.966	93.62
338.194	90.62
338.422	94.62
338.65	99.62
338.878	102.62
339.106	81.62
339.334	101.62
339.562	79.62
339.79	86.62
340.018	81.62
340.246	102.62
340.474	100.62
340.702	95.62
340.93	104.62
341.158	86.62
341.386	93.62
341.614	103.62
341.842	90.62
342.07	83.62
342.298	76.62
342.526	101.62
342.754	103.62
342.981	88.62
343.209	100.62
343.437	103.62
343.665	95.62
343.893	103.62
344.12	99.62
344.348	91.62
344.576	85.62
344.804	98.62
345.031	105.62
345.259	102.62
345.487	102.62
345.714	85.62
345.942	78.62
346.17	100.62
346.397	91.62
346.625	84.62
346.853	91.62
347.08	102.62
347.308	97.62
347.535	110.62
347.763	102.62
347.99	92.62
348.218	97.62
348.445	108.62
348.673	94.62
348.9	97.62
349.128	102.62
349.355	99.62
349.583	96.62
349.81	99.62
350.037	85.62
350.265	89.62
350.492	93.62
350.72	91.62
350.947	112.62
351.174	114.62
351.402	96.62
351.629	82.62
351.856	100.62
352.083	111.62
352.311	112.62
352.538	104.62
352.765	97.62
352.992	126.62
353.22	103.62
353.447	108.62
353.674	101.62
353.901	86.62
354.128	98.62
354.355	119.62
354.583	99.62
354.81	114.62
355.037	91.62
355.264	103.62
355.491	96.62
355.718	83.62
355.945	91.62
356.172	98.62
356.399	94.62
356.626	92.62
356.853	96.62
357.08	98.62
357.307	108.62
357.534	94.62
357.761	96.62
357.988	101.62
358.215	87.62
358.441	107.62
358.668	97.62
358.895	83.62
359.122	99.62
359.349	91.62
359.576	101.62
359.802	108.62
360.029	100.62
360.256	99.62
360.483	89.62
360.709	75.62
360.936	91.62
361.163	73.62
361.39	99.62
361.616	94.62
361.843	98.62
362.07	106.62
362.296	84.62
362.523	71.62
362.749	94.62
362.976	97.62
363.203	95.62
363.429	87.62
363.656	107.62
363.882	86.62
364.109	98.62
364.335	102.62
364.562	83.62
364.788	89.62
365.015	96.62
365.241	98.62
365.468	102.62
365.694	100.62
365.92	88.62
366.147	81.62
366.373	94.62
366.599	96.62
366.826	98.62
367.052	85.62
367.278	95.62
367.505	90.62
367.731	78.62
367.957	81.62
368.184	89.62
368.41	114.62
368.636	112.62
368.862	108.62
369.089	111.62
369.315	96.62
369.541	86.62
369.767	106.62
369.993	90.62
370.219	98.62
370.445	79.62
370.672	95.62
370.898	100.62
371.124	89.62
371.35	96.62
371.576	102.62
371.802	90.62
372.028	86.62
372.254	71.62
372.48	66.62
372.706	90.62
372.932	79.62
373.158	96.62
373.384	109.62
373.61	83.62
373.835	89.62
374.061	98.62
374.287	86.62
374.513	82.62
374.739	86.62
374.965	74.62
375.191	86.62
375.416	74.62
375.642	100.62
375.868	97.62
376.094	87.62
376.319	94.62
376.545	88.62
376.771	75.62
376.997	99.62
377.222	89.62
377.448	80.62
377.674	95.62
377.899	91.62
378.125	101.62
378.35	80.62
378.576	79.62
378.802	82.62
379.027	94.62
379.253	83.62
379.478	83.62
379.704	94.62
379.929	86.62
380.155	92.62
380.38	90.62
380.606	95.62
380.831	95.62
381.057	99.62
381.282	105.62
381.507	91.62
381.733	104.62
381.958	101.62
382.184	91.62
382.409	92.62
382.634	91.62
382.86	99.62
383.085	105.62
383.31	99.62
383.535	105.62
383.761	106.62
383.986	93.62
384.211	103.62
384.436	83.62
384.662	88.62
384.887	112.62
385.112	108.62
385.337	94.62
385.562	99.62
385.787	100.62
386.013	110.62
386.238	102.62
386.463	104.62
386.688	107.62
386.913	84.62
387.138	89.62
387.363	96.62
387.588	94.62
387.813	92.62
388.038	98.62
388.263	114.62
388.488	105.62
388.713	92.62
388.938	87.62
389.163	105.62
389.387	106.62
389.612	84.62
389.837	83.62
390.062	92.62
390.287	82.62
390.512	109.62
390.736	97.62
390.961	84.62
391.186	79.62
391.411	88.62
391.636	105.62
391.86	97.62
392.085	97.62
392.31	86.62
392.534	100.62
392.759	75.62
392.984	97.62
393.208	74.62
393.433	94.62
393.658	88.62
393.882	85.62
394.107	93.62
394.331	86.62
394.556	72.62
394.78	96.62
395.005	88.62
395.229	86.62
395.454	80.62
395.678	87.62
395.903	104.62
396.127	96.62
396.352	81.62
396.576	96.62
396.801	86.62
397.025	85.62
397.249	86.62
397.474	100.62
397.698	94.62
397.922	83.62
398.147	91.62
398.371	85.62
398.595	92.62
398.82	97.62
399.044	90.62
399.268	81.62
399.492	95.62
399.717	90.62
399.941	94.62
400.165	90.62
400.389	104.62
400.613	92.62
400.837	100.62
401.062	104.62
401.286	82.62
401.51	101.62
401.734	103.62
401.958	103.62
402.182	123.62
402.406	143.62
402.63	107.62
402.854	102.62
403.078	90.62
403.302	105.62
403.526	83.62
403.75	97.62
403.974	92.62
404.198	86.62
404.422	83.62
404.645	86.62
404.869	84.62
405.093	87.62
405.317	87.62
405.541	97.62
405.765	96.62
405.988	116.62
406.212	159.62
406.436	217.62
406.66	128.62
406.883	108.62
407.107	101.62
407.331	91.62
407.555	90.62
407.778	99.62
408.002	85.62
408.226	94.62
408.449	106.62
408.673	82.62
408.896	92.62
409.12	103.62
409.344	103.62
409.567	83.62
409.791	85.62
410.014	88.62
410.238	91.62
410.461	93.62
410.685	106.62
410.908	100.62
411.132	112.62
411.355	100.62
411.578	100.62
411.802	86.62
412.025	91.62
412.249	94.62
412.472	98.62
412.695	90.62
412.919	84.62
413.142	83.62
413.365	84.62
413.589	82.62
413.812	66.62
414.035	81.62
414.258	87.62
414.482	87.62
414.705	78.62
414.928	81.62
415.151	98.62
415.374	89.62
415.597	95.62
415.821	94.62
416.044	85.62
416.267	84.62
416.49	91.62
416.713	84.62
416.936	96.62
417.159	89.62
417.382	88.62
417.605	80.62
417.828	93.62
418.051	104.62
418.274	93.62
418.497	84.62
418.72	90.62
418.943	95.62
419.166	82.62
419.389	88.62
419.611	87.62
419.834	97.62
420.057	85.62
420.28	82.62
420.503	86.62
420.726	93.62
420.948	90.62
421.171	94.62
421.394	94.62
421.617	94.62
421.839	91.62
422.062	87.62
422.285	82.62
422.507	96.62
422.73	97.62
422.953	94.62
423.175	95.62
423.398	86.62
423.621	83.62
423.843	93.62
424.066	94.62
424.288	75.62
424.511	94.62
424.733	101.62
424.956	105.62
425.178	93.62
425.401	104.62
425.623	101.62
425.846	94.62
426.068	93.62
426.291	89.62
426.513	91.62
426.735	104.62
426.958	91.62
427.18	93.62
427.402	136.62
427.625	159.62
427.847	106.62
428.069	101.62
428.292	100.62
428.514	85.62
428.736	94.62
428.958	93.62
429.181	89.62
429.403	82.62
429.625	80.62
429.847	97.62
430.069	93.62
430.292	106.62
430.514	99.62
430.736	86.62
430.958	90.62
431.18	82.62
431.402	81.62
431.624	90.62
431.846	74.62
432.068	80.62
432.29	104.62
432.512	97.62
432.734	75.62
432.956	104.62
433.178	101.62
433.4	97.62
433.622	100.62
433.844	98.62
434.066	91.62
434.287	99.62
434.509	82.62
434.731	111.62
434.953	91.62
435.175	88.62
435.397	95.62
435.618	90.62
435.84	100.62
436.062	122.62
436.284	110.62
436.505	89.62
436.727	101.62
436.949	97.62
437.17	94.62
437.392	87.62
437.614	86.62
437.835	98.62
438.057	119.62
438.278	115.62
438.5	104.62
438.721	104.62
438.943	98.62
439.165	92.62
439.386	90.62
439.608	99.62
439.829	102.62
440.05	117.62
440.272	113.62
440.493	99.62
440.715	92.62
440.936	93.62
441.158	73.62
441.379	89.62
441.6	106.62
441.822	86.62
442.043	97.62
442.264	119.62
442.486	115.62
442.707	101.62
442.928	108.62
443.149	123.62
443.371	126.62
443.592	110.62
443.813	122.62
444.034	118.62
444.255	100.62
444.476	103.62
444.698	80.62
444.919	83.62
445.14	134.62
445.361	93.62
445.582	118.62
445.803	128.62
446.024	130.62
446.245	128.62
446.466	106.62
446.687	99.62
446.908	88.62
447.129	82.62
447.35	91.62
447.571	94.62
447.792	80.62
448.013	89.62
448.234	109.62
448.455	95.62
448.675	113.62
448.896	129.62
449.117	99.62
449.338	99.62
449.559	115.62
449.779	131.62
450	98.62
450.221	86.62
450.442	92.62
450.662	85.62
450.883	93.62
451.104	113.62
451.324	105.62
451.545	94.62
451.766	90.62
451.986	90.62
452.207	79.62
452.428	105.62
452.648	98.62
452.869	123.62
453.089	107.62
453.31	124.62
453.53	94.62
453.751	92.62
453.971	102.62
454.192	91.62
454.412	88.62
454.633	82.62
454.853	76.62
455.073	76.62
455.294	83.62
455.514	103.62
455.734	91.62
455.955	104.62
456.175	75.62
456.395	73.62
456.616	81.62
456.836	90.62
457.056	84.62
457.276	71.62
457.497	86.62
457.717	87.62
457.937	92.62
458.157	90.62
458.377	93.62
458.598	107.62
458.818	136.62
459.038	142.62
459.258	107.62
459.478	89.62
459.698	96.62
459.918	91.62
460.138	88.62
460.358	100.62
460.578	84.62
460.798	100.62
461.018	83.62
461.238	87.62
461.458	67.62
461.678	73.62
461.898	71.62
462.118	90.62
462.338	93.62
462.558	87.62
462.777	87.62
462.997	94.62
463.217	83.62
463.437	81.62
463.657	83.62
463.876	89.62
464.096	91.62
464.316	93.62
464.536	103.62
464.755	90.62
464.975	103.62
465.195	168.62
465.414	142.62
465.634	97.62
465.854	94.62
466.073	90.62
466.293	90.62
466.512	84.62
466.732	81.62
466.951	85.62
467.171	88.62
467.391	87.62
467.61	100.62
467.829	103.62
468.049	92.62
468.268	97.62
468.488	93.62
468.707	88.62
468.927	92.62
469.146	76.62
469.365	84.62
469.585	87.62
469.804	96.62
470.023	97.62
470.243	100.62
470.462	99.62
470.681	107.62
470.901	80.62
471.12	76.62
471.339	89.62
471.558	87.62
471.777	91.62
471.997	95.62
472.216	87.62
472.435	105.62
472.654	75.62
472.873	94.62
473.092	94.62
473.311	81.62
473.53	82.62
473.749	89.62
473.968	100.62
474.187	91.62
474.406	90.62
474.625	73.62
474.844	89.62
475.063	94.62
475.282	83.62
475.501	88.62
475.72	100.62
475.939	86.62
476.158	88.62
476.377	85.62
476.596	81.62
476.814	88.62
477.033	86.62
477.252	87.62
477.471	88.62
477.69	90.62
477.908	108.62
478.127	100.62
478.346	89.62
478.564	97.62
478.783	85.62
479.002	97.62
479.22	94.62
479.439	95.62
479.658	123.62
479.876	86.62
480.095	80.62
480.313	98.62
480.532	107.62
480.751	95.62
480.969	100.62
481.188	96.62
481.406	98.62
481.624	90.62
481.843	86.62
482.061	80.62
482.28	94.62
482.498	97.62
482.717	100.62
482.935	79.62
483.153	69.62
483.372	94.62
483.59	93.62
483.808	74.62
484.027	85.62
484.245	96.62
484.463	89.62
484.681	97.62
484.9	92.62
485.118	107.62
485.336	84.62
485.554	98.62
485.772	105.62
485.99	80.62
486.209	71.62
486.427	106.62
486.645	115.62
486.863	104.62
487.081	96.62
487.299	107.62
487.517	105.62
487.735	102.62
487.953	86.62
488.171	99.62
488.389	90.62
488.607	102.62
488.825	99.62
489.043	92.62
489.261	100.62
489.479	99.62
489.696	85.62
489.914	76.62
490.132	100.62
490.35	91.62
490.568	95.62
490.786	88.62
491.003	96.62
491.221	85.62
491.439	87.62
491.657	90.62
491.874	92.62
492.092	96.62
492.31	81.62
492.527	104.62
492.745	90.62
492.963	83.62
493.18	87.62
493.398	99.62
493.615	94.62
493.833	90.62
494.05	89.62
494.268	95.62
494.485	89.62
494.703	73.62
494.92	90.62
495.138	90.62
495.355	96.62
495.573	95.62
495.79	99.62
496.008	85.62
496.225	107.62
496.442	79.62
496.66	88.62
496.877	91.62
497.094	85.62
497.312	78.62
497.529	100.62
497.746	87.62
497.963	82.62
498.181	88.62
498.398	81.62
498.615	112.62
498.832	114.62
499.049	89.62
499.267	95.62
499.484	92.62
499.701	88.62
499.918	97.62
500.135	94.62
500.352	90.62
500.569	101.62
500.786	88.62
501.003	99.62
501.22	98.62
501.437	88.62
501.654	99.62
501.871	112.62
502.088	104.62
502.305	83.62
502.522	94.62
502.739	85.62
502.956	95.62
503.172	103.62
503.389	94.62
503.606	94.62
503.823	92.62
504.04	75.62
504.256	99.62
504.473	97.62
504.69	102.62
504.907	105.62
505.123	90.62
505.34	82.62
505.557	76.62
505.773	88.62
505.99	91.62
506.207	97.62
506.423	98.62
506.64	86.62
506.856	95.62
507.073	97.62
507.289	89.62
507.506	94.62
507.722	111.62
507.939	110.62
508.155	88.62
508.372	99.62
508.588	82.62
508.805	90.62
509.021	92.62
509.238	91.62
509.454	101.62
509.67	104.62
509.887	97.62
510.103	137.62
510.319	209.62
510.536	718.62
510.752	2191.62
510.968	614.62
511.184	152.62
511.401	106.62
511.617	99.62
511.833	99.62
512.049	105.62
512.265	75.62
512.481	78.62
512.698	94.62
512.914	91.62
513.13	88.62
513.346	94.62
513.562	95.62
513.778	104.62
513.994	86.62
514.21	103.62
514.426	104.62
514.642	119.62
514.858	112.62
515.074	159.62
515.29	428.62
515.506	1368.62
