Data from Uncirc_1987_H10_HRD10591_00031.txt Node
Date: Wed Jan 03 12:08:54 EST 2024
User: Yrep
Spectrometer: HR+D1059
Trigger mode: 1
Integration Time (sec): 1.000000E-1
Scans to average: 1
Electric dark correction enabled: true
Nonlinearity correction enabled: false
Boxcar width: 0
XAxis mode: Wavelengths
Number of Pixels in Spectrum: 2048
>>>>>Begin Spectral Data<<<<<
223.165	-19.81
223.4	-19.81
223.635	-19.81
223.869	-18.81
224.104	-22.81
224.338	-13.81
224.573	-10.81
224.808	-17.81
225.042	-13.81
225.277	-7.81
225.511	-16.81
225.746	7.19
225.98	14.19
226.215	19.19
226.449	17.19
226.683	30.19
226.918	24.19
227.152	30.19
227.387	33.19
227.621	45.19
227.856	49.19
228.09	40.19
228.324	45.19
228.559	46.19
228.793	57.19
229.027	59.19
229.262	71.19
229.496	66.19
229.73	60.19
229.964	82.19
230.199	73.19
230.433	75.19
230.667	67.19
230.901	75.19
231.136	62.19
231.37	73.19
231.604	76.19
231.838	82.19
232.072	77.19
232.306	86.19
232.541	81.19
232.775	84.19
233.009	79.19
233.243	75.19
233.477	72.19
233.711	79.19
233.945	64.19
234.179	56.19
234.413	86.19
234.647	77.19
234.881	70.19
235.115	60.19
235.349	77.19
235.583	75.19
235.817	77.19
236.051	63.19
236.285	75.19
236.519	72.19
236.753	67.19
236.987	87.19
237.221	67.19
237.455	63.19
237.689	70.19
237.922	88.19
238.156	57.19
238.39	70.19
238.624	62.19
238.858	64.19
239.091	64.19
239.325	79.19
239.559	83.19
239.793	79.19
240.027	92.19
240.26	91.19
240.494	64.19
240.728	71.19
240.961	82.19
241.195	72.19
241.429	72.19
241.662	79.19
241.896	77.19
242.13	75.19
242.363	71.19
242.597	83.19
242.83	70.19
243.064	83.19
243.298	63.19
243.531	83.19
243.765	78.19
243.998	56.19
244.232	72.19
244.465	71.19
244.699	79.19
244.932	76.19
245.166	73.19
245.399	79.19
245.633	84.19
245.866	80.19
246.099	75.19
246.333	78.19
246.566	69.19
246.8	82.19
247.033	86.19
247.266	64.19
247.5	84.19
247.733	79.19
247.966	82.19
248.2	80.19
248.433	71.19
248.666	84.19
248.899	85.19
249.133	87.19
249.366	94.19
249.599	91.19
249.832	79.19
250.066	84.19
250.299	82.19
250.532	81.19
250.765	78.19
250.998	81.19
251.231	81.19
251.465	70.19
251.698	77.19
251.931	80.19
252.164	77.19
252.397	86.19
252.63	91.19
252.863	56.19
253.096	83.19
253.329	89.19
253.562	85.19
253.795	81.19
254.028	90.19
254.261	81.19
254.494	72.19
254.727	75.19
254.96	79.19
255.193	74.19
255.426	68.19
255.659	84.19
255.892	73.19
256.124	75.19
256.357	86.19
256.59	86.19
256.823	92.19
257.056	80.19
257.289	67.19
257.521	79.19
257.754	75.19
257.987	62.19
258.22	72.19
258.452	76.19
258.685	79.19
258.918	71.19
259.151	77.19
259.383	81.19
259.616	80.19
259.849	70.19
260.081	88.19
260.314	61.19
260.547	77.19
260.779	77.19
261.012	87.19
261.244	86.19
261.477	99.19
261.71	95.19
261.942	97.19
262.175	98.19
262.407	83.19
262.64	71.19
262.872	69.19
263.105	83.19
263.337	79.19
263.57	78.19
263.802	102.19
264.035	72.19
264.267	76.19
264.499	69.19
264.732	77.19
264.964	75.19
265.197	70.19
265.429	93.19
265.661	79.19
265.894	87.19
266.126	81.19
266.358	88.19
266.591	65.19
266.823	80.19
267.055	76.19
267.287	101.19
267.52	90.19
267.752	83.19
267.984	89.19
268.216	68.19
268.448	81.19
268.681	78.19
268.913	78.19
269.145	86.19
269.377	95.19
269.609	93.19
269.841	85.19
270.073	89.19
270.306	86.19
270.538	75.19
270.77	91.19
271.002	85.19
271.234	86.19
271.466	83.19
271.698	87.19
271.93	75.19
272.162	69.19
272.394	79.19
272.626	79.19
272.858	83.19
273.09	80.19
273.322	94.19
273.553	91.19
273.785	78.19
274.017	83.19
274.249	91.19
274.481	72.19
274.713	81.19
274.945	72.19
275.176	87.19
275.408	73.19
275.64	86.19
275.872	95.19
276.104	92.19
276.335	76.19
276.567	86.19
276.799	91.19
277.031	85.19
277.262	93.19
277.494	86.19
277.726	98.19
277.957	92.19
278.189	76.19
278.421	93.19
278.652	87.19
278.884	75.19
279.115	86.19
279.347	95.19
279.579	98.19
279.81	84.19
280.042	73.19
280.273	85.19
280.505	90.19
280.736	87.19
280.968	88.19
281.199	75.19
281.431	86.19
281.662	81.19
281.894	75.19
282.125	86.19
282.356	103.19
282.588	127.19
282.819	117.19
283.051	97.19
283.282	83.19
283.513	78.19
283.745	71.19
283.976	86.19
284.207	95.19
284.439	97.19
284.67	89.19
284.901	88.19
285.132	84.19
285.364	79.19
285.595	89.19
285.826	82.19
286.057	83.19
286.288	80.19
286.52	91.19
286.751	81.19
286.982	87.19
287.213	84.19
287.444	91.19
287.675	88.19
287.906	88.19
288.138	87.19
288.369	93.19
288.6	90.19
288.831	90.19
289.062	79.19
289.293	92.19
289.524	84.19
289.755	91.19
289.986	80.19
290.217	86.19
290.448	95.19
290.679	81.19
290.91	91.19
291.141	87.19
291.371	109.19
291.602	89.19
291.833	86.19
292.064	75.19
292.295	99.19
292.526	81.19
292.757	92.19
292.987	79.19
293.218	94.19
293.449	83.19
293.68	84.19
293.91	103.19
294.141	93.19
294.372	87.19
294.603	93.19
294.833	85.19
295.064	92.19
295.295	87.19
295.525	95.19
295.756	105.19
295.987	115.19
296.217	128.19
296.448	115.19
296.679	91.19
296.909	95.19
297.14	87.19
297.37	69.19
297.601	85.19
297.831	80.19
298.062	89.19
298.292	82.19
298.523	100.19
298.753	72.19
298.984	71.19
299.214	84.19
299.445	78.19
299.675	87.19
299.905	93.19
300.136	109.19
300.366	96.19
300.597	75.19
300.827	85.19
301.057	101.19
301.288	92.19
301.518	85.19
301.748	85.19
301.979	91.19
302.209	76.19
302.439	103.19
302.669	92.19
302.9	85.19
303.13	94.19
303.36	96.19
303.59	108.19
303.82	94.19
304.051	79.19
304.281	94.19
304.511	99.19
304.741	100.19
304.971	92.19
305.201	79.19
305.431	89.19
305.661	83.19
305.891	75.19
306.121	107.19
306.352	103.19
306.582	95.19
306.812	102.19
307.042	88.19
307.272	84.19
307.502	92.19
307.731	87.19
307.961	87.19
308.191	83.19
308.421	82.19
308.651	70.19
308.881	80.19
309.111	95.19
309.341	90.19
309.571	103.19
309.8	106.19
310.03	87.19
310.26	87.19
310.49	96.19
310.72	97.19
310.949	95.19
311.179	90.19
311.409	85.19
311.639	82.19
311.868	89.19
312.098	88.19
312.328	88.19
312.557	102.19
312.787	111.19
313.017	92.19
313.246	85.19
313.476	82.19
313.706	89.19
313.935	92.19
314.165	94.19
314.394	80.19
314.624	96.19
314.853	94.19
315.083	88.19
315.312	85.19
315.542	82.19
315.771	85.19
316.001	91.19
316.23	93.19
316.46	82.19
316.689	84.19
316.919	76.19
317.148	83.19
317.377	83.19
317.607	72.19
317.836	91.19
318.065	92.19
318.295	88.19
318.524	82.19
318.753	91.19
318.983	97.19
319.212	105.19
319.441	99.19
319.67	111.19
319.9	84.19
320.129	96.19
320.358	83.19
320.587	84.19
320.816	103.19
321.046	103.19
321.275	93.19
321.504	102.19
321.733	101.19
321.962	97.19
322.191	94.19
322.42	99.19
322.649	102.19
322.878	84.19
323.108	113.19
323.337	110.19
323.566	125.19
323.795	131.19
324.024	188.19
324.253	349.19
324.482	736.19
324.71	1500.19
324.939	2004.19
325.168	727.19
325.397	225.19
325.626	155.19
325.855	125.19
326.084	109.19
326.313	121.19
326.542	137.19
326.77	205.19
326.999	433.19
327.228	852.19
327.457	1571.19
327.686	1254.19
327.914	347.19
328.143	166.19
328.372	144.19
328.6	106.19
328.829	116.19
329.058	122.19
329.287	123.19
329.515	106.19
329.744	100.19
329.972	100.19
330.201	104.19
330.43	111.19
330.658	112.19
330.887	129.19
331.115	107.19
331.344	95.19
331.572	92.19
331.801	90.19
332.03	86.19
332.258	85.19
332.486	98.19
332.715	103.19
332.943	85.19
333.172	79.19
333.4	98.19
333.629	102.19
333.857	111.19
334.085	102.19
334.314	73.19
334.542	102.19
334.771	106.19
334.999	93.19
335.227	85.19
335.455	86.19
335.684	92.19
335.912	87.19
336.14	106.19
336.369	82.19
336.597	96.19
336.825	93.19
337.053	96.19
337.281	79.19
337.51	100.19
337.738	99.19
337.966	88.19
338.194	94.19
338.422	91.19
338.65	89.19
338.878	89.19
339.106	84.19
339.334	100.19
339.562	99.19
339.79	80.19
340.018	98.19
340.246	85.19
340.474	95.19
340.702	98.19
340.93	86.19
341.158	94.19
341.386	74.19
341.614	88.19
341.842	92.19
342.07	91.19
342.298	99.19
342.526	84.19
342.754	89.19
342.981	78.19
343.209	96.19
343.437	98.19
343.665	91.19
343.893	87.19
344.12	91.19
344.348	86.19
344.576	99.19
344.804	87.19
345.031	111.19
345.259	101.19
345.487	95.19
345.714	99.19
345.942	81.19
346.17	91.19
346.397	88.19
346.625	90.19
346.853	99.19
347.08	93.19
347.308	85.19
347.535	73.19
347.763	91.19
347.99	101.19
348.218	99.19
348.445	101.19
348.673	107.19
348.9	95.19
349.128	85.19
349.355	84.19
349.583	103.19
349.81	96.19
350.037	98.19
350.265	94.19
350.492	96.19
350.72	103.19
350.947	84.19
351.174	103.19
351.402	97.19
351.629	73.19
351.856	112.19
352.083	99.19
352.311	118.19
352.538	98.19
352.765	105.19
352.992	105.19
353.22	113.19
353.447	101.19
353.674	91.19
353.901	92.19
354.128	88.19
354.355	91.19
354.583	102.19
354.81	103.19
355.037	97.19
355.264	93.19
355.491	99.19
355.718	89.19
355.945	88.19
356.172	91.19
356.399	107.19
356.626	97.19
356.853	109.19
357.08	90.19
357.307	83.19
357.534	95.19
357.761	84.19
357.988	91.19
358.215	92.19
358.441	85.19
358.668	91.19
358.895	92.19
359.122	98.19
359.349	75.19
359.576	83.19
359.802	95.19
360.029	99.19
360.256	86.19
360.483	85.19
360.709	79.19
360.936	90.19
361.163	87.19
361.39	79.19
361.616	103.19
361.843	77.19
362.07	101.19
362.296	98.19
362.523	94.19
362.749	93.19
362.976	93.19
363.203	86.19
363.429	88.19
363.656	84.19
363.882	83.19
364.109	103.19
364.335	78.19
364.562	84.19
364.788	82.19
365.015	98.19
365.241	97.19
365.468	95.19
365.694	88.19
365.92	88.19
366.147	78.19
366.373	83.19
366.599	93.19
366.826	101.19
367.052	87.19
367.278	79.19
367.505	92.19
367.731	83.19
367.957	86.19
368.184	84.19
368.41	103.19
368.636	109.19
368.862	107.19
369.089	91.19
369.315	76.19
369.541	86.19
369.767	92.19
369.993	93.19
370.219	99.19
370.445	87.19
370.672	83.19
370.898	105.19
371.124	95.19
371.35	65.19
371.576	86.19
371.802	100.19
372.028	89.19
372.254	94.19
372.48	92.19
372.706	80.19
372.932	91.19
373.158	99.19
373.384	89.19
373.61	86.19
373.835	79.19
374.061	83.19
374.287	88.19
374.513	87.19
374.739	89.19
374.965	87.19
375.191	85.19
375.416	95.19
375.642	105.19
375.868	102.19
376.094	94.19
376.319	85.19
376.545	97.19
376.771	88.19
376.997	86.19
377.222	87.19
377.448	90.19
377.674	100.19
377.899	89.19
378.125	97.19
378.35	83.19
378.576	93.19
378.802	83.19
379.027	80.19
379.253	92.19
379.478	85.19
379.704	96.19
379.929	91.19
380.155	71.19
380.38	80.19
380.606	86.19
380.831	97.19
381.057	90.19
381.282	77.19
381.507	98.19
381.733	88.19
381.958	86.19
382.184	89.19
382.409	78.19
382.634	88.19
382.86	103.19
383.085	100.19
383.31	101.19
383.535	91.19
383.761	84.19
383.986	91.19
384.211	81.19
384.436	110.19
384.662	83.19
384.887	104.19
385.112	92.19
385.337	94.19
385.562	86.19
385.787	96.19
386.013	105.19
386.238	111.19
386.463	101.19
386.688	103.19
386.913	88.19
387.138	114.19
387.363	95.19
387.588	106.19
387.813	107.19
388.038	100.19
388.263	102.19
388.488	100.19
388.713	84.19
388.938	96.19
389.163	93.19
389.387	84.19
389.612	95.19
389.837	88.19
390.062	104.19
390.287	100.19
390.512	96.19
390.736	71.19
390.961	98.19
391.186	96.19
391.411	73.19
391.636	91.19
391.86	86.19
392.085	81.19
392.31	85.19
392.534	95.19
392.759	89.19
392.984	93.19
393.208	97.19
393.433	83.19
393.658	89.19
393.882	69.19
394.107	94.19
394.331	87.19
394.556	82.19
394.78	81.19
395.005	91.19
395.229	86.19
395.454	75.19
395.678	72.19
395.903	89.19
396.127	70.19
396.352	108.19
396.576	95.19
396.801	91.19
397.025	86.19
397.249	89.19
397.474	70.19
397.698	85.19
397.922	76.19
398.147	88.19
398.371	85.19
398.595	83.19
398.82	86.19
399.044	78.19
399.268	97.19
399.492	84.19
399.717	104.19
399.941	97.19
400.165	105.19
400.389	96.19
400.613	91.19
400.837	82.19
401.062	75.19
401.286	88.19
401.51	83.19
401.734	87.19
401.958	99.19
402.182	115.19
402.406	145.19
402.63	111.19
402.854	87.19
403.078	91.19
403.302	82.19
403.526	91.19
403.75	93.19
403.974	90.19
404.198	86.19
404.422	102.19
404.645	83.19
404.869	91.19
405.093	90.19
405.317	102.19
405.541	87.19
405.765	104.19
405.988	108.19
406.212	152.19
406.436	207.19
406.66	125.19
406.883	89.19
407.107	96.19
407.331	101.19
407.555	93.19
407.778	91.19
408.002	88.19
408.226	102.19
408.449	96.19
408.673	98.19
408.896	91.19
409.12	77.19
409.344	98.19
409.567	81.19
409.791	87.19
410.014	104.19
410.238	100.19
410.461	100.19
410.685	113.19
410.908	104.19
411.132	108.19
411.355	104.19
411.578	89.19
411.802	80.19
412.025	81.19
412.249	91.19
412.472	81.19
412.695	86.19
412.919	82.19
413.142	85.19
413.365	90.19
413.589	84.19
413.812	82.19
414.035	95.19
414.258	97.19
414.482	91.19
414.705	93.19
414.928	97.19
415.151	94.19
415.374	94.19
415.597	95.19
415.821	86.19
416.044	87.19
416.267	87.19
416.49	80.19
416.713	90.19
416.936	101.19
417.159	81.19
417.382	79.19
417.605	79.19
417.828	85.19
418.051	91.19
418.274	97.19
418.497	91.19
418.72	73.19
418.943	79.19
419.166	82.19
419.389	86.19
419.611	97.19
419.834	83.19
420.057	81.19
420.28	91.19
420.503	88.19
420.726	83.19
420.948	96.19
421.171	85.19
421.394	87.19
421.617	88.19
421.839	100.19
422.062	85.19
422.285	99.19
422.507	96.19
422.73	100.19
422.953	94.19
423.175	84.19
423.398	86.19
423.621	91.19
423.843	98.19
424.066	75.19
424.288	100.19
424.511	92.19
424.733	92.19
424.956	99.19
425.178	86.19
425.401	95.19
425.623	105.19
425.846	90.19
426.068	103.19
426.291	99.19
426.513	93.19
426.735	85.19
426.958	108.19
427.18	104.19
427.402	128.19
427.625	147.19
427.847	128.19
428.069	102.19
428.292	100.19
428.514	79.19
428.736	85.19
428.958	82.19
429.181	84.19
429.403	86.19
429.625	76.19
429.847	93.19
430.069	97.19
430.292	76.19
430.514	79.19
430.736	79.19
430.958	83.19
431.18	84.19
431.402	90.19
431.624	91.19
431.846	90.19
432.068	82.19
432.29	84.19
432.512	85.19
432.734	72.19
432.956	80.19
433.178	94.19
433.4	95.19
433.622	84.19
433.844	99.19
434.066	90.19
434.287	75.19
434.509	89.19
434.731	99.19
434.953	100.19
435.175	79.19
435.397	87.19
435.618	83.19
435.84	112.19
436.062	110.19
436.284	119.19
436.505	97.19
436.727	106.19
436.949	78.19
437.17	105.19
437.392	92.19
437.614	81.19
437.835	99.19
438.057	115.19
438.278	94.19
438.5	92.19
438.721	112.19
438.943	106.19
439.165	83.19
439.386	82.19
439.608	86.19
439.829	111.19
440.05	113.19
440.272	141.19
440.493	113.19
440.715	93.19
440.936	81.19
441.158	82.19
441.379	76.19
441.6	75.19
441.822	89.19
442.043	96.19
442.264	94.19
442.486	104.19
442.707	85.19
442.928	95.19
443.149	122.19
443.371	113.19
443.592	104.19
443.813	106.19
444.034	97.19
444.255	84.19
444.476	90.19
444.698	96.19
444.919	79.19
445.14	106.19
445.361	113.19
445.582	107.19
445.803	134.19
446.024	114.19
446.245	111.19
446.466	99.19
446.687	88.19
446.908	83.19
447.129	70.19
447.35	84.19
447.571	103.19
447.792	95.19
448.013	85.19
448.234	89.19
448.455	92.19
448.675	98.19
448.896	106.19
449.117	98.19
449.338	88.19
449.559	119.19
449.779	117.19
450	92.19
450.221	97.19
450.442	98.19
450.662	88.19
450.883	102.19
451.104	99.19
451.324	81.19
451.545	92.19
451.766	99.19
451.986	75.19
452.207	96.19
452.428	78.19
452.648	89.19
452.869	106.19
453.089	109.19
453.31	103.19
453.53	100.19
453.751	76.19
453.971	89.19
454.192	91.19
454.412	90.19
454.633	84.19
454.853	76.19
455.073	96.19
455.294	95.19
455.514	88.19
455.734	59.19
455.955	83.19
456.175	96.19
456.395	82.19
456.616	79.19
456.836	78.19
457.056	93.19
457.276	88.19
457.497	75.19
457.717	84.19
457.937	83.19
458.157	94.19
458.377	82.19
458.598	93.19
458.818	128.19
459.038	144.19
459.258	102.19
459.478	94.19
459.698	86.19
459.918	83.19
460.138	78.19
460.358	82.19
460.578	99.19
460.798	85.19
461.018	91.19
461.238	93.19
461.458	87.19
461.678	91.19
461.898	81.19
462.118	88.19
462.338	83.19
462.558	90.19
462.777	89.19
462.997	81.19
463.217	81.19
463.437	77.19
463.657	82.19
463.876	88.19
464.096	86.19
464.316	89.19
464.536	99.19
464.755	100.19
464.975	104.19
465.195	161.19
465.414	129.19
465.634	84.19
465.854	74.19
466.073	72.19
466.293	61.19
466.512	80.19
466.732	77.19
466.951	85.19
467.171	86.19
467.391	88.19
467.61	97.19
467.829	90.19
468.049	80.19
468.268	84.19
468.488	84.19
468.707	97.19
468.927	88.19
469.146	91.19
469.365	79.19
469.585	81.19
469.804	96.19
470.023	84.19
470.243	77.19
470.462	93.19
470.681	93.19
470.901	81.19
471.12	75.19
471.339	78.19
471.558	98.19
471.777	84.19
471.997	90.19
472.216	87.19
472.435	106.19
472.654	84.19
472.873	102.19
473.092	88.19
473.311	92.19
473.53	78.19
473.749	91.19
473.968	104.19
474.187	91.19
474.406	91.19
474.625	91.19
474.844	89.19
475.063	88.19
475.282	88.19
475.501	84.19
475.72	74.19
475.939	93.19
476.158	85.19
476.377	98.19
476.596	83.19
476.814	87.19
477.033	92.19
477.252	88.19
477.471	77.19
477.69	100.19
477.908	84.19
478.127	91.19
478.346	89.19
478.564	87.19
478.783	80.19
479.002	86.19
479.22	82.19
479.439	89.19
479.658	98.19
479.876	94.19
480.095	91.19
480.313	73.19
480.532	95.19
480.751	81.19
480.969	94.19
481.188	102.19
481.406	94.19
481.624	82.19
481.843	83.19
482.061	85.19
482.28	90.19
482.498	101.19
482.717	84.19
482.935	77.19
483.153	84.19
483.372	92.19
483.59	86.19
483.808	85.19
484.027	89.19
484.245	83.19
484.463	79.19
484.681	110.19
484.9	95.19
485.118	96.19
485.336	81.19
485.554	94.19
485.772	98.19
485.99	98.19
486.209	99.19
486.427	100.19
486.645	101.19
486.863	103.19
487.081	93.19
487.299	101.19
487.517	101.19
487.735	95.19
487.953	94.19
488.171	87.19
488.389	91.19
488.607	102.19
488.825	87.19
489.043	95.19
489.261	86.19
489.479	77.19
489.696	87.19
489.914	101.19
490.132	85.19
490.35	80.19
490.568	85.19
490.786	79.19
491.003	101.19
491.221	88.19
491.439	80.19
491.657	92.19
491.874	102.19
492.092	81.19
492.31	83.19
492.527	88.19
492.745	84.19
492.963	106.19
493.18	89.19
493.398	104.19
493.615	85.19
493.833	102.19
494.05	83.19
494.268	94.19
494.485	81.19
494.703	83.19
494.92	91.19
495.138	74.19
495.355	72.19
495.573	97.19
495.79	93.19
496.008	98.19
496.225	94.19
496.442	80.19
496.66	94.19
496.877	93.19
497.094	91.19
497.312	81.19
497.529	78.19
497.746	77.19
497.963	77.19
498.181	84.19
498.398	96.19
498.615	100.19
498.832	87.19
499.049	97.19
499.267	97.19
499.484	86.19
499.701	85.19
499.918	84.19
500.135	96.19
500.352	74.19
500.569	94.19
500.786	100.19
501.003	87.19
501.22	88.19
501.437	79.19
501.654	85.19
501.871	96.19
502.088	105.19
502.305	73.19
502.522	87.19
502.739	73.19
502.956	103.19
503.172	87.19
503.389	94.19
503.606	93.19
503.823	78.19
504.04	78.19
504.256	93.19
504.473	91.19
504.69	87.19
504.907	102.19
505.123	87.19
505.34	81.19
505.557	84.19
505.773	75.19
505.99	92.19
506.207	84.19
506.423	91.19
506.64	87.19
506.856	89.19
507.073	86.19
507.289	81.19
507.506	83.19
507.722	108.19
507.939	90.19
508.155	95.19
508.372	89.19
508.588	95.19
508.805	94.19
509.021	91.19
509.238	88.19
509.454	97.19
509.67	95.19
509.887	109.19
510.103	124.19
510.319	187.19
510.536	645.19
510.752	2075.19
510.968	573.19
511.184	152.19
511.401	93.19
511.617	100.19
511.833	87.19
512.049	80.19
512.265	91.19
512.481	91.19
512.698	102.19
512.914	93.19
513.13	92.19
513.346	95.19
513.562	77.19
513.778	80.19
513.994	86.19
514.21	92.19
514.426	116.19
514.642	124.19
514.858	115.19
515.074	166.19
515.29	392.19
515.506	1277.19
515.721	485.19
515.937	141.19
516.153	93.19
516.369	91.19
516.585	97.19
