Data from Uncirc_1987_H10_HRD10591_00085.txt Node
Date: Wed Jan 03 12:09:05 EST 2024
User: Yrep
Spectrometer: HR+D1059
Trigger mode: 1
Integration Time (sec): 1.000000E-1
Scans to average: 1
Electric dark correction enabled: true
Nonlinearity correction enabled: false
Boxcar width: 0
XAxis mode: Wavelengths
Number of Pixels in Spectrum: 2048
>>>>>Begin Spectral Data<<<<<
223.165	-6.06
223.4	-6.06
223.635	-6.06
223.869	-23.06
224.104	-17.06
224.338	-15.06
224.573	-19.06
224.808	-18.06
225.042	-15.06
225.277	-13.06
225.511	-1.06
225.746	7.94
225.98	0.94
226.215	16.94
226.449	19.94
226.683	22.94
226.918	30.94
227.152	27.94
227.387	28.94
227.621	41.94
227.856	48.94
228.09	32.94
228.324	49.94
228.559	60.94
228.793	44.94
229.027	55.94
229.262	62.94
229.496	76.94
229.73	86.94
229.964	84.94
230.199	74.94
230.433	63.94
230.667	71.94
230.901	70.94
231.136	71.94
231.37	71.94
231.604	77.94
231.838	81.94
232.072	76.94
232.306	77.94
232.541	73.94
232.775	80.94
233.009	81.94
233.243	84.94
233.477	83.94
233.711	63.94
233.945	74.94
234.179	83.94
234.413	71.94
234.647	81.94
234.881	86.94
235.115	64.94
235.349	78.94
235.583	87.94
235.817	80.94
236.051	88.94
236.285	76.94
236.519	81.94
236.753	88.94
236.987	84.94
237.221	83.94
237.455	81.94
237.689	90.94
237.922	92.94
238.156	77.94
238.39	72.94
238.624	70.94
238.858	76.94
239.091	88.94
239.325	90.94
239.559	90.94
239.793	78.94
240.027	74.94
240.26	73.94
240.494	72.94
240.728	74.94
240.961	75.94
241.195	74.94
241.429	65.94
241.662	69.94
241.896	82.94
242.13	66.94
242.363	84.94
242.597	78.94
242.83	70.94
243.064	72.94
243.298	92.94
243.531	64.94
243.765	81.94
243.998	88.94
244.232	66.94
244.465	74.94
244.699	83.94
244.932	74.94
245.166	80.94
245.399	80.94
245.633	77.94
245.866	78.94
246.099	80.94
246.333	78.94
246.566	80.94
246.8	76.94
247.033	75.94
247.266	79.94
247.5	70.94
247.733	84.94
247.966	80.94
248.2	69.94
248.433	68.94
248.666	89.94
248.899	61.94
249.133	82.94
249.366	80.94
249.599	97.94
249.832	78.94
250.066	97.94
250.299	85.94
250.532	89.94
250.765	88.94
250.998	74.94
251.231	97.94
251.465	96.94
251.698	76.94
251.931	70.94
252.164	73.94
252.397	79.94
252.63	82.94
252.863	76.94
253.096	85.94
253.329	95.94
253.562	83.94
253.795	82.94
254.028	78.94
254.261	83.94
254.494	94.94
254.727	93.94
254.96	68.94
255.193	94.94
255.426	82.94
255.659	80.94
255.892	95.94
256.124	78.94
256.357	80.94
256.59	83.94
256.823	82.94
257.056	70.94
257.289	90.94
257.521	80.94
257.754	82.94
257.987	76.94
258.22	85.94
258.452	76.94
258.685	92.94
258.918	86.94
259.151	76.94
259.383	87.94
259.616	78.94
259.849	78.94
260.081	87.94
260.314	86.94
260.547	94.94
260.779	97.94
261.012	90.94
261.244	78.94
261.477	96.94
261.71	95.94
261.942	104.94
262.175	100.94
262.407	91.94
262.64	86.94
262.872	85.94
263.105	84.94
263.337	93.94
263.57	74.94
263.802	92.94
264.035	92.94
264.267	83.94
264.499	92.94
264.732	80.94
264.964	82.94
265.197	79.94
265.429	82.94
265.661	84.94
265.894	86.94
266.126	87.94
266.358	86.94
266.591	80.94
266.823	84.94
267.055	86.94
267.287	70.94
267.52	87.94
267.752	77.94
267.984	88.94
268.216	86.94
268.448	90.94
268.681	74.94
268.913	96.94
269.145	87.94
269.377	92.94
269.609	89.94
269.841	93.94
270.073	91.94
270.306	86.94
270.538	76.94
270.77	80.94
271.002	84.94
271.234	81.94
271.466	92.94
271.698	85.94
271.93	87.94
272.162	82.94
272.394	93.94
272.626	85.94
272.858	89.94
273.09	84.94
273.322	96.94
273.553	85.94
273.785	79.94
274.017	69.94
274.249	82.94
274.481	81.94
274.713	100.94
274.945	81.94
275.176	86.94
275.408	80.94
275.64	86.94
275.872	98.94
276.104	86.94
276.335	81.94
276.567	83.94
276.799	80.94
277.031	103.94
277.262	97.94
277.494	98.94
277.726	95.94
277.957	93.94
278.189	89.94
278.421	94.94
278.652	88.94
278.884	80.94
279.115	87.94
279.347	96.94
279.579	85.94
279.81	88.94
280.042	84.94
280.273	82.94
280.505	87.94
280.736	82.94
280.968	93.94
281.199	104.94
281.431	88.94
281.662	82.94
281.894	85.94
282.125	105.94
282.356	102.94
282.588	127.94
282.819	114.94
283.051	87.94
283.282	97.94
283.513	96.94
283.745	78.94
283.976	80.94
284.207	95.94
284.439	90.94
284.67	91.94
284.901	72.94
285.132	79.94
285.364	80.94
285.595	89.94
285.826	103.94
286.057	97.94
286.288	94.94
286.52	90.94
286.751	89.94
286.982	74.94
287.213	88.94
287.444	85.94
287.675	101.94
287.906	92.94
288.138	90.94
288.369	87.94
288.6	78.94
288.831	82.94
289.062	85.94
289.293	85.94
289.524	92.94
289.755	88.94
289.986	80.94
290.217	89.94
290.448	86.94
290.679	78.94
290.91	92.94
291.141	82.94
291.371	97.94
291.602	98.94
291.833	92.94
292.064	77.94
292.295	80.94
292.526	78.94
292.757	79.94
292.987	85.94
293.218	86.94
293.449	77.94
293.68	84.94
293.91	88.94
294.141	97.94
294.372	99.94
294.603	94.94
294.833	93.94
295.064	92.94
295.295	102.94
295.525	103.94
295.756	114.94
295.987	107.94
296.217	131.94
296.448	125.94
296.679	97.94
296.909	93.94
297.14	86.94
297.37	100.94
297.601	101.94
297.831	87.94
298.062	106.94
298.292	87.94
298.523	86.94
298.753	90.94
298.984	86.94
299.214	80.94
299.445	107.94
299.675	85.94
299.905	93.94
300.136	90.94
300.366	94.94
300.597	76.94
300.827	87.94
301.057	87.94
301.288	104.94
301.518	82.94
301.748	79.94
301.979	93.94
302.209	81.94
302.439	98.94
302.669	71.94
302.9	93.94
303.13	97.94
303.36	89.94
303.59	81.94
303.82	107.94
304.051	94.94
304.281	99.94
304.511	98.94
304.741	84.94
304.971	91.94
305.201	92.94
305.431	94.94
305.661	75.94
305.891	74.94
306.121	78.94
306.352	89.94
306.582	101.94
306.812	95.94
307.042	90.94
307.272	99.94
307.502	87.94
307.731	81.94
307.961	99.94
308.191	98.94
308.421	92.94
308.651	86.94
308.881	82.94
309.111	94.94
309.341	97.94
309.571	104.94
309.8	99.94
310.03	84.94
310.26	84.94
310.49	88.94
310.72	93.94
310.949	88.94
311.179	92.94
311.409	97.94
311.639	86.94
311.868	77.94
312.098	90.94
312.328	88.94
312.557	104.94
312.787	110.94
313.017	98.94
313.246	92.94
313.476	94.94
313.706	98.94
313.935	101.94
314.165	96.94
314.394	106.94
314.624	98.94
314.853	91.94
315.083	89.94
315.312	96.94
315.542	92.94
315.771	87.94
316.001	90.94
316.23	88.94
316.46	94.94
316.689	92.94
316.919	78.94
317.148	85.94
317.377	96.94
317.607	99.94
317.836	82.94
318.065	97.94
318.295	105.94
318.524	103.94
318.753	72.94
318.983	102.94
319.212	95.94
319.441	97.94
319.67	109.94
319.9	78.94
320.129	99.94
320.358	98.94
320.587	102.94
320.816	92.94
321.046	84.94
321.275	106.94
321.504	104.94
321.733	108.94
321.962	101.94
322.191	99.94
322.42	96.94
322.649	101.94
322.878	101.94
323.108	104.94
323.337	120.94
323.566	112.94
323.795	151.94
324.024	185.94
324.253	336.94
324.482	732.94
324.71	1455.94
324.939	1980.94
325.168	724.94
325.397	231.94
325.626	134.94
325.855	119.94
326.084	117.94
326.313	119.94
326.542	129.94
326.77	208.94
326.999	412.94
327.228	830.94
327.457	1496.94
327.686	1198.94
327.914	338.94
328.143	189.94
328.372	154.94
328.6	110.94
328.829	110.94
329.058	110.94
329.287	119.94
329.515	98.94
329.744	110.94
329.972	98.94
330.201	116.94
330.43	118.94
330.658	128.94
330.887	131.94
331.115	103.94
331.344	95.94
331.572	93.94
331.801	98.94
332.03	97.94
332.258	90.94
332.486	94.94
332.715	90.94
332.943	98.94
333.172	91.94
333.4	91.94
333.629	96.94
333.857	107.94
334.085	105.94
334.314	112.94
334.542	132.94
334.771	124.94
334.999	106.94
335.227	97.94
335.455	94.94
335.684	88.94
335.912	94.94
336.14	109.94
336.369	99.94
336.597	98.94
336.825	77.94
337.053	89.94
337.281	94.94
337.51	85.94
337.738	106.94
337.966	93.94
338.194	83.94
338.422	97.94
338.65	94.94
338.878	109.94
339.106	88.94
339.334	100.94
339.562	90.94
339.79	88.94
340.018	77.94
340.246	92.94
340.474	88.94
340.702	93.94
340.93	86.94
341.158	107.94
341.386	102.94
341.614	95.94
341.842	90.94
342.07	90.94
342.298	93.94
342.526	82.94
342.754	97.94
342.981	93.94
343.209	90.94
343.437	92.94
343.665	82.94
343.893	94.94
344.12	102.94
344.348	85.94
344.576	95.94
344.804	91.94
345.031	98.94
345.259	85.94
345.487	78.94
345.714	96.94
345.942	86.94
346.17	91.94
346.397	82.94
346.625	98.94
346.853	79.94
347.08	101.94
347.308	98.94
347.535	96.94
347.763	97.94
347.99	94.94
348.218	91.94
348.445	108.94
348.673	92.94
348.9	86.94
349.128	89.94
349.355	102.94
349.583	88.94
349.81	104.94
350.037	97.94
350.265	100.94
350.492	95.94
350.72	85.94
350.947	96.94
351.174	108.94
351.402	112.94
351.629	92.94
351.856	101.94
352.083	95.94
352.311	101.94
352.538	97.94
352.765	101.94
352.992	117.94
353.22	102.94
353.447	98.94
353.674	99.94
353.901	96.94
354.128	96.94
354.355	108.94
354.583	95.94
354.81	107.94
355.037	95.94
355.264	87.94
355.491	89.94
355.718	88.94
355.945	102.94
356.172	89.94
356.399	116.94
356.626	97.94
356.853	87.94
357.08	90.94
357.307	88.94
357.534	93.94
357.761	101.94
357.988	106.94
358.215	98.94
358.441	98.94
358.668	93.94
358.895	68.94
359.122	90.94
359.349	95.94
359.576	104.94
359.802	101.94
360.029	104.94
360.256	104.94
360.483	104.94
360.709	96.94
360.936	99.94
361.163	85.94
361.39	99.94
361.616	92.94
361.843	90.94
362.07	88.94
362.296	105.94
362.523	72.94
362.749	97.94
362.976	88.94
363.203	79.94
363.429	82.94
363.656	90.94
363.882	85.94
364.109	103.94
364.335	90.94
364.562	102.94
364.788	94.94
365.015	95.94
365.241	84.94
365.468	93.94
365.694	79.94
365.92	79.94
366.147	77.94
366.373	84.94
366.599	88.94
366.826	74.94
367.052	84.94
367.278	89.94
367.505	81.94
367.731	93.94
367.957	89.94
368.184	87.94
368.41	98.94
368.636	103.94
368.862	113.94
369.089	100.94
369.315	92.94
369.541	83.94
369.767	92.94
369.993	85.94
370.219	98.94
370.445	90.94
370.672	81.94
370.898	88.94
371.124	89.94
371.35	97.94
371.576	84.94
371.802	78.94
372.028	85.94
372.254	94.94
372.48	85.94
372.706	86.94
372.932	95.94
373.158	100.94
373.384	80.94
373.61	88.94
373.835	90.94
374.061	87.94
374.287	104.94
374.513	98.94
374.739	82.94
374.965	81.94
375.191	80.94
375.416	95.94
375.642	93.94
375.868	97.94
376.094	100.94
376.319	82.94
376.545	83.94
376.771	82.94
376.997	94.94
377.222	88.94
377.448	82.94
377.674	80.94
377.899	84.94
378.125	87.94
378.35	87.94
378.576	82.94
378.802	83.94
379.027	83.94
379.253	77.94
379.478	94.94
379.704	65.94
379.929	95.94
380.155	97.94
380.38	94.94
380.606	94.94
380.831	102.94
381.057	95.94
381.282	99.94
381.507	94.94
381.733	84.94
381.958	98.94
382.184	86.94
382.409	99.94
382.634	102.94
382.86	95.94
383.085	101.94
383.31	97.94
383.535	94.94
383.761	101.94
383.986	100.94
384.211	113.94
384.436	82.94
384.662	97.94
384.887	99.94
385.112	99.94
385.337	92.94
385.562	101.94
385.787	103.94
386.013	95.94
386.238	112.94
386.463	87.94
386.688	106.94
386.913	104.94
387.138	97.94
387.363	86.94
387.588	109.94
387.813	90.94
388.038	97.94
388.263	105.94
388.488	88.94
388.713	102.94
388.938	91.94
389.163	105.94
389.387	95.94
389.612	86.94
389.837	101.94
390.062	96.94
390.287	88.94
390.512	89.94
390.736	88.94
390.961	87.94
391.186	81.94
391.411	80.94
391.636	97.94
391.86	85.94
392.085	82.94
392.31	97.94
392.534	82.94
392.759	81.94
392.984	92.94
393.208	82.94
393.433	82.94
393.658	83.94
393.882	94.94
394.107	80.94
394.331	82.94
394.556	81.94
394.78	79.94
395.005	95.94
395.229	86.94
395.454	86.94
395.678	96.94
395.903	85.94
396.127	90.94
396.352	104.94
396.576	93.94
396.801	82.94
397.025	82.94
397.249	78.94
397.474	82.94
397.698	87.94
397.922	87.94
398.147	80.94
398.371	90.94
398.595	83.94
398.82	103.94
399.044	80.94
399.268	89.94
399.492	97.94
399.717	82.94
399.941	92.94
400.165	90.94
400.389	96.94
400.613	102.94
400.837	94.94
401.062	86.94
401.286	91.94
401.51	97.94
401.734	82.94
401.958	104.94
402.182	113.94
402.406	142.94
402.63	108.94
402.854	84.94
403.078	80.94
403.302	85.94
403.526	74.94
403.75	96.94
403.974	66.94
404.198	79.94
404.422	96.94
404.645	86.94
404.869	89.94
405.093	97.94
405.317	89.94
405.541	80.94
405.765	92.94
405.988	108.94
406.212	163.94
406.436	191.94
406.66	132.94
406.883	88.94
407.107	90.94
407.331	79.94
407.555	90.94
407.778	88.94
408.002	93.94
408.226	100.94
408.449	73.94
408.673	88.94
408.896	94.94
409.12	98.94
409.344	103.94
409.567	73.94
409.791	82.94
410.014	78.94
410.238	78.94
410.461	78.94
410.685	100.94
410.908	94.94
411.132	97.94
411.355	100.94
411.578	88.94
411.802	91.94
412.025	86.94
412.249	78.94
412.472	84.94
412.695	90.94
412.919	82.94
413.142	101.94
413.365	95.94
413.589	88.94
413.812	89.94
414.035	101.94
414.258	87.94
414.482	85.94
414.705	82.94
414.928	89.94
415.151	92.94
415.374	100.94
415.597	101.94
415.821	88.94
416.044	99.94
416.267	87.94
416.49	76.94
416.713	96.94
416.936	80.94
417.159	89.94
417.382	85.94
417.605	99.94
417.828	88.94
418.051	98.94
418.274	86.94
418.497	89.94
418.72	87.94
418.943	89.94
419.166	67.94
419.389	90.94
419.611	77.94
419.834	82.94
420.057	98.94
420.28	89.94
420.503	89.94
420.726	88.94
420.948	79.94
421.171	93.94
421.394	91.94
421.617	95.94
421.839	89.94
422.062	88.94
422.285	87.94
422.507	112.94
422.73	93.94
422.953	92.94
423.175	96.94
423.398	81.94
423.621	94.94
423.843	89.94
424.066	92.94
424.288	96.94
424.511	71.94
424.733	86.94
424.956	96.94
425.178	105.94
425.401	104.94
425.623	114.94
425.846	81.94
426.068	74.94
426.291	89.94
426.513	86.94
426.735	84.94
426.958	89.94
427.18	101.94
427.402	132.94
427.625	148.94
427.847	111.94
428.069	95.94
428.292	94.94
428.514	81.94
428.736	108.94
428.958	92.94
429.181	90.94
429.403	72.94
429.625	70.94
429.847	85.94
430.069	93.94
430.292	86.94
430.514	102.94
430.736	87.94
430.958	96.94
431.18	97.94
431.402	90.94
431.624	87.94
431.846	76.94
432.068	90.94
432.29	88.94
432.512	78.94
432.734	85.94
432.956	90.94
433.178	105.94
433.4	95.94
433.622	83.94
433.844	79.94
434.066	81.94
434.287	97.94
434.509	76.94
434.731	83.94
434.953	85.94
435.175	93.94
435.397	88.94
435.618	86.94
435.84	96.94
436.062	122.94
436.284	118.94
436.505	107.94
436.727	95.94
436.949	95.94
437.17	93.94
437.392	83.94
437.614	92.94
437.835	92.94
438.057	105.94
438.278	90.94
438.5	95.94
438.721	120.94
438.943	104.94
439.165	64.94
439.386	85.94
439.608	84.94
439.829	104.94
440.05	123.94
440.272	118.94
440.493	91.94
440.715	73.94
440.936	62.94
441.158	95.94
441.379	96.94
441.6	99.94
441.822	78.94
442.043	81.94
442.264	111.94
442.486	102.94
442.707	96.94
442.928	96.94
443.149	122.94
443.371	111.94
443.592	100.94
443.813	118.94
444.034	90.94
444.255	89.94
444.476	80.94
444.698	80.94
444.919	90.94
445.14	127.94
445.361	109.94
445.582	102.94
445.803	122.94
446.024	129.94
446.245	120.94
446.466	92.94
446.687	89.94
446.908	89.94
447.129	89.94
447.35	88.94
447.571	97.94
447.792	97.94
448.013	84.94
448.234	96.94
448.455	96.94
448.675	112.94
448.896	110.94
449.117	97.94
449.338	96.94
449.559	118.94
449.779	145.94
450	97.94
450.221	93.94
450.442	98.94
450.662	81.94
450.883	100.94
451.104	119.94
451.324	88.94
451.545	82.94
451.766	86.94
451.986	84.94
452.207	90.94
452.428	96.94
452.648	101.94
452.869	96.94
453.089	103.94
453.31	113.94
453.53	95.94
453.751	99.94
453.971	103.94
454.192	111.94
454.412	92.94
454.633	95.94
454.853	92.94
455.073	89.94
455.294	90.94
455.514	105.94
455.734	97.94
455.955	84.94
456.175	79.94
456.395	73.94
456.616	83.94
456.836	94.94
457.056	90.94
457.276	81.94
457.497	88.94
457.717	69.94
457.937	71.94
458.157	85.94
458.377	90.94
458.598	106.94
458.818	133.94
459.038	146.94
459.258	100.94
459.478	92.94
459.698	76.94
459.918	79.94
460.138	89.94
460.358	80.94
460.578	83.94
460.798	70.94
461.018	85.94
461.238	75.94
461.458	83.94
461.678	85.94
461.898	95.94
462.118	68.94
462.338	82.94
462.558	89.94
462.777	83.94
462.997	108.94
463.217	85.94
463.437	84.94
463.657	67.94
463.876	81.94
464.096	88.94
464.316	95.94
464.536	86.94
464.755	90.94
464.975	107.94
465.195	159.94
465.414	145.94
465.634	85.94
465.854	92.94
466.073	95.94
466.293	90.94
466.512	96.94
466.732	82.94
466.951	93.94
467.171	96.94
467.391	99.94
467.61	110.94
467.829	91.94
468.049	101.94
468.268	108.94
468.488	93.94
468.707	81.94
468.927	97.94
469.146	88.94
469.365	82.94
469.585	100.94
469.804	87.94
470.023	81.94
470.243	96.94
470.462	94.94
470.681	103.94
470.901	94.94
471.12	87.94
471.339	86.94
471.558	99.94
471.777	89.94
471.997	88.94
472.216	99.94
472.435	126.94
472.654	89.94
472.873	92.94
473.092	98.94
473.311	100.94
473.53	85.94
473.749	94.94
473.968	82.94
474.187	103.94
474.406	103.94
474.625	90.94
474.844	73.94
475.063	95.94
475.282	94.94
475.501	93.94
475.72	92.94
475.939	85.94
476.158	82.94
476.377	87.94
476.596	95.94
476.814	90.94
477.033	89.94
477.252	92.94
477.471	77.94
477.69	88.94
477.908	86.94
478.127	86.94
478.346	80.94
478.564	80.94
478.783	77.94
479.002	96.94
479.22	81.94
479.439	92.94
479.658	84.94
479.876	93.94
480.095	97.94
480.313	90.94
480.532	98.94
480.751	88.94
480.969	93.94
481.188	143.94
481.406	134.94
481.624	87.94
481.843	73.94
482.061	82.94
482.28	87.94
482.498	76.94
482.717	92.94
482.935	103.94
483.153	98.94
483.372	74.94
483.59	98.94
483.808	98.94
484.027	90.94
484.245	89.94
484.463	87.94
484.681	85.94
484.9	96.94
485.118	102.94
485.336	89.94
485.554	100.94
485.772	92.94
485.99	87.94
486.209	105.94
486.427	91.94
486.645	93.94
486.863	102.94
487.081	107.94
487.299	86.94
487.517	98.94
487.735	93.94
487.953	95.94
488.171	86.94
488.389	102.94
488.607	92.94
488.825	85.94
489.043	98.94
489.261	93.94
489.479	87.94
489.696	88.94
489.914	88.94
490.132	84.94
490.35	100.94
490.568	88.94
490.786	81.94
491.003	101.94
491.221	80.94
491.439	82.94
491.657	95.94
491.874	76.94
492.092	97.94
492.31	76.94
492.527	92.94
492.745	89.94
492.963	103.94
493.18	97.94
493.398	89.94
493.615	109.94
493.833	101.94
494.05	84.94
494.268	86.94
494.485	86.94
494.703	72.94
494.92	92.94
495.138	89.94
495.355	84.94
495.573	94.94
495.79	97.94
496.008	94.94
496.225	110.94
496.442	85.94
496.66	91.94
496.877	86.94
497.094	92.94
497.312	76.94
497.529	88.94
497.746	95.94
497.963	104.94
498.181	96.94
498.398	88.94
498.615	112.94
498.832	96.94
499.049	93.94
499.267	82.94
499.484	97.94
499.701	76.94
499.918	69.94
500.135	110.94
500.352	104.94
500.569	107.94
500.786	98.94
501.003	89.94
501.22	93.94
501.437	81.94
501.654	86.94
501.871	93.94
502.088	80.94
502.305	102.94
502.522	80.94
502.739	80.94
502.956	86.94
503.172	87.94
503.389	93.94
503.606	100.94
503.823	98.94
504.04	102.94
504.256	93.94
504.473	69.94
504.69	78.94
504.907	89.94
505.123	96.94
505.34	92.94
505.557	95.94
505.773	96.94
505.99	92.94
506.207	79.94
506.423	95.94
506.64	94.94
506.856	77.94
507.073	83.94
507.289	97.94
507.506	90.94
507.722	117.94
507.939	114.94
508.155	99.94
508.372	100.94
508.588	97.94
508.805	105.94
509.021	91.94
509.238	88.94
509.454	93.94
509.67	102.94
509.887	90.94
510.103	146.94
510.319	206.94
510.536	689.94
510.752	2145.94
510.968	582.94
511.184	150.94
511.401	110.94
511.617	100.94
511.833	91.94
512.049	84.94
512.265	83.94
512.481	94.94
512.698	88.94
512.914	90.94
513.13	99.94
513.346	99.94
513.562	102.94
513.778	105.94
513.994	82.94
514.21	125.94
514.426	113.94
514.642	130.94
514.858	108.94
515.074	151.94
515.29	404.94
515.506	1303.94
515.721	463.94
515.937	148.94
516.153	108.94
516.369	89.94
