Data from Uncirc_1987_H10_HRD10591_00100.txt Node
Date: Wed Jan 03 12:09:08 EST 2024
User: Yrep
Spectrometer: HR+D1059
Trigger mode: 1
Integration Time (sec): 1.000000E-1
Scans to average: 1
Electric dark correction enabled: true
Nonlinearity correction enabled: false
Boxcar width: 0
XAxis mode: Wavelengths
Number of Pixels in Spectrum: 2048
>>>>>Begin Spectral Data<<<<<
223.165	-8.31
223.4	-8.31
223.635	-8.31
223.869	-26.31
224.104	-19.31
224.338	-18.31
224.573	10.69
224.808	-25.31
225.042	-27.31
225.277	-11.31
225.511	4.69
225.746	3.69
225.98	14.69
226.215	5.69
226.449	24.69
226.683	18.69
226.918	19.69
227.152	33.69
227.387	41.69
227.621	44.69
227.856	40.69
228.09	53.69
228.324	42.69
228.559	62.69
228.793	56.69
229.027	54.69
229.262	58.69
229.496	53.69
229.73	74.69
229.964	74.69
230.199	72.69
230.433	87.69
230.667	83.69
230.901	79.69
231.136	68.69
231.37	78.69
231.604	76.69
231.838	84.69
232.072	85.69
232.306	76.69
232.541	70.69
232.775	87.69
233.009	68.69
233.243	85.69
233.477	80.69
233.711	85.69
233.945	69.69
234.179	70.69
234.413	87.69
234.647	74.69
234.881	85.69
235.115	88.69
235.349	77.69
235.583	72.69
235.817	76.69
236.051	78.69
236.285	77.69
236.519	70.69
236.753	76.69
236.987	85.69
237.221	78.69
237.455	88.69
237.689	91.69
237.922	77.69
238.156	91.69
238.39	87.69
238.624	66.69
238.858	90.69
239.091	81.69
239.325	65.69
239.559	78.69
239.793	67.69
240.027	78.69
240.26	79.69
240.494	78.69
240.728	76.69
240.961	84.69
241.195	64.69
241.429	92.69
241.662	73.69
241.896	77.69
242.13	80.69
242.363	82.69
242.597	74.69
242.83	64.69
243.064	68.69
243.298	73.69
243.531	80.69
243.765	55.69
243.998	77.69
244.232	77.69
244.465	92.69
244.699	72.69
244.932	78.69
245.166	68.69
245.399	64.69
245.633	88.69
245.866	68.69
246.099	97.69
246.333	79.69
246.566	84.69
246.8	73.69
247.033	88.69
247.266	84.69
247.5	80.69
247.733	57.69
247.966	73.69
248.2	66.69
248.433	81.69
248.666	89.69
248.899	73.69
249.133	55.69
249.366	88.69
249.599	88.69
249.832	80.69
250.066	64.69
250.299	82.69
250.532	89.69
250.765	81.69
250.998	83.69
251.231	85.69
251.465	95.69
251.698	76.69
251.931	71.69
252.164	76.69
252.397	61.69
252.63	74.69
252.863	80.69
253.096	61.69
253.329	80.69
253.562	82.69
253.795	77.69
254.028	87.69
254.261	84.69
254.494	90.69
254.727	86.69
254.96	86.69
255.193	66.69
255.426	68.69
255.659	81.69
255.892	78.69
256.124	89.69
256.357	86.69
256.59	73.69
256.823	61.69
257.056	77.69
257.289	83.69
257.521	74.69
257.754	78.69
257.987	91.69
258.22	84.69
258.452	87.69
258.685	80.69
258.918	74.69
259.151	87.69
259.383	82.69
259.616	74.69
259.849	72.69
260.081	81.69
260.314	69.69
260.547	78.69
260.779	101.69
261.012	94.69
261.244	87.69
261.477	101.69
261.71	89.69
261.942	108.69
262.175	116.69
262.407	88.69
262.64	91.69
262.872	86.69
263.105	76.69
263.337	88.69
263.57	68.69
263.802	90.69
264.035	70.69
264.267	90.69
264.499	86.69
264.732	89.69
264.964	89.69
265.197	85.69
265.429	82.69
265.661	84.69
265.894	92.69
266.126	87.69
266.358	74.69
266.591	81.69
266.823	86.69
267.055	105.69
267.287	91.69
267.52	78.69
267.752	82.69
267.984	78.69
268.216	89.69
268.448	89.69
268.681	79.69
268.913	86.69
269.145	88.69
269.377	80.69
269.609	79.69
269.841	82.69
270.073	71.69
270.306	88.69
270.538	98.69
270.77	91.69
271.002	66.69
271.234	82.69
271.466	81.69
271.698	81.69
271.93	74.69
272.162	90.69
272.394	95.69
272.626	80.69
272.858	90.69
273.09	81.69
273.322	84.69
273.553	72.69
273.785	82.69
274.017	71.69
274.249	77.69
274.481	100.69
274.713	88.69
274.945	87.69
275.176	91.69
275.408	85.69
275.64	79.69
275.872	92.69
276.104	87.69
276.335	92.69
276.567	97.69
276.799	100.69
277.031	105.69
277.262	96.69
277.494	99.69
277.726	93.69
277.957	76.69
278.189	83.69
278.421	87.69
278.652	93.69
278.884	96.69
279.115	95.69
279.347	82.69
279.579	83.69
279.81	89.69
280.042	99.69
280.273	88.69
280.505	98.69
280.736	92.69
280.968	83.69
281.199	84.69
281.431	82.69
281.662	78.69
281.894	90.69
282.125	102.69
282.356	117.69
282.588	134.69
282.819	129.69
283.051	110.69
283.282	73.69
283.513	88.69
283.745	89.69
283.976	73.69
284.207	81.69
284.439	92.69
284.67	80.69
284.901	72.69
285.132	82.69
285.364	73.69
285.595	98.69
285.826	84.69
286.057	99.69
286.288	89.69
286.52	89.69
286.751	88.69
286.982	96.69
287.213	82.69
287.444	86.69
287.675	90.69
287.906	104.69
288.138	97.69
288.369	89.69
288.6	91.69
288.831	94.69
289.062	87.69
289.293	98.69
289.524	77.69
289.755	78.69
289.986	82.69
290.217	72.69
290.448	69.69
290.679	100.69
290.91	95.69
291.141	86.69
291.371	88.69
291.602	94.69
291.833	93.69
292.064	86.69
292.295	86.69
292.526	91.69
292.757	84.69
292.987	105.69
293.218	84.69
293.449	77.69
293.68	94.69
293.91	100.69
294.141	85.69
294.372	87.69
294.603	95.69
294.833	99.69
295.064	94.69
295.295	87.69
295.525	101.69
295.756	91.69
295.987	104.69
296.217	128.69
296.448	113.69
296.679	81.69
296.909	96.69
297.14	84.69
297.37	78.69
297.601	92.69
297.831	74.69
298.062	86.69
298.292	82.69
298.523	89.69
298.753	89.69
298.984	89.69
299.214	90.69
299.445	97.69
299.675	85.69
299.905	92.69
300.136	87.69
300.366	85.69
300.597	92.69
300.827	99.69
301.057	86.69
301.288	91.69
301.518	103.69
301.748	74.69
301.979	91.69
302.209	92.69
302.439	76.69
302.669	96.69
302.9	78.69
303.13	86.69
303.36	93.69
303.59	105.69
303.82	90.69
304.051	96.69
304.281	87.69
304.511	83.69
304.741	92.69
304.971	84.69
305.201	81.69
305.431	91.69
305.661	88.69
305.891	79.69
306.121	96.69
306.352	101.69
306.582	98.69
306.812	83.69
307.042	86.69
307.272	93.69
307.502	85.69
307.731	95.69
307.961	97.69
308.191	84.69
308.421	92.69
308.651	107.69
308.881	97.69
309.111	85.69
309.341	82.69
309.571	110.69
309.8	109.69
310.03	105.69
310.26	104.69
310.49	99.69
310.72	92.69
310.949	92.69
311.179	87.69
311.409	82.69
311.639	94.69
311.868	97.69
312.098	85.69
312.328	99.69
312.557	100.69
312.787	100.69
313.017	94.69
313.246	105.69
313.476	89.69
313.706	95.69
313.935	96.69
314.165	93.69
314.394	119.69
314.624	101.69
314.853	96.69
315.083	90.69
315.312	105.69
315.542	103.69
315.771	84.69
316.001	96.69
316.23	87.69
316.46	91.69
316.689	96.69
316.919	84.69
317.148	93.69
317.377	91.69
317.607	93.69
317.836	89.69
318.065	94.69
318.295	98.69
318.524	70.69
318.753	100.69
318.983	90.69
319.212	96.69
319.441	115.69
319.67	105.69
319.9	80.69
320.129	95.69
320.358	83.69
320.587	96.69
320.816	109.69
321.046	98.69
321.275	101.69
321.504	105.69
321.733	102.69
321.962	95.69
322.191	94.69
322.42	96.69
322.649	98.69
322.878	111.69
323.108	120.69
323.337	135.69
323.566	132.69
323.795	140.69
324.024	191.69
324.253	345.69
324.482	744.69
324.71	1538.69
324.939	1996.69
325.168	722.69
325.397	230.69
325.626	130.69
325.855	110.69
326.084	115.69
326.313	137.69
326.542	138.69
326.77	218.69
326.999	407.69
327.228	837.69
327.457	1523.69
327.686	1220.69
327.914	353.69
328.143	196.69
328.372	139.69
328.6	124.69
328.829	101.69
329.058	110.69
329.287	116.69
329.515	98.69
329.744	98.69
329.972	102.69
330.201	104.69
330.43	121.69
330.658	129.69
330.887	129.69
331.115	133.69
331.344	102.69
331.572	101.69
331.801	93.69
332.03	100.69
332.258	87.69
332.486	92.69
332.715	92.69
332.943	99.69
333.172	92.69
333.4	89.69
333.629	104.69
333.857	113.69
334.085	114.69
334.314	107.69
334.542	130.69
334.771	111.69
334.999	109.69
335.227	90.69
335.455	104.69
335.684	93.69
335.912	95.69
336.14	95.69
336.369	97.69
336.597	85.69
336.825	108.69
337.053	96.69
337.281	104.69
337.51	93.69
337.738	99.69
337.966	95.69
338.194	109.69
338.422	110.69
338.65	100.69
338.878	93.69
339.106	91.69
339.334	99.69
339.562	91.69
339.79	84.69
340.018	92.69
340.246	84.69
340.474	90.69
340.702	99.69
340.93	107.69
341.158	98.69
341.386	87.69
341.614	99.69
341.842	89.69
342.07	87.69
342.298	102.69
342.526	97.69
342.754	100.69
342.981	84.69
343.209	94.69
343.437	112.69
343.665	84.69
343.893	89.69
344.12	85.69
344.348	105.69
344.576	96.69
344.804	98.69
345.031	96.69
345.259	92.69
345.487	94.69
345.714	90.69
345.942	86.69
346.17	95.69
346.397	96.69
346.625	98.69
346.853	99.69
347.08	88.69
347.308	97.69
347.535	101.69
347.763	94.69
347.99	89.69
348.218	94.69
348.445	89.69
348.673	102.69
348.9	86.69
349.128	96.69
349.355	79.69
349.583	91.69
349.81	102.69
350.037	90.69
350.265	98.69
350.492	79.69
350.72	98.69
350.947	98.69
351.174	102.69
351.402	108.69
351.629	108.69
351.856	101.69
352.083	104.69
352.311	101.69
352.538	98.69
352.765	110.69
352.992	110.69
353.22	97.69
353.447	96.69
353.674	103.69
353.901	96.69
354.128	87.69
354.355	101.69
354.583	94.69
354.81	101.69
355.037	92.69
355.264	98.69
355.491	86.69
355.718	83.69
355.945	100.69
356.172	107.69
356.399	88.69
356.626	93.69
356.853	102.69
357.08	98.69
357.307	93.69
357.534	88.69
357.761	101.69
357.988	103.69
358.215	90.69
358.441	85.69
358.668	87.69
358.895	85.69
359.122	105.69
359.349	80.69
359.576	78.69
359.802	95.69
360.029	112.69
360.256	106.69
360.483	91.69
360.709	92.69
360.936	84.69
361.163	92.69
361.39	93.69
361.616	99.69
361.843	89.69
362.07	97.69
362.296	91.69
362.523	104.69
362.749	86.69
362.976	97.69
363.203	84.69
363.429	84.69
363.656	88.69
363.882	81.69
364.109	98.69
364.335	87.69
364.562	92.69
364.788	96.69
365.015	83.69
365.241	96.69
365.468	109.69
365.694	104.69
365.92	96.69
366.147	97.69
366.373	70.69
366.599	87.69
366.826	85.69
367.052	77.69
367.278	84.69
367.505	105.69
367.731	104.69
367.957	102.69
368.184	85.69
368.41	92.69
368.636	104.69
368.862	113.69
369.089	100.69
369.315	89.69
369.541	80.69
369.767	95.69
369.993	90.69
370.219	86.69
370.445	89.69
370.672	95.69
370.898	78.69
371.124	84.69
371.35	91.69
371.576	95.69
371.802	90.69
372.028	92.69
372.254	88.69
372.48	95.69
372.706	90.69
372.932	88.69
373.158	93.69
373.384	85.69
373.61	89.69
373.835	83.69
374.061	85.69
374.287	82.69
374.513	90.69
374.739	77.69
374.965	92.69
375.191	88.69
375.416	91.69
375.642	91.69
375.868	95.69
376.094	76.69
376.319	86.69
376.545	93.69
376.771	83.69
376.997	90.69
377.222	95.69
377.448	90.69
377.674	82.69
377.899	89.69
378.125	75.69
378.35	89.69
378.576	85.69
378.802	82.69
379.027	84.69
379.253	79.69
379.478	86.69
379.704	88.69
379.929	86.69
380.155	87.69
380.38	99.69
380.606	86.69
380.831	79.69
381.057	88.69
381.282	92.69
381.507	95.69
381.733	104.69
381.958	98.69
382.184	99.69
382.409	99.69
382.634	97.69
382.86	87.69
383.085	92.69
383.31	89.69
383.535	101.69
383.761	101.69
383.986	89.69
384.211	98.69
384.436	91.69
384.662	83.69
384.887	94.69
385.112	113.69
385.337	101.69
385.562	95.69
385.787	104.69
386.013	122.69
386.238	112.69
386.463	102.69
386.688	108.69
386.913	99.69
387.138	93.69
387.363	93.69
387.588	83.69
387.813	99.69
388.038	93.69
388.263	111.69
388.488	111.69
388.713	110.69
388.938	80.69
389.163	96.69
389.387	92.69
389.612	106.69
389.837	89.69
390.062	91.69
390.287	90.69
390.512	105.69
390.736	99.69
390.961	102.69
391.186	98.69
391.411	100.69
391.636	81.69
391.86	89.69
392.085	93.69
392.31	77.69
392.534	88.69
392.759	85.69
392.984	88.69
393.208	98.69
393.433	91.69
393.658	87.69
393.882	82.69
394.107	88.69
394.331	82.69
394.556	96.69
394.78	83.69
395.005	98.69
395.229	80.69
395.454	82.69
395.678	92.69
395.903	95.69
396.127	99.69
396.352	84.69
396.576	80.69
396.801	74.69
397.025	92.69
397.249	73.69
397.474	96.69
397.698	95.69
397.922	94.69
398.147	90.69
398.371	99.69
398.595	93.69
398.82	82.69
399.044	92.69
399.268	72.69
399.492	90.69
399.717	99.69
399.941	89.69
400.165	95.69
400.389	96.69
400.613	97.69
400.837	89.69
401.062	98.69
401.286	88.69
401.51	87.69
401.734	109.69
401.958	99.69
402.182	124.69
402.406	136.69
402.63	100.69
402.854	91.69
403.078	73.69
403.302	90.69
403.526	97.69
403.75	81.69
403.974	79.69
404.198	91.69
404.422	80.69
404.645	90.69
404.869	84.69
405.093	105.69
405.317	96.69
405.541	101.69
405.765	91.69
405.988	97.69
406.212	169.69
406.436	201.69
406.66	129.69
406.883	94.69
407.107	78.69
407.331	102.69
407.555	104.69
407.778	101.69
408.002	93.69
408.226	82.69
408.449	94.69
408.673	97.69
408.896	81.69
409.12	90.69
409.344	96.69
409.567	93.69
409.791	86.69
410.014	92.69
410.238	102.69
410.461	83.69
410.685	103.69
410.908	97.69
411.132	104.69
411.355	98.69
411.578	101.69
411.802	78.69
412.025	85.69
412.249	105.69
412.472	89.69
412.695	97.69
412.919	80.69
413.142	91.69
413.365	66.69
413.589	82.69
413.812	94.69
414.035	92.69
414.258	76.69
414.482	79.69
414.705	97.69
414.928	84.69
415.151	94.69
415.374	92.69
415.597	80.69
415.821	81.69
416.044	83.69
416.267	78.69
416.49	83.69
416.713	88.69
416.936	78.69
417.159	83.69
417.382	92.69
417.605	81.69
417.828	101.69
418.051	92.69
418.274	97.69
418.497	88.69
418.72	98.69
418.943	95.69
419.166	86.69
419.389	87.69
419.611	72.69
419.834	87.69
420.057	82.69
420.28	74.69
420.503	85.69
420.726	82.69
420.948	86.69
421.171	104.69
421.394	92.69
421.617	98.69
421.839	94.69
422.062	99.69
422.285	89.69
422.507	109.69
422.73	113.69
422.953	93.69
423.175	102.69
423.398	86.69
423.621	89.69
423.843	96.69
424.066	76.69
424.288	72.69
424.511	92.69
424.733	100.69
424.956	106.69
425.178	105.69
425.401	99.69
425.623	115.69
425.846	98.69
426.068	80.69
426.291	92.69
426.513	92.69
426.735	96.69
426.958	97.69
427.18	100.69
427.402	127.69
427.625	148.69
427.847	127.69
428.069	106.69
428.292	92.69
428.514	99.69
428.736	86.69
428.958	78.69
429.181	87.69
429.403	81.69
429.625	69.69
429.847	80.69
430.069	102.69
430.292	81.69
430.514	80.69
430.736	85.69
430.958	97.69
431.18	94.69
431.402	88.69
431.624	83.69
431.846	100.69
432.068	99.69
432.29	84.69
432.512	87.69
432.734	81.69
432.956	97.69
433.178	95.69
433.4	96.69
433.622	90.69
433.844	78.69
434.066	96.69
434.287	95.69
434.509	87.69
434.731	88.69
434.953	93.69
435.175	84.69
435.397	93.69
435.618	92.69
435.84	104.69
436.062	130.69
436.284	109.69
436.505	109.69
436.727	97.69
436.949	103.69
437.17	96.69
437.392	82.69
437.614	85.69
437.835	88.69
438.057	102.69
438.278	106.69
438.5	107.69
438.721	121.69
438.943	86.69
439.165	77.69
439.386	105.69
439.608	85.69
439.829	107.69
440.05	120.69
440.272	143.69
440.493	82.69
440.715	86.69
440.936	98.69
441.158	81.69
441.379	84.69
441.6	93.69
441.822	104.69
442.043	101.69
442.264	105.69
442.486	94.69
442.707	84.69
442.928	109.69
443.149	116.69
443.371	116.69
443.592	110.69
443.813	109.69
444.034	112.69
444.255	95.69
444.476	97.69
444.698	93.69
444.919	87.69
445.14	116.69
445.361	110.69
445.582	111.69
445.803	133.69
446.024	128.69
446.245	116.69
446.466	100.69
446.687	93.69
446.908	104.69
447.129	88.69
447.35	97.69
447.571	80.69
447.792	96.69
448.013	110.69
448.234	116.69
448.455	95.69
448.675	106.69
448.896	116.69
449.117	94.69
449.338	91.69
449.559	125.69
449.779	134.69
450	106.69
450.221	83.69
450.442	90.69
450.662	95.69
450.883	111.69
451.104	98.69
451.324	78.69
451.545	82.69
451.766	83.69
451.986	82.69
452.207	93.69
452.428	82.69
452.648	92.69
452.869	101.69
453.089	106.69
453.31	105.69
453.53	88.69
453.751	88.69
453.971	89.69
454.192	100.69
454.412	84.69
454.633	84.69
454.853	88.69
455.073	87.69
455.294	100.69
455.514	98.69
455.734	89.69
455.955	84.69
456.175	82.69
456.395	68.69
456.616	91.69
456.836	82.69
457.056	68.69
457.276	81.69
457.497	76.69
457.717	68.69
457.937	72.69
458.157	87.69
458.377	94.69
458.598	97.69
458.818	140.69
459.038	153.69
459.258	103.69
459.478	85.69
459.698	94.69
459.918	84.69
460.138	80.69
460.358	85.69
460.578	85.69
460.798	95.69
461.018	81.69
461.238	88.69
461.458	96.69
461.678	77.69
461.898	84.69
462.118	78.69
462.338	98.69
462.558	74.69
462.777	96.69
462.997	94.69
463.217	88.69
463.437	92.69
463.657	82.69
463.876	84.69
464.096	88.69
464.316	89.69
464.536	82.69
464.755	98.69
464.975	105.69
465.195	136.69
465.414	164.69
465.634	89.69
465.854	81.69
466.073	73.69
466.293	100.69
466.512	84.69
466.732	86.69
466.951	94.69
467.171	83.69
467.391	106.69
467.61	107.69
467.829	103.69
468.049	99.69
468.268	99.69
468.488	81.69
468.707	72.69
468.927	83.69
469.146	69.69
469.365	101.69
469.585	93.69
469.804	105.69
470.023	95.69
470.243	74.69
470.462	79.69
470.681	96.69
470.901	106.69
471.12	101.69
471.339	79.69
471.558	101.69
471.777	85.69
471.997	92.69
472.216	102.69
472.435	142.69
472.654	105.69
472.873	100.69
473.092	88.69
473.311	89.69
473.53	89.69
473.749	87.69
473.968	100.69
474.187	101.69
474.406	92.69
474.625	98.69
474.844	101.69
475.063	89.69
475.282	94.69
475.501	78.69
475.72	87.69
475.939	85.69
476.158	83.69
476.377	88.69
476.596	90.69
476.814	92.69
477.033	87.69
477.252	99.69
477.471	90.69
477.69	86.69
477.908	76.69
478.127	84.69
478.346	89.69
478.564	92.69
478.783	88.69
479.002	99.69
479.22	89.69
479.439	107.69
479.658	101.69
479.876	88.69
480.095	106.69
480.313	94.69
480.532	94.69
480.751	87.69
480.969	102.69
481.188	176.69
481.406	138.69
481.624	87.69
481.843	93.69
482.061	120.69
482.28	83.69
482.498	84.69
482.717	94.69
482.935	84.69
483.153	84.69
483.372	77.69
483.59	100.69
483.808	88.69
484.027	81.69
484.245	83.69
484.463	101.69
484.681	92.69
484.9	94.69
485.118	98.69
485.336	93.69
485.554	100.69
485.772	104.69
485.99	90.69
486.209	105.69
486.427	107.69
486.645	92.69
486.863	111.69
487.081	112.69
487.299	90.69
487.517	99.69
487.735	96.69
487.953	94.69
488.171	78.69
488.389	95.69
488.607	95.69
488.825	96.69
489.043	95.69
489.261	86.69
489.479	84.69
489.696	82.69
489.914	88.69
490.132	104.69
490.35	94.69
490.568	80.69
490.786	95.69
491.003	85.69
491.221	80.69
491.439	88.69
491.657	96.69
491.874	84.69
492.092	95.69
492.31	90.69
492.527	88.69
492.745	82.69
492.963	90.69
493.18	101.69
493.398	104.69
493.615	102.69
493.833	98.69
494.05	95.69
494.268	84.69
494.485	93.69
494.703	95.69
494.92	93.69
495.138	86.69
495.355	103.69
495.573	94.69
495.79	83.69
496.008	80.69
496.225	93.69
496.442	92.69
496.66	94.69
496.877	91.69
497.094	95.69
497.312	95.69
497.529	96.69
497.746	88.69
497.963	80.69
498.181	88.69
498.398	98.69
498.615	116.69
498.832	114.69
499.049	95.69
499.267	92.69
499.484	73.69
499.701	94.69
499.918	110.69
500.135	101.69
500.352	86.69
500.569	100.69
500.786	98.69
501.003	90.69
501.22	98.69
501.437	89.69
501.654	83.69
501.871	109.69
502.088	96.69
502.305	95.69
502.522	92.69
502.739	97.69
502.956	84.69
503.172	89.69
503.389	92.69
503.606	102.69
503.823	94.69
504.04	108.69
504.256	108.69
504.473	98.69
504.69	89.69
504.907	87.69
505.123	91.69
505.34	93.69
505.557	97.69
505.773	105.69
505.99	93.69
506.207	92.69
506.423	73.69
506.64	80.69
506.856	80.69
507.073	94.69
507.289	92.69
507.506	92.69
507.722	94.69
507.939	113.69
508.155	100.69
508.372	100.69
508.588	98.69
508.805	90.69
509.021	93.69
509.238	101.69
509.454	91.69
509.67	102.69
509.887	103.69
510.103	132.69
510.319	200.69
510.536	698.69
510.752	2136.69
510.968	585.69
511.184	141.69
511.401	99.69
511.617	105.69
511.833	89.69
512.049	89.69
512.265	99.69
512.481	96.69
512.698	103.69
512.914	92.69
513.13	96.69
513.346	95.69
513.562	112.69
513.778	112.69
513.994	104.69
514.21	98.69
514.426	106.69
514.642	134.69
514.858	122.69
515.074	170.69
515.29	402.69
515.506	1318.69
515.721	470.69
