Data from Uncirc_1987_H10_HRD10591_00093.txt Node
Date: Wed Jan 03 12:09:07 EST 2024
User: Yrep
Spectrometer: HR+D1059
Trigger mode: 1
Integration Time (sec): 1.000000E-1
Scans to average: 1
Electric dark correction enabled: true
Nonlinearity correction enabled: false
Boxcar width: 0
XAxis mode: Wavelengths
Number of Pixels in Spectrum: 2048
>>>>>Begin Spectral Data<<<<<
223.165	-24.38
223.4	-24.38
223.635	-24.38
223.869	-28.38
224.104	-10.38
224.338	-9.38
224.573	-14.38
224.808	-9.38
225.042	-4.38
225.277	-3.38
225.511	-3.38
225.746	7.62
225.98	-1.38
226.215	6.62
226.449	20.62
226.683	19.62
226.918	28.62
227.152	25.62
227.387	39.62
227.621	41.62
227.856	52.62
228.09	58.62
228.324	52.62
228.559	53.62
228.793	54.62
229.027	62.62
229.262	79.62
229.496	83.62
229.73	90.62
229.964	81.62
230.199	69.62
230.433	90.62
230.667	81.62
230.901	76.62
231.136	88.62
231.37	79.62
231.604	74.62
231.838	80.62
232.072	91.62
232.306	76.62
232.541	74.62
232.775	75.62
233.009	77.62
233.243	83.62
233.477	75.62
233.711	86.62
233.945	85.62
234.179	77.62
234.413	76.62
234.647	74.62
234.881	66.62
235.115	81.62
235.349	81.62
235.583	80.62
235.817	80.62
236.051	82.62
236.285	70.62
236.519	74.62
236.753	62.62
236.987	74.62
237.221	88.62
237.455	70.62
237.689	77.62
237.922	86.62
238.156	86.62
238.39	60.62
238.624	72.62
238.858	80.62
239.091	66.62
239.325	98.62
239.559	90.62
239.793	90.62
240.027	65.62
240.26	83.62
240.494	87.62
240.728	95.62
240.961	87.62
241.195	95.62
241.429	80.62
241.662	84.62
241.896	75.62
242.13	73.62
242.363	86.62
242.597	91.62
242.83	92.62
243.064	81.62
243.298	81.62
243.531	81.62
243.765	74.62
243.998	80.62
244.232	78.62
244.465	79.62
244.699	84.62
244.932	78.62
245.166	78.62
245.399	89.62
245.633	86.62
245.866	78.62
246.099	80.62
246.333	75.62
246.566	89.62
246.8	78.62
247.033	63.62
247.266	66.62
247.5	66.62
247.733	71.62
247.966	88.62
248.2	82.62
248.433	78.62
248.666	88.62
248.899	79.62
249.133	76.62
249.366	86.62
249.599	91.62
249.832	81.62
250.066	79.62
250.299	92.62
250.532	95.62
250.765	79.62
250.998	68.62
251.231	68.62
251.465	75.62
251.698	67.62
251.931	72.62
252.164	94.62
252.397	75.62
252.63	73.62
252.863	89.62
253.096	85.62
253.329	72.62
253.562	86.62
253.795	90.62
254.028	78.62
254.261	77.62
254.494	82.62
254.727	74.62
254.96	72.62
255.193	93.62
255.426	61.62
255.659	79.62
255.892	91.62
256.124	73.62
256.357	78.62
256.59	85.62
256.823	86.62
257.056	82.62
257.289	95.62
257.521	88.62
257.754	84.62
257.987	84.62
258.22	87.62
258.452	72.62
258.685	75.62
258.918	79.62
259.151	71.62
259.383	84.62
259.616	82.62
259.849	73.62
260.081	74.62
260.314	81.62
260.547	75.62
260.779	86.62
261.012	80.62
261.244	81.62
261.477	88.62
261.71	88.62
261.942	114.62
262.175	113.62
262.407	99.62
262.64	75.62
262.872	87.62
263.105	82.62
263.337	84.62
263.57	80.62
263.802	82.62
264.035	87.62
264.267	59.62
264.499	87.62
264.732	76.62
264.964	85.62
265.197	84.62
265.429	74.62
265.661	91.62
265.894	79.62
266.126	88.62
266.358	86.62
266.591	84.62
266.823	88.62
267.055	96.62
267.287	97.62
267.52	88.62
267.752	92.62
267.984	84.62
268.216	99.62
268.448	92.62
268.681	82.62
268.913	97.62
269.145	88.62
269.377	72.62
269.609	86.62
269.841	89.62
270.073	83.62
270.306	80.62
270.538	85.62
270.77	96.62
271.002	88.62
271.234	81.62
271.466	87.62
271.698	80.62
271.93	95.62
272.162	84.62
272.394	97.62
272.626	80.62
272.858	80.62
273.09	86.62
273.322	78.62
273.553	94.62
273.785	79.62
274.017	91.62
274.249	99.62
274.481	78.62
274.713	94.62
274.945	94.62
275.176	72.62
275.408	76.62
275.64	84.62
275.872	84.62
276.104	103.62
276.335	79.62
276.567	90.62
276.799	120.62
277.031	100.62
277.262	96.62
277.494	98.62
277.726	80.62
277.957	79.62
278.189	88.62
278.421	81.62
278.652	84.62
278.884	88.62
279.115	92.62
279.347	83.62
279.579	77.62
279.81	90.62
280.042	88.62
280.273	88.62
280.505	91.62
280.736	82.62
280.968	87.62
281.199	94.62
281.431	87.62
281.662	87.62
281.894	83.62
282.125	88.62
282.356	106.62
282.588	140.62
282.819	111.62
283.051	98.62
283.282	86.62
283.513	98.62
283.745	100.62
283.976	81.62
284.207	91.62
284.439	95.62
284.67	70.62
284.901	89.62
285.132	80.62
285.364	103.62
285.595	94.62
285.826	95.62
286.057	78.62
286.288	92.62
286.52	87.62
286.751	94.62
286.982	99.62
287.213	89.62
287.444	87.62
287.675	76.62
287.906	86.62
288.138	91.62
288.369	99.62
288.6	95.62
288.831	80.62
289.062	95.62
289.293	82.62
289.524	96.62
289.755	97.62
289.986	86.62
290.217	76.62
290.448	94.62
290.679	89.62
290.91	108.62
291.141	107.62
291.371	97.62
291.602	100.62
291.833	90.62
292.064	67.62
292.295	92.62
292.526	90.62
292.757	88.62
292.987	87.62
293.218	94.62
293.449	93.62
293.68	99.62
293.91	94.62
294.141	84.62
294.372	82.62
294.603	87.62
294.833	94.62
295.064	83.62
295.295	90.62
295.525	90.62
295.756	106.62
295.987	114.62
296.217	119.62
296.448	126.62
296.679	83.62
296.909	94.62
297.14	93.62
297.37	92.62
297.601	92.62
297.831	83.62
298.062	84.62
298.292	99.62
298.523	92.62
298.753	94.62
298.984	86.62
299.214	95.62
299.445	98.62
299.675	95.62
299.905	107.62
300.136	92.62
300.366	80.62
300.597	102.62
300.827	92.62
301.057	99.62
301.288	97.62
301.518	91.62
301.748	76.62
301.979	83.62
302.209	94.62
302.439	102.62
302.669	88.62
302.9	94.62
303.13	98.62
303.36	103.62
303.59	100.62
303.82	101.62
304.051	106.62
304.281	89.62
304.511	91.62
304.741	90.62
304.971	88.62
305.201	93.62
305.431	82.62
305.661	95.62
305.891	100.62
306.121	108.62
306.352	89.62
306.582	98.62
306.812	99.62
307.042	85.62
307.272	97.62
307.502	98.62
307.731	92.62
307.961	99.62
308.191	95.62
308.421	92.62
308.651	103.62
308.881	90.62
309.111	84.62
309.341	100.62
309.571	81.62
309.8	99.62
310.03	100.62
310.26	105.62
310.49	103.62
310.72	89.62
310.949	96.62
311.179	106.62
311.409	96.62
311.639	80.62
311.868	101.62
312.098	101.62
312.328	95.62
312.557	85.62
312.787	101.62
313.017	112.62
313.246	104.62
313.476	90.62
313.706	96.62
313.935	92.62
314.165	102.62
314.394	105.62
314.624	96.62
314.853	90.62
315.083	82.62
315.312	76.62
315.542	108.62
315.771	89.62
316.001	89.62
316.23	99.62
316.46	94.62
316.689	95.62
316.919	88.62
317.148	97.62
317.377	92.62
317.607	98.62
317.836	94.62
318.065	80.62
318.295	112.62
318.524	89.62
318.753	107.62
318.983	94.62
319.212	98.62
319.441	118.62
319.67	126.62
319.9	91.62
320.129	87.62
320.358	100.62
320.587	102.62
320.816	87.62
321.046	110.62
321.275	97.62
321.504	103.62
321.733	91.62
321.962	90.62
322.191	92.62
322.42	101.62
322.649	96.62
322.878	94.62
323.108	110.62
323.337	121.62
323.566	132.62
323.795	140.62
324.024	183.62
324.253	364.62
324.482	742.62
324.71	1510.62
324.939	2024.62
325.168	760.62
325.397	218.62
325.626	150.62
325.855	135.62
326.084	111.62
326.313	121.62
326.542	155.62
326.77	210.62
326.999	389.62
327.228	828.62
327.457	1534.62
327.686	1206.62
327.914	329.62
328.143	177.62
328.372	146.62
328.6	137.62
328.829	135.62
329.058	120.62
329.287	118.62
329.515	106.62
329.744	94.62
329.972	111.62
330.201	113.62
330.43	119.62
330.658	113.62
330.887	143.62
331.115	111.62
331.344	102.62
331.572	102.62
331.801	105.62
332.03	116.62
332.258	107.62
332.486	91.62
332.715	99.62
332.943	99.62
333.172	97.62
333.4	114.62
333.629	111.62
333.857	108.62
334.085	111.62
334.314	116.62
334.542	124.62
334.771	129.62
334.999	97.62
335.227	103.62
335.455	105.62
335.684	97.62
335.912	103.62
336.14	94.62
336.369	82.62
336.597	94.62
336.825	93.62
337.053	94.62
337.281	108.62
337.51	102.62
337.738	93.62
337.966	100.62
338.194	98.62
338.422	86.62
338.65	94.62
338.878	84.62
339.106	98.62
339.334	90.62
339.562	89.62
339.79	96.62
340.018	91.62
340.246	103.62
340.474	96.62
340.702	105.62
340.93	87.62
341.158	94.62
341.386	101.62
341.614	104.62
341.842	90.62
342.07	82.62
342.298	74.62
342.526	94.62
342.754	83.62
342.981	80.62
343.209	81.62
343.437	115.62
343.665	97.62
343.893	98.62
344.12	94.62
344.348	84.62
344.576	90.62
344.804	80.62
345.031	96.62
345.259	97.62
345.487	95.62
345.714	105.62
345.942	100.62
346.17	90.62
346.397	92.62
346.625	91.62
346.853	92.62
347.08	97.62
347.308	108.62
347.535	96.62
347.763	95.62
347.99	108.62
348.218	113.62
348.445	101.62
348.673	103.62
348.9	103.62
349.128	108.62
349.355	104.62
349.583	96.62
349.81	82.62
350.037	105.62
350.265	93.62
350.492	113.62
350.72	94.62
350.947	98.62
351.174	99.62
351.402	113.62
351.629	107.62
351.856	92.62
352.083	108.62
352.311	100.62
352.538	94.62
352.765	111.62
352.992	121.62
353.22	98.62
353.447	98.62
353.674	108.62
353.901	82.62
354.128	99.62
354.355	93.62
354.583	89.62
354.81	89.62
355.037	98.62
355.264	98.62
355.491	82.62
355.718	98.62
355.945	89.62
356.172	96.62
356.399	89.62
356.626	93.62
356.853	108.62
357.08	79.62
357.307	82.62
357.534	87.62
357.761	92.62
357.988	108.62
358.215	92.62
358.441	88.62
358.668	92.62
358.895	103.62
359.122	97.62
359.349	88.62
359.576	98.62
359.802	112.62
360.029	102.62
360.256	102.62
360.483	103.62
360.709	87.62
360.936	94.62
361.163	95.62
361.39	91.62
361.616	102.62
361.843	96.62
362.07	103.62
362.296	89.62
362.523	83.62
362.749	91.62
362.976	99.62
363.203	83.62
363.429	99.62
363.656	88.62
363.882	101.62
364.109	85.62
364.335	98.62
364.562	92.62
364.788	95.62
365.015	90.62
365.241	94.62
365.468	107.62
365.694	100.62
365.92	88.62
366.147	94.62
366.373	85.62
366.599	104.62
366.826	100.62
367.052	87.62
367.278	90.62
367.505	81.62
367.731	89.62
367.957	95.62
368.184	92.62
368.41	95.62
368.636	108.62
368.862	117.62
369.089	104.62
369.315	102.62
369.541	98.62
369.767	98.62
369.993	96.62
370.219	84.62
370.445	89.62
370.672	102.62
370.898	96.62
371.124	89.62
371.35	86.62
371.576	92.62
371.802	81.62
372.028	85.62
372.254	92.62
372.48	67.62
372.706	84.62
372.932	83.62
373.158	94.62
373.384	94.62
373.61	96.62
373.835	88.62
374.061	94.62
374.287	91.62
374.513	82.62
374.739	82.62
374.965	83.62
375.191	100.62
375.416	112.62
375.642	105.62
375.868	91.62
376.094	91.62
376.319	104.62
376.545	89.62
376.771	75.62
376.997	97.62
377.222	94.62
377.448	101.62
377.674	79.62
377.899	92.62
378.125	78.62
378.35	72.62
378.576	82.62
378.802	88.62
379.027	91.62
379.253	101.62
379.478	82.62
379.704	84.62
379.929	88.62
380.155	104.62
380.38	78.62
380.606	101.62
380.831	96.62
381.057	95.62
381.282	89.62
381.507	101.62
381.733	88.62
381.958	89.62
382.184	104.62
382.409	101.62
382.634	108.62
382.86	94.62
383.085	97.62
383.31	102.62
383.535	101.62
383.761	86.62
383.986	90.62
384.211	79.62
384.436	104.62
384.662	95.62
384.887	95.62
385.112	95.62
385.337	101.62
385.562	116.62
385.787	106.62
386.013	113.62
386.238	86.62
386.463	94.62
386.688	103.62
386.913	102.62
387.138	96.62
387.363	100.62
387.588	88.62
387.813	104.62
388.038	99.62
388.263	96.62
388.488	104.62
388.713	95.62
388.938	85.62
389.163	101.62
389.387	88.62
389.612	91.62
389.837	100.62
390.062	88.62
390.287	92.62
390.512	96.62
390.736	95.62
390.961	82.62
391.186	96.62
391.411	110.62
391.636	94.62
391.86	92.62
392.085	86.62
392.31	94.62
392.534	83.62
392.759	87.62
392.984	78.62
393.208	75.62
393.433	92.62
393.658	92.62
393.882	66.62
394.107	89.62
394.331	82.62
394.556	85.62
394.78	96.62
395.005	98.62
395.229	95.62
395.454	78.62
395.678	76.62
395.903	81.62
396.127	84.62
396.352	90.62
396.576	86.62
396.801	94.62
397.025	84.62
397.249	90.62
397.474	90.62
397.698	88.62
397.922	96.62
398.147	84.62
398.371	84.62
398.595	98.62
398.82	80.62
399.044	103.62
399.268	96.62
399.492	86.62
399.717	100.62
399.941	86.62
400.165	96.62
400.389	80.62
400.613	71.62
400.837	98.62
401.062	92.62
401.286	97.62
401.51	86.62
401.734	88.62
401.958	103.62
402.182	108.62
402.406	155.62
402.63	105.62
402.854	114.62
403.078	103.62
403.302	91.62
403.526	94.62
403.75	87.62
403.974	81.62
404.198	93.62
404.422	81.62
404.645	101.62
404.869	99.62
405.093	95.62
405.317	90.62
405.541	83.62
405.765	93.62
405.988	106.62
406.212	162.62
406.436	208.62
406.66	131.62
406.883	94.62
407.107	97.62
407.331	87.62
407.555	104.62
407.778	106.62
408.002	82.62
408.226	97.62
408.449	87.62
408.673	95.62
408.896	96.62
409.12	84.62
409.344	82.62
409.567	96.62
409.791	105.62
410.014	104.62
410.238	80.62
410.461	94.62
410.685	82.62
410.908	101.62
411.132	102.62
411.355	103.62
411.578	97.62
411.802	104.62
412.025	79.62
412.249	90.62
412.472	90.62
412.695	103.62
412.919	71.62
413.142	99.62
413.365	84.62
413.589	95.62
413.812	86.62
414.035	94.62
414.258	88.62
414.482	88.62
414.705	91.62
414.928	71.62
415.151	92.62
415.374	86.62
415.597	99.62
415.821	102.62
416.044	87.62
416.267	86.62
416.49	91.62
416.713	84.62
416.936	92.62
417.159	89.62
417.382	93.62
417.605	97.62
417.828	95.62
418.051	105.62
418.274	89.62
418.497	85.62
418.72	84.62
418.943	103.62
419.166	92.62
419.389	88.62
419.611	87.62
419.834	98.62
420.057	87.62
420.28	86.62
420.503	103.62
420.726	87.62
420.948	94.62
421.171	86.62
421.394	81.62
421.617	84.62
421.839	103.62
422.062	84.62
422.285	82.62
422.507	104.62
422.73	96.62
422.953	95.62
423.175	89.62
423.398	90.62
423.621	92.62
423.843	92.62
424.066	87.62
424.288	85.62
424.511	85.62
424.733	84.62
424.956	93.62
425.178	88.62
425.401	105.62
425.623	97.62
425.846	92.62
426.068	93.62
426.291	89.62
426.513	90.62
426.735	82.62
426.958	94.62
427.18	93.62
427.402	129.62
427.625	155.62
427.847	126.62
428.069	114.62
428.292	92.62
428.514	88.62
428.736	100.62
428.958	87.62
429.181	84.62
429.403	92.62
429.625	84.62
429.847	84.62
430.069	92.62
430.292	94.62
430.514	88.62
430.736	83.62
430.958	89.62
431.18	100.62
431.402	97.62
431.624	87.62
431.846	86.62
432.068	89.62
432.29	82.62
432.512	89.62
432.734	92.62
432.956	86.62
433.178	95.62
433.4	93.62
433.622	101.62
433.844	103.62
434.066	95.62
434.287	98.62
434.509	81.62
434.731	96.62
434.953	73.62
435.175	96.62
435.397	101.62
435.618	105.62
435.84	94.62
436.062	110.62
436.284	105.62
436.505	106.62
436.727	103.62
436.949	93.62
437.17	90.62
437.392	94.62
437.614	96.62
437.835	100.62
438.057	109.62
438.278	118.62
438.5	118.62
438.721	126.62
438.943	94.62
439.165	94.62
439.386	86.62
439.608	92.62
439.829	92.62
440.05	124.62
440.272	138.62
440.493	106.62
440.715	90.62
440.936	88.62
441.158	82.62
441.379	87.62
441.6	104.62
441.822	90.62
442.043	104.62
442.264	101.62
442.486	103.62
442.707	95.62
442.928	107.62
443.149	121.62
443.371	122.62
443.592	100.62
443.813	94.62
444.034	100.62
444.255	104.62
444.476	92.62
444.698	86.62
444.919	89.62
445.14	124.62
445.361	117.62
445.582	118.62
445.803	138.62
446.024	131.62
446.245	123.62
446.466	109.62
446.687	87.62
446.908	92.62
447.129	103.62
447.35	98.62
447.571	101.62
447.792	89.62
448.013	97.62
448.234	101.62
448.455	95.62
448.675	100.62
448.896	108.62
449.117	99.62
449.338	98.62
449.559	108.62
449.779	126.62
450	99.62
450.221	88.62
450.442	85.62
450.662	92.62
450.883	101.62
451.104	99.62
451.324	75.62
451.545	75.62
451.766	79.62
451.986	91.62
452.207	85.62
452.428	80.62
452.648	88.62
452.869	99.62
453.089	105.62
453.31	105.62
453.53	84.62
453.751	82.62
453.971	92.62
454.192	94.62
454.412	85.62
454.633	86.62
454.853	81.62
455.073	91.62
455.294	97.62
455.514	104.62
455.734	73.62
455.955	68.62
456.175	84.62
456.395	89.62
456.616	93.62
456.836	87.62
457.056	86.62
457.276	79.62
457.497	86.62
457.717	73.62
457.937	98.62
458.157	86.62
458.377	88.62
458.598	96.62
458.818	150.62
459.038	156.62
459.258	115.62
459.478	85.62
459.698	88.62
459.918	99.62
460.138	96.62
460.358	75.62
460.578	90.62
460.798	75.62
461.018	86.62
461.238	83.62
461.458	92.62
461.678	92.62
461.898	82.62
462.118	69.62
462.338	78.62
462.558	83.62
462.777	79.62
462.997	97.62
463.217	90.62
463.437	88.62
463.657	81.62
463.876	96.62
464.096	81.62
464.316	85.62
464.536	81.62
464.755	98.62
464.975	96.62
465.195	144.62
465.414	150.62
465.634	94.62
465.854	80.62
466.073	98.62
466.293	103.62
466.512	73.62
466.732	92.62
466.951	96.62
467.171	88.62
467.391	90.62
467.61	104.62
467.829	101.62
468.049	107.62
468.268	93.62
468.488	70.62
468.707	88.62
468.927	82.62
469.146	91.62
469.365	91.62
469.585	85.62
469.804	100.62
470.023	99.62
470.243	96.62
470.462	94.62
470.681	108.62
470.901	91.62
471.12	82.62
471.339	82.62
471.558	86.62
471.777	95.62
471.997	82.62
472.216	94.62
472.435	125.62
472.654	93.62
472.873	84.62
473.092	88.62
473.311	94.62
473.53	87.62
473.749	85.62
473.968	88.62
474.187	91.62
474.406	96.62
474.625	87.62
474.844	95.62
475.063	90.62
475.282	86.62
475.501	84.62
475.72	94.62
475.939	86.62
476.158	88.62
476.377	91.62
476.596	88.62
476.814	82.62
477.033	99.62
477.252	88.62
477.471	100.62
477.69	93.62
477.908	80.62
478.127	90.62
478.346	95.62
478.564	92.62
478.783	105.62
479.002	94.62
479.22	94.62
479.439	99.62
479.658	103.62
479.876	80.62
480.095	84.62
480.313	90.62
480.532	90.62
480.751	93.62
480.969	94.62
481.188	195.62
481.406	141.62
481.624	88.62
481.843	86.62
482.061	99.62
482.28	90.62
482.498	89.62
482.717	87.62
482.935	93.62
483.153	88.62
483.372	91.62
483.59	101.62
483.808	82.62
484.027	102.62
484.245	106.62
484.463	91.62
484.681	94.62
484.9	99.62
485.118	104.62
485.336	82.62
485.554	102.62
485.772	86.62
485.99	95.62
486.209	91.62
486.427	107.62
486.645	107.62
486.863	91.62
487.081	91.62
487.299	85.62
487.517	96.62
487.735	106.62
487.953	84.62
488.171	87.62
488.389	96.62
488.607	103.62
488.825	91.62
489.043	83.62
489.261	80.62
489.479	95.62
489.696	80.62
489.914	92.62
490.132	91.62
490.35	90.62
490.568	81.62
490.786	83.62
491.003	89.62
491.221	95.62
491.439	98.62
491.657	97.62
491.874	74.62
492.092	87.62
492.31	96.62
492.527	97.62
492.745	84.62
492.963	86.62
493.18	93.62
493.398	97.62
493.615	100.62
493.833	101.62
494.05	88.62
494.268	92.62
494.485	81.62
494.703	86.62
494.92	87.62
495.138	89.62
495.355	92.62
495.573	96.62
495.79	80.62
496.008	101.62
496.225	94.62
496.442	82.62
496.66	99.62
496.877	84.62
497.094	92.62
497.312	99.62
497.529	77.62
497.746	95.62
497.963	96.62
498.181	111.62
498.398	99.62
498.615	108.62
498.832	94.62
499.049	85.62
499.267	91.62
499.484	87.62
499.701	99.62
499.918	88.62
500.135	90.62
500.352	88.62
500.569	96.62
500.786	94.62
501.003	96.62
501.22	100.62
501.437	99.62
501.654	98.62
501.871	102.62
502.088	100.62
502.305	75.62
502.522	74.62
502.739	74.62
502.956	73.62
503.172	100.62
503.389	89.62
503.606	104.62
503.823	97.62
504.04	99.62
504.256	94.62
504.473	109.62
504.69	96.62
504.907	93.62
505.123	85.62
505.34	93.62
505.557	100.62
505.773	83.62
505.99	84.62
506.207	82.62
506.423	95.62
506.64	107.62
506.856	107.62
507.073	95.62
507.289	93.62
507.506	87.62
507.722	98.62
507.939	103.62
508.155	94.62
508.372	94.62
508.588	92.62
508.805	100.62
509.021	91.62
509.238	103.62
509.454	108.62
509.67	98.62
509.887	111.62
510.103	138.62
510.319	212.62
510.536	715.62
510.752	2187.62
510.968	601.62
511.184	145.62
511.401	98.62
511.617	99.62
511.833	88.62
512.049	89.62
512.265	94.62
512.481	96.62
512.698	96.62
512.914	107.62
513.13	99.62
513.346	85.62
513.562	70.62
513.778	91.62
513.994	75.62
514.21	102.62
514.426	108.62
514.642	122.62
514.858	131.62
515.074	167.62
515.29	418.62
515.506	1360.62
515.721	487.62
