Data from Uncirc_1987_H10_HRD10591_00018.txt Node
Date: Wed Jan 03 12:08:52 EST 2024
User: Yrep
Spectrometer: HR+D1059
Trigger mode: 1
Integration Time (sec): 1.000000E-1
Scans to average: 1
Electric dark correction enabled: true
Nonlinearity correction enabled: false
Boxcar width: 0
XAxis mode: Wavelengths
Number of Pixels in Spectrum: 2048
>>>>>Begin Spectral Data<<<<<
223.165	-8.75
223.4	-8.75
223.635	-8.75
223.869	-35.75
224.104	-23.75
224.338	-21.75
224.573	-16.75
224.808	8.25
225.042	-10.75
225.277	-8.75
225.511	-5.75
225.746	4.25
225.98	11.25
226.215	8.25
226.449	12.25
226.683	25.25
226.918	22.25
227.152	40.25
227.387	30.25
227.621	51.25
227.856	47.25
228.09	37.25
228.324	50.25
228.559	63.25
228.793	64.25
229.027	64.25
229.262	60.25
229.496	92.25
229.73	69.25
229.964	76.25
230.199	75.25
230.433	72.25
230.667	82.25
230.901	69.25
231.136	90.25
231.37	63.25
231.604	75.25
231.838	88.25
232.072	74.25
232.306	66.25
232.541	82.25
232.775	85.25
233.009	82.25
233.243	74.25
233.477	89.25
233.711	85.25
233.945	73.25
234.179	90.25
234.413	69.25
234.647	69.25
234.881	73.25
235.115	92.25
235.349	81.25
235.583	80.25
235.817	82.25
236.051	86.25
236.285	84.25
236.519	82.25
236.753	89.25
236.987	63.25
237.221	82.25
237.455	82.25
237.689	85.25
237.922	84.25
238.156	93.25
238.39	80.25
238.624	83.25
238.858	61.25
239.091	88.25
239.325	83.25
239.559	93.25
239.793	76.25
240.027	73.25
240.26	80.25
240.494	100.25
240.728	83.25
240.961	71.25
241.195	84.25
241.429	75.25
241.662	77.25
241.896	76.25
242.13	75.25
242.363	70.25
242.597	68.25
242.83	76.25
243.064	73.25
243.298	79.25
243.531	69.25
243.765	86.25
243.998	81.25
244.232	88.25
244.465	93.25
244.699	76.25
244.932	88.25
245.166	84.25
245.399	81.25
245.633	84.25
245.866	82.25
246.099	88.25
246.333	80.25
246.566	72.25
246.8	83.25
247.033	77.25
247.266	86.25
247.5	71.25
247.733	78.25
247.966	80.25
248.2	76.25
248.433	104.25
248.666	75.25
248.899	70.25
249.133	80.25
249.366	84.25
249.599	100.25
249.832	90.25
250.066	71.25
250.299	82.25
250.532	86.25
250.765	86.25
250.998	82.25
251.231	82.25
251.465	89.25
251.698	66.25
251.931	83.25
252.164	94.25
252.397	86.25
252.63	90.25
252.863	73.25
253.096	90.25
253.329	82.25
253.562	81.25
253.795	86.25
254.028	78.25
254.261	83.25
254.494	86.25
254.727	85.25
254.96	83.25
255.193	81.25
255.426	83.25
255.659	85.25
255.892	85.25
256.124	78.25
256.357	83.25
256.59	81.25
256.823	99.25
257.056	58.25
257.289	88.25
257.521	90.25
257.754	75.25
257.987	70.25
258.22	87.25
258.452	88.25
258.685	95.25
258.918	96.25
259.151	68.25
259.383	67.25
259.616	84.25
259.849	95.25
260.081	86.25
260.314	94.25
260.547	93.25
260.779	70.25
261.012	67.25
261.244	82.25
261.477	80.25
261.71	92.25
261.942	100.25
262.175	100.25
262.407	97.25
262.64	85.25
262.872	90.25
263.105	90.25
263.337	80.25
263.57	89.25
263.802	70.25
264.035	88.25
264.267	88.25
264.499	90.25
264.732	75.25
264.964	75.25
265.197	80.25
265.429	78.25
265.661	87.25
265.894	87.25
266.126	95.25
266.358	87.25
266.591	82.25
266.823	85.25
267.055	78.25
267.287	91.25
267.52	67.25
267.752	92.25
267.984	86.25
268.216	84.25
268.448	77.25
268.681	80.25
268.913	67.25
269.145	72.25
269.377	100.25
269.609	82.25
269.841	80.25
270.073	92.25
270.306	82.25
270.538	95.25
270.77	86.25
271.002	90.25
271.234	70.25
271.466	86.25
271.698	58.25
271.93	89.25
272.162	92.25
272.394	80.25
272.626	80.25
272.858	87.25
273.09	81.25
273.322	83.25
273.553	80.25
273.785	86.25
274.017	70.25
274.249	77.25
274.481	78.25
274.713	98.25
274.945	94.25
275.176	84.25
275.408	97.25
275.64	88.25
275.872	86.25
276.104	86.25
276.335	96.25
276.567	96.25
276.799	96.25
277.031	95.25
277.262	95.25
277.494	75.25
277.726	92.25
277.957	93.25
278.189	71.25
278.421	80.25
278.652	89.25
278.884	89.25
279.115	85.25
279.347	72.25
279.579	91.25
279.81	88.25
280.042	90.25
280.273	73.25
280.505	85.25
280.736	83.25
280.968	97.25
281.199	97.25
281.431	82.25
281.662	84.25
281.894	101.25
282.125	94.25
282.356	104.25
282.588	127.25
282.819	107.25
283.051	82.25
283.282	84.25
283.513	97.25
283.745	82.25
283.976	90.25
284.207	82.25
284.439	87.25
284.67	88.25
284.901	87.25
285.132	90.25
285.364	74.25
285.595	85.25
285.826	80.25
286.057	88.25
286.288	102.25
286.52	89.25
286.751	94.25
286.982	90.25
287.213	78.25
287.444	79.25
287.675	95.25
287.906	79.25
288.138	84.25
288.369	88.25
288.6	86.25
288.831	67.25
289.062	93.25
289.293	86.25
289.524	86.25
289.755	85.25
289.986	89.25
290.217	101.25
290.448	84.25
290.679	78.25
290.91	103.25
291.141	86.25
291.371	90.25
291.602	81.25
291.833	103.25
292.064	99.25
292.295	81.25
292.526	89.25
292.757	94.25
292.987	90.25
293.218	92.25
293.449	79.25
293.68	83.25
293.91	83.25
294.141	95.25
294.372	91.25
294.603	91.25
294.833	86.25
295.064	91.25
295.295	79.25
295.525	99.25
295.756	84.25
295.987	107.25
296.217	110.25
296.448	121.25
296.679	90.25
296.909	89.25
297.14	78.25
297.37	95.25
297.601	84.25
297.831	84.25
298.062	84.25
298.292	89.25
298.523	100.25
298.753	104.25
298.984	86.25
299.214	93.25
299.445	90.25
299.675	94.25
299.905	100.25
300.136	91.25
300.366	91.25
300.597	95.25
300.827	97.25
301.057	98.25
301.288	87.25
301.518	96.25
301.748	86.25
301.979	112.25
302.209	92.25
302.439	103.25
302.669	83.25
302.9	95.25
303.13	90.25
303.36	101.25
303.59	89.25
303.82	107.25
304.051	95.25
304.281	85.25
304.511	90.25
304.741	87.25
304.971	91.25
305.201	89.25
305.431	86.25
305.661	82.25
305.891	96.25
306.121	93.25
306.352	99.25
306.582	93.25
306.812	100.25
307.042	99.25
307.272	94.25
307.502	96.25
307.731	73.25
307.961	95.25
308.191	93.25
308.421	91.25
308.651	90.25
308.881	97.25
309.111	89.25
309.341	78.25
309.571	110.25
309.8	102.25
310.03	97.25
310.26	98.25
310.49	91.25
310.72	88.25
310.949	103.25
311.179	90.25
311.409	93.25
311.639	92.25
311.868	95.25
312.098	91.25
312.328	79.25
312.557	98.25
312.787	96.25
313.017	116.25
313.246	82.25
313.476	93.25
313.706	87.25
313.935	93.25
314.165	98.25
314.394	107.25
314.624	97.25
314.853	84.25
315.083	85.25
315.312	88.25
315.542	89.25
315.771	96.25
316.001	94.25
316.23	91.25
316.46	92.25
316.689	88.25
316.919	91.25
317.148	103.25
317.377	89.25
317.607	90.25
317.836	103.25
318.065	96.25
318.295	77.25
318.524	82.25
318.753	93.25
318.983	95.25
319.212	101.25
319.441	103.25
319.67	105.25
319.9	98.25
320.129	97.25
320.358	92.25
320.587	95.25
320.816	99.25
321.046	101.25
321.275	100.25
321.504	95.25
321.733	103.25
321.962	94.25
322.191	96.25
322.42	102.25
322.649	96.25
322.878	98.25
323.108	118.25
323.337	119.25
323.566	120.25
323.795	137.25
324.024	198.25
324.253	358.25
324.482	724.25
324.71	1445.25
324.939	1934.25
325.168	691.25
325.397	223.25
325.626	144.25
325.855	118.25
326.084	119.25
326.313	115.25
326.542	148.25
326.77	212.25
326.999	405.25
327.228	825.25
327.457	1508.25
327.686	1213.25
327.914	326.25
328.143	169.25
328.372	140.25
328.6	113.25
328.829	110.25
329.058	111.25
329.287	100.25
329.515	111.25
329.744	94.25
329.972	103.25
330.201	109.25
330.43	95.25
330.658	111.25
330.887	111.25
331.115	111.25
331.344	103.25
331.572	88.25
331.801	94.25
332.03	103.25
332.258	103.25
332.486	85.25
332.715	102.25
332.943	90.25
333.172	94.25
333.4	97.25
333.629	99.25
333.857	112.25
334.085	99.25
334.314	93.25
334.542	101.25
334.771	101.25
334.999	92.25
335.227	103.25
335.455	87.25
335.684	99.25
335.912	96.25
336.14	89.25
336.369	90.25
336.597	79.25
336.825	94.25
337.053	104.25
337.281	101.25
337.51	89.25
337.738	99.25
337.966	94.25
338.194	96.25
338.422	94.25
338.65	105.25
338.878	106.25
339.106	108.25
339.334	98.25
339.562	95.25
339.79	63.25
340.018	83.25
340.246	100.25
340.474	92.25
340.702	97.25
340.93	78.25
341.158	94.25
341.386	90.25
341.614	89.25
341.842	78.25
342.07	101.25
342.298	92.25
342.526	96.25
342.754	92.25
342.981	95.25
343.209	78.25
343.437	103.25
343.665	92.25
343.893	73.25
344.12	82.25
344.348	85.25
344.576	86.25
344.804	103.25
345.031	107.25
345.259	116.25
345.487	93.25
345.714	88.25
345.942	99.25
346.17	88.25
346.397	94.25
346.625	80.25
346.853	98.25
347.08	100.25
347.308	101.25
347.535	94.25
347.763	108.25
347.99	98.25
348.218	108.25
348.445	95.25
348.673	97.25
348.9	99.25
349.128	86.25
349.355	64.25
349.583	94.25
349.81	106.25
350.037	92.25
350.265	103.25
350.492	95.25
350.72	100.25
350.947	97.25
351.174	107.25
351.402	106.25
351.629	104.25
351.856	106.25
352.083	94.25
352.311	106.25
352.538	104.25
352.765	110.25
352.992	120.25
353.22	125.25
353.447	92.25
353.674	83.25
353.901	101.25
354.128	97.25
354.355	99.25
354.583	106.25
354.81	109.25
355.037	86.25
355.264	100.25
355.491	91.25
355.718	91.25
355.945	88.25
356.172	94.25
356.399	99.25
356.626	111.25
356.853	91.25
357.08	104.25
357.307	91.25
357.534	88.25
357.761	86.25
357.988	96.25
358.215	96.25
358.441	87.25
358.668	80.25
358.895	103.25
359.122	91.25
359.349	94.25
359.576	91.25
359.802	105.25
360.029	107.25
360.256	91.25
360.483	100.25
360.709	108.25
360.936	94.25
361.163	105.25
361.39	82.25
361.616	84.25
361.843	79.25
362.07	94.25
362.296	86.25
362.523	80.25
362.749	90.25
362.976	84.25
363.203	90.25
363.429	84.25
363.656	106.25
363.882	88.25
364.109	97.25
364.335	94.25
364.562	77.25
364.788	92.25
365.015	100.25
365.241	87.25
365.468	98.25
365.694	94.25
365.92	76.25
366.147	87.25
366.373	91.25
366.599	96.25
366.826	76.25
367.052	98.25
367.278	85.25
367.505	90.25
367.731	91.25
367.957	87.25
368.184	85.25
368.41	99.25
368.636	127.25
368.862	119.25
369.089	114.25
369.315	88.25
369.541	94.25
369.767	94.25
369.993	85.25
370.219	90.25
370.445	84.25
370.672	89.25
370.898	97.25
371.124	82.25
371.35	90.25
371.576	71.25
371.802	83.25
372.028	88.25
372.254	94.25
372.48	99.25
372.706	105.25
372.932	80.25
373.158	86.25
373.384	91.25
373.61	90.25
373.835	91.25
374.061	90.25
374.287	94.25
374.513	97.25
374.739	79.25
374.965	84.25
375.191	81.25
375.416	90.25
375.642	95.25
375.868	103.25
376.094	84.25
376.319	78.25
376.545	85.25
376.771	91.25
376.997	89.25
377.222	95.25
377.448	95.25
377.674	92.25
377.899	91.25
378.125	98.25
378.35	90.25
378.576	91.25
378.802	98.25
379.027	87.25
379.253	78.25
379.478	85.25
379.704	74.25
379.929	96.25
380.155	101.25
380.38	99.25
380.606	91.25
380.831	94.25
381.057	93.25
381.282	97.25
381.507	108.25
381.733	85.25
381.958	106.25
382.184	98.25
382.409	103.25
382.634	107.25
382.86	112.25
383.085	107.25
383.31	98.25
383.535	110.25
383.761	103.25
383.986	90.25
384.211	96.25
384.436	111.25
384.662	107.25
384.887	105.25
385.112	104.25
385.337	90.25
385.562	103.25
385.787	99.25
386.013	99.25
386.238	91.25
386.463	103.25
386.688	90.25
386.913	114.25
387.138	109.25
387.363	112.25
387.588	94.25
387.813	97.25
388.038	112.25
388.263	115.25
388.488	122.25
388.713	94.25
388.938	98.25
389.163	95.25
389.387	94.25
389.612	90.25
389.837	96.25
390.062	86.25
390.287	91.25
390.512	91.25
390.736	87.25
390.961	105.25
391.186	84.25
391.411	84.25
391.636	83.25
391.86	77.25
392.085	83.25
392.31	82.25
392.534	91.25
392.759	82.25
392.984	110.25
393.208	78.25
393.433	86.25
393.658	88.25
393.882	94.25
394.107	81.25
394.331	94.25
394.556	84.25
394.78	78.25
395.005	100.25
395.229	89.25
395.454	87.25
395.678	80.25
395.903	75.25
396.127	90.25
396.352	88.25
396.576	98.25
396.801	100.25
397.025	93.25
397.249	96.25
397.474	89.25
397.698	86.25
397.922	89.25
398.147	94.25
398.371	94.25
398.595	90.25
398.82	83.25
399.044	66.25
399.268	81.25
399.492	87.25
399.717	88.25
399.941	96.25
400.165	80.25
400.389	87.25
400.613	95.25
400.837	100.25
401.062	73.25
401.286	80.25
401.51	82.25
401.734	84.25
401.958	106.25
402.182	128.25
402.406	139.25
402.63	100.25
402.854	92.25
403.078	82.25
403.302	86.25
403.526	102.25
403.75	83.25
403.974	88.25
404.198	88.25
404.422	95.25
404.645	92.25
404.869	84.25
405.093	87.25
405.317	89.25
405.541	89.25
405.765	87.25
405.988	106.25
406.212	158.25
406.436	203.25
406.66	116.25
406.883	92.25
407.107	86.25
407.331	108.25
407.555	97.25
407.778	107.25
408.002	92.25
408.226	91.25
408.449	80.25
408.673	95.25
408.896	83.25
409.12	85.25
409.344	97.25
409.567	84.25
409.791	82.25
410.014	98.25
410.238	90.25
410.461	101.25
410.685	107.25
410.908	95.25
411.132	95.25
411.355	90.25
411.578	90.25
411.802	87.25
412.025	89.25
412.249	82.25
412.472	80.25
412.695	96.25
412.919	92.25
413.142	95.25
413.365	86.25
413.589	84.25
413.812	82.25
414.035	96.25
414.258	89.25
414.482	88.25
414.705	93.25
414.928	97.25
415.151	83.25
415.374	88.25
415.597	87.25
415.821	88.25
416.044	90.25
416.267	89.25
416.49	84.25
416.713	89.25
416.936	83.25
417.159	94.25
417.382	85.25
417.605	94.25
417.828	80.25
418.051	81.25
418.274	93.25
418.497	83.25
418.72	85.25
418.943	83.25
419.166	65.25
419.389	79.25
419.611	89.25
419.834	78.25
420.057	96.25
420.28	92.25
420.503	95.25
420.726	106.25
420.948	100.25
421.171	84.25
421.394	91.25
421.617	90.25
421.839	75.25
422.062	83.25
422.285	98.25
422.507	96.25
422.73	95.25
422.953	87.25
423.175	87.25
423.398	96.25
423.621	82.25
423.843	73.25
424.066	86.25
424.288	94.25
424.511	99.25
424.733	96.25
424.956	95.25
425.178	95.25
425.401	85.25
425.623	95.25
425.846	93.25
426.068	81.25
426.291	96.25
426.513	84.25
426.735	82.25
426.958	88.25
427.18	99.25
427.402	126.25
427.625	126.25
427.847	113.25
428.069	118.25
428.292	95.25
428.514	91.25
428.736	74.25
428.958	75.25
429.181	87.25
429.403	90.25
429.625	98.25
429.847	100.25
430.069	95.25
430.292	90.25
430.514	84.25
430.736	89.25
430.958	73.25
431.18	88.25
431.402	88.25
431.624	87.25
431.846	93.25
432.068	86.25
432.29	90.25
432.512	78.25
432.734	84.25
432.956	81.25
433.178	103.25
433.4	96.25
433.622	98.25
433.844	89.25
434.066	89.25
434.287	102.25
434.509	100.25
434.731	83.25
434.953	90.25
435.175	78.25
435.397	103.25
435.618	82.25
435.84	98.25
436.062	112.25
436.284	108.25
436.505	105.25
436.727	100.25
436.949	106.25
437.17	94.25
437.392	86.25
437.614	93.25
437.835	101.25
438.057	118.25
438.278	101.25
438.5	99.25
438.721	108.25
438.943	109.25
439.165	88.25
439.386	96.25
439.608	95.25
439.829	98.25
440.05	112.25
440.272	145.25
440.493	90.25
440.715	84.25
440.936	82.25
441.158	85.25
441.379	105.25
441.6	102.25
441.822	83.25
442.043	85.25
442.264	105.25
442.486	108.25
442.707	90.25
442.928	104.25
443.149	128.25
443.371	115.25
443.592	119.25
443.813	100.25
444.034	98.25
444.255	92.25
444.476	93.25
444.698	84.25
444.919	87.25
445.14	132.25
445.361	112.25
445.582	102.25
445.803	116.25
446.024	119.25
446.245	119.25
446.466	94.25
446.687	86.25
446.908	100.25
447.129	84.25
447.35	95.25
447.571	88.25
447.792	86.25
448.013	96.25
448.234	91.25
448.455	94.25
448.675	118.25
448.896	121.25
449.117	106.25
449.338	98.25
449.559	128.25
449.779	127.25
450	79.25
450.221	86.25
450.442	91.25
450.662	87.25
450.883	109.25
451.104	103.25
451.324	92.25
451.545	85.25
451.766	91.25
451.986	87.25
452.207	92.25
452.428	102.25
452.648	96.25
452.869	99.25
453.089	105.25
453.31	109.25
453.53	80.25
453.751	98.25
453.971	93.25
454.192	99.25
454.412	98.25
454.633	91.25
454.853	87.25
455.073	82.25
455.294	91.25
455.514	96.25
455.734	86.25
455.955	89.25
456.175	99.25
456.395	95.25
456.616	93.25
456.836	86.25
457.056	78.25
457.276	80.25
457.497	85.25
457.717	72.25
457.937	84.25
458.157	83.25
458.377	88.25
458.598	112.25
458.818	131.25
459.038	132.25
459.258	116.25
459.478	87.25
459.698	73.25
459.918	70.25
460.138	79.25
460.358	92.25
460.578	96.25
460.798	88.25
461.018	89.25
461.238	96.25
461.458	77.25
461.678	80.25
461.898	101.25
462.118	75.25
462.338	84.25
462.558	84.25
462.777	89.25
462.997	107.25
463.217	92.25
463.437	83.25
463.657	85.25
463.876	95.25
464.096	84.25
464.316	89.25
464.536	75.25
464.755	91.25
464.975	107.25
465.195	156.25
465.414	115.25
465.634	100.25
465.854	88.25
466.073	89.25
466.293	84.25
466.512	84.25
466.732	93.25
466.951	98.25
467.171	94.25
467.391	99.25
467.61	94.25
467.829	91.25
468.049	86.25
468.268	109.25
468.488	104.25
468.707	90.25
468.927	82.25
469.146	87.25
469.365	86.25
469.585	94.25
469.804	88.25
470.023	100.25
470.243	91.25
470.462	105.25
470.681	103.25
470.901	84.25
471.12	92.25
471.339	98.25
471.558	74.25
471.777	82.25
471.997	83.25
472.216	85.25
472.435	99.25
472.654	81.25
472.873	95.25
473.092	80.25
473.311	84.25
473.53	94.25
473.749	85.25
473.968	92.25
474.187	104.25
474.406	103.25
474.625	95.25
474.844	72.25
475.063	91.25
475.282	87.25
475.501	83.25
475.72	102.25
475.939	87.25
476.158	90.25
476.377	90.25
476.596	98.25
476.814	95.25
477.033	97.25
477.252	89.25
477.471	93.25
477.69	90.25
477.908	98.25
478.127	90.25
478.346	96.25
478.564	76.25
478.783	105.25
479.002	90.25
479.22	88.25
479.439	88.25
479.658	84.25
479.876	95.25
480.095	89.25
480.313	96.25
480.532	91.25
480.751	88.25
480.969	84.25
481.188	105.25
481.406	104.25
481.624	102.25
481.843	83.25
482.061	74.25
482.28	92.25
482.498	94.25
482.717	94.25
482.935	91.25
483.153	100.25
483.372	79.25
483.59	98.25
483.808	94.25
484.027	90.25
484.245	80.25
484.463	96.25
484.681	79.25
484.9	90.25
485.118	99.25
485.336	98.25
485.554	103.25
485.772	92.25
485.99	103.25
486.209	106.25
486.427	115.25
486.645	116.25
486.863	106.25
487.081	101.25
487.299	90.25
487.517	84.25
487.735	93.25
487.953	89.25
488.171	94.25
488.389	101.25
488.607	102.25
488.825	103.25
489.043	111.25
489.261	99.25
489.479	88.25
489.696	110.25
489.914	90.25
490.132	94.25
490.35	92.25
490.568	100.25
490.786	89.25
491.003	86.25
491.221	94.25
491.439	94.25
491.657	97.25
491.874	103.25
492.092	102.25
492.31	99.25
492.527	88.25
492.745	81.25
492.963	106.25
493.18	95.25
493.398	95.25
493.615	101.25
493.833	97.25
494.05	88.25
494.268	105.25
494.485	82.25
494.703	89.25
494.92	85.25
495.138	87.25
495.355	90.25
495.573	73.25
495.79	99.25
496.008	96.25
496.225	88.25
496.442	91.25
496.66	115.25
496.877	107.25
497.094	90.25
497.312	92.25
497.529	86.25
497.746	89.25
497.963	102.25
498.181	82.25
498.398	86.25
498.615	108.25
498.832	108.25
499.049	84.25
499.267	82.25
499.484	94.25
499.701	94.25
499.918	90.25
500.135	84.25
500.352	103.25
500.569	84.25
500.786	89.25
501.003	98.25
501.22	92.25
501.437	96.25
501.654	79.25
501.871	97.25
502.088	92.25
502.305	102.25
502.522	80.25
502.739	76.25
502.956	103.25
503.172	87.25
503.389	90.25
503.606	85.25
503.823	85.25
504.04	96.25
504.256	103.25
504.473	90.25
504.69	96.25
504.907	93.25
505.123	95.25
505.34	102.25
505.557	95.25
505.773	102.25
505.99	92.25
506.207	95.25
506.423	79.25
506.64	85.25
506.856	82.25
507.073	94.25
507.289	84.25
507.506	94.25
507.722	100.25
507.939	119.25
508.155	100.25
508.372	90.25
508.588	103.25
508.805	91.25
509.021	89.25
509.238	104.25
509.454	113.25
509.67	107.25
509.887	91.25
510.103	123.25
510.319	207.25
510.536	601.25
510.752	1913.25
510.968	549.25
511.184	142.25
511.401	107.25
511.617	106.25
511.833	94.25
512.049	89.25
512.265	85.25
512.481	96.25
512.698	97.25
512.914	93.25
513.13	88.25
513.346	90.25
513.562	86.25
513.778	88.25
513.994	96.25
514.21	101.25
514.426	120.25
514.642	128.25
514.858	122.25
515.074	166.25
515.29	352.25
515.506	1178.25
515.721	442.25
515.937	142.25
