Data from Uncirc_1987_H10_HRD10591_00099.txt Node
Date: Wed Jan 03 12:09:08 EST 2024
User: Yrep
Spectrometer: HR+D1059
Trigger mode: 1
Integration Time (sec): 1.000000E-1
Scans to average: 1
Electric dark correction enabled: true
Nonlinearity correction enabled: false
Boxcar width: 0
XAxis mode: Wavelengths
Number of Pixels in Spectrum: 2048
>>>>>Begin Spectral Data<<<<<
223.165	-2.81
223.4	-2.81
223.635	-2.81
223.869	-30.81
224.104	-20.81
224.338	-20.81
224.573	-4.81
224.808	-10.81
225.042	-17.81
225.277	3.19
225.511	-5.81
225.746	2.19
225.98	17.19
226.215	15.19
226.449	11.19
226.683	22.19
226.918	23.19
227.152	20.19
227.387	48.19
227.621	40.19
227.856	45.19
228.09	51.19
228.324	53.19
228.559	58.19
228.793	55.19
229.027	65.19
229.262	73.19
229.496	65.19
229.73	70.19
229.964	81.19
230.199	63.19
230.433	68.19
230.667	70.19
230.901	78.19
231.136	85.19
231.37	70.19
231.604	75.19
231.838	74.19
232.072	76.19
232.306	80.19
232.541	85.19
232.775	76.19
233.009	75.19
233.243	86.19
233.477	82.19
233.711	71.19
233.945	86.19
234.179	69.19
234.413	65.19
234.647	78.19
234.881	64.19
235.115	78.19
235.349	73.19
235.583	80.19
235.817	81.19
236.051	77.19
236.285	80.19
236.519	69.19
236.753	66.19
236.987	69.19
237.221	90.19
237.455	86.19
237.689	69.19
237.922	80.19
238.156	80.19
238.39	70.19
238.624	82.19
238.858	85.19
239.091	72.19
239.325	81.19
239.559	75.19
239.793	84.19
240.027	78.19
240.26	69.19
240.494	72.19
240.728	61.19
240.961	63.19
241.195	70.19
241.429	67.19
241.662	74.19
241.896	69.19
242.13	73.19
242.363	59.19
242.597	69.19
242.83	68.19
243.064	81.19
243.298	70.19
243.531	79.19
243.765	76.19
243.998	86.19
244.232	77.19
244.465	76.19
244.699	80.19
244.932	90.19
245.166	75.19
245.399	81.19
245.633	71.19
245.866	69.19
246.099	66.19
246.333	64.19
246.566	84.19
246.8	61.19
247.033	75.19
247.266	69.19
247.5	74.19
247.733	83.19
247.966	81.19
248.2	75.19
248.433	64.19
248.666	64.19
248.899	88.19
249.133	78.19
249.366	84.19
249.599	97.19
249.832	78.19
250.066	80.19
250.299	84.19
250.532	76.19
250.765	82.19
250.998	60.19
251.231	80.19
251.465	89.19
251.698	84.19
251.931	85.19
252.164	78.19
252.397	85.19
252.63	79.19
252.863	81.19
253.096	82.19
253.329	69.19
253.562	75.19
253.795	78.19
254.028	59.19
254.261	80.19
254.494	77.19
254.727	90.19
254.96	76.19
255.193	67.19
255.426	79.19
255.659	72.19
255.892	88.19
256.124	67.19
256.357	68.19
256.59	82.19
256.823	83.19
257.056	76.19
257.289	77.19
257.521	86.19
257.754	79.19
257.987	70.19
258.22	87.19
258.452	73.19
258.685	67.19
258.918	77.19
259.151	82.19
259.383	73.19
259.616	82.19
259.849	77.19
260.081	68.19
260.314	83.19
260.547	76.19
260.779	91.19
261.012	75.19
261.244	77.19
261.477	92.19
261.71	87.19
261.942	108.19
262.175	117.19
262.407	83.19
262.64	75.19
262.872	85.19
263.105	77.19
263.337	74.19
263.57	82.19
263.802	85.19
264.035	80.19
264.267	73.19
264.499	83.19
264.732	87.19
264.964	91.19
265.197	80.19
265.429	91.19
265.661	93.19
265.894	83.19
266.126	79.19
266.358	98.19
266.591	79.19
266.823	79.19
267.055	91.19
267.287	71.19
267.52	72.19
267.752	81.19
267.984	77.19
268.216	77.19
268.448	78.19
268.681	85.19
268.913	96.19
269.145	85.19
269.377	89.19
269.609	74.19
269.841	79.19
270.073	83.19
270.306	81.19
270.538	85.19
270.77	81.19
271.002	75.19
271.234	89.19
271.466	88.19
271.698	76.19
271.93	77.19
272.162	91.19
272.394	89.19
272.626	74.19
272.858	62.19
273.09	80.19
273.322	86.19
273.553	78.19
273.785	81.19
274.017	82.19
274.249	74.19
274.481	89.19
274.713	80.19
274.945	93.19
275.176	78.19
275.408	84.19
275.64	63.19
275.872	68.19
276.104	80.19
276.335	99.19
276.567	100.19
276.799	101.19
277.031	98.19
277.262	97.19
277.494	93.19
277.726	86.19
277.957	90.19
278.189	84.19
278.421	89.19
278.652	77.19
278.884	77.19
279.115	93.19
279.347	90.19
279.579	77.19
279.81	74.19
280.042	83.19
280.273	97.19
280.505	73.19
280.736	91.19
280.968	82.19
281.199	86.19
281.431	92.19
281.662	96.19
281.894	78.19
282.125	90.19
282.356	114.19
282.588	133.19
282.819	106.19
283.051	87.19
283.282	84.19
283.513	81.19
283.745	68.19
283.976	70.19
284.207	70.19
284.439	89.19
284.67	76.19
284.901	89.19
285.132	84.19
285.364	82.19
285.595	86.19
285.826	72.19
286.057	77.19
286.288	70.19
286.52	76.19
286.751	78.19
286.982	80.19
287.213	75.19
287.444	74.19
287.675	91.19
287.906	97.19
288.138	81.19
288.369	101.19
288.6	92.19
288.831	93.19
289.062	87.19
289.293	73.19
289.524	79.19
289.755	78.19
289.986	86.19
290.217	77.19
290.448	73.19
290.679	86.19
290.91	85.19
291.141	84.19
291.371	102.19
291.602	86.19
291.833	89.19
292.064	83.19
292.295	86.19
292.526	73.19
292.757	82.19
292.987	100.19
293.218	98.19
293.449	95.19
293.68	69.19
293.91	81.19
294.141	88.19
294.372	77.19
294.603	87.19
294.833	89.19
295.064	86.19
295.295	90.19
295.525	96.19
295.756	93.19
295.987	108.19
296.217	139.19
296.448	101.19
296.679	88.19
296.909	99.19
297.14	84.19
297.37	95.19
297.601	95.19
297.831	74.19
298.062	81.19
298.292	95.19
298.523	92.19
298.753	91.19
298.984	93.19
299.214	85.19
299.445	87.19
299.675	103.19
299.905	79.19
300.136	79.19
300.366	84.19
300.597	66.19
300.827	80.19
301.057	99.19
301.288	101.19
301.518	89.19
301.748	85.19
301.979	89.19
302.209	83.19
302.439	94.19
302.669	71.19
302.9	85.19
303.13	87.19
303.36	81.19
303.59	88.19
303.82	89.19
304.051	78.19
304.281	81.19
304.511	87.19
304.741	91.19
304.971	84.19
305.201	81.19
305.431	77.19
305.661	85.19
305.891	93.19
306.121	104.19
306.352	83.19
306.582	98.19
306.812	97.19
307.042	95.19
307.272	96.19
307.502	99.19
307.731	77.19
307.961	86.19
308.191	98.19
308.421	86.19
308.651	71.19
308.881	85.19
309.111	91.19
309.341	97.19
309.571	103.19
309.8	96.19
310.03	85.19
310.26	89.19
310.49	94.19
310.72	85.19
310.949	107.19
311.179	101.19
311.409	98.19
311.639	89.19
311.868	79.19
312.098	73.19
312.328	85.19
312.557	103.19
312.787	101.19
313.017	102.19
313.246	97.19
313.476	88.19
313.706	86.19
313.935	89.19
314.165	107.19
314.394	90.19
314.624	102.19
314.853	96.19
315.083	94.19
315.312	81.19
315.542	85.19
315.771	79.19
316.001	90.19
316.23	97.19
316.46	90.19
316.689	90.19
316.919	93.19
317.148	92.19
317.377	99.19
317.607	83.19
317.836	90.19
318.065	100.19
318.295	88.19
318.524	84.19
318.753	85.19
318.983	76.19
319.212	103.19
319.441	98.19
319.67	98.19
319.9	91.19
320.129	94.19
320.358	83.19
320.587	87.19
320.816	99.19
321.046	89.19
321.275	102.19
321.504	81.19
321.733	109.19
321.962	99.19
322.191	102.19
322.42	102.19
322.649	99.19
322.878	100.19
323.108	120.19
323.337	127.19
323.566	126.19
323.795	153.19
324.024	179.19
324.253	362.19
324.482	798.19
324.71	1644.19
324.939	2218.19
325.168	834.19
325.397	252.19
325.626	146.19
325.855	107.19
326.084	117.19
326.313	121.19
326.542	149.19
326.77	217.19
326.999	428.19
327.228	903.19
327.457	1724.19
327.686	1350.19
327.914	377.19
328.143	177.19
328.372	149.19
328.6	125.19
328.829	105.19
329.058	110.19
329.287	129.19
329.515	98.19
329.744	93.19
329.972	101.19
330.201	94.19
330.43	129.19
330.658	108.19
330.887	131.19
331.115	103.19
331.344	102.19
331.572	98.19
331.801	97.19
332.03	97.19
332.258	99.19
332.486	100.19
332.715	70.19
332.943	100.19
333.172	90.19
333.4	93.19
333.629	95.19
333.857	116.19
334.085	96.19
334.314	109.19
334.542	137.19
334.771	121.19
334.999	87.19
335.227	93.19
335.455	103.19
335.684	99.19
335.912	99.19
336.14	97.19
336.369	101.19
336.597	95.19
336.825	78.19
337.053	63.19
337.281	79.19
337.51	101.19
337.738	94.19
337.966	103.19
338.194	83.19
338.422	86.19
338.65	87.19
338.878	93.19
339.106	91.19
339.334	98.19
339.562	84.19
339.79	87.19
340.018	89.19
340.246	79.19
340.474	94.19
340.702	94.19
340.93	90.19
341.158	95.19
341.386	88.19
341.614	84.19
341.842	74.19
342.07	98.19
342.298	87.19
342.526	87.19
342.754	82.19
342.981	90.19
343.209	85.19
343.437	104.19
343.665	85.19
343.893	81.19
344.12	70.19
344.348	70.19
344.576	81.19
344.804	96.19
345.031	85.19
345.259	92.19
345.487	94.19
345.714	97.19
345.942	77.19
346.17	77.19
346.397	84.19
346.625	89.19
346.853	97.19
347.08	87.19
347.308	93.19
347.535	88.19
347.763	92.19
347.99	83.19
348.218	94.19
348.445	97.19
348.673	98.19
348.9	89.19
349.128	111.19
349.355	88.19
349.583	93.19
349.81	96.19
350.037	91.19
350.265	86.19
350.492	86.19
350.72	103.19
350.947	101.19
351.174	105.19
351.402	122.19
351.629	102.19
351.856	98.19
352.083	92.19
352.311	102.19
352.538	96.19
352.765	105.19
352.992	113.19
353.22	103.19
353.447	100.19
353.674	99.19
353.901	84.19
354.128	96.19
354.355	92.19
354.583	92.19
354.81	98.19
355.037	96.19
355.264	82.19
355.491	98.19
355.718	87.19
355.945	86.19
356.172	89.19
356.399	86.19
356.626	96.19
356.853	94.19
357.08	102.19
357.307	100.19
357.534	80.19
357.761	81.19
357.988	98.19
358.215	98.19
358.441	90.19
358.668	101.19
358.895	80.19
359.122	92.19
359.349	87.19
359.576	78.19
359.802	85.19
360.029	118.19
360.256	102.19
360.483	89.19
360.709	84.19
360.936	92.19
361.163	81.19
361.39	101.19
361.616	93.19
361.843	84.19
362.07	92.19
362.296	108.19
362.523	95.19
362.749	86.19
362.976	84.19
363.203	102.19
363.429	97.19
363.656	81.19
363.882	89.19
364.109	74.19
364.335	80.19
364.562	81.19
364.788	84.19
365.015	79.19
365.241	104.19
365.468	118.19
365.694	103.19
365.92	76.19
366.147	79.19
366.373	87.19
366.599	78.19
366.826	79.19
367.052	86.19
367.278	100.19
367.505	78.19
367.731	94.19
367.957	85.19
368.184	84.19
368.41	103.19
368.636	109.19
368.862	109.19
369.089	104.19
369.315	94.19
369.541	91.19
369.767	78.19
369.993	89.19
370.219	81.19
370.445	85.19
370.672	95.19
370.898	83.19
371.124	77.19
371.35	82.19
371.576	86.19
371.802	88.19
372.028	89.19
372.254	101.19
372.48	79.19
372.706	78.19
372.932	81.19
373.158	79.19
373.384	89.19
373.61	80.19
373.835	89.19
374.061	91.19
374.287	89.19
374.513	95.19
374.739	97.19
374.965	88.19
375.191	81.19
375.416	78.19
375.642	84.19
375.868	83.19
376.094	87.19
376.319	63.19
376.545	81.19
376.771	101.19
376.997	80.19
377.222	102.19
377.448	102.19
377.674	84.19
377.899	94.19
378.125	101.19
378.35	93.19
378.576	78.19
378.802	105.19
379.027	84.19
379.253	93.19
379.478	103.19
379.704	83.19
379.929	83.19
380.155	73.19
380.38	90.19
380.606	87.19
380.831	80.19
381.057	86.19
381.282	84.19
381.507	91.19
381.733	107.19
381.958	89.19
382.184	95.19
382.409	93.19
382.634	99.19
382.86	98.19
383.085	109.19
383.31	97.19
383.535	94.19
383.761	106.19
383.986	86.19
384.211	101.19
384.436	90.19
384.662	92.19
384.887	88.19
385.112	94.19
385.337	89.19
385.562	109.19
385.787	91.19
386.013	102.19
386.238	100.19
386.463	102.19
386.688	102.19
386.913	95.19
387.138	95.19
387.363	97.19
387.588	94.19
387.813	113.19
388.038	100.19
388.263	94.19
388.488	101.19
388.713	102.19
388.938	102.19
389.163	91.19
389.387	82.19
389.612	98.19
389.837	90.19
390.062	109.19
390.287	81.19
390.512	79.19
390.736	89.19
390.961	103.19
391.186	98.19
391.411	78.19
391.636	108.19
391.86	83.19
392.085	91.19
392.31	85.19
392.534	83.19
392.759	86.19
392.984	92.19
393.208	85.19
393.433	92.19
393.658	85.19
393.882	84.19
394.107	83.19
394.331	90.19
394.556	92.19
394.78	85.19
395.005	100.19
395.229	85.19
395.454	86.19
395.678	71.19
395.903	68.19
396.127	106.19
396.352	96.19
396.576	80.19
396.801	97.19
397.025	97.19
397.249	78.19
397.474	74.19
397.698	91.19
397.922	81.19
398.147	78.19
398.371	89.19
398.595	68.19
398.82	73.19
399.044	73.19
399.268	90.19
399.492	83.19
399.717	84.19
399.941	87.19
400.165	87.19
400.389	90.19
400.613	86.19
400.837	91.19
401.062	95.19
401.286	83.19
401.51	100.19
401.734	97.19
401.958	92.19
402.182	121.19
402.406	157.19
402.63	113.19
402.854	83.19
403.078	96.19
403.302	73.19
403.526	83.19
403.75	88.19
403.974	101.19
404.198	83.19
404.422	86.19
404.645	92.19
404.869	96.19
405.093	99.19
405.317	96.19
405.541	113.19
405.765	99.19
405.988	131.19
406.212	170.19
406.436	209.19
406.66	148.19
406.883	99.19
407.107	73.19
407.331	98.19
407.555	92.19
407.778	90.19
408.002	86.19
408.226	84.19
408.449	89.19
408.673	92.19
408.896	88.19
409.12	100.19
409.344	77.19
409.567	71.19
409.791	85.19
410.014	97.19
410.238	99.19
410.461	102.19
410.685	94.19
410.908	85.19
411.132	109.19
411.355	93.19
411.578	89.19
411.802	82.19
412.025	94.19
412.249	81.19
412.472	81.19
412.695	91.19
412.919	94.19
413.142	101.19
413.365	95.19
413.589	68.19
413.812	83.19
414.035	91.19
414.258	101.19
414.482	106.19
414.705	99.19
414.928	84.19
415.151	80.19
415.374	93.19
415.597	77.19
415.821	96.19
416.044	85.19
416.267	92.19
416.49	98.19
416.713	93.19
416.936	103.19
417.159	74.19
417.382	86.19
417.605	97.19
417.828	92.19
418.051	89.19
418.274	75.19
418.497	80.19
418.72	74.19
418.943	84.19
419.166	77.19
419.389	86.19
419.611	79.19
419.834	67.19
420.057	78.19
420.28	85.19
420.503	84.19
420.726	90.19
420.948	83.19
421.171	85.19
421.394	84.19
421.617	103.19
421.839	101.19
422.062	92.19
422.285	84.19
422.507	101.19
422.73	102.19
422.953	93.19
423.175	83.19
423.398	88.19
423.621	91.19
423.843	95.19
424.066	98.19
424.288	91.19
424.511	81.19
424.733	96.19
424.956	105.19
425.178	107.19
425.401	95.19
425.623	100.19
425.846	91.19
426.068	90.19
426.291	94.19
426.513	89.19
426.735	92.19
426.958	94.19
427.18	93.19
427.402	131.19
427.625	162.19
427.847	122.19
428.069	102.19
428.292	93.19
428.514	76.19
428.736	82.19
428.958	100.19
429.181	75.19
429.403	79.19
429.625	87.19
429.847	97.19
430.069	86.19
430.292	102.19
430.514	90.19
430.736	86.19
430.958	92.19
431.18	77.19
431.402	83.19
431.624	96.19
431.846	86.19
432.068	93.19
432.29	79.19
432.512	67.19
432.734	92.19
432.956	103.19
433.178	93.19
433.4	97.19
433.622	85.19
433.844	98.19
434.066	87.19
434.287	97.19
434.509	84.19
434.731	95.19
434.953	102.19
435.175	85.19
435.397	88.19
435.618	85.19
435.84	100.19
436.062	122.19
436.284	118.19
436.505	94.19
436.727	95.19
436.949	95.19
437.17	83.19
437.392	96.19
437.614	96.19
437.835	102.19
438.057	127.19
438.278	115.19
438.5	105.19
438.721	118.19
438.943	109.19
439.165	75.19
439.386	82.19
439.608	87.19
439.829	91.19
440.05	124.19
440.272	143.19
440.493	85.19
440.715	62.19
440.936	81.19
441.158	83.19
441.379	93.19
441.6	83.19
441.822	93.19
442.043	106.19
442.264	100.19
442.486	102.19
442.707	84.19
442.928	111.19
443.149	125.19
443.371	126.19
443.592	117.19
443.813	107.19
444.034	117.19
444.255	90.19
444.476	89.19
444.698	71.19
444.919	89.19
445.14	127.19
445.361	124.19
445.582	92.19
445.803	131.19
446.024	124.19
446.245	139.19
446.466	115.19
446.687	89.19
446.908	95.19
447.129	78.19
447.35	92.19
447.571	83.19
447.792	83.19
448.013	107.19
448.234	104.19
448.455	108.19
448.675	104.19
448.896	121.19
449.117	100.19
449.338	103.19
449.559	130.19
449.779	133.19
450	74.19
450.221	85.19
450.442	86.19
450.662	98.19
450.883	107.19
451.104	111.19
451.324	103.19
451.545	87.19
451.766	70.19
451.986	100.19
452.207	97.19
452.428	81.19
452.648	86.19
452.869	107.19
453.089	106.19
453.31	110.19
453.53	104.19
453.751	102.19
453.971	109.19
454.192	101.19
454.412	102.19
454.633	94.19
454.853	71.19
455.073	86.19
455.294	118.19
455.514	108.19
455.734	87.19
455.955	82.19
456.175	84.19
456.395	70.19
456.616	83.19
456.836	84.19
457.056	80.19
457.276	99.19
457.497	94.19
457.717	99.19
457.937	80.19
458.157	86.19
458.377	88.19
458.598	89.19
458.818	137.19
459.038	153.19
459.258	125.19
459.478	107.19
459.698	86.19
459.918	82.19
460.138	94.19
460.358	70.19
460.578	97.19
460.798	85.19
461.018	94.19
461.238	85.19
461.458	77.19
461.678	74.19
461.898	78.19
462.118	83.19
462.338	85.19
462.558	94.19
462.777	94.19
462.997	102.19
463.217	96.19
463.437	84.19
463.657	75.19
463.876	81.19
464.096	86.19
464.316	102.19
464.536	92.19
464.755	105.19
464.975	108.19
465.195	157.19
465.414	141.19
465.634	112.19
465.854	80.19
466.073	83.19
466.293	90.19
466.512	96.19
466.732	90.19
466.951	71.19
467.171	97.19
467.391	103.19
467.61	109.19
467.829	85.19
468.049	83.19
468.268	98.19
468.488	97.19
468.707	85.19
468.927	86.19
469.146	87.19
469.365	79.19
469.585	101.19
469.804	96.19
470.023	63.19
470.243	82.19
470.462	103.19
470.681	101.19
470.901	91.19
471.12	76.19
471.339	83.19
471.558	83.19
471.777	75.19
471.997	86.19
472.216	103.19
472.435	138.19
472.654	86.19
472.873	81.19
473.092	84.19
473.311	97.19
473.53	96.19
473.749	82.19
473.968	85.19
474.187	113.19
474.406	100.19
474.625	89.19
474.844	100.19
475.063	89.19
475.282	83.19
475.501	79.19
475.72	82.19
475.939	79.19
476.158	85.19
476.377	92.19
476.596	83.19
476.814	80.19
477.033	77.19
477.252	99.19
477.471	99.19
477.69	82.19
477.908	83.19
478.127	95.19
478.346	89.19
478.564	85.19
478.783	87.19
479.002	94.19
479.22	91.19
479.439	78.19
479.658	115.19
479.876	95.19
480.095	82.19
480.313	79.19
480.532	89.19
480.751	90.19
480.969	107.19
481.188	180.19
481.406	148.19
481.624	97.19
481.843	88.19
482.061	89.19
482.28	87.19
482.498	82.19
482.717	77.19
482.935	84.19
483.153	89.19
483.372	73.19
483.59	82.19
483.808	77.19
484.027	69.19
484.245	93.19
484.463	79.19
484.681	95.19
484.9	83.19
485.118	95.19
485.336	95.19
485.554	80.19
485.772	95.19
485.99	99.19
486.209	95.19
486.427	99.19
486.645	118.19
486.863	109.19
487.081	89.19
487.299	102.19
487.517	105.19
487.735	93.19
487.953	97.19
488.171	95.19
488.389	99.19
488.607	96.19
488.825	97.19
489.043	80.19
489.261	79.19
489.479	79.19
489.696	94.19
489.914	93.19
490.132	84.19
490.35	77.19
490.568	94.19
490.786	63.19
491.003	81.19
491.221	85.19
491.439	84.19
491.657	86.19
491.874	98.19
492.092	87.19
492.31	89.19
492.527	78.19
492.745	90.19
492.963	91.19
493.18	83.19
493.398	91.19
493.615	98.19
493.833	95.19
494.05	89.19
494.268	102.19
494.485	88.19
494.703	75.19
494.92	74.19
495.138	86.19
495.355	93.19
495.573	71.19
495.79	76.19
496.008	92.19
496.225	92.19
496.442	96.19
496.66	97.19
496.877	92.19
497.094	101.19
497.312	89.19
497.529	87.19
497.746	85.19
497.963	87.19
498.181	93.19
498.398	90.19
498.615	97.19
498.832	110.19
499.049	89.19
499.267	100.19
499.484	106.19
499.701	86.19
499.918	97.19
500.135	85.19
500.352	74.19
500.569	76.19
500.786	74.19
501.003	91.19
501.22	89.19
501.437	97.19
501.654	100.19
501.871	104.19
502.088	99.19
502.305	93.19
502.522	77.19
502.739	93.19
502.956	99.19
503.172	87.19
503.389	93.19
503.606	106.19
503.823	93.19
504.04	85.19
504.256	87.19
504.473	85.19
504.69	91.19
504.907	97.19
505.123	77.19
505.34	94.19
505.557	91.19
505.773	104.19
505.99	89.19
506.207	98.19
506.423	91.19
506.64	94.19
506.856	103.19
507.073	86.19
507.289	95.19
507.506	106.19
507.722	102.19
507.939	101.19
508.155	102.19
508.372	84.19
508.588	97.19
508.805	82.19
509.021	88.19
509.238	96.19
509.454	113.19
509.67	108.19
509.887	98.19
510.103	126.19
510.319	207.19
510.536	722.19
510.752	2302.19
510.968	627.19
511.184	131.19
511.401	120.19
511.617	105.19
511.833	108.19
512.049	92.19
512.265	84.19
512.481	84.19
512.698	81.19
512.914	93.19
513.13	97.19
513.346	97.19
513.562	95.19
513.778	90.19
513.994	102.19
514.21	106.19
514.426	114.19
514.642	140.19
514.858	129.19
515.074	145.19
515.29	417.19
515.506	1459.19
515.721	524.19
515.937	151.19
516.153	96.19
