Data from Uncirc_1987_H10_HRD10591_00057.txt Node
Date: Wed Jan 03 12:08:59 EST 2024
User: Yrep
Spectrometer: HR+D1059
Trigger mode: 1
Integration Time (sec): 1.000000E-1
Scans to average: 1
Electric dark correction enabled: true
Nonlinearity correction enabled: false
Boxcar width: 0
XAxis mode: Wavelengths
Number of Pixels in Spectrum: 2048
>>>>>Begin Spectral Data<<<<<
223.165	-15.38
223.4	-15.38
223.635	-15.38
223.869	-21.38
224.104	-32.38
224.338	-20.38
224.573	-9.38
224.808	-9.38
225.042	-8.38
225.277	-17.38
225.511	-7.38
225.746	1.62
225.98	10.62
226.215	12.62
226.449	23.62
226.683	22.62
226.918	30.62
227.152	39.62
227.387	29.62
227.621	36.62
227.856	48.62
228.09	37.62
228.324	48.62
228.559	68.62
228.793	52.62
229.027	63.62
229.262	64.62
229.496	68.62
229.73	100.62
229.964	93.62
230.199	66.62
230.433	79.62
230.667	77.62
230.901	70.62
231.136	62.62
231.37	81.62
231.604	85.62
231.838	98.62
232.072	82.62
232.306	96.62
232.541	85.62
232.775	87.62
233.009	84.62
233.243	66.62
233.477	84.62
233.711	80.62
233.945	72.62
234.179	85.62
234.413	79.62
234.647	87.62
234.881	71.62
235.115	77.62
235.349	89.62
235.583	66.62
235.817	79.62
236.051	73.62
236.285	75.62
236.519	93.62
236.753	82.62
236.987	87.62
237.221	92.62
237.455	77.62
237.689	85.62
237.922	84.62
238.156	83.62
238.39	58.62
238.624	73.62
238.858	73.62
239.091	82.62
239.325	59.62
239.559	89.62
239.793	84.62
240.027	85.62
240.26	72.62
240.494	82.62
240.728	83.62
240.961	79.62
241.195	83.62
241.429	67.62
241.662	73.62
241.896	79.62
242.13	87.62
242.363	84.62
242.597	76.62
242.83	69.62
243.064	83.62
243.298	90.62
243.531	73.62
243.765	86.62
243.998	74.62
244.232	80.62
244.465	81.62
244.699	80.62
244.932	84.62
245.166	75.62
245.399	97.62
245.633	84.62
245.866	66.62
246.099	73.62
246.333	86.62
246.566	80.62
246.8	81.62
247.033	79.62
247.266	76.62
247.5	70.62
247.733	86.62
247.966	82.62
248.2	90.62
248.433	84.62
248.666	73.62
248.899	74.62
249.133	85.62
249.366	90.62
249.599	96.62
249.832	88.62
250.066	86.62
250.299	86.62
250.532	87.62
250.765	75.62
250.998	92.62
251.231	75.62
251.465	87.62
251.698	93.62
251.931	84.62
252.164	95.62
252.397	83.62
252.63	87.62
252.863	74.62
253.096	76.62
253.329	81.62
253.562	97.62
253.795	92.62
254.028	76.62
254.261	79.62
254.494	89.62
254.727	85.62
254.96	76.62
255.193	81.62
255.426	85.62
255.659	86.62
255.892	103.62
256.124	71.62
256.357	88.62
256.59	90.62
256.823	70.62
257.056	75.62
257.289	79.62
257.521	68.62
257.754	85.62
257.987	89.62
258.22	99.62
258.452	89.62
258.685	73.62
258.918	86.62
259.151	85.62
259.383	83.62
259.616	73.62
259.849	80.62
260.081	93.62
260.314	76.62
260.547	73.62
260.779	72.62
261.012	86.62
261.244	75.62
261.477	88.62
261.71	108.62
261.942	119.62
262.175	130.62
262.407	87.62
262.64	91.62
262.872	86.62
263.105	91.62
263.337	75.62
263.57	97.62
263.802	91.62
264.035	69.62
264.267	74.62
264.499	92.62
264.732	97.62
264.964	78.62
265.197	88.62
265.429	83.62
265.661	91.62
265.894	98.62
266.126	85.62
266.358	91.62
266.591	72.62
266.823	79.62
267.055	87.62
267.287	86.62
267.52	79.62
267.752	87.62
267.984	84.62
268.216	91.62
268.448	85.62
268.681	94.62
268.913	89.62
269.145	75.62
269.377	80.62
269.609	71.62
269.841	97.62
270.073	82.62
270.306	89.62
270.538	90.62
270.77	89.62
271.002	82.62
271.234	88.62
271.466	104.62
271.698	93.62
271.93	99.62
272.162	83.62
272.394	91.62
272.626	98.62
272.858	90.62
273.09	93.62
273.322	91.62
273.553	105.62
273.785	82.62
274.017	82.62
274.249	79.62
274.481	86.62
274.713	98.62
274.945	95.62
275.176	83.62
275.408	82.62
275.64	87.62
275.872	85.62
276.104	90.62
276.335	99.62
276.567	119.62
276.799	93.62
277.031	103.62
277.262	95.62
277.494	74.62
277.726	91.62
277.957	88.62
278.189	79.62
278.421	93.62
278.652	88.62
278.884	86.62
279.115	90.62
279.347	82.62
279.579	75.62
279.81	90.62
280.042	87.62
280.273	95.62
280.505	68.62
280.736	77.62
280.968	104.62
281.199	93.62
281.431	99.62
281.662	99.62
281.894	93.62
282.125	111.62
282.356	102.62
282.588	134.62
282.819	98.62
283.051	89.62
283.282	93.62
283.513	88.62
283.745	84.62
283.976	112.62
284.207	93.62
284.439	80.62
284.67	87.62
284.901	88.62
285.132	88.62
285.364	92.62
285.595	104.62
285.826	100.62
286.057	83.62
286.288	84.62
286.52	97.62
286.751	103.62
286.982	87.62
287.213	92.62
287.444	90.62
287.675	101.62
287.906	91.62
288.138	102.62
288.369	99.62
288.6	109.62
288.831	100.62
289.062	106.62
289.293	84.62
289.524	89.62
289.755	85.62
289.986	66.62
290.217	90.62
290.448	90.62
290.679	91.62
290.91	96.62
291.141	93.62
291.371	82.62
291.602	91.62
291.833	105.62
292.064	95.62
292.295	89.62
292.526	99.62
292.757	100.62
292.987	75.62
293.218	82.62
293.449	84.62
293.68	103.62
293.91	103.62
294.141	97.62
294.372	90.62
294.603	86.62
294.833	90.62
295.064	87.62
295.295	79.62
295.525	96.62
295.756	108.62
295.987	127.62
296.217	113.62
296.448	122.62
296.679	89.62
296.909	97.62
297.14	87.62
297.37	85.62
297.601	92.62
297.831	75.62
298.062	101.62
298.292	89.62
298.523	84.62
298.753	83.62
298.984	111.62
299.214	100.62
299.445	99.62
299.675	114.62
299.905	84.62
300.136	98.62
300.366	79.62
300.597	90.62
300.827	97.62
301.057	113.62
301.288	122.62
301.518	88.62
301.748	96.62
301.979	105.62
302.209	88.62
302.439	83.62
302.669	77.62
302.9	85.62
303.13	91.62
303.36	82.62
303.59	95.62
303.82	98.62
304.051	92.62
304.281	75.62
304.511	93.62
304.741	80.62
304.971	95.62
305.201	88.62
305.431	98.62
305.661	87.62
305.891	88.62
306.121	83.62
306.352	94.62
306.582	119.62
306.812	105.62
307.042	94.62
307.272	99.62
307.502	80.62
307.731	101.62
307.961	92.62
308.191	96.62
308.421	81.62
308.651	86.62
308.881	97.62
309.111	106.62
309.341	98.62
309.571	95.62
309.8	97.62
310.03	90.62
310.26	89.62
310.49	104.62
310.72	118.62
310.949	111.62
311.179	87.62
311.409	89.62
311.639	85.62
311.868	101.62
312.098	104.62
312.328	89.62
312.557	97.62
312.787	84.62
313.017	99.62
313.246	96.62
313.476	99.62
313.706	95.62
313.935	96.62
314.165	83.62
314.394	95.62
314.624	99.62
314.853	100.62
315.083	96.62
315.312	92.62
315.542	88.62
315.771	93.62
316.001	87.62
316.23	102.62
316.46	83.62
316.689	81.62
316.919	100.62
317.148	104.62
317.377	108.62
317.607	107.62
317.836	96.62
318.065	94.62
318.295	101.62
318.524	82.62
318.753	95.62
318.983	100.62
319.212	111.62
319.441	109.62
319.67	103.62
319.9	96.62
320.129	82.62
320.358	92.62
320.587	88.62
320.816	86.62
321.046	101.62
321.275	103.62
321.504	86.62
321.733	87.62
321.962	92.62
322.191	97.62
322.42	99.62
322.649	112.62
322.878	105.62
323.108	113.62
323.337	120.62
323.566	137.62
323.795	150.62
324.024	193.62
324.253	332.62
324.482	776.62
324.71	1569.62
324.939	2047.62
325.168	767.62
325.397	230.62
325.626	127.62
325.855	116.62
326.084	116.62
326.313	131.62
326.542	144.62
326.77	211.62
326.999	435.62
327.228	895.62
327.457	1629.62
327.686	1235.62
327.914	349.62
328.143	188.62
328.372	138.62
328.6	129.62
328.829	130.62
329.058	127.62
329.287	122.62
329.515	101.62
329.744	100.62
329.972	88.62
330.201	114.62
330.43	127.62
330.658	117.62
330.887	132.62
331.115	109.62
331.344	102.62
331.572	107.62
331.801	118.62
332.03	102.62
332.258	87.62
332.486	92.62
332.715	96.62
332.943	92.62
333.172	98.62
333.4	107.62
333.629	106.62
333.857	114.62
334.085	105.62
334.314	100.62
334.542	91.62
334.771	118.62
334.999	100.62
335.227	95.62
335.455	106.62
335.684	99.62
335.912	96.62
336.14	99.62
336.369	99.62
336.597	106.62
336.825	83.62
337.053	92.62
337.281	94.62
337.51	91.62
337.738	93.62
337.966	94.62
338.194	93.62
338.422	100.62
338.65	94.62
338.878	104.62
339.106	101.62
339.334	89.62
339.562	85.62
339.79	84.62
340.018	94.62
340.246	102.62
340.474	100.62
340.702	74.62
340.93	101.62
341.158	79.62
341.386	93.62
341.614	99.62
341.842	80.62
342.07	94.62
342.298	92.62
342.526	83.62
342.754	95.62
342.981	96.62
343.209	80.62
343.437	105.62
343.665	91.62
343.893	81.62
344.12	104.62
344.348	95.62
344.576	95.62
344.804	101.62
345.031	103.62
345.259	95.62
345.487	103.62
345.714	87.62
345.942	99.62
346.17	105.62
346.397	96.62
346.625	95.62
346.853	93.62
347.08	99.62
347.308	112.62
347.535	100.62
347.763	99.62
347.99	103.62
348.218	92.62
348.445	93.62
348.673	106.62
348.9	86.62
349.128	103.62
349.355	88.62
349.583	92.62
349.81	91.62
350.037	95.62
350.265	90.62
350.492	86.62
350.72	97.62
350.947	103.62
351.174	112.62
351.402	119.62
351.629	112.62
351.856	106.62
352.083	99.62
352.311	105.62
352.538	106.62
352.765	101.62
352.992	109.62
353.22	117.62
353.447	97.62
353.674	93.62
353.901	84.62
354.128	95.62
354.355	102.62
354.583	101.62
354.81	99.62
355.037	102.62
355.264	87.62
355.491	96.62
355.718	100.62
355.945	98.62
356.172	88.62
356.399	88.62
356.626	100.62
356.853	79.62
357.08	81.62
357.307	98.62
357.534	91.62
357.761	101.62
357.988	88.62
358.215	90.62
358.441	92.62
358.668	100.62
358.895	98.62
359.122	95.62
359.349	102.62
359.576	101.62
359.802	106.62
360.029	104.62
360.256	96.62
360.483	95.62
360.709	90.62
360.936	109.62
361.163	101.62
361.39	97.62
361.616	86.62
361.843	84.62
362.07	100.62
362.296	96.62
362.523	105.62
362.749	98.62
362.976	97.62
363.203	92.62
363.429	96.62
363.656	84.62
363.882	84.62
364.109	71.62
364.335	103.62
364.562	89.62
364.788	98.62
365.015	91.62
365.241	89.62
365.468	101.62
365.694	108.62
365.92	88.62
366.147	89.62
366.373	97.62
366.599	92.62
366.826	79.62
367.052	102.62
367.278	89.62
367.505	87.62
367.731	99.62
367.957	84.62
368.184	87.62
368.41	81.62
368.636	104.62
368.862	123.62
369.089	116.62
369.315	99.62
369.541	98.62
369.767	88.62
369.993	83.62
370.219	87.62
370.445	76.62
370.672	76.62
370.898	92.62
371.124	97.62
371.35	84.62
371.576	85.62
371.802	92.62
372.028	86.62
372.254	100.62
372.48	87.62
372.706	93.62
372.932	91.62
373.158	99.62
373.384	92.62
373.61	97.62
373.835	93.62
374.061	75.62
374.287	101.62
374.513	90.62
374.739	93.62
374.965	81.62
375.191	88.62
375.416	85.62
375.642	89.62
375.868	95.62
376.094	89.62
376.319	97.62
376.545	91.62
376.771	91.62
376.997	90.62
377.222	88.62
377.448	93.62
377.674	92.62
377.899	90.62
378.125	95.62
378.35	97.62
378.576	104.62
378.802	68.62
379.027	101.62
379.253	113.62
379.478	87.62
379.704	97.62
379.929	105.62
380.155	89.62
380.38	89.62
380.606	107.62
380.831	93.62
381.057	90.62
381.282	83.62
381.507	93.62
381.733	101.62
381.958	104.62
382.184	91.62
382.409	84.62
382.634	104.62
382.86	93.62
383.085	100.62
383.31	110.62
383.535	110.62
383.761	105.62
383.986	99.62
384.211	100.62
384.436	97.62
384.662	107.62
384.887	102.62
385.112	104.62
385.337	100.62
385.562	103.62
385.787	101.62
386.013	107.62
386.238	106.62
386.463	101.62
386.688	94.62
386.913	95.62
387.138	108.62
387.363	102.62
387.588	112.62
387.813	88.62
388.038	83.62
388.263	99.62
388.488	101.62
388.713	99.62
388.938	100.62
389.163	84.62
389.387	85.62
389.612	96.62
389.837	99.62
390.062	88.62
390.287	106.62
390.512	95.62
390.736	104.62
390.961	76.62
391.186	105.62
391.411	113.62
391.636	83.62
391.86	89.62
392.085	89.62
392.31	96.62
392.534	88.62
392.759	90.62
392.984	83.62
393.208	93.62
393.433	86.62
393.658	82.62
393.882	70.62
394.107	94.62
394.331	104.62
394.556	98.62
394.78	87.62
395.005	96.62
395.229	97.62
395.454	100.62
395.678	87.62
395.903	85.62
396.127	91.62
396.352	80.62
396.576	76.62
396.801	96.62
397.025	97.62
397.249	75.62
397.474	99.62
397.698	89.62
397.922	79.62
398.147	83.62
398.371	84.62
398.595	93.62
398.82	86.62
399.044	84.62
399.268	80.62
399.492	90.62
399.717	85.62
399.941	80.62
400.165	87.62
400.389	93.62
400.613	80.62
400.837	91.62
401.062	97.62
401.286	75.62
401.51	94.62
401.734	92.62
401.958	83.62
402.182	127.62
402.406	152.62
402.63	115.62
402.854	90.62
403.078	81.62
403.302	68.62
403.526	75.62
403.75	81.62
403.974	86.62
404.198	84.62
404.422	87.62
404.645	86.62
404.869	87.62
405.093	97.62
405.317	101.62
405.541	112.62
405.765	99.62
405.988	113.62
406.212	152.62
406.436	234.62
406.66	141.62
406.883	106.62
407.107	104.62
407.331	93.62
407.555	113.62
407.778	90.62
408.002	90.62
408.226	90.62
408.449	91.62
408.673	85.62
408.896	111.62
409.12	93.62
409.344	89.62
409.567	79.62
409.791	108.62
410.014	89.62
410.238	96.62
410.461	83.62
410.685	104.62
410.908	91.62
411.132	95.62
411.355	99.62
411.578	103.62
411.802	95.62
412.025	91.62
412.249	81.62
412.472	98.62
412.695	96.62
412.919	93.62
413.142	81.62
413.365	99.62
413.589	91.62
413.812	90.62
414.035	75.62
414.258	86.62
414.482	92.62
414.705	109.62
414.928	105.62
415.151	93.62
415.374	95.62
415.597	85.62
415.821	106.62
416.044	90.62
416.267	87.62
416.49	91.62
416.713	95.62
416.936	65.62
417.159	95.62
417.382	83.62
417.605	93.62
417.828	96.62
418.051	81.62
418.274	96.62
418.497	86.62
418.72	94.62
418.943	96.62
419.166	88.62
419.389	82.62
419.611	92.62
419.834	99.62
420.057	87.62
420.28	76.62
420.503	84.62
420.726	83.62
420.948	102.62
421.171	106.62
421.394	86.62
421.617	105.62
421.839	93.62
422.062	87.62
422.285	91.62
422.507	107.62
422.73	109.62
422.953	71.62
423.175	90.62
423.398	96.62
423.621	86.62
423.843	91.62
424.066	83.62
424.288	84.62
424.511	97.62
424.733	103.62
424.956	103.62
425.178	84.62
425.401	102.62
425.623	103.62
425.846	81.62
426.068	98.62
426.291	92.62
426.513	76.62
426.735	93.62
426.958	91.62
427.18	104.62
427.402	131.62
427.625	156.62
427.847	123.62
428.069	106.62
428.292	76.62
428.514	101.62
428.736	100.62
428.958	79.62
429.181	85.62
429.403	98.62
429.625	97.62
429.847	87.62
430.069	104.62
430.292	97.62
430.514	87.62
430.736	91.62
430.958	75.62
431.18	79.62
431.402	78.62
431.624	84.62
431.846	88.62
432.068	84.62
432.29	86.62
432.512	83.62
432.734	97.62
432.956	104.62
433.178	103.62
433.4	93.62
433.622	90.62
433.844	85.62
434.066	87.62
434.287	112.62
434.509	92.62
434.731	96.62
434.953	90.62
435.175	93.62
435.397	95.62
435.618	91.62
435.84	111.62
436.062	124.62
436.284	104.62
436.505	111.62
436.727	88.62
436.949	97.62
437.17	92.62
437.392	89.62
437.614	99.62
437.835	105.62
438.057	111.62
438.278	103.62
438.5	102.62
438.721	106.62
438.943	117.62
439.165	92.62
439.386	97.62
439.608	96.62
439.829	111.62
440.05	115.62
440.272	137.62
440.493	95.62
440.715	83.62
440.936	92.62
441.158	83.62
441.379	95.62
441.6	100.62
441.822	98.62
442.043	101.62
442.264	112.62
442.486	100.62
442.707	100.62
442.928	101.62
443.149	108.62
443.371	113.62
443.592	103.62
443.813	113.62
444.034	120.62
444.255	89.62
444.476	91.62
444.698	96.62
444.919	85.62
445.14	131.62
445.361	127.62
445.582	113.62
445.803	127.62
446.024	128.62
446.245	136.62
446.466	111.62
446.687	92.62
446.908	104.62
447.129	106.62
447.35	81.62
447.571	109.62
447.792	92.62
448.013	90.62
448.234	116.62
448.455	104.62
448.675	96.62
448.896	109.62
449.117	94.62
449.338	109.62
449.559	129.62
449.779	140.62
450	93.62
450.221	94.62
450.442	80.62
450.662	83.62
450.883	96.62
451.104	108.62
451.324	102.62
451.545	99.62
451.766	81.62
451.986	96.62
452.207	88.62
452.428	88.62
452.648	87.62
452.869	99.62
453.089	99.62
453.31	110.62
453.53	112.62
453.751	92.62
453.971	108.62
454.192	95.62
454.412	113.62
454.633	90.62
454.853	97.62
455.073	87.62
455.294	107.62
455.514	106.62
455.734	100.62
455.955	91.62
456.175	93.62
456.395	88.62
456.616	75.62
456.836	96.62
457.056	94.62
457.276	91.62
457.497	85.62
457.717	81.62
457.937	75.62
458.157	83.62
458.377	82.62
458.598	109.62
458.818	132.62
459.038	140.62
459.258	103.62
459.478	82.62
459.698	79.62
459.918	84.62
460.138	83.62
460.358	90.62
460.578	93.62
460.798	82.62
461.018	85.62
461.238	90.62
461.458	97.62
461.678	106.62
461.898	89.62
462.118	86.62
462.338	88.62
462.558	80.62
462.777	90.62
462.997	95.62
463.217	74.62
463.437	89.62
463.657	92.62
463.876	100.62
464.096	96.62
464.316	92.62
464.536	91.62
464.755	91.62
464.975	106.62
465.195	140.62
465.414	159.62
465.634	93.62
465.854	94.62
466.073	87.62
466.293	85.62
466.512	85.62
466.732	88.62
466.951	85.62
467.171	106.62
467.391	93.62
467.61	90.62
467.829	84.62
468.049	83.62
468.268	100.62
468.488	89.62
468.707	96.62
468.927	95.62
469.146	89.62
469.365	92.62
469.585	104.62
469.804	101.62
470.023	93.62
470.243	87.62
470.462	100.62
470.681	97.62
470.901	87.62
471.12	89.62
471.339	79.62
471.558	91.62
471.777	83.62
471.997	83.62
472.216	106.62
472.435	105.62
472.654	77.62
472.873	84.62
473.092	88.62
473.311	88.62
473.53	87.62
473.749	97.62
473.968	92.62
474.187	106.62
474.406	105.62
474.625	96.62
474.844	95.62
475.063	93.62
475.282	100.62
475.501	84.62
475.72	97.62
475.939	71.62
476.158	91.62
476.377	85.62
476.596	83.62
476.814	92.62
477.033	91.62
477.252	89.62
477.471	87.62
477.69	79.62
477.908	99.62
478.127	96.62
478.346	98.62
478.564	83.62
478.783	92.62
479.002	99.62
479.22	95.62
479.439	91.62
479.658	109.62
479.876	94.62
480.095	97.62
480.313	115.62
480.532	99.62
480.751	96.62
480.969	102.62
481.188	123.62
481.406	102.62
481.624	109.62
481.843	84.62
482.061	92.62
482.28	72.62
482.498	104.62
482.717	87.62
482.935	86.62
483.153	86.62
483.372	104.62
483.59	85.62
483.808	104.62
484.027	99.62
484.245	92.62
484.463	90.62
484.681	96.62
484.9	100.62
485.118	84.62
485.336	88.62
485.554	93.62
485.772	104.62
485.99	99.62
486.209	91.62
486.427	92.62
486.645	95.62
486.863	109.62
487.081	91.62
487.299	94.62
487.517	97.62
487.735	98.62
487.953	78.62
488.171	97.62
488.389	97.62
488.607	106.62
488.825	90.62
489.043	99.62
489.261	93.62
489.479	93.62
489.696	83.62
489.914	88.62
490.132	86.62
490.35	101.62
490.568	81.62
490.786	107.62
491.003	68.62
491.221	95.62
491.439	92.62
491.657	87.62
491.874	107.62
492.092	92.62
492.31	96.62
492.527	93.62
492.745	91.62
492.963	96.62
493.18	89.62
493.398	93.62
493.615	82.62
493.833	103.62
494.05	82.62
494.268	91.62
494.485	103.62
494.703	101.62
494.92	76.62
495.138	86.62
495.355	95.62
495.573	84.62
495.79	97.62
496.008	99.62
496.225	88.62
496.442	105.62
496.66	75.62
496.877	97.62
497.094	103.62
497.312	94.62
497.529	74.62
497.746	95.62
497.963	75.62
498.181	100.62
498.398	99.62
498.615	113.62
498.832	98.62
499.049	103.62
499.267	98.62
499.484	85.62
499.701	91.62
499.918	91.62
500.135	85.62
500.352	99.62
500.569	94.62
500.786	81.62
501.003	90.62
501.22	91.62
501.437	83.62
501.654	88.62
501.871	103.62
502.088	95.62
502.305	86.62
502.522	96.62
502.739	107.62
502.956	93.62
503.172	69.62
503.389	97.62
503.606	103.62
503.823	103.62
504.04	101.62
504.256	113.62
504.473	91.62
504.69	84.62
504.907	83.62
505.123	96.62
505.34	83.62
505.557	90.62
505.773	91.62
505.99	90.62
506.207	101.62
506.423	85.62
506.64	87.62
506.856	88.62
507.073	90.62
507.289	87.62
507.506	99.62
507.722	107.62
507.939	103.62
508.155	93.62
508.372	82.62
508.588	91.62
508.805	96.62
509.021	102.62
509.238	93.62
509.454	103.62
509.67	89.62
509.887	109.62
510.103	124.62
510.319	192.62
510.536	655.62
510.752	2066.62
510.968	567.62
511.184	146.62
511.401	105.62
511.617	99.62
511.833	99.62
512.049	87.62
512.265	89.62
512.481	83.62
512.698	91.62
512.914	102.62
513.13	104.62
513.346	95.62
513.562	75.62
513.778	83.62
513.994	93.62
514.21	88.62
514.426	120.62
514.642	113.62
514.858	119.62
515.074	156.62
