Data from Uncirc_1987_H10_HRD10591_00027.txt Node
Date: Wed Jan 03 12:08:53 EST 2024
User: Yrep
Spectrometer: HR+D1059
Trigger mode: 1
Integration Time (sec): 1.000000E-1
Scans to average: 1
Electric dark correction enabled: true
Nonlinearity correction enabled: false
Boxcar width: 0
XAxis mode: Wavelengths
Number of Pixels in Spectrum: 2048
>>>>>Begin Spectral Data<<<<<
223.165	-22.06
223.4	-22.06
223.635	-22.06
223.869	-9.06
224.104	-13.06
224.338	-22.06
224.573	-22.06
224.808	-24.06
225.042	-13.06
225.277	-2.06
225.511	-1.06
225.746	-6.06
225.98	7.94
226.215	10.94
226.449	25.94
226.683	21.94
226.918	23.94
227.152	43.94
227.387	42.94
227.621	41.94
227.856	47.94
228.09	56.94
228.324	46.94
228.559	46.94
228.793	55.94
229.027	53.94
229.262	69.94
229.496	76.94
229.73	70.94
229.964	69.94
230.199	77.94
230.433	73.94
230.667	78.94
230.901	78.94
231.136	84.94
231.37	60.94
231.604	75.94
231.838	64.94
232.072	78.94
232.306	70.94
232.541	84.94
232.775	66.94
233.009	81.94
233.243	70.94
233.477	92.94
233.711	71.94
233.945	74.94
234.179	71.94
234.413	84.94
234.647	88.94
234.881	76.94
235.115	80.94
235.349	77.94
235.583	69.94
235.817	71.94
236.051	76.94
236.285	79.94
236.519	85.94
236.753	72.94
236.987	78.94
237.221	81.94
237.455	85.94
237.689	81.94
237.922	85.94
238.156	79.94
238.39	62.94
238.624	71.94
238.858	80.94
239.091	76.94
239.325	65.94
239.559	92.94
239.793	84.94
240.027	92.94
240.26	80.94
240.494	73.94
240.728	66.94
240.961	72.94
241.195	78.94
241.429	88.94
241.662	78.94
241.896	63.94
242.13	60.94
242.363	81.94
242.597	65.94
242.83	79.94
243.064	87.94
243.298	73.94
243.531	77.94
243.765	80.94
243.998	74.94
244.232	73.94
244.465	84.94
244.699	84.94
244.932	65.94
245.166	66.94
245.399	75.94
245.633	78.94
245.866	83.94
246.099	78.94
246.333	85.94
246.566	81.94
246.8	80.94
247.033	72.94
247.266	86.94
247.5	69.94
247.733	73.94
247.966	77.94
248.2	83.94
248.433	67.94
248.666	78.94
248.899	80.94
249.133	96.94
249.366	102.94
249.599	90.94
249.832	90.94
250.066	85.94
250.299	68.94
250.532	64.94
250.765	68.94
250.998	56.94
251.231	57.94
251.465	78.94
251.698	64.94
251.931	73.94
252.164	75.94
252.397	87.94
252.63	76.94
252.863	90.94
253.096	83.94
253.329	104.94
253.562	71.94
253.795	72.94
254.028	81.94
254.261	73.94
254.494	77.94
254.727	85.94
254.96	84.94
255.193	87.94
255.426	79.94
255.659	87.94
255.892	84.94
256.124	81.94
256.357	81.94
256.59	77.94
256.823	81.94
257.056	89.94
257.289	77.94
257.521	80.94
257.754	76.94
257.987	83.94
258.22	76.94
258.452	78.94
258.685	78.94
258.918	73.94
259.151	90.94
259.383	79.94
259.616	81.94
259.849	71.94
260.081	67.94
260.314	80.94
260.547	69.94
260.779	77.94
261.012	80.94
261.244	70.94
261.477	88.94
261.71	87.94
261.942	117.94
262.175	106.94
262.407	81.94
262.64	71.94
262.872	77.94
263.105	87.94
263.337	77.94
263.57	78.94
263.802	89.94
264.035	83.94
264.267	82.94
264.499	70.94
264.732	78.94
264.964	87.94
265.197	78.94
265.429	71.94
265.661	82.94
265.894	74.94
266.126	94.94
266.358	76.94
266.591	92.94
266.823	94.94
267.055	85.94
267.287	91.94
267.52	74.94
267.752	80.94
267.984	82.94
268.216	74.94
268.448	81.94
268.681	76.94
268.913	98.94
269.145	88.94
269.377	71.94
269.609	89.94
269.841	85.94
270.073	83.94
270.306	88.94
270.538	88.94
270.77	88.94
271.002	92.94
271.234	73.94
271.466	91.94
271.698	88.94
271.93	80.94
272.162	78.94
272.394	92.94
272.626	92.94
272.858	84.94
273.09	79.94
273.322	88.94
273.553	87.94
273.785	84.94
274.017	73.94
274.249	102.94
274.481	91.94
274.713	85.94
274.945	104.94
275.176	72.94
275.408	94.94
275.64	92.94
275.872	78.94
276.104	89.94
276.335	89.94
276.567	88.94
276.799	98.94
277.031	84.94
277.262	81.94
277.494	94.94
277.726	85.94
277.957	64.94
278.189	68.94
278.421	89.94
278.652	76.94
278.884	101.94
279.115	88.94
279.347	86.94
279.579	79.94
279.81	96.94
280.042	84.94
280.273	90.94
280.505	92.94
280.736	87.94
280.968	92.94
281.199	89.94
281.431	88.94
281.662	85.94
281.894	92.94
282.125	93.94
282.356	109.94
282.588	135.94
282.819	105.94
283.051	88.94
283.282	92.94
283.513	85.94
283.745	80.94
283.976	76.94
284.207	85.94
284.439	82.94
284.67	87.94
284.901	83.94
285.132	87.94
285.364	93.94
285.595	86.94
285.826	103.94
286.057	81.94
286.288	72.94
286.52	92.94
286.751	84.94
286.982	76.94
287.213	89.94
287.444	89.94
287.675	75.94
287.906	87.94
288.138	79.94
288.369	88.94
288.6	92.94
288.831	86.94
289.062	91.94
289.293	84.94
289.524	99.94
289.755	97.94
289.986	76.94
290.217	88.94
290.448	90.94
290.679	74.94
290.91	94.94
291.141	77.94
291.371	78.94
291.602	95.94
291.833	85.94
292.064	78.94
292.295	82.94
292.526	91.94
292.757	90.94
292.987	85.94
293.218	79.94
293.449	88.94
293.68	86.94
293.91	82.94
294.141	80.94
294.372	74.94
294.603	74.94
294.833	81.94
295.064	102.94
295.295	101.94
295.525	108.94
295.756	90.94
295.987	117.94
296.217	112.94
296.448	116.94
296.679	89.94
296.909	111.94
297.14	90.94
297.37	97.94
297.601	76.94
297.831	99.94
298.062	95.94
298.292	95.94
298.523	78.94
298.753	92.94
298.984	90.94
299.214	89.94
299.445	96.94
299.675	84.94
299.905	87.94
300.136	80.94
300.366	83.94
300.597	92.94
300.827	89.94
301.057	98.94
301.288	99.94
301.518	104.94
301.748	88.94
301.979	97.94
302.209	76.94
302.439	97.94
302.669	89.94
302.9	79.94
303.13	84.94
303.36	101.94
303.59	96.94
303.82	97.94
304.051	87.94
304.281	95.94
304.511	84.94
304.741	93.94
304.971	86.94
305.201	100.94
305.431	95.94
305.661	92.94
305.891	86.94
306.121	93.94
306.352	93.94
306.582	103.94
306.812	81.94
307.042	98.94
307.272	98.94
307.502	92.94
307.731	94.94
307.961	91.94
308.191	89.94
308.421	96.94
308.651	89.94
308.881	85.94
309.111	76.94
309.341	88.94
309.571	104.94
309.8	95.94
310.03	78.94
310.26	92.94
310.49	88.94
310.72	87.94
310.949	108.94
311.179	98.94
311.409	100.94
311.639	89.94
311.868	89.94
312.098	94.94
312.328	97.94
312.557	96.94
312.787	100.94
313.017	110.94
313.246	102.94
313.476	88.94
313.706	103.94
313.935	86.94
314.165	80.94
314.394	83.94
314.624	98.94
314.853	102.94
315.083	103.94
315.312	86.94
315.542	82.94
315.771	93.94
316.001	86.94
316.23	84.94
316.46	89.94
316.689	80.94
316.919	89.94
317.148	92.94
317.377	93.94
317.607	87.94
317.836	85.94
318.065	89.94
318.295	94.94
318.524	94.94
318.753	104.94
318.983	86.94
319.212	94.94
319.441	95.94
319.67	110.94
319.9	90.94
320.129	83.94
320.358	102.94
320.587	95.94
320.816	100.94
321.046	98.94
321.275	96.94
321.504	95.94
321.733	107.94
321.962	104.94
322.191	110.94
322.42	96.94
322.649	99.94
322.878	120.94
323.108	111.94
323.337	121.94
323.566	132.94
323.795	163.94
324.024	208.94
324.253	373.94
324.482	792.94
324.71	1679.94
324.939	2228.94
325.168	804.94
325.397	245.94
325.626	135.94
325.855	138.94
326.084	130.94
326.313	126.94
326.542	157.94
326.77	210.94
326.999	426.94
327.228	988.94
327.457	1734.94
327.686	1340.94
327.914	358.94
328.143	180.94
328.372	156.94
328.6	127.94
328.829	105.94
329.058	119.94
329.287	120.94
329.515	107.94
329.744	106.94
329.972	108.94
330.201	98.94
330.43	99.94
330.658	118.94
330.887	124.94
331.115	102.94
331.344	96.94
331.572	102.94
331.801	94.94
332.03	97.94
332.258	102.94
332.486	99.94
332.715	89.94
332.943	96.94
333.172	102.94
333.4	102.94
333.629	91.94
333.857	110.94
334.085	96.94
334.314	96.94
334.542	87.94
334.771	97.94
334.999	99.94
335.227	101.94
335.455	103.94
335.684	94.94
335.912	84.94
336.14	112.94
336.369	112.94
336.597	87.94
336.825	100.94
337.053	101.94
337.281	91.94
337.51	93.94
337.738	97.94
337.966	89.94
338.194	110.94
338.422	101.94
338.65	94.94
338.878	89.94
339.106	101.94
339.334	98.94
339.562	94.94
339.79	74.94
340.018	85.94
340.246	88.94
340.474	101.94
340.702	101.94
340.93	88.94
341.158	98.94
341.386	96.94
341.614	101.94
341.842	100.94
342.07	71.94
342.298	85.94
342.526	103.94
342.754	78.94
342.981	88.94
343.209	96.94
343.437	96.94
343.665	85.94
343.893	93.94
344.12	82.94
344.348	92.94
344.576	88.94
344.804	84.94
345.031	100.94
345.259	104.94
345.487	103.94
345.714	100.94
345.942	86.94
346.17	88.94
346.397	79.94
346.625	102.94
346.853	98.94
347.08	87.94
347.308	99.94
347.535	97.94
347.763	72.94
347.99	101.94
348.218	101.94
348.445	98.94
348.673	102.94
348.9	112.94
349.128	88.94
349.355	98.94
349.583	95.94
349.81	95.94
350.037	100.94
350.265	87.94
350.492	79.94
350.72	98.94
350.947	100.94
351.174	94.94
351.402	100.94
351.629	93.94
351.856	101.94
352.083	86.94
352.311	108.94
352.538	99.94
352.765	118.94
352.992	106.94
353.22	100.94
353.447	98.94
353.674	102.94
353.901	92.94
354.128	96.94
354.355	95.94
354.583	98.94
354.81	100.94
355.037	88.94
355.264	87.94
355.491	95.94
355.718	95.94
355.945	79.94
356.172	82.94
356.399	103.94
356.626	88.94
356.853	82.94
357.08	92.94
357.307	82.94
357.534	93.94
357.761	99.94
357.988	100.94
358.215	91.94
358.441	102.94
358.668	95.94
358.895	94.94
359.122	81.94
359.349	101.94
359.576	85.94
359.802	97.94
360.029	111.94
360.256	92.94
360.483	87.94
360.709	93.94
360.936	99.94
361.163	86.94
361.39	85.94
361.616	103.94
361.843	86.94
362.07	98.94
362.296	82.94
362.523	93.94
362.749	95.94
362.976	92.94
363.203	94.94
363.429	87.94
363.656	94.94
363.882	99.94
364.109	95.94
364.335	82.94
364.562	85.94
364.788	84.94
365.015	95.94
365.241	101.94
365.468	114.94
365.694	115.94
365.92	110.94
366.147	101.94
366.373	66.94
366.599	94.94
366.826	97.94
367.052	88.94
367.278	87.94
367.505	86.94
367.731	82.94
367.957	91.94
368.184	96.94
368.41	95.94
368.636	113.94
368.862	105.94
369.089	108.94
369.315	94.94
369.541	96.94
369.767	93.94
369.993	92.94
370.219	82.94
370.445	91.94
370.672	81.94
370.898	102.94
371.124	85.94
371.35	87.94
371.576	88.94
371.802	72.94
372.028	81.94
372.254	90.94
372.48	76.94
372.706	73.94
372.932	85.94
373.158	95.94
373.384	101.94
373.61	91.94
373.835	94.94
374.061	86.94
374.287	89.94
374.513	82.94
374.739	96.94
374.965	93.94
375.191	92.94
375.416	95.94
375.642	82.94
375.868	83.94
376.094	84.94
376.319	89.94
376.545	90.94
376.771	86.94
376.997	96.94
377.222	93.94
377.448	91.94
377.674	98.94
377.899	91.94
378.125	84.94
378.35	89.94
378.576	96.94
378.802	89.94
379.027	99.94
379.253	85.94
379.478	89.94
379.704	93.94
379.929	92.94
380.155	105.94
380.38	100.94
380.606	91.94
380.831	89.94
381.057	103.94
381.282	100.94
381.507	89.94
381.733	95.94
381.958	97.94
382.184	89.94
382.409	102.94
382.634	101.94
382.86	96.94
383.085	103.94
383.31	103.94
383.535	91.94
383.761	93.94
383.986	105.94
384.211	91.94
384.436	101.94
384.662	85.94
384.887	98.94
385.112	108.94
385.337	93.94
385.562	91.94
385.787	106.94
386.013	98.94
386.238	103.94
386.463	108.94
386.688	101.94
386.913	97.94
387.138	96.94
387.363	97.94
387.588	90.94
387.813	98.94
388.038	111.94
388.263	92.94
388.488	88.94
388.713	87.94
388.938	98.94
389.163	86.94
389.387	85.94
389.612	96.94
389.837	66.94
390.062	97.94
390.287	81.94
390.512	80.94
390.736	84.94
390.961	89.94
391.186	97.94
391.411	97.94
391.636	82.94
391.86	95.94
392.085	88.94
392.31	65.94
392.534	78.94
392.759	86.94
392.984	84.94
393.208	81.94
393.433	83.94
393.658	88.94
393.882	89.94
394.107	70.94
394.331	90.94
394.556	88.94
394.78	81.94
395.005	89.94
395.229	83.94
395.454	90.94
395.678	82.94
395.903	72.94
396.127	100.94
396.352	86.94
396.576	76.94
396.801	80.94
397.025	78.94
397.249	76.94
397.474	86.94
397.698	93.94
397.922	94.94
398.147	87.94
398.371	78.94
398.595	89.94
398.82	77.94
399.044	89.94
399.268	76.94
399.492	80.94
399.717	88.94
399.941	81.94
400.165	84.94
400.389	83.94
400.613	86.94
400.837	88.94
401.062	94.94
401.286	97.94
401.51	86.94
401.734	93.94
401.958	103.94
402.182	115.94
402.406	142.94
402.63	98.94
402.854	87.94
403.078	69.94
403.302	82.94
403.526	90.94
403.75	107.94
403.974	85.94
404.198	77.94
404.422	72.94
404.645	93.94
404.869	81.94
405.093	91.94
405.317	102.94
405.541	90.94
405.765	98.94
405.988	103.94
406.212	138.94
406.436	196.94
406.66	131.94
406.883	101.94
407.107	96.94
407.331	102.94
407.555	89.94
407.778	90.94
408.002	89.94
408.226	95.94
408.449	87.94
408.673	85.94
408.896	94.94
409.12	77.94
409.344	93.94
409.567	90.94
409.791	95.94
410.014	102.94
410.238	104.94
410.461	95.94
410.685	90.94
410.908	100.94
411.132	89.94
411.355	88.94
411.578	109.94
411.802	96.94
412.025	80.94
412.249	92.94
412.472	92.94
412.695	82.94
412.919	86.94
413.142	91.94
413.365	84.94
413.589	96.94
413.812	84.94
414.035	89.94
414.258	90.94
414.482	80.94
414.705	91.94
414.928	92.94
415.151	92.94
415.374	88.94
415.597	91.94
415.821	86.94
416.044	93.94
416.267	83.94
416.49	76.94
416.713	79.94
416.936	97.94
417.159	91.94
417.382	89.94
417.605	80.94
417.828	109.94
418.051	87.94
418.274	93.94
418.497	88.94
418.72	89.94
418.943	81.94
419.166	79.94
419.389	103.94
419.611	99.94
419.834	74.94
420.057	96.94
420.28	82.94
420.503	81.94
420.726	95.94
420.948	93.94
421.171	92.94
421.394	89.94
421.617	82.94
421.839	94.94
422.062	100.94
422.285	92.94
422.507	105.94
422.73	102.94
422.953	95.94
423.175	92.94
423.398	86.94
423.621	80.94
423.843	83.94
424.066	76.94
424.288	83.94
424.511	98.94
424.733	103.94
424.956	112.94
425.178	104.94
425.401	93.94
425.623	93.94
425.846	91.94
426.068	108.94
426.291	70.94
426.513	85.94
426.735	94.94
426.958	87.94
427.18	100.94
427.402	137.94
427.625	147.94
427.847	121.94
428.069	92.94
428.292	78.94
428.514	75.94
428.736	92.94
428.958	76.94
429.181	69.94
429.403	73.94
429.625	73.94
429.847	89.94
430.069	97.94
430.292	95.94
430.514	86.94
430.736	74.94
430.958	86.94
431.18	94.94
431.402	77.94
431.624	69.94
431.846	95.94
432.068	84.94
432.29	86.94
432.512	93.94
432.734	83.94
432.956	87.94
433.178	91.94
433.4	89.94
433.622	92.94
433.844	91.94
434.066	83.94
434.287	97.94
434.509	85.94
434.731	93.94
434.953	74.94
435.175	90.94
435.397	93.94
435.618	72.94
435.84	105.94
436.062	105.94
436.284	118.94
436.505	100.94
436.727	103.94
436.949	85.94
437.17	88.94
437.392	82.94
437.614	108.94
437.835	106.94
438.057	108.94
438.278	102.94
438.5	108.94
438.721	122.94
438.943	98.94
439.165	88.94
439.386	72.94
439.608	85.94
439.829	104.94
440.05	121.94
440.272	137.94
440.493	96.94
440.715	84.94
440.936	81.94
441.158	80.94
441.379	80.94
441.6	85.94
441.822	97.94
442.043	86.94
442.264	104.94
442.486	100.94
442.707	86.94
442.928	101.94
443.149	107.94
443.371	112.94
443.592	119.94
443.813	120.94
444.034	97.94
444.255	105.94
444.476	81.94
444.698	103.94
444.919	82.94
445.14	136.94
445.361	124.94
445.582	109.94
445.803	125.94
446.024	143.94
446.245	133.94
446.466	96.94
446.687	80.94
446.908	92.94
447.129	65.94
447.35	89.94
447.571	71.94
447.792	86.94
448.013	98.94
448.234	100.94
448.455	114.94
448.675	100.94
448.896	107.94
449.117	92.94
449.338	99.94
449.559	125.94
449.779	110.94
450	97.94
450.221	94.94
450.442	86.94
450.662	99.94
450.883	104.94
451.104	99.94
451.324	93.94
451.545	85.94
451.766	80.94
451.986	76.94
452.207	88.94
452.428	96.94
452.648	100.94
452.869	110.94
453.089	106.94
453.31	98.94
453.53	104.94
453.751	88.94
453.971	83.94
454.192	95.94
454.412	99.94
454.633	90.94
454.853	84.94
455.073	80.94
455.294	86.94
455.514	88.94
455.734	82.94
455.955	89.94
456.175	58.94
456.395	78.94
456.616	84.94
456.836	72.94
457.056	66.94
457.276	77.94
457.497	74.94
457.717	97.94
457.937	86.94
458.157	78.94
458.377	90.94
458.598	99.94
458.818	140.94
459.038	154.94
459.258	94.94
459.478	80.94
459.698	91.94
459.918	72.94
460.138	88.94
460.358	90.94
460.578	79.94
460.798	94.94
461.018	100.94
461.238	90.94
461.458	83.94
461.678	84.94
461.898	86.94
462.118	84.94
462.338	78.94
462.558	77.94
462.777	80.94
462.997	86.94
463.217	86.94
463.437	94.94
463.657	92.94
463.876	82.94
464.096	102.94
464.316	88.94
464.536	103.94
464.755	92.94
464.975	92.94
465.195	141.94
465.414	147.94
465.634	89.94
465.854	76.94
466.073	92.94
466.293	86.94
466.512	83.94
466.732	84.94
466.951	86.94
467.171	89.94
467.391	88.94
467.61	97.94
467.829	103.94
468.049	86.94
468.268	89.94
468.488	76.94
468.707	79.94
468.927	84.94
469.146	92.94
469.365	73.94
469.585	88.94
469.804	86.94
470.023	98.94
470.243	91.94
470.462	97.94
470.681	95.94
470.901	88.94
471.12	82.94
471.339	87.94
471.558	92.94
471.777	87.94
471.997	88.94
472.216	95.94
472.435	86.94
472.654	98.94
472.873	92.94
473.092	95.94
473.311	106.94
473.53	93.94
473.749	73.94
473.968	96.94
474.187	102.94
474.406	91.94
474.625	78.94
474.844	91.94
475.063	76.94
475.282	92.94
475.501	73.94
475.72	82.94
475.939	84.94
476.158	85.94
476.377	93.94
476.596	88.94
476.814	79.94
477.033	82.94
477.252	94.94
477.471	79.94
477.69	84.94
477.908	82.94
478.127	76.94
478.346	75.94
478.564	92.94
478.783	78.94
479.002	89.94
479.22	98.94
479.439	99.94
479.658	99.94
479.876	86.94
480.095	84.94
480.313	81.94
480.532	78.94
480.751	88.94
480.969	83.94
481.188	104.94
481.406	82.94
481.624	94.94
481.843	74.94
482.061	93.94
482.28	88.94
482.498	83.94
482.717	99.94
482.935	79.94
483.153	91.94
483.372	87.94
483.59	89.94
483.808	88.94
484.027	82.94
484.245	77.94
484.463	79.94
484.681	81.94
484.9	87.94
485.118	114.94
485.336	96.94
485.554	97.94
485.772	88.94
485.99	92.94
486.209	97.94
486.427	109.94
486.645	113.94
486.863	96.94
487.081	96.94
487.299	92.94
487.517	103.94
487.735	90.94
487.953	93.94
488.171	90.94
488.389	103.94
488.607	92.94
488.825	84.94
489.043	101.94
489.261	91.94
489.479	110.94
489.696	87.94
489.914	83.94
490.132	106.94
490.35	88.94
490.568	94.94
490.786	81.94
491.003	84.94
491.221	102.94
491.439	101.94
491.657	98.94
491.874	86.94
492.092	77.94
492.31	87.94
492.527	84.94
492.745	75.94
492.963	94.94
493.18	99.94
493.398	97.94
493.615	103.94
493.833	92.94
494.05	77.94
494.268	89.94
494.485	83.94
494.703	85.94
494.92	85.94
495.138	91.94
495.355	93.94
495.573	76.94
495.79	95.94
496.008	97.94
496.225	104.94
496.442	84.94
496.66	100.94
496.877	84.94
497.094	94.94
497.312	89.94
497.529	94.94
497.746	97.94
497.963	89.94
498.181	88.94
498.398	85.94
498.615	112.94
498.832	114.94
499.049	94.94
499.267	88.94
499.484	90.94
499.701	84.94
499.918	85.94
500.135	81.94
500.352	79.94
500.569	101.94
500.786	80.94
501.003	78.94
501.22	96.94
501.437	93.94
501.654	94.94
501.871	108.94
502.088	87.94
502.305	96.94
502.522	94.94
502.739	86.94
502.956	74.94
503.172	95.94
503.389	84.94
503.606	107.94
503.823	82.94
504.04	90.94
504.256	88.94
504.473	85.94
504.69	85.94
504.907	92.94
505.123	78.94
505.34	71.94
505.557	80.94
505.773	85.94
505.99	76.94
506.207	79.94
506.423	67.94
506.64	93.94
506.856	94.94
507.073	73.94
507.289	86.94
507.506	108.94
507.722	112.94
507.939	114.94
508.155	101.94
508.372	93.94
508.588	96.94
508.805	97.94
509.021	97.94
509.238	77.94
509.454	107.94
509.67	93.94
509.887	106.94
510.103	117.94
510.319	189.94
510.536	663.94
510.752	2101.94
510.968	563.94
511.184	144.94
511.401	108.94
511.617	91.94
511.833	94.94
512.049	101.94
512.265	93.94
512.481	87.94
512.698	84.94
512.914	85.94
513.13	95.94
513.346	94.94
513.562	94.94
513.778	83.94
513.994	85.94
514.21	88.94
514.426	106.94
514.642	144.94
514.858	114.94
515.074	162.94
515.29	405.94
515.506	1279.94
515.721	482.94
515.937	150.94
516.153	93.94
516.369	86.94
