Data from Uncirc_1987_H10_HRD10591_00053.txt Node
Date: Wed Jan 03 12:08:59 EST 2024
User: Yrep
Spectrometer: HR+D1059
Trigger mode: 1
Integration Time (sec): 1.000000E-1
Scans to average: 1
Electric dark correction enabled: true
Nonlinearity correction enabled: false
Boxcar width: 0
XAxis mode: Wavelengths
Number of Pixels in Spectrum: 2048
>>>>>Begin Spectral Data<<<<<
223.165	-24.06
223.4	-24.06
223.635	-24.06
223.869	-23.06
224.104	-22.06
224.338	-17.06
224.573	-23.06
224.808	-7.06
225.042	-8.06
225.277	1.94
225.511	-8.06
225.746	0.94
225.98	10.94
226.215	21.94
226.449	23.94
226.683	25.94
226.918	18.94
227.152	27.94
227.387	35.94
227.621	29.94
227.856	32.94
228.09	53.94
228.324	55.94
228.559	49.94
228.793	39.94
229.027	67.94
229.262	68.94
229.496	70.94
229.73	83.94
229.964	88.94
230.199	77.94
230.433	63.94
230.667	70.94
230.901	82.94
231.136	60.94
231.37	71.94
231.604	92.94
231.838	72.94
232.072	75.94
232.306	71.94
232.541	79.94
232.775	72.94
233.009	81.94
233.243	75.94
233.477	80.94
233.711	82.94
233.945	69.94
234.179	82.94
234.413	69.94
234.647	88.94
234.881	81.94
235.115	82.94
235.349	84.94
235.583	75.94
235.817	79.94
236.051	68.94
236.285	81.94
236.519	85.94
236.753	80.94
236.987	100.94
237.221	87.94
237.455	77.94
237.689	69.94
237.922	81.94
238.156	79.94
238.39	73.94
238.624	71.94
238.858	86.94
239.091	78.94
239.325	79.94
239.559	86.94
239.793	82.94
240.027	84.94
240.26	61.94
240.494	65.94
240.728	69.94
240.961	74.94
241.195	65.94
241.429	71.94
241.662	72.94
241.896	81.94
242.13	83.94
242.363	75.94
242.597	81.94
242.83	93.94
243.064	76.94
243.298	86.94
243.531	76.94
243.765	64.94
243.998	86.94
244.232	90.94
244.465	88.94
244.699	83.94
244.932	73.94
245.166	77.94
245.399	73.94
245.633	76.94
245.866	71.94
246.099	56.94
246.333	72.94
246.566	63.94
246.8	75.94
247.033	78.94
247.266	71.94
247.5	67.94
247.733	69.94
247.966	83.94
248.2	71.94
248.433	81.94
248.666	78.94
248.899	74.94
249.133	89.94
249.366	98.94
249.599	101.94
249.832	82.94
250.066	78.94
250.299	88.94
250.532	94.94
250.765	88.94
250.998	84.94
251.231	67.94
251.465	84.94
251.698	88.94
251.931	84.94
252.164	76.94
252.397	73.94
252.63	88.94
252.863	75.94
253.096	80.94
253.329	83.94
253.562	69.94
253.795	93.94
254.028	73.94
254.261	79.94
254.494	77.94
254.727	82.94
254.96	75.94
255.193	71.94
255.426	76.94
255.659	70.94
255.892	85.94
256.124	69.94
256.357	82.94
256.59	79.94
256.823	81.94
257.056	64.94
257.289	78.94
257.521	64.94
257.754	73.94
257.987	88.94
258.22	88.94
258.452	79.94
258.685	78.94
258.918	72.94
259.151	71.94
259.383	95.94
259.616	78.94
259.849	85.94
260.081	76.94
260.314	83.94
260.547	98.94
260.779	74.94
261.012	69.94
261.244	69.94
261.477	88.94
261.71	84.94
261.942	106.94
262.175	111.94
262.407	91.94
262.64	84.94
262.872	79.94
263.105	83.94
263.337	88.94
263.57	86.94
263.802	91.94
264.035	96.94
264.267	93.94
264.499	92.94
264.732	71.94
264.964	83.94
265.197	82.94
265.429	93.94
265.661	63.94
265.894	88.94
266.126	72.94
266.358	92.94
266.591	90.94
266.823	76.94
267.055	82.94
267.287	77.94
267.52	86.94
267.752	76.94
267.984	79.94
268.216	81.94
268.448	81.94
268.681	80.94
268.913	83.94
269.145	89.94
269.377	77.94
269.609	93.94
269.841	72.94
270.073	81.94
270.306	75.94
270.538	87.94
270.77	83.94
271.002	66.94
271.234	83.94
271.466	83.94
271.698	80.94
271.93	79.94
272.162	79.94
272.394	81.94
272.626	81.94
272.858	87.94
273.09	98.94
273.322	76.94
273.553	82.94
273.785	98.94
274.017	82.94
274.249	86.94
274.481	71.94
274.713	80.94
274.945	92.94
275.176	90.94
275.408	86.94
275.64	87.94
275.872	79.94
276.104	68.94
276.335	91.94
276.567	105.94
276.799	95.94
277.031	96.94
277.262	99.94
277.494	80.94
277.726	69.94
277.957	71.94
278.189	61.94
278.421	83.94
278.652	80.94
278.884	71.94
279.115	93.94
279.347	79.94
279.579	90.94
279.81	81.94
280.042	87.94
280.273	86.94
280.505	82.94
280.736	92.94
280.968	94.94
281.199	95.94
281.431	92.94
281.662	72.94
281.894	82.94
282.125	111.94
282.356	126.94
282.588	124.94
282.819	105.94
283.051	81.94
283.282	85.94
283.513	88.94
283.745	95.94
283.976	76.94
284.207	77.94
284.439	88.94
284.67	96.94
284.901	87.94
285.132	88.94
285.364	91.94
285.595	91.94
285.826	99.94
286.057	93.94
286.288	79.94
286.52	86.94
286.751	67.94
286.982	77.94
287.213	83.94
287.444	75.94
287.675	85.94
287.906	82.94
288.138	91.94
288.369	74.94
288.6	85.94
288.831	100.94
289.062	102.94
289.293	80.94
289.524	92.94
289.755	81.94
289.986	97.94
290.217	79.94
290.448	81.94
290.679	85.94
290.91	87.94
291.141	97.94
291.371	98.94
291.602	88.94
291.833	89.94
292.064	68.94
292.295	70.94
292.526	94.94
292.757	75.94
292.987	82.94
293.218	89.94
293.449	87.94
293.68	83.94
293.91	69.94
294.141	78.94
294.372	91.94
294.603	91.94
294.833	103.94
295.064	99.94
295.295	79.94
295.525	91.94
295.756	96.94
295.987	98.94
296.217	101.94
296.448	97.94
296.679	94.94
296.909	85.94
297.14	84.94
297.37	91.94
297.601	85.94
297.831	84.94
298.062	85.94
298.292	94.94
298.523	93.94
298.753	95.94
298.984	99.94
299.214	99.94
299.445	86.94
299.675	83.94
299.905	90.94
300.136	92.94
300.366	84.94
300.597	95.94
300.827	82.94
301.057	96.94
301.288	96.94
301.518	99.94
301.748	100.94
301.979	101.94
302.209	82.94
302.439	98.94
302.669	81.94
302.9	85.94
303.13	87.94
303.36	79.94
303.59	102.94
303.82	91.94
304.051	90.94
304.281	67.94
304.511	80.94
304.741	93.94
304.971	91.94
305.201	103.94
305.431	87.94
305.661	91.94
305.891	95.94
306.121	105.94
306.352	95.94
306.582	94.94
306.812	92.94
307.042	95.94
307.272	91.94
307.502	78.94
307.731	93.94
307.961	79.94
308.191	75.94
308.421	100.94
308.651	87.94
308.881	103.94
309.111	90.94
309.341	93.94
309.571	94.94
309.8	94.94
310.03	91.94
310.26	85.94
310.49	72.94
310.72	93.94
310.949	91.94
311.179	91.94
311.409	85.94
311.639	93.94
311.868	94.94
312.098	97.94
312.328	100.94
312.557	95.94
312.787	97.94
313.017	94.94
313.246	96.94
313.476	83.94
313.706	84.94
313.935	117.94
314.165	91.94
314.394	87.94
314.624	99.94
314.853	94.94
315.083	104.94
315.312	108.94
315.542	83.94
315.771	97.94
316.001	86.94
316.23	76.94
316.46	88.94
316.689	79.94
316.919	101.94
317.148	91.94
317.377	90.94
317.607	104.94
317.836	94.94
318.065	71.94
318.295	83.94
318.524	79.94
318.753	89.94
318.983	89.94
319.212	111.94
319.441	102.94
319.67	90.94
319.9	85.94
320.129	86.94
320.358	89.94
320.587	95.94
320.816	89.94
321.046	84.94
321.275	101.94
321.504	97.94
321.733	88.94
321.962	94.94
322.191	106.94
322.42	89.94
322.649	109.94
322.878	105.94
323.108	111.94
323.337	139.94
323.566	128.94
323.795	141.94
324.024	187.94
324.253	345.94
324.482	754.94
324.71	1499.94
324.939	1985.94
325.168	728.94
325.397	224.94
325.626	130.94
325.855	122.94
326.084	126.94
326.313	120.94
326.542	133.94
326.77	212.94
326.999	392.94
327.228	840.94
327.457	1527.94
327.686	1210.94
327.914	331.94
328.143	186.94
328.372	132.94
328.6	104.94
328.829	105.94
329.058	113.94
329.287	109.94
329.515	108.94
329.744	89.94
329.972	97.94
330.201	123.94
330.43	111.94
330.658	102.94
330.887	128.94
331.115	111.94
331.344	92.94
331.572	77.94
331.801	101.94
332.03	92.94
332.258	76.94
332.486	93.94
332.715	92.94
332.943	92.94
333.172	97.94
333.4	96.94
333.629	111.94
333.857	107.94
334.085	90.94
334.314	104.94
334.542	106.94
334.771	104.94
334.999	79.94
335.227	90.94
335.455	91.94
335.684	92.94
335.912	108.94
336.14	104.94
336.369	101.94
336.597	92.94
336.825	72.94
337.053	75.94
337.281	77.94
337.51	90.94
337.738	110.94
337.966	91.94
338.194	87.94
338.422	86.94
338.65	96.94
338.878	82.94
339.106	87.94
339.334	87.94
339.562	96.94
339.79	78.94
340.018	82.94
340.246	86.94
340.474	92.94
340.702	84.94
340.93	87.94
341.158	92.94
341.386	74.94
341.614	95.94
341.842	102.94
342.07	85.94
342.298	95.94
342.526	85.94
342.754	89.94
342.981	85.94
343.209	84.94
343.437	116.94
343.665	100.94
343.893	89.94
344.12	98.94
344.348	96.94
344.576	85.94
344.804	90.94
345.031	100.94
345.259	85.94
345.487	105.94
345.714	92.94
345.942	79.94
346.17	103.94
346.397	93.94
346.625	85.94
346.853	79.94
347.08	87.94
347.308	86.94
347.535	100.94
347.763	89.94
347.99	87.94
348.218	95.94
348.445	98.94
348.673	94.94
348.9	100.94
349.128	77.94
349.355	85.94
349.583	99.94
349.81	92.94
350.037	86.94
350.265	83.94
350.492	103.94
350.72	77.94
350.947	99.94
351.174	107.94
351.402	97.94
351.629	96.94
351.856	104.94
352.083	90.94
352.311	106.94
352.538	100.94
352.765	99.94
352.992	113.94
353.22	104.94
353.447	94.94
353.674	90.94
353.901	103.94
354.128	97.94
354.355	96.94
354.583	88.94
354.81	93.94
355.037	100.94
355.264	87.94
355.491	88.94
355.718	114.94
355.945	94.94
356.172	86.94
356.399	92.94
356.626	87.94
356.853	82.94
357.08	93.94
357.307	82.94
357.534	95.94
357.761	87.94
357.988	85.94
358.215	88.94
358.441	96.94
358.668	94.94
358.895	86.94
359.122	81.94
359.349	78.94
359.576	85.94
359.802	101.94
360.029	107.94
360.256	92.94
360.483	84.94
360.709	76.94
360.936	100.94
361.163	80.94
361.39	87.94
361.616	97.94
361.843	85.94
362.07	89.94
362.296	91.94
362.523	98.94
362.749	92.94
362.976	84.94
363.203	88.94
363.429	87.94
363.656	94.94
363.882	95.94
364.109	97.94
364.335	102.94
364.562	80.94
364.788	91.94
365.015	84.94
365.241	99.94
365.468	100.94
365.694	109.94
365.92	98.94
366.147	81.94
366.373	107.94
366.599	82.94
366.826	67.94
367.052	93.94
367.278	103.94
367.505	70.94
367.731	90.94
367.957	81.94
368.184	84.94
368.41	103.94
368.636	93.94
368.862	100.94
369.089	92.94
369.315	88.94
369.541	87.94
369.767	91.94
369.993	86.94
370.219	91.94
370.445	72.94
370.672	61.94
370.898	89.94
371.124	76.94
371.35	83.94
371.576	88.94
371.802	83.94
372.028	103.94
372.254	84.94
372.48	75.94
372.706	87.94
372.932	74.94
373.158	85.94
373.384	82.94
373.61	76.94
373.835	93.94
374.061	83.94
374.287	68.94
374.513	85.94
374.739	89.94
374.965	79.94
375.191	89.94
375.416	92.94
375.642	69.94
375.868	97.94
376.094	76.94
376.319	78.94
376.545	86.94
376.771	86.94
376.997	99.94
377.222	87.94
377.448	90.94
377.674	95.94
377.899	89.94
378.125	94.94
378.35	79.94
378.576	86.94
378.802	81.94
379.027	70.94
379.253	86.94
379.478	89.94
379.704	92.94
379.929	95.94
380.155	95.94
380.38	85.94
380.606	87.94
380.831	79.94
381.057	109.94
381.282	94.94
381.507	96.94
381.733	96.94
381.958	85.94
382.184	92.94
382.409	98.94
382.634	98.94
382.86	103.94
383.085	100.94
383.31	91.94
383.535	113.94
383.761	89.94
383.986	90.94
384.211	74.94
384.436	87.94
384.662	93.94
384.887	95.94
385.112	91.94
385.337	116.94
385.562	96.94
385.787	81.94
386.013	93.94
386.238	100.94
386.463	95.94
386.688	96.94
386.913	96.94
387.138	97.94
387.363	95.94
387.588	92.94
387.813	104.94
388.038	93.94
388.263	99.94
388.488	90.94
388.713	91.94
388.938	96.94
389.163	79.94
389.387	84.94
389.612	100.94
389.837	94.94
390.062	81.94
390.287	76.94
390.512	92.94
390.736	87.94
390.961	93.94
391.186	88.94
391.411	93.94
391.636	85.94
391.86	77.94
392.085	82.94
392.31	92.94
392.534	76.94
392.759	77.94
392.984	84.94
393.208	93.94
393.433	82.94
393.658	102.94
393.882	82.94
394.107	77.94
394.331	73.94
394.556	85.94
394.78	94.94
395.005	94.94
395.229	98.94
395.454	84.94
395.678	81.94
395.903	87.94
396.127	74.94
396.352	83.94
396.576	84.94
396.801	89.94
397.025	91.94
397.249	82.94
397.474	81.94
397.698	99.94
397.922	71.94
398.147	98.94
398.371	91.94
398.595	68.94
398.82	82.94
399.044	83.94
399.268	87.94
399.492	102.94
399.717	88.94
399.941	88.94
400.165	90.94
400.389	94.94
400.613	83.94
400.837	68.94
401.062	88.94
401.286	73.94
401.51	78.94
401.734	85.94
401.958	101.94
402.182	105.94
402.406	139.94
402.63	119.94
402.854	98.94
403.078	75.94
403.302	79.94
403.526	96.94
403.75	82.94
403.974	91.94
404.198	80.94
404.422	78.94
404.645	91.94
404.869	94.94
405.093	102.94
405.317	87.94
405.541	82.94
405.765	102.94
405.988	110.94
406.212	160.94
406.436	206.94
406.66	131.94
406.883	87.94
407.107	92.94
407.331	87.94
407.555	91.94
407.778	97.94
408.002	78.94
408.226	83.94
408.449	80.94
408.673	87.94
408.896	85.94
409.12	76.94
409.344	83.94
409.567	79.94
409.791	80.94
410.014	83.94
410.238	102.94
410.461	95.94
410.685	92.94
410.908	100.94
411.132	102.94
411.355	103.94
411.578	92.94
411.802	82.94
412.025	101.94
412.249	98.94
412.472	92.94
412.695	87.94
412.919	80.94
413.142	89.94
413.365	83.94
413.589	91.94
413.812	85.94
414.035	92.94
414.258	90.94
414.482	82.94
414.705	83.94
414.928	96.94
415.151	86.94
415.374	100.94
415.597	85.94
415.821	82.94
416.044	85.94
416.267	88.94
416.49	72.94
416.713	85.94
416.936	81.94
417.159	96.94
417.382	88.94
417.605	100.94
417.828	97.94
418.051	92.94
418.274	85.94
418.497	90.94
418.72	71.94
418.943	89.94
419.166	95.94
419.389	95.94
419.611	85.94
419.834	100.94
420.057	82.94
420.28	81.94
420.503	82.94
420.726	95.94
420.948	85.94
421.171	97.94
421.394	91.94
421.617	99.94
421.839	91.94
422.062	91.94
422.285	84.94
422.507	79.94
422.73	98.94
422.953	81.94
423.175	83.94
423.398	95.94
423.621	85.94
423.843	78.94
424.066	85.94
424.288	84.94
424.511	88.94
424.733	87.94
424.956	88.94
425.178	93.94
425.401	99.94
425.623	102.94
425.846	93.94
426.068	95.94
426.291	85.94
426.513	93.94
426.735	89.94
426.958	85.94
427.18	93.94
427.402	127.94
427.625	143.94
427.847	101.94
428.069	105.94
428.292	93.94
428.514	79.94
428.736	66.94
428.958	79.94
429.181	97.94
429.403	89.94
429.625	87.94
429.847	93.94
430.069	104.94
430.292	79.94
430.514	83.94
430.736	85.94
430.958	82.94
431.18	76.94
431.402	65.94
431.624	87.94
431.846	88.94
432.068	93.94
432.29	95.94
432.512	88.94
432.734	79.94
432.956	99.94
433.178	84.94
433.4	87.94
433.622	72.94
433.844	90.94
434.066	84.94
434.287	80.94
434.509	99.94
434.731	93.94
434.953	86.94
435.175	97.94
435.397	96.94
435.618	94.94
435.84	86.94
436.062	113.94
436.284	109.94
436.505	105.94
436.727	97.94
436.949	99.94
437.17	97.94
437.392	80.94
437.614	93.94
437.835	107.94
438.057	113.94
438.278	104.94
438.5	97.94
438.721	128.94
438.943	87.94
439.165	81.94
439.386	81.94
439.608	97.94
439.829	97.94
440.05	123.94
440.272	143.94
440.493	87.94
440.715	91.94
440.936	96.94
441.158	84.94
441.379	102.94
441.6	90.94
441.822	87.94
442.043	83.94
442.264	113.94
442.486	97.94
442.707	86.94
442.928	104.94
443.149	117.94
443.371	108.94
443.592	94.94
443.813	99.94
444.034	101.94
444.255	95.94
444.476	95.94
444.698	82.94
444.919	96.94
445.14	133.94
445.361	111.94
445.582	103.94
445.803	120.94
446.024	128.94
446.245	121.94
446.466	97.94
446.687	86.94
446.908	92.94
447.129	73.94
447.35	85.94
447.571	88.94
447.792	88.94
448.013	102.94
448.234	110.94
448.455	96.94
448.675	108.94
448.896	104.94
449.117	104.94
449.338	99.94
449.559	121.94
449.779	120.94
450	92.94
450.221	83.94
450.442	89.94
450.662	89.94
450.883	95.94
451.104	114.94
451.324	77.94
451.545	79.94
451.766	98.94
451.986	90.94
452.207	89.94
452.428	92.94
452.648	97.94
452.869	86.94
453.089	104.94
453.31	110.94
453.53	89.94
453.751	81.94
453.971	91.94
454.192	94.94
454.412	99.94
454.633	97.94
454.853	87.94
455.073	99.94
455.294	93.94
455.514	97.94
455.734	91.94
455.955	88.94
456.175	77.94
456.395	79.94
456.616	79.94
456.836	85.94
457.056	80.94
457.276	78.94
457.497	84.94
457.717	79.94
457.937	99.94
458.157	92.94
458.377	90.94
458.598	96.94
458.818	135.94
459.038	151.94
459.258	114.94
459.478	87.94
459.698	101.94
459.918	83.94
460.138	87.94
460.358	89.94
460.578	79.94
460.798	85.94
461.018	82.94
461.238	78.94
461.458	88.94
461.678	88.94
461.898	82.94
462.118	87.94
462.338	86.94
462.558	90.94
462.777	88.94
462.997	87.94
463.217	94.94
463.437	79.94
463.657	80.94
463.876	79.94
464.096	94.94
464.316	97.94
464.536	81.94
464.755	86.94
464.975	92.94
465.195	141.94
465.414	142.94
465.634	96.94
465.854	85.94
466.073	71.94
466.293	105.94
466.512	90.94
466.732	70.94
466.951	87.94
467.171	84.94
467.391	91.94
467.61	85.94
467.829	102.94
468.049	104.94
468.268	84.94
468.488	89.94
468.707	88.94
468.927	95.94
469.146	71.94
469.365	84.94
469.585	96.94
469.804	100.94
470.023	92.94
470.243	94.94
470.462	90.94
470.681	98.94
470.901	80.94
471.12	73.94
471.339	79.94
471.558	77.94
471.777	92.94
471.997	82.94
472.216	85.94
472.435	112.94
472.654	88.94
472.873	89.94
473.092	99.94
473.311	75.94
473.53	85.94
473.749	84.94
473.968	91.94
474.187	88.94
474.406	98.94
474.625	81.94
474.844	70.94
475.063	79.94
475.282	64.94
475.501	72.94
475.72	85.94
475.939	79.94
476.158	88.94
476.377	77.94
476.596	90.94
476.814	96.94
477.033	97.94
477.252	100.94
477.471	83.94
477.69	94.94
477.908	93.94
478.127	85.94
478.346	93.94
478.564	88.94
478.783	91.94
479.002	83.94
479.22	92.94
479.439	87.94
479.658	101.94
479.876	79.94
480.095	96.94
480.313	98.94
480.532	91.94
480.751	76.94
480.969	90.94
481.188	122.94
481.406	89.94
481.624	88.94
481.843	83.94
482.061	72.94
482.28	97.94
482.498	87.94
482.717	93.94
482.935	89.94
483.153	98.94
483.372	95.94
483.59	78.94
483.808	76.94
484.027	98.94
484.245	70.94
484.463	100.94
484.681	107.94
484.9	98.94
485.118	96.94
485.336	76.94
485.554	93.94
485.772	89.94
485.99	93.94
486.209	110.94
486.427	91.94
486.645	105.94
486.863	109.94
487.081	96.94
487.299	86.94
487.517	106.94
487.735	103.94
487.953	97.94
488.171	103.94
488.389	93.94
488.607	102.94
488.825	82.94
489.043	111.94
489.261	88.94
489.479	87.94
489.696	104.94
489.914	81.94
490.132	86.94
490.35	82.94
490.568	82.94
490.786	81.94
491.003	99.94
491.221	87.94
491.439	81.94
491.657	85.94
491.874	93.94
492.092	98.94
492.31	90.94
492.527	79.94
492.745	80.94
492.963	88.94
493.18	88.94
493.398	85.94
493.615	91.94
493.833	94.94
494.05	88.94
494.268	85.94
494.485	82.94
494.703	95.94
494.92	79.94
495.138	88.94
495.355	97.94
495.573	87.94
495.79	83.94
496.008	88.94
496.225	103.94
496.442	85.94
496.66	88.94
496.877	95.94
497.094	87.94
497.312	83.94
497.529	101.94
497.746	91.94
497.963	90.94
498.181	89.94
498.398	102.94
498.615	98.94
498.832	106.94
499.049	102.94
499.267	80.94
499.484	91.94
499.701	87.94
499.918	104.94
500.135	83.94
500.352	93.94
500.569	90.94
500.786	93.94
501.003	85.94
501.22	78.94
501.437	82.94
501.654	93.94
501.871	105.94
502.088	82.94
502.305	91.94
502.522	102.94
502.739	83.94
502.956	78.94
503.172	60.94
503.389	96.94
503.606	87.94
503.823	87.94
504.04	90.94
504.256	81.94
504.473	78.94
504.69	70.94
504.907	97.94
505.123	93.94
505.34	93.94
505.557	94.94
505.773	90.94
505.99	99.94
506.207	92.94
506.423	82.94
506.64	77.94
506.856	84.94
507.073	64.94
507.289	95.94
507.506	93.94
507.722	109.94
507.939	95.94
508.155	94.94
508.372	83.94
508.588	97.94
508.805	84.94
509.021	85.94
509.238	108.94
509.454	95.94
509.67	102.94
509.887	99.94
510.103	123.94
510.319	183.94
510.536	640.94
510.752	2022.94
510.968	555.94
511.184	145.94
511.401	95.94
511.617	98.94
511.833	97.94
512.049	97.94
512.265	93.94
512.481	75.94
512.698	103.94
512.914	82.94
513.13	83.94
513.346	86.94
513.562	94.94
513.778	72.94
513.994	101.94
514.21	99.94
514.426	103.94
514.642	118.94
514.858	107.94
515.074	153.94
515.29	403.94
515.506	1242.94
515.721	453.94
515.937	127.94
516.153	91.94
516.369	85.94
516.585	85.94
516.801	96.94
517.016	92.94
