Data from Uncirc_1987_H10_HRD10591_00026.txt Node
Date: Wed Jan 03 12:08:53 EST 2024
User: Yrep
Spectrometer: HR+D1059
Trigger mode: 1
Integration Time (sec): 1.000000E-1
Scans to average: 1
Electric dark correction enabled: true
Nonlinearity correction enabled: false
Boxcar width: 0
XAxis mode: Wavelengths
Number of Pixels in Spectrum: 2048
>>>>>Begin Spectral Data<<<<<
223.165	-27.81
223.4	-27.81
223.635	-27.81
223.869	-5.81
224.104	-15.81
224.338	-15.81
224.573	-20.81
224.808	-19.81
225.042	-5.81
225.277	-1.81
225.511	-11.81
225.746	2.19
225.98	-3.81
226.215	23.19
226.449	20.19
226.683	22.19
226.918	33.19
227.152	28.19
227.387	33.19
227.621	44.19
227.856	53.19
228.09	55.19
228.324	51.19
228.559	43.19
228.793	56.19
229.027	70.19
229.262	70.19
229.496	72.19
229.73	83.19
229.964	85.19
230.199	67.19
230.433	80.19
230.667	77.19
230.901	74.19
231.136	82.19
231.37	89.19
231.604	71.19
231.838	87.19
232.072	73.19
232.306	85.19
232.541	81.19
232.775	88.19
233.009	77.19
233.243	95.19
233.477	64.19
233.711	94.19
233.945	83.19
234.179	82.19
234.413	85.19
234.647	96.19
234.881	83.19
235.115	76.19
235.349	92.19
235.583	70.19
235.817	82.19
236.051	79.19
236.285	94.19
236.519	89.19
236.753	88.19
236.987	73.19
237.221	89.19
237.455	75.19
237.689	87.19
237.922	74.19
238.156	89.19
238.39	84.19
238.624	88.19
238.858	91.19
239.091	81.19
239.325	81.19
239.559	64.19
239.793	81.19
240.027	96.19
240.26	83.19
240.494	71.19
240.728	65.19
240.961	78.19
241.195	64.19
241.429	57.19
241.662	79.19
241.896	62.19
242.13	74.19
242.363	74.19
242.597	81.19
242.83	75.19
243.064	74.19
243.298	73.19
243.531	85.19
243.765	82.19
243.998	73.19
244.232	86.19
244.465	74.19
244.699	100.19
244.932	64.19
245.166	99.19
245.399	86.19
245.633	95.19
245.866	84.19
246.099	86.19
246.333	76.19
246.566	80.19
246.8	86.19
247.033	71.19
247.266	93.19
247.5	82.19
247.733	68.19
247.966	63.19
248.2	89.19
248.433	88.19
248.666	76.19
248.899	88.19
249.133	90.19
249.366	93.19
249.599	91.19
249.832	89.19
250.066	77.19
250.299	91.19
250.532	81.19
250.765	76.19
250.998	76.19
251.231	82.19
251.465	91.19
251.698	88.19
251.931	93.19
252.164	94.19
252.397	84.19
252.63	81.19
252.863	67.19
253.096	81.19
253.329	90.19
253.562	84.19
253.795	86.19
254.028	80.19
254.261	90.19
254.494	84.19
254.727	82.19
254.96	93.19
255.193	84.19
255.426	89.19
255.659	89.19
255.892	75.19
256.124	99.19
256.357	84.19
256.59	74.19
256.823	89.19
257.056	81.19
257.289	75.19
257.521	71.19
257.754	83.19
257.987	95.19
258.22	83.19
258.452	79.19
258.685	80.19
258.918	83.19
259.151	93.19
259.383	80.19
259.616	77.19
259.849	85.19
260.081	76.19
260.314	76.19
260.547	89.19
260.779	82.19
261.012	83.19
261.244	88.19
261.477	75.19
261.71	84.19
261.942	101.19
262.175	107.19
262.407	94.19
262.64	91.19
262.872	89.19
263.105	96.19
263.337	78.19
263.57	71.19
263.802	92.19
264.035	72.19
264.267	87.19
264.499	83.19
264.732	88.19
264.964	94.19
265.197	74.19
265.429	84.19
265.661	91.19
265.894	104.19
266.126	86.19
266.358	88.19
266.591	84.19
266.823	92.19
267.055	91.19
267.287	85.19
267.52	84.19
267.752	80.19
267.984	101.19
268.216	88.19
268.448	87.19
268.681	87.19
268.913	88.19
269.145	76.19
269.377	74.19
269.609	96.19
269.841	80.19
270.073	86.19
270.306	88.19
270.538	97.19
270.77	91.19
271.002	104.19
271.234	60.19
271.466	76.19
271.698	75.19
271.93	107.19
272.162	91.19
272.394	96.19
272.626	82.19
272.858	107.19
273.09	90.19
273.322	91.19
273.553	95.19
273.785	86.19
274.017	76.19
274.249	96.19
274.481	89.19
274.713	70.19
274.945	84.19
275.176	90.19
275.408	83.19
275.64	89.19
275.872	83.19
276.104	104.19
276.335	91.19
276.567	115.19
276.799	103.19
277.031	108.19
277.262	89.19
277.494	87.19
277.726	104.19
277.957	97.19
278.189	107.19
278.421	100.19
278.652	99.19
278.884	95.19
279.115	86.19
279.347	90.19
279.579	83.19
279.81	83.19
280.042	80.19
280.273	102.19
280.505	72.19
280.736	95.19
280.968	81.19
281.199	75.19
281.431	90.19
281.662	87.19
281.894	76.19
282.125	96.19
282.356	118.19
282.588	113.19
282.819	123.19
283.051	100.19
283.282	85.19
283.513	87.19
283.745	96.19
283.976	89.19
284.207	87.19
284.439	87.19
284.67	94.19
284.901	82.19
285.132	87.19
285.364	80.19
285.595	79.19
285.826	85.19
286.057	104.19
286.288	87.19
286.52	96.19
286.751	81.19
286.982	76.19
287.213	81.19
287.444	82.19
287.675	92.19
287.906	101.19
288.138	85.19
288.369	88.19
288.6	87.19
288.831	93.19
289.062	83.19
289.293	98.19
289.524	87.19
289.755	104.19
289.986	93.19
290.217	103.19
290.448	99.19
290.679	90.19
290.91	86.19
291.141	91.19
291.371	104.19
291.602	94.19
291.833	90.19
292.064	83.19
292.295	90.19
292.526	88.19
292.757	79.19
292.987	83.19
293.218	98.19
293.449	97.19
293.68	80.19
293.91	83.19
294.141	101.19
294.372	90.19
294.603	89.19
294.833	104.19
295.064	95.19
295.295	85.19
295.525	93.19
295.756	93.19
295.987	117.19
296.217	131.19
296.448	112.19
296.679	96.19
296.909	91.19
297.14	99.19
297.37	83.19
297.601	87.19
297.831	86.19
298.062	87.19
298.292	94.19
298.523	97.19
298.753	101.19
298.984	92.19
299.214	89.19
299.445	83.19
299.675	93.19
299.905	85.19
300.136	91.19
300.366	97.19
300.597	88.19
300.827	88.19
301.057	98.19
301.288	116.19
301.518	102.19
301.748	99.19
301.979	98.19
302.209	97.19
302.439	85.19
302.669	83.19
302.9	83.19
303.13	106.19
303.36	91.19
303.59	89.19
303.82	105.19
304.051	100.19
304.281	94.19
304.511	101.19
304.741	106.19
304.971	99.19
305.201	85.19
305.431	88.19
305.661	86.19
305.891	84.19
306.121	111.19
306.352	97.19
306.582	109.19
306.812	94.19
307.042	85.19
307.272	87.19
307.502	91.19
307.731	96.19
307.961	97.19
308.191	85.19
308.421	82.19
308.651	92.19
308.881	102.19
309.111	97.19
309.341	97.19
309.571	98.19
309.8	88.19
310.03	88.19
310.26	88.19
310.49	90.19
310.72	97.19
310.949	106.19
311.179	92.19
311.409	96.19
311.639	99.19
311.868	95.19
312.098	97.19
312.328	91.19
312.557	96.19
312.787	99.19
313.017	118.19
313.246	94.19
313.476	91.19
313.706	96.19
313.935	91.19
314.165	104.19
314.394	103.19
314.624	83.19
314.853	90.19
315.083	97.19
315.312	106.19
315.542	93.19
315.771	83.19
316.001	95.19
316.23	92.19
316.46	99.19
316.689	104.19
316.919	95.19
317.148	111.19
317.377	101.19
317.607	102.19
317.836	97.19
318.065	100.19
318.295	113.19
318.524	91.19
318.753	97.19
318.983	93.19
319.212	101.19
319.441	108.19
319.67	97.19
319.9	97.19
320.129	89.19
320.358	98.19
320.587	110.19
320.816	94.19
321.046	101.19
321.275	100.19
321.504	93.19
321.733	95.19
321.962	91.19
322.191	98.19
322.42	110.19
322.649	98.19
322.878	98.19
323.108	118.19
323.337	110.19
323.566	118.19
323.795	128.19
324.024	174.19
324.253	343.19
324.482	668.19
324.71	1430.19
324.939	1859.19
325.168	680.19
325.397	219.19
325.626	136.19
325.855	128.19
326.084	116.19
326.313	128.19
326.542	134.19
326.77	188.19
326.999	393.19
327.228	794.19
327.457	1439.19
327.686	1152.19
327.914	330.19
328.143	177.19
328.372	129.19
328.6	121.19
328.829	110.19
329.058	122.19
329.287	107.19
329.515	127.19
329.744	103.19
329.972	97.19
330.201	100.19
330.43	115.19
330.658	124.19
330.887	117.19
331.115	115.19
331.344	107.19
331.572	101.19
331.801	91.19
332.03	93.19
332.258	100.19
332.486	99.19
332.715	86.19
332.943	99.19
333.172	116.19
333.4	98.19
333.629	95.19
333.857	114.19
334.085	93.19
334.314	101.19
334.542	99.19
334.771	108.19
334.999	89.19
335.227	95.19
335.455	99.19
335.684	104.19
335.912	96.19
336.14	89.19
336.369	97.19
336.597	100.19
336.825	98.19
337.053	91.19
337.281	109.19
337.51	90.19
337.738	99.19
337.966	76.19
338.194	94.19
338.422	89.19
338.65	94.19
338.878	94.19
339.106	107.19
339.334	98.19
339.562	96.19
339.79	83.19
340.018	84.19
340.246	99.19
340.474	100.19
340.702	97.19
340.93	100.19
341.158	97.19
341.386	92.19
341.614	89.19
341.842	100.19
342.07	95.19
342.298	83.19
342.526	81.19
342.754	84.19
342.981	96.19
343.209	85.19
343.437	93.19
343.665	92.19
343.893	95.19
344.12	106.19
344.348	93.19
344.576	92.19
344.804	97.19
345.031	89.19
345.259	91.19
345.487	106.19
345.714	97.19
345.942	99.19
346.17	87.19
346.397	94.19
346.625	87.19
346.853	95.19
347.08	99.19
347.308	103.19
347.535	102.19
347.763	89.19
347.99	85.19
348.218	96.19
348.445	100.19
348.673	95.19
348.9	100.19
349.128	120.19
349.355	84.19
349.583	84.19
349.81	97.19
350.037	109.19
350.265	101.19
350.492	93.19
350.72	96.19
350.947	104.19
351.174	117.19
351.402	89.19
351.629	97.19
351.856	105.19
352.083	84.19
352.311	104.19
352.538	108.19
352.765	121.19
352.992	125.19
353.22	94.19
353.447	116.19
353.674	110.19
353.901	111.19
354.128	88.19
354.355	86.19
354.583	91.19
354.81	93.19
355.037	99.19
355.264	102.19
355.491	95.19
355.718	100.19
355.945	90.19
356.172	100.19
356.399	102.19
356.626	111.19
356.853	91.19
357.08	105.19
357.307	84.19
357.534	95.19
357.761	92.19
357.988	99.19
358.215	94.19
358.441	92.19
358.668	108.19
358.895	84.19
359.122	92.19
359.349	92.19
359.576	81.19
359.802	92.19
360.029	85.19
360.256	104.19
360.483	95.19
360.709	90.19
360.936	108.19
361.163	89.19
361.39	88.19
361.616	85.19
361.843	74.19
362.07	93.19
362.296	96.19
362.523	87.19
362.749	79.19
362.976	99.19
363.203	92.19
363.429	89.19
363.656	83.19
363.882	97.19
364.109	97.19
364.335	95.19
364.562	87.19
364.788	103.19
365.015	97.19
365.241	100.19
365.468	91.19
365.694	98.19
365.92	87.19
366.147	71.19
366.373	98.19
366.599	79.19
366.826	87.19
367.052	81.19
367.278	90.19
367.505	106.19
367.731	84.19
367.957	94.19
368.184	97.19
368.41	102.19
368.636	108.19
368.862	102.19
369.089	112.19
369.315	96.19
369.541	80.19
369.767	87.19
369.993	81.19
370.219	99.19
370.445	96.19
370.672	85.19
370.898	75.19
371.124	83.19
371.35	90.19
371.576	99.19
371.802	89.19
372.028	91.19
372.254	87.19
372.48	92.19
372.706	82.19
372.932	83.19
373.158	94.19
373.384	100.19
373.61	97.19
373.835	101.19
374.061	99.19
374.287	90.19
374.513	93.19
374.739	97.19
374.965	90.19
375.191	106.19
375.416	85.19
375.642	89.19
375.868	97.19
376.094	86.19
376.319	90.19
376.545	91.19
376.771	97.19
376.997	102.19
377.222	101.19
377.448	108.19
377.674	99.19
377.899	101.19
378.125	96.19
378.35	91.19
378.576	96.19
378.802	93.19
379.027	83.19
379.253	105.19
379.478	99.19
379.704	88.19
379.929	81.19
380.155	88.19
380.38	96.19
380.606	101.19
380.831	89.19
381.057	96.19
381.282	89.19
381.507	109.19
381.733	94.19
381.958	106.19
382.184	93.19
382.409	79.19
382.634	106.19
382.86	108.19
383.085	121.19
383.31	90.19
383.535	103.19
383.761	95.19
383.986	105.19
384.211	99.19
384.436	93.19
384.662	95.19
384.887	89.19
385.112	105.19
385.337	107.19
385.562	100.19
385.787	93.19
386.013	109.19
386.238	97.19
386.463	98.19
386.688	110.19
386.913	106.19
387.138	108.19
387.363	91.19
387.588	101.19
387.813	88.19
388.038	102.19
388.263	108.19
388.488	107.19
388.713	96.19
388.938	100.19
389.163	97.19
389.387	88.19
389.612	100.19
389.837	97.19
390.062	89.19
390.287	94.19
390.512	73.19
390.736	93.19
390.961	108.19
391.186	101.19
391.411	102.19
391.636	99.19
391.86	88.19
392.085	95.19
392.31	103.19
392.534	93.19
392.759	89.19
392.984	92.19
393.208	93.19
393.433	96.19
393.658	89.19
393.882	88.19
394.107	92.19
394.331	80.19
394.556	98.19
394.78	82.19
395.005	77.19
395.229	84.19
395.454	83.19
395.678	90.19
395.903	76.19
396.127	93.19
396.352	99.19
396.576	83.19
396.801	85.19
397.025	95.19
397.249	82.19
397.474	98.19
397.698	91.19
397.922	85.19
398.147	88.19
398.371	88.19
398.595	84.19
398.82	97.19
399.044	84.19
399.268	85.19
399.492	95.19
399.717	90.19
399.941	86.19
400.165	93.19
400.389	95.19
400.613	89.19
400.837	81.19
401.062	91.19
401.286	92.19
401.51	100.19
401.734	81.19
401.958	103.19
402.182	123.19
402.406	155.19
402.63	103.19
402.854	97.19
403.078	94.19
403.302	84.19
403.526	97.19
403.75	94.19
403.974	101.19
404.198	87.19
404.422	89.19
404.645	80.19
404.869	100.19
405.093	86.19
405.317	91.19
405.541	101.19
405.765	93.19
405.988	104.19
406.212	144.19
406.436	187.19
406.66	132.19
406.883	95.19
407.107	83.19
407.331	94.19
407.555	104.19
407.778	84.19
408.002	88.19
408.226	97.19
408.449	84.19
408.673	92.19
408.896	100.19
409.12	83.19
409.344	85.19
409.567	84.19
409.791	81.19
410.014	103.19
410.238	92.19
410.461	103.19
410.685	105.19
410.908	98.19
411.132	96.19
411.355	94.19
411.578	85.19
411.802	100.19
412.025	90.19
412.249	94.19
412.472	85.19
412.695	98.19
412.919	99.19
413.142	99.19
413.365	90.19
413.589	97.19
413.812	87.19
414.035	101.19
414.258	108.19
414.482	103.19
414.705	97.19
414.928	82.19
415.151	104.19
415.374	99.19
415.597	97.19
415.821	97.19
416.044	82.19
416.267	96.19
416.49	88.19
416.713	101.19
416.936	84.19
417.159	77.19
417.382	79.19
417.605	77.19
417.828	90.19
418.051	94.19
418.274	93.19
418.497	83.19
418.72	99.19
418.943	85.19
419.166	81.19
419.389	80.19
419.611	76.19
419.834	87.19
420.057	90.19
420.28	97.19
420.503	90.19
420.726	89.19
420.948	93.19
421.171	97.19
421.394	96.19
421.617	77.19
421.839	105.19
422.062	92.19
422.285	97.19
422.507	93.19
422.73	105.19
422.953	99.19
423.175	81.19
423.398	71.19
423.621	76.19
423.843	93.19
424.066	84.19
424.288	94.19
424.511	96.19
424.733	98.19
424.956	114.19
425.178	98.19
425.401	96.19
425.623	114.19
425.846	91.19
426.068	74.19
426.291	83.19
426.513	79.19
426.735	94.19
426.958	84.19
427.18	101.19
427.402	122.19
427.625	140.19
427.847	111.19
428.069	103.19
428.292	99.19
428.514	96.19
428.736	80.19
428.958	92.19
429.181	84.19
429.403	88.19
429.625	99.19
429.847	107.19
430.069	94.19
430.292	107.19
430.514	88.19
430.736	90.19
430.958	95.19
431.18	75.19
431.402	96.19
431.624	95.19
431.846	92.19
432.068	97.19
432.29	87.19
432.512	94.19
432.734	92.19
432.956	94.19
433.178	91.19
433.4	95.19
433.622	94.19
433.844	85.19
434.066	90.19
434.287	98.19
434.509	91.19
434.731	100.19
434.953	93.19
435.175	97.19
435.397	93.19
435.618	96.19
435.84	99.19
436.062	110.19
436.284	121.19
436.505	104.19
436.727	89.19
436.949	89.19
437.17	88.19
437.392	101.19
437.614	109.19
437.835	93.19
438.057	97.19
438.278	113.19
438.5	104.19
438.721	125.19
438.943	92.19
439.165	80.19
439.386	92.19
439.608	91.19
439.829	113.19
440.05	116.19
440.272	120.19
440.493	92.19
440.715	86.19
440.936	95.19
441.158	75.19
441.379	93.19
441.6	106.19
441.822	103.19
442.043	90.19
442.264	98.19
442.486	103.19
442.707	81.19
442.928	84.19
443.149	119.19
443.371	122.19
443.592	117.19
443.813	108.19
444.034	112.19
444.255	103.19
444.476	81.19
444.698	81.19
444.919	98.19
445.14	131.19
445.361	114.19
445.582	102.19
445.803	121.19
446.024	120.19
446.245	131.19
446.466	98.19
446.687	84.19
446.908	102.19
447.129	96.19
447.35	97.19
447.571	88.19
447.792	93.19
448.013	97.19
448.234	113.19
448.455	94.19
448.675	101.19
448.896	120.19
449.117	101.19
449.338	99.19
449.559	116.19
449.779	127.19
450	84.19
450.221	89.19
450.442	73.19
450.662	96.19
450.883	101.19
451.104	106.19
451.324	85.19
451.545	90.19
451.766	84.19
451.986	91.19
452.207	91.19
452.428	79.19
452.648	93.19
452.869	107.19
453.089	90.19
453.31	111.19
453.53	88.19
453.751	92.19
453.971	88.19
454.192	91.19
454.412	87.19
454.633	88.19
454.853	95.19
455.073	100.19
455.294	84.19
455.514	90.19
455.734	104.19
455.955	102.19
456.175	84.19
456.395	82.19
456.616	85.19
456.836	99.19
457.056	88.19
457.276	77.19
457.497	106.19
457.717	86.19
457.937	85.19
458.157	69.19
458.377	86.19
458.598	94.19
458.818	130.19
459.038	139.19
459.258	119.19
459.478	107.19
459.698	96.19
459.918	90.19
460.138	93.19
460.358	93.19
460.578	92.19
460.798	96.19
461.018	97.19
461.238	88.19
461.458	83.19
461.678	102.19
461.898	92.19
462.118	81.19
462.338	80.19
462.558	85.19
462.777	87.19
462.997	85.19
463.217	86.19
463.437	91.19
463.657	96.19
463.876	83.19
464.096	88.19
464.316	83.19
464.536	91.19
464.755	85.19
464.975	95.19
465.195	127.19
465.414	127.19
465.634	109.19
465.854	79.19
466.073	89.19
466.293	90.19
466.512	90.19
466.732	88.19
466.951	82.19
467.171	104.19
467.391	101.19
467.61	110.19
467.829	91.19
468.049	92.19
468.268	101.19
468.488	100.19
468.707	84.19
468.927	68.19
469.146	77.19
469.365	105.19
469.585	104.19
469.804	94.19
470.023	89.19
470.243	95.19
470.462	92.19
470.681	107.19
470.901	89.19
471.12	92.19
471.339	88.19
471.558	83.19
471.777	85.19
471.997	86.19
472.216	101.19
472.435	99.19
472.654	101.19
472.873	104.19
473.092	97.19
473.311	86.19
473.53	81.19
473.749	91.19
473.968	103.19
474.187	95.19
474.406	93.19
474.625	81.19
474.844	80.19
475.063	89.19
475.282	84.19
475.501	83.19
475.72	82.19
475.939	97.19
476.158	87.19
476.377	97.19
476.596	81.19
476.814	86.19
477.033	89.19
477.252	102.19
477.471	95.19
477.69	79.19
477.908	92.19
478.127	91.19
478.346	99.19
478.564	90.19
478.783	83.19
479.002	105.19
479.22	83.19
479.439	84.19
479.658	83.19
479.876	85.19
480.095	92.19
480.313	79.19
480.532	95.19
480.751	89.19
480.969	97.19
481.188	111.19
481.406	100.19
481.624	90.19
481.843	104.19
482.061	89.19
482.28	95.19
482.498	111.19
482.717	108.19
482.935	69.19
483.153	95.19
483.372	88.19
483.59	112.19
483.808	95.19
484.027	94.19
484.245	96.19
484.463	97.19
484.681	86.19
484.9	88.19
485.118	109.19
485.336	106.19
485.554	104.19
485.772	106.19
485.99	102.19
486.209	95.19
486.427	96.19
486.645	114.19
486.863	90.19
487.081	107.19
487.299	87.19
487.517	108.19
487.735	92.19
487.953	103.19
488.171	105.19
488.389	100.19
488.607	91.19
488.825	100.19
489.043	94.19
489.261	98.19
489.479	87.19
489.696	87.19
489.914	81.19
490.132	97.19
490.35	90.19
490.568	103.19
490.786	93.19
491.003	85.19
491.221	95.19
491.439	101.19
491.657	97.19
491.874	102.19
492.092	96.19
492.31	100.19
492.527	98.19
492.745	98.19
492.963	99.19
493.18	94.19
493.398	101.19
493.615	83.19
493.833	116.19
494.05	99.19
494.268	89.19
494.485	95.19
494.703	90.19
494.92	91.19
495.138	83.19
495.355	79.19
495.573	106.19
495.79	97.19
496.008	103.19
496.225	98.19
496.442	93.19
496.66	89.19
496.877	88.19
497.094	94.19
497.312	85.19
497.529	81.19
497.746	88.19
497.963	77.19
498.181	89.19
498.398	97.19
498.615	113.19
498.832	96.19
499.049	90.19
499.267	101.19
499.484	95.19
499.701	97.19
499.918	84.19
500.135	81.19
500.352	87.19
500.569	63.19
500.786	83.19
501.003	80.19
501.22	95.19
501.437	92.19
501.654	101.19
501.871	112.19
502.088	99.19
502.305	87.19
502.522	89.19
502.739	97.19
502.956	84.19
503.172	101.19
503.389	88.19
503.606	109.19
503.823	101.19
504.04	91.19
504.256	99.19
504.473	77.19
504.69	76.19
504.907	91.19
505.123	101.19
505.34	92.19
505.557	96.19
505.773	85.19
505.99	100.19
506.207	87.19
506.423	83.19
506.64	91.19
506.856	90.19
507.073	96.19
507.289	85.19
507.506	99.19
507.722	93.19
507.939	95.19
508.155	97.19
508.372	98.19
508.588	86.19
508.805	108.19
509.021	93.19
509.238	100.19
509.454	95.19
509.67	101.19
509.887	109.19
510.103	114.19
510.319	183.19
510.536	644.19
510.752	1913.19
510.968	551.19
511.184	143.19
511.401	102.19
511.617	96.19
511.833	92.19
512.049	108.19
512.265	86.19
512.481	90.19
512.698	98.19
512.914	100.19
513.13	97.19
513.346	85.19
513.562	99.19
513.778	91.19
513.994	91.19
514.21	103.19
514.426	117.19
514.642	129.19
514.858	122.19
515.074	140.19
515.29	374.19
