Data from Uncirc_1987_H10_HRD10591_00019.txt Node
Date: Wed Jan 03 12:08:52 EST 2024
User: Yrep
Spectrometer: HR+D1059
Trigger mode: 1
Integration Time (sec): 1.000000E-1
Scans to average: 1
Electric dark correction enabled: true
Nonlinearity correction enabled: false
Boxcar width: 0
XAxis mode: Wavelengths
Number of Pixels in Spectrum: 2048
>>>>>Begin Spectral Data<<<<<
223.165	-11.44
223.4	-11.44
223.635	-11.44
223.869	-1.44
224.104	-25.44
224.338	-14.44
224.573	-11.44
224.808	-20.44
225.042	9.56
225.277	4.56
225.511	5.56
225.746	10.56
225.98	-5.44
226.215	-9.44
226.449	13.56
226.683	21.56
226.918	23.56
227.152	10.56
227.387	31.56
227.621	45.56
227.856	38.56
228.09	41.56
228.324	51.56
228.559	50.56
228.793	57.56
229.027	59.56
229.262	77.56
229.496	80.56
229.73	72.56
229.964	79.56
230.199	80.56
230.433	79.56
230.667	65.56
230.901	82.56
231.136	81.56
231.37	82.56
231.604	90.56
231.838	89.56
232.072	72.56
232.306	88.56
232.541	85.56
232.775	83.56
233.009	74.56
233.243	101.56
233.477	69.56
233.711	74.56
233.945	83.56
234.179	79.56
234.413	82.56
234.647	74.56
234.881	66.56
235.115	77.56
235.349	75.56
235.583	82.56
235.817	64.56
236.051	75.56
236.285	72.56
236.519	87.56
236.753	71.56
236.987	82.56
237.221	82.56
237.455	73.56
237.689	81.56
237.922	76.56
238.156	73.56
238.39	65.56
238.624	70.56
238.858	83.56
239.091	73.56
239.325	71.56
239.559	82.56
239.793	73.56
240.027	65.56
240.26	58.56
240.494	74.56
240.728	73.56
240.961	65.56
241.195	65.56
241.429	91.56
241.662	73.56
241.896	91.56
242.13	68.56
242.363	85.56
242.597	71.56
242.83	87.56
243.064	95.56
243.298	70.56
243.531	89.56
243.765	66.56
243.998	77.56
244.232	85.56
244.465	85.56
244.699	81.56
244.932	89.56
245.166	87.56
245.399	86.56
245.633	91.56
245.866	73.56
246.099	77.56
246.333	74.56
246.566	70.56
246.8	75.56
247.033	88.56
247.266	70.56
247.5	74.56
247.733	97.56
247.966	83.56
248.2	86.56
248.433	78.56
248.666	72.56
248.899	83.56
249.133	97.56
249.366	91.56
249.599	82.56
249.832	73.56
250.066	77.56
250.299	83.56
250.532	87.56
250.765	77.56
250.998	76.56
251.231	74.56
251.465	62.56
251.698	80.56
251.931	77.56
252.164	93.56
252.397	79.56
252.63	85.56
252.863	71.56
253.096	74.56
253.329	83.56
253.562	81.56
253.795	83.56
254.028	96.56
254.261	75.56
254.494	75.56
254.727	86.56
254.96	81.56
255.193	97.56
255.426	89.56
255.659	67.56
255.892	68.56
256.124	79.56
256.357	79.56
256.59	79.56
256.823	93.56
257.056	81.56
257.289	82.56
257.521	75.56
257.754	81.56
257.987	97.56
258.22	88.56
258.452	96.56
258.685	93.56
258.918	80.56
259.151	89.56
259.383	87.56
259.616	66.56
259.849	66.56
260.081	73.56
260.314	93.56
260.547	90.56
260.779	81.56
261.012	80.56
261.244	86.56
261.477	98.56
261.71	93.56
261.942	101.56
262.175	110.56
262.407	92.56
262.64	74.56
262.872	81.56
263.105	81.56
263.337	102.56
263.57	82.56
263.802	88.56
264.035	87.56
264.267	89.56
264.499	80.56
264.732	78.56
264.964	87.56
265.197	90.56
265.429	94.56
265.661	86.56
265.894	78.56
266.126	102.56
266.358	77.56
266.591	85.56
266.823	58.56
267.055	71.56
267.287	82.56
267.52	83.56
267.752	82.56
267.984	97.56
268.216	99.56
268.448	86.56
268.681	81.56
268.913	80.56
269.145	94.56
269.377	73.56
269.609	74.56
269.841	75.56
270.073	85.56
270.306	87.56
270.538	89.56
270.77	79.56
271.002	72.56
271.234	76.56
271.466	88.56
271.698	89.56
271.93	91.56
272.162	84.56
272.394	89.56
272.626	87.56
272.858	85.56
273.09	71.56
273.322	66.56
273.553	77.56
273.785	88.56
274.017	82.56
274.249	89.56
274.481	83.56
274.713	99.56
274.945	83.56
275.176	71.56
275.408	85.56
275.64	98.56
275.872	88.56
276.104	76.56
276.335	87.56
276.567	101.56
276.799	94.56
277.031	83.56
277.262	81.56
277.494	81.56
277.726	88.56
277.957	88.56
278.189	77.56
278.421	94.56
278.652	88.56
278.884	89.56
279.115	83.56
279.347	81.56
279.579	81.56
279.81	82.56
280.042	78.56
280.273	102.56
280.505	88.56
280.736	87.56
280.968	87.56
281.199	87.56
281.431	87.56
281.662	86.56
281.894	98.56
282.125	102.56
282.356	104.56
282.588	130.56
282.819	105.56
283.051	81.56
283.282	87.56
283.513	90.56
283.745	80.56
283.976	82.56
284.207	85.56
284.439	81.56
284.67	85.56
284.901	101.56
285.132	82.56
285.364	68.56
285.595	92.56
285.826	98.56
286.057	94.56
286.288	103.56
286.52	82.56
286.751	82.56
286.982	82.56
287.213	80.56
287.444	77.56
287.675	91.56
287.906	91.56
288.138	79.56
288.369	103.56
288.6	78.56
288.831	102.56
289.062	85.56
289.293	82.56
289.524	93.56
289.755	89.56
289.986	82.56
290.217	95.56
290.448	93.56
290.679	89.56
290.91	82.56
291.141	83.56
291.371	93.56
291.602	94.56
291.833	84.56
292.064	88.56
292.295	88.56
292.526	87.56
292.757	87.56
292.987	86.56
293.218	84.56
293.449	74.56
293.68	88.56
293.91	83.56
294.141	99.56
294.372	88.56
294.603	93.56
294.833	88.56
295.064	91.56
295.295	84.56
295.525	83.56
295.756	93.56
295.987	103.56
296.217	121.56
296.448	103.56
296.679	109.56
296.909	102.56
297.14	84.56
297.37	90.56
297.601	80.56
297.831	81.56
298.062	86.56
298.292	95.56
298.523	93.56
298.753	87.56
298.984	92.56
299.214	71.56
299.445	87.56
299.675	69.56
299.905	94.56
300.136	87.56
300.366	99.56
300.597	81.56
300.827	85.56
301.057	82.56
301.288	96.56
301.518	88.56
301.748	81.56
301.979	105.56
302.209	90.56
302.439	85.56
302.669	100.56
302.9	86.56
303.13	93.56
303.36	86.56
303.59	95.56
303.82	86.56
304.051	93.56
304.281	97.56
304.511	72.56
304.741	83.56
304.971	98.56
305.201	86.56
305.431	93.56
305.661	91.56
305.891	89.56
306.121	100.56
306.352	88.56
306.582	104.56
306.812	78.56
307.042	79.56
307.272	88.56
307.502	87.56
307.731	90.56
307.961	83.56
308.191	74.56
308.421	83.56
308.651	87.56
308.881	79.56
309.111	99.56
309.341	94.56
309.571	104.56
309.8	90.56
310.03	99.56
310.26	93.56
310.49	92.56
310.72	107.56
310.949	97.56
311.179	95.56
311.409	101.56
311.639	88.56
311.868	91.56
312.098	79.56
312.328	85.56
312.557	95.56
312.787	109.56
313.017	86.56
313.246	101.56
313.476	105.56
313.706	87.56
313.935	89.56
314.165	105.56
314.394	91.56
314.624	92.56
314.853	93.56
315.083	89.56
315.312	100.56
315.542	83.56
315.771	86.56
316.001	77.56
316.23	94.56
316.46	106.56
316.689	83.56
316.919	102.56
317.148	83.56
317.377	115.56
317.607	95.56
317.836	92.56
318.065	94.56
318.295	90.56
318.524	92.56
318.753	101.56
318.983	85.56
319.212	96.56
319.441	114.56
319.67	123.56
319.9	86.56
320.129	78.56
320.358	94.56
320.587	94.56
320.816	90.56
321.046	97.56
321.275	99.56
321.504	86.56
321.733	93.56
321.962	85.56
322.191	80.56
322.42	107.56
322.649	117.56
322.878	107.56
323.108	109.56
323.337	102.56
323.566	112.56
323.795	129.56
324.024	185.56
324.253	311.56
324.482	655.56
324.71	1322.56
324.939	1766.56
325.168	654.56
325.397	209.56
325.626	130.56
325.855	123.56
326.084	122.56
326.313	115.56
326.542	143.56
326.77	194.56
326.999	387.56
327.228	774.56
327.457	1368.56
327.686	1131.56
327.914	320.56
328.143	171.56
328.372	130.56
328.6	102.56
328.829	113.56
329.058	110.56
329.287	90.56
329.515	103.56
329.744	85.56
329.972	102.56
330.201	98.56
330.43	106.56
330.658	117.56
330.887	134.56
331.115	110.56
331.344	90.56
331.572	101.56
331.801	98.56
332.03	95.56
332.258	86.56
332.486	88.56
332.715	87.56
332.943	97.56
333.172	88.56
333.4	98.56
333.629	101.56
333.857	110.56
334.085	98.56
334.314	99.56
334.542	92.56
334.771	105.56
334.999	93.56
335.227	95.56
335.455	100.56
335.684	107.56
335.912	107.56
336.14	98.56
336.369	77.56
336.597	89.56
336.825	83.56
337.053	83.56
337.281	96.56
337.51	96.56
337.738	95.56
337.966	102.56
338.194	100.56
338.422	84.56
338.65	103.56
338.878	94.56
339.106	90.56
339.334	88.56
339.562	90.56
339.79	96.56
340.018	83.56
340.246	115.56
340.474	102.56
340.702	84.56
340.93	91.56
341.158	95.56
341.386	105.56
341.614	89.56
341.842	98.56
342.07	95.56
342.298	88.56
342.526	100.56
342.754	100.56
342.981	89.56
343.209	94.56
343.437	97.56
343.665	99.56
343.893	89.56
344.12	103.56
344.348	90.56
344.576	95.56
344.804	93.56
345.031	94.56
345.259	95.56
345.487	94.56
345.714	77.56
345.942	97.56
346.17	88.56
346.397	100.56
346.625	78.56
346.853	98.56
347.08	97.56
347.308	111.56
347.535	102.56
347.763	91.56
347.99	88.56
348.218	89.56
348.445	106.56
348.673	96.56
348.9	84.56
349.128	89.56
349.355	94.56
349.583	103.56
349.81	96.56
350.037	93.56
350.265	92.56
350.492	93.56
350.72	83.56
350.947	106.56
351.174	94.56
351.402	94.56
351.629	99.56
351.856	107.56
352.083	93.56
352.311	99.56
352.538	114.56
352.765	109.56
352.992	105.56
353.22	111.56
353.447	106.56
353.674	95.56
353.901	88.56
354.128	101.56
354.355	103.56
354.583	104.56
354.81	102.56
355.037	105.56
355.264	86.56
355.491	100.56
355.718	85.56
355.945	97.56
356.172	96.56
356.399	100.56
356.626	95.56
356.853	93.56
357.08	93.56
357.307	93.56
357.534	89.56
357.761	81.56
357.988	85.56
358.215	89.56
358.441	104.56
358.668	94.56
358.895	90.56
359.122	83.56
359.349	89.56
359.576	101.56
359.802	89.56
360.029	96.56
360.256	92.56
360.483	112.56
360.709	89.56
360.936	90.56
361.163	95.56
361.39	89.56
361.616	82.56
361.843	88.56
362.07	92.56
362.296	94.56
362.523	90.56
362.749	89.56
362.976	81.56
363.203	89.56
363.429	94.56
363.656	77.56
363.882	90.56
364.109	92.56
364.335	90.56
364.562	83.56
364.788	64.56
365.015	96.56
365.241	90.56
365.468	111.56
365.694	93.56
365.92	99.56
366.147	83.56
366.373	89.56
366.599	87.56
366.826	89.56
367.052	80.56
367.278	93.56
367.505	102.56
367.731	90.56
367.957	82.56
368.184	82.56
368.41	100.56
368.636	115.56
368.862	113.56
369.089	103.56
369.315	81.56
369.541	101.56
369.767	94.56
369.993	87.56
370.219	79.56
370.445	106.56
370.672	93.56
370.898	89.56
371.124	85.56
371.35	93.56
371.576	80.56
371.802	82.56
372.028	98.56
372.254	93.56
372.48	83.56
372.706	74.56
372.932	80.56
373.158	78.56
373.384	102.56
373.61	85.56
373.835	94.56
374.061	86.56
374.287	88.56
374.513	93.56
374.739	64.56
374.965	82.56
375.191	95.56
375.416	83.56
375.642	86.56
375.868	95.56
376.094	94.56
376.319	81.56
376.545	80.56
376.771	83.56
376.997	88.56
377.222	89.56
377.448	91.56
377.674	94.56
377.899	87.56
378.125	87.56
378.35	88.56
378.576	94.56
378.802	83.56
379.027	90.56
379.253	80.56
379.478	83.56
379.704	94.56
379.929	96.56
380.155	93.56
380.38	95.56
380.606	101.56
380.831	88.56
381.057	105.56
381.282	92.56
381.507	90.56
381.733	102.56
381.958	96.56
382.184	101.56
382.409	105.56
382.634	101.56
382.86	92.56
383.085	103.56
383.31	94.56
383.535	90.56
383.761	95.56
383.986	83.56
384.211	101.56
384.436	95.56
384.662	94.56
384.887	100.56
385.112	96.56
385.337	96.56
385.562	100.56
385.787	89.56
386.013	111.56
386.238	101.56
386.463	101.56
386.688	115.56
386.913	106.56
387.138	113.56
387.363	103.56
387.588	101.56
387.813	97.56
388.038	94.56
388.263	104.56
388.488	98.56
388.713	96.56
388.938	90.56
389.163	92.56
389.387	111.56
389.612	95.56
389.837	104.56
390.062	91.56
390.287	92.56
390.512	90.56
390.736	90.56
390.961	111.56
391.186	90.56
391.411	89.56
391.636	96.56
391.86	90.56
392.085	82.56
392.31	88.56
392.534	84.56
392.759	107.56
392.984	82.56
393.208	94.56
393.433	98.56
393.658	82.56
393.882	86.56
394.107	96.56
394.331	84.56
394.556	93.56
394.78	91.56
395.005	93.56
395.229	89.56
395.454	88.56
395.678	83.56
395.903	87.56
396.127	94.56
396.352	92.56
396.576	90.56
396.801	78.56
397.025	81.56
397.249	87.56
397.474	81.56
397.698	85.56
397.922	87.56
398.147	86.56
398.371	80.56
398.595	82.56
398.82	93.56
399.044	83.56
399.268	72.56
399.492	95.56
399.717	72.56
399.941	85.56
400.165	104.56
400.389	93.56
400.613	91.56
400.837	92.56
401.062	91.56
401.286	93.56
401.51	79.56
401.734	82.56
401.958	97.56
402.182	114.56
402.406	136.56
402.63	103.56
402.854	95.56
403.078	78.56
403.302	84.56
403.526	86.56
403.75	78.56
403.974	87.56
404.198	87.56
404.422	91.56
404.645	100.56
404.869	96.56
405.093	92.56
405.317	77.56
405.541	98.56
405.765	99.56
405.988	113.56
406.212	159.56
406.436	187.56
406.66	121.56
406.883	97.56
407.107	83.56
407.331	94.56
407.555	66.56
407.778	98.56
408.002	98.56
408.226	97.56
408.449	73.56
408.673	92.56
408.896	86.56
409.12	83.56
409.344	108.56
409.567	87.56
409.791	89.56
410.014	88.56
410.238	93.56
410.461	88.56
410.685	96.56
410.908	106.56
411.132	93.56
411.355	103.56
411.578	89.56
411.802	95.56
412.025	87.56
412.249	84.56
412.472	95.56
412.695	91.56
412.919	96.56
413.142	106.56
413.365	88.56
413.589	82.56
413.812	83.56
414.035	96.56
414.258	92.56
414.482	91.56
414.705	94.56
414.928	81.56
415.151	74.56
415.374	102.56
415.597	86.56
415.821	95.56
416.044	87.56
416.267	80.56
416.49	90.56
416.713	105.56
416.936	89.56
417.159	78.56
417.382	93.56
417.605	80.56
417.828	99.56
418.051	104.56
418.274	89.56
418.497	113.56
418.72	93.56
418.943	102.56
419.166	85.56
419.389	77.56
419.611	81.56
419.834	97.56
420.057	89.56
420.28	89.56
420.503	85.56
420.726	88.56
420.948	101.56
421.171	77.56
421.394	95.56
421.617	88.56
421.839	94.56
422.062	86.56
422.285	99.56
422.507	97.56
422.73	84.56
422.953	84.56
423.175	84.56
423.398	81.56
423.621	87.56
423.843	89.56
424.066	87.56
424.288	77.56
424.511	83.56
424.733	104.56
424.956	102.56
425.178	84.56
425.401	95.56
425.623	96.56
425.846	89.56
426.068	90.56
426.291	98.56
426.513	91.56
426.735	88.56
426.958	86.56
427.18	107.56
427.402	131.56
427.625	151.56
427.847	107.56
428.069	102.56
428.292	93.56
428.514	87.56
428.736	77.56
428.958	86.56
429.181	88.56
429.403	90.56
429.625	83.56
429.847	82.56
430.069	91.56
430.292	89.56
430.514	79.56
430.736	93.56
430.958	87.56
431.18	78.56
431.402	88.56
431.624	70.56
431.846	93.56
432.068	87.56
432.29	85.56
432.512	82.56
432.734	93.56
432.956	88.56
433.178	83.56
433.4	99.56
433.622	106.56
433.844	81.56
434.066	111.56
434.287	93.56
434.509	89.56
434.731	104.56
434.953	95.56
435.175	94.56
435.397	88.56
435.618	93.56
435.84	101.56
436.062	127.56
436.284	102.56
436.505	94.56
436.727	107.56
436.949	92.56
437.17	93.56
437.392	98.56
437.614	85.56
437.835	96.56
438.057	110.56
438.278	102.56
438.5	98.56
438.721	126.56
438.943	105.56
439.165	80.56
439.386	97.56
439.608	87.56
439.829	97.56
440.05	93.56
440.272	126.56
440.493	87.56
440.715	95.56
440.936	96.56
441.158	97.56
441.379	75.56
441.6	95.56
441.822	94.56
442.043	104.56
442.264	110.56
442.486	85.56
442.707	102.56
442.928	95.56
443.149	136.56
443.371	115.56
443.592	116.56
443.813	117.56
444.034	100.56
444.255	96.56
444.476	95.56
444.698	77.56
444.919	90.56
445.14	127.56
445.361	119.56
445.582	106.56
445.803	129.56
446.024	128.56
446.245	142.56
446.466	106.56
446.687	83.56
446.908	84.56
447.129	96.56
447.35	86.56
447.571	85.56
447.792	107.56
448.013	103.56
448.234	90.56
448.455	104.56
448.675	118.56
448.896	121.56
449.117	105.56
449.338	84.56
449.559	123.56
449.779	120.56
450	100.56
450.221	91.56
450.442	81.56
450.662	82.56
450.883	98.56
451.104	103.56
451.324	89.56
451.545	90.56
451.766	85.56
451.986	93.56
452.207	90.56
452.428	104.56
452.648	99.56
452.869	106.56
453.089	94.56
453.31	102.56
453.53	94.56
453.751	88.56
453.971	83.56
454.192	100.56
454.412	88.56
454.633	93.56
454.853	83.56
455.073	82.56
455.294	87.56
455.514	99.56
455.734	87.56
455.955	106.56
456.175	86.56
456.395	89.56
456.616	81.56
456.836	94.56
457.056	82.56
457.276	94.56
457.497	71.56
457.717	82.56
457.937	79.56
458.157	78.56
458.377	84.56
458.598	99.56
458.818	131.56
459.038	146.56
459.258	102.56
459.478	95.56
459.698	93.56
459.918	83.56
460.138	89.56
460.358	85.56
460.578	95.56
460.798	81.56
461.018	94.56
461.238	100.56
461.458	80.56
461.678	78.56
461.898	78.56
462.118	103.56
462.338	79.56
462.558	90.56
462.777	85.56
462.997	81.56
463.217	70.56
463.437	87.56
463.657	80.56
463.876	88.56
464.096	89.56
464.316	89.56
464.536	96.56
464.755	99.56
464.975	112.56
465.195	137.56
465.414	135.56
465.634	101.56
465.854	85.56
466.073	81.56
466.293	76.56
466.512	77.56
466.732	83.56
466.951	93.56
467.171	98.56
467.391	100.56
467.61	100.56
467.829	93.56
468.049	96.56
468.268	102.56
468.488	79.56
468.707	76.56
468.927	93.56
469.146	89.56
469.365	83.56
469.585	64.56
469.804	88.56
470.023	94.56
470.243	79.56
470.462	98.56
470.681	106.56
470.901	92.56
471.12	85.56
471.339	75.56
471.558	82.56
471.777	101.56
471.997	70.56
472.216	99.56
472.435	89.56
472.654	85.56
472.873	91.56
473.092	90.56
473.311	82.56
473.53	79.56
473.749	78.56
473.968	82.56
474.187	110.56
474.406	101.56
474.625	82.56
474.844	95.56
475.063	72.56
475.282	81.56
475.501	95.56
475.72	87.56
475.939	87.56
476.158	101.56
476.377	80.56
476.596	74.56
476.814	79.56
477.033	84.56
477.252	84.56
477.471	89.56
477.69	89.56
477.908	90.56
478.127	98.56
478.346	72.56
478.564	98.56
478.783	101.56
479.002	93.56
479.22	95.56
479.439	93.56
479.658	103.56
479.876	84.56
480.095	84.56
480.313	88.56
480.532	84.56
480.751	89.56
480.969	85.56
481.188	79.56
481.406	86.56
481.624	95.56
481.843	100.56
482.061	84.56
482.28	86.56
482.498	92.56
482.717	73.56
482.935	95.56
483.153	83.56
483.372	91.56
483.59	81.56
483.808	94.56
484.027	82.56
484.245	98.56
484.463	71.56
484.681	97.56
484.9	89.56
485.118	107.56
485.336	90.56
485.554	102.56
485.772	106.56
485.99	92.56
486.209	115.56
486.427	109.56
486.645	103.56
486.863	115.56
487.081	104.56
487.299	91.56
487.517	96.56
487.735	87.56
487.953	85.56
488.171	98.56
488.389	102.56
488.607	82.56
488.825	106.56
489.043	92.56
489.261	96.56
489.479	95.56
489.696	77.56
489.914	88.56
490.132	91.56
490.35	97.56
490.568	77.56
490.786	90.56
491.003	76.56
491.221	80.56
491.439	77.56
491.657	88.56
491.874	103.56
492.092	75.56
492.31	83.56
492.527	86.56
492.745	93.56
492.963	91.56
493.18	97.56
493.398	86.56
493.615	91.56
493.833	91.56
494.05	86.56
494.268	82.56
494.485	82.56
494.703	86.56
494.92	86.56
495.138	96.56
495.355	93.56
495.573	79.56
495.79	107.56
496.008	105.56
496.225	75.56
496.442	71.56
496.66	81.56
496.877	81.56
497.094	107.56
497.312	93.56
497.529	89.56
497.746	93.56
497.963	89.56
498.181	90.56
498.398	88.56
498.615	103.56
498.832	100.56
499.049	113.56
499.267	109.56
499.484	88.56
499.701	84.56
499.918	92.56
500.135	77.56
500.352	91.56
500.569	90.56
500.786	104.56
501.003	94.56
501.22	94.56
501.437	89.56
501.654	95.56
501.871	119.56
502.088	90.56
502.305	84.56
502.522	91.56
502.739	94.56
502.956	87.56
503.172	91.56
503.389	89.56
503.606	99.56
503.823	94.56
504.04	94.56
504.256	87.56
504.473	92.56
504.69	91.56
504.907	88.56
505.123	79.56
505.34	75.56
505.557	94.56
505.773	85.56
505.99	79.56
506.207	84.56
506.423	91.56
506.64	87.56
506.856	84.56
507.073	88.56
507.289	90.56
507.506	83.56
507.722	103.56
507.939	116.56
508.155	96.56
508.372	85.56
508.588	87.56
508.805	95.56
509.021	95.56
509.238	109.56
509.454	110.56
509.67	94.56
509.887	107.56
510.103	134.56
510.319	177.56
510.536	585.56
510.752	1800.56
510.968	496.56
511.184	134.56
511.401	96.56
511.617	105.56
511.833	83.56
512.049	91.56
512.265	92.56
512.481	94.56
512.698	93.56
512.914	101.56
513.13	91.56
513.346	82.56
513.562	96.56
513.778	95.56
513.994	97.56
514.21	91.56
514.426	107.56
514.642	114.56
514.858	106.56
515.074	146.56
515.29	355.56
515.506	1075.56
515.721	399.56
515.937	136.56
516.153	106.56
