Data from Uncirc_1987_H10_HRD10591_00005.txt Node
Date: Wed Jan 03 12:08:49 EST 2024
User: Yrep
Spectrometer: HR+D1059
Trigger mode: 1
Integration Time (sec): 1.000000E-1
Scans to average: 1
Electric dark correction enabled: true
Nonlinearity correction enabled: false
Boxcar width: 0
XAxis mode: Wavelengths
Number of Pixels in Spectrum: 2048
>>>>>Begin Spectral Data<<<<<
223.165	-21
223.4	-21
223.635	-21
223.869	-15
224.104	-16
224.338	-21
224.573	-9
224.808	-1
225.042	-17
225.277	-7
225.511	-6
225.746	3
225.98	8
226.215	5
226.449	20
226.683	14
226.918	28
227.152	35
227.387	51
227.621	30
227.856	34
228.09	54
228.324	51
228.559	61
228.793	55
229.027	67
229.262	61
229.496	72
229.73	78
229.964	90
230.199	62
230.433	79
230.667	71
230.901	72
231.136	70
231.37	79
231.604	68
231.838	79
232.072	74
232.306	82
232.541	75
232.775	75
233.009	92
233.243	84
233.477	88
233.711	67
233.945	87
234.179	89
234.413	90
234.647	81
234.881	83
235.115	81
235.349	62
235.583	77
235.817	71
236.051	89
236.285	87
236.519	77
236.753	67
236.987	83
237.221	87
237.455	79
237.689	81
237.922	61
238.156	88
238.39	99
238.624	77
238.858	67
239.091	87
239.325	81
239.559	68
239.793	79
240.027	75
240.26	80
240.494	71
240.728	70
240.961	83
241.195	72
241.429	79
241.662	81
241.896	73
242.13	80
242.363	90
242.597	73
242.83	67
243.064	71
243.298	72
243.531	89
243.765	87
243.998	79
244.232	72
244.465	86
244.699	72
244.932	73
245.166	67
245.399	83
245.633	86
245.866	81
246.099	82
246.333	67
246.566	68
246.8	89
247.033	84
247.266	79
247.5	82
247.733	77
247.966	68
248.2	71
248.433	75
248.666	83
248.899	84
249.133	83
249.366	91
249.599	90
249.832	87
250.066	91
250.299	68
250.532	77
250.765	83
250.998	93
251.231	91
251.465	80
251.698	91
251.931	69
252.164	69
252.397	85
252.63	87
252.863	88
253.096	85
253.329	79
253.562	74
253.795	79
254.028	83
254.261	68
254.494	73
254.727	78
254.96	81
255.193	67
255.426	86
255.659	83
255.892	96
256.124	87
256.357	60
256.59	88
256.823	87
257.056	94
257.289	77
257.521	83
257.754	82
257.987	73
258.22	79
258.452	63
258.685	78
258.918	98
259.151	88
259.383	69
259.616	76
259.849	73
260.081	85
260.314	77
260.547	78
260.779	86
261.012	79
261.244	74
261.477	83
261.71	98
261.942	112
262.175	90
262.407	85
262.64	77
262.872	68
263.105	80
263.337	93
263.57	73
263.802	85
264.035	94
264.267	62
264.499	79
264.732	78
264.964	86
265.197	78
265.429	87
265.661	82
265.894	100
266.126	83
266.358	80
266.591	85
266.823	79
267.055	88
267.287	98
267.52	68
267.752	78
267.984	92
268.216	69
268.448	88
268.681	82
268.913	80
269.145	90
269.377	84
269.609	87
269.841	85
270.073	105
270.306	88
270.538	82
270.77	82
271.002	86
271.234	88
271.466	84
271.698	101
271.93	96
272.162	93
272.394	88
272.626	79
272.858	86
273.09	87
273.322	98
273.553	88
273.785	90
274.017	77
274.249	80
274.481	79
274.713	74
274.945	91
275.176	89
275.408	81
275.64	78
275.872	103
276.104	82
276.335	69
276.567	83
276.799	95
277.031	97
277.262	82
277.494	101
277.726	68
277.957	69
278.189	85
278.421	81
278.652	78
278.884	85
279.115	83
279.347	86
279.579	89
279.81	69
280.042	95
280.273	91
280.505	83
280.736	85
280.968	75
281.199	78
281.431	94
281.662	86
281.894	94
282.125	89
282.356	97
282.588	119
282.819	118
283.051	84
283.282	83
283.513	81
283.745	80
283.976	91
284.207	78
284.439	82
284.67	86
284.901	77
285.132	75
285.364	89
285.595	92
285.826	72
286.057	90
286.288	74
286.52	70
286.751	82
286.982	87
287.213	81
287.444	88
287.675	87
287.906	87
288.138	86
288.369	90
288.6	84
288.831	94
289.062	94
289.293	78
289.524	93
289.755	78
289.986	79
290.217	90
290.448	74
290.679	84
290.91	98
291.141	94
291.371	86
291.602	68
291.833	75
292.064	90
292.295	96
292.526	100
292.757	81
292.987	84
293.218	73
293.449	86
293.68	84
293.91	84
294.141	94
294.372	113
294.603	92
294.833	77
295.064	88
295.295	101
295.525	89
295.756	95
295.987	107
296.217	120
296.448	116
296.679	94
296.909	93
297.14	71
297.37	95
297.601	95
297.831	89
298.062	90
298.292	87
298.523	87
298.753	94
298.984	90
299.214	97
299.445	85
299.675	94
299.905	105
300.136	88
300.366	77
300.597	84
300.827	93
301.057	90
301.288	90
301.518	80
301.748	91
301.979	118
302.209	91
302.439	83
302.669	99
302.9	91
303.13	99
303.36	84
303.59	93
303.82	91
304.051	92
304.281	85
304.511	94
304.741	91
304.971	85
305.201	96
305.431	85
305.661	84
305.891	89
306.121	90
306.352	89
306.582	103
306.812	95
307.042	83
307.272	80
307.502	89
307.731	89
307.961	89
308.191	83
308.421	92
308.651	89
308.881	101
309.111	93
309.341	96
309.571	90
309.8	95
310.03	98
310.26	78
310.49	87
310.72	104
310.949	95
311.179	97
311.409	101
311.639	79
311.868	85
312.098	101
312.328	88
312.557	88
312.787	118
313.017	84
313.246	89
313.476	92
313.706	103
313.935	93
314.165	96
314.394	94
314.624	98
314.853	103
315.083	104
315.312	96
315.542	93
315.771	101
316.001	99
316.23	95
316.46	101
316.689	100
316.919	97
317.148	90
317.377	109
317.607	101
317.836	93
318.065	98
318.295	93
318.524	102
318.753	96
318.983	93
319.212	106
319.441	100
319.67	104
319.9	81
320.129	85
320.358	98
320.587	98
320.816	99
321.046	97
321.275	102
321.504	93
321.733	91
321.962	92
322.191	100
322.42	99
322.649	99
322.878	88
323.108	118
323.337	120
323.566	125
323.795	139
324.024	179
324.253	344
324.482	693
324.71	1412
324.939	1927
325.168	696
325.397	227
325.626	129
325.855	118
326.084	123
326.313	123
326.542	128
326.77	190
326.999	388
327.228	813
327.457	1475
327.686	1213
327.914	336
328.143	172
328.372	133
328.6	113
328.829	119
329.058	107
329.287	105
329.515	114
329.744	97
329.972	99
330.201	98
330.43	114
330.658	109
330.887	116
331.115	102
331.344	107
331.572	85
331.801	92
332.03	90
332.258	96
332.486	89
332.715	104
332.943	90
333.172	81
333.4	65
333.629	87
333.857	94
334.085	98
334.314	97
334.542	106
334.771	96
334.999	89
335.227	90
335.455	96
335.684	100
335.912	91
336.14	86
336.369	108
336.597	106
336.825	87
337.053	96
337.281	95
337.51	74
337.738	87
337.966	101
338.194	94
338.422	87
338.65	86
338.878	110
339.106	91
339.334	87
339.562	96
339.79	107
340.018	99
340.246	94
340.474	99
340.702	97
340.93	106
341.158	69
341.386	83
341.614	109
341.842	72
342.07	101
342.298	94
342.526	85
342.754	78
342.981	94
343.209	106
343.437	110
343.665	81
343.893	99
344.12	91
344.348	83
344.576	81
344.804	96
345.031	89
345.259	105
345.487	99
345.714	78
345.942	97
346.17	97
346.397	108
346.625	103
346.853	95
347.08	83
347.308	90
347.535	94
347.763	105
347.99	101
348.218	86
348.445	106
348.673	97
348.9	98
349.128	92
349.355	91
349.583	81
349.81	87
350.037	82
350.265	100
350.492	103
350.72	98
350.947	100
351.174	99
351.402	109
351.629	107
351.856	89
352.083	109
352.311	88
352.538	114
352.765	98
352.992	104
353.22	102
353.447	105
353.674	87
353.901	94
354.128	95
354.355	97
354.583	88
354.81	105
355.037	100
355.264	97
355.491	88
355.718	80
355.945	89
356.172	96
356.399	96
356.626	94
356.853	96
357.08	101
357.307	94
357.534	92
357.761	103
357.988	97
358.215	93
358.441	96
358.668	89
358.895	112
359.122	78
359.349	82
359.576	81
359.802	94
360.029	114
360.256	102
360.483	87
360.709	95
360.936	87
361.163	88
361.39	96
361.616	96
361.843	84
362.07	93
362.296	85
362.523	86
362.749	90
362.976	94
363.203	82
363.429	86
363.656	98
363.882	89
364.109	85
364.335	83
364.562	83
364.788	87
365.015	90
365.241	96
365.468	105
365.694	85
365.92	90
366.147	100
366.373	87
366.599	83
366.826	84
367.052	84
367.278	97
367.505	81
367.731	82
367.957	96
368.184	96
368.41	92
368.636	104
368.862	94
369.089	98
369.315	97
369.541	88
369.767	89
369.993	101
370.219	94
370.445	88
370.672	84
370.898	81
371.124	89
371.35	90
371.576	86
371.802	90
372.028	89
372.254	99
372.48	88
372.706	77
372.932	90
373.158	92
373.384	86
373.61	77
373.835	83
374.061	93
374.287	100
374.513	94
374.739	85
374.965	89
375.191	90
375.416	84
375.642	88
375.868	89
376.094	83
376.319	85
376.545	94
376.771	77
376.997	90
377.222	79
377.448	97
377.674	94
377.899	87
378.125	91
378.35	92
378.576	90
378.802	80
379.027	93
379.253	97
379.478	88
379.704	101
379.929	107
380.155	86
380.38	98
380.606	96
380.831	99
381.057	105
381.282	105
381.507	94
381.733	87
381.958	98
382.184	93
382.409	94
382.634	116
382.86	115
383.085	109
383.31	93
383.535	90
383.761	86
383.986	98
384.211	93
384.436	102
384.662	104
384.887	110
385.112	103
385.337	100
385.562	95
385.787	101
386.013	106
386.238	109
386.463	100
386.688	110
386.913	93
387.138	95
387.363	111
387.588	106
387.813	106
388.038	101
388.263	111
388.488	111
388.713	91
388.938	81
389.163	88
389.387	96
389.612	92
389.837	98
390.062	105
390.287	99
390.512	74
390.736	100
390.961	85
391.186	108
391.411	98
391.636	101
391.86	99
392.085	81
392.31	96
392.534	72
392.759	63
392.984	88
393.208	78
393.433	103
393.658	96
393.882	76
394.107	78
394.331	90
394.556	93
394.78	92
395.005	90
395.229	81
395.454	87
395.678	82
395.903	86
396.127	103
396.352	112
396.576	89
396.801	94
397.025	88
397.249	90
397.474	93
397.698	85
397.922	85
398.147	101
398.371	86
398.595	90
398.82	87
399.044	96
399.268	87
399.492	94
399.717	88
399.941	83
400.165	78
400.389	102
400.613	81
400.837	83
401.062	72
401.286	78
401.51	83
401.734	91
401.958	104
402.182	102
402.406	135
402.63	101
402.854	82
403.078	85
403.302	81
403.526	81
403.75	87
403.974	91
404.198	85
404.422	83
404.645	85
404.869	98
405.093	89
405.317	98
405.541	85
405.765	106
405.988	95
406.212	152
406.436	196
406.66	117
406.883	101
407.107	84
407.331	90
407.555	97
407.778	100
408.002	90
408.226	93
408.449	97
408.673	90
408.896	81
409.12	82
409.344	89
409.567	101
409.791	86
410.014	97
410.238	85
410.461	93
410.685	69
410.908	95
411.132	120
411.355	95
411.578	80
411.802	102
412.025	93
412.249	97
412.472	90
412.695	87
412.919	89
413.142	95
413.365	96
413.589	97
413.812	70
414.035	97
414.258	81
414.482	95
414.705	103
414.928	95
415.151	104
415.374	90
415.597	93
415.821	83
416.044	90
416.267	78
416.49	77
416.713	81
416.936	84
417.159	84
417.382	89
417.605	110
417.828	80
418.051	81
418.274	83
418.497	83
418.72	94
418.943	75
419.166	98
419.389	89
419.611	89
419.834	83
420.057	89
420.28	80
420.503	82
420.726	98
420.948	85
421.171	95
421.394	96
421.617	81
421.839	85
422.062	89
422.285	88
422.507	86
422.73	95
422.953	97
423.175	77
423.398	83
423.621	86
423.843	77
424.066	83
424.288	86
424.511	95
424.733	105
424.956	89
425.178	92
425.401	106
425.623	102
425.846	84
426.068	86
426.291	88
426.513	97
426.735	99
426.958	96
427.18	98
427.402	112
427.625	138
427.847	106
428.069	98
428.292	87
428.514	81
428.736	93
428.958	80
429.181	87
429.403	93
429.625	91
429.847	97
430.069	88
430.292	81
430.514	86
430.736	90
430.958	83
431.18	94
431.402	87
431.624	84
431.846	77
432.068	86
432.29	79
432.512	90
432.734	82
432.956	96
433.178	91
433.4	88
433.622	91
433.844	92
434.066	88
434.287	81
434.509	82
434.731	87
434.953	91
435.175	77
435.397	75
435.618	96
435.84	100
436.062	100
436.284	113
436.505	101
436.727	91
436.949	98
437.17	88
437.392	73
437.614	102
437.835	107
438.057	113
438.278	102
438.5	102
438.721	125
438.943	109
439.165	95
439.386	87
439.608	87
439.829	87
440.05	114
440.272	120
440.493	102
440.715	84
440.936	77
441.158	78
441.379	80
441.6	96
441.822	85
442.043	93
442.264	112
442.486	98
442.707	78
442.928	102
443.149	108
443.371	134
443.592	97
443.813	87
444.034	103
444.255	102
444.476	82
444.698	68
444.919	99
445.14	113
445.361	98
445.582	104
445.803	117
446.024	121
446.245	116
446.466	104
446.687	89
446.908	96
447.129	101
447.35	81
447.571	82
447.792	86
448.013	96
448.234	106
448.455	90
448.675	107
448.896	123
449.117	84
449.338	91
449.559	126
449.779	120
450	99
450.221	71
450.442	85
450.662	85
450.883	107
451.104	100
451.324	84
451.545	101
451.766	86
451.986	87
452.207	79
452.428	81
452.648	97
452.869	105
453.089	106
453.31	109
453.53	101
453.751	84
453.971	106
454.192	100
454.412	97
454.633	84
454.853	75
455.073	73
455.294	90
455.514	95
455.734	89
455.955	82
456.175	77
456.395	79
456.616	68
456.836	85
457.056	93
457.276	74
457.497	86
457.717	90
457.937	93
458.157	105
458.377	91
458.598	97
458.818	137
459.038	121
459.258	109
459.478	87
459.698	95
459.918	86
460.138	78
460.358	74
460.578	90
460.798	83
461.018	96
461.238	93
461.458	79
461.678	83
461.898	85
462.118	82
462.338	72
462.558	86
462.777	88
462.997	89
463.217	101
463.437	74
463.657	89
463.876	82
464.096	79
464.316	89
464.536	100
464.755	90
464.975	109
465.195	135
465.414	130
465.634	99
465.854	91
466.073	93
466.293	80
466.512	78
466.732	82
466.951	92
467.171	86
467.391	107
467.61	100
467.829	87
468.049	98
468.268	83
468.488	92
468.707	83
468.927	105
469.146	83
469.365	77
469.585	87
469.804	83
470.023	94
470.243	91
470.462	95
470.681	101
470.901	102
471.12	87
471.339	82
471.558	97
471.777	97
471.997	86
472.216	90
472.435	99
472.654	87
472.873	82
473.092	83
473.311	90
473.53	87
473.749	94
473.968	100
474.187	104
474.406	89
474.625	89
474.844	98
475.063	97
475.282	81
475.501	92
475.72	87
475.939	74
476.158	91
476.377	91
476.596	81
476.814	87
477.033	82
477.252	78
477.471	79
477.69	87
477.908	90
478.127	106
478.346	96
478.564	94
478.783	104
479.002	98
479.22	72
479.439	83
479.658	102
479.876	93
480.095	77
480.313	76
480.532	79
480.751	94
480.969	103
481.188	98
481.406	99
481.624	83
481.843	86
482.061	95
482.28	86
482.498	88
482.717	90
482.935	81
483.153	91
483.372	81
483.59	89
483.808	85
484.027	91
484.245	93
484.463	103
484.681	85
484.9	97
485.118	97
485.336	102
485.554	91
485.772	97
485.99	95
486.209	104
486.427	99
486.645	115
486.863	107
487.081	95
487.299	98
487.517	112
487.735	95
487.953	95
488.171	93
488.389	110
488.607	101
488.825	99
489.043	84
489.261	85
489.479	91
489.696	94
489.914	106
490.132	88
490.35	96
490.568	86
490.786	94
491.003	109
491.221	88
491.439	79
491.657	83
491.874	99
492.092	80
492.31	86
492.527	98
492.745	103
492.963	87
493.18	85
493.398	86
493.615	105
493.833	100
494.05	90
494.268	82
494.485	86
494.703	80
494.92	87
495.138	87
495.355	101
495.573	99
495.79	89
496.008	96
496.225	94
496.442	84
496.66	82
496.877	97
497.094	81
497.312	88
497.529	80
497.746	81
497.963	85
498.181	94
498.398	90
498.615	113
498.832	103
499.049	96
499.267	87
499.484	95
499.701	95
499.918	88
500.135	85
500.352	75
500.569	86
500.786	95
501.003	81
501.22	99
501.437	96
501.654	85
501.871	90
502.088	82
502.305	82
502.522	83
502.739	86
502.956	91
503.172	91
503.389	94
503.606	79
503.823	96
504.04	87
504.256	74
504.473	75
504.69	99
504.907	90
505.123	93
505.34	87
505.557	93
505.773	94
505.99	92
506.207	95
506.423	88
506.64	84
506.856	78
507.073	107
507.289	93
507.506	89
507.722	95
507.939	106
508.155	82
508.372	82
508.588	79
508.805	99
509.021	103
509.238	97
509.454	89
509.67	95
509.887	102
510.103	124
510.319	186
510.536	616
510.752	1754
510.968	501
511.184	136
511.401	109
511.617	117
511.833	93
512.049	70
512.265	92
512.481	97
512.698	107
512.914	92
513.13	87
513.346	87
513.562	90
513.778	82
513.994	89
514.21	86
514.426	102
514.642	126
514.858	112
515.074	134
515.29	352
515.506	1078
515.721	405
515.937	134
516.153	112
516.369	106
516.585	106
516.801	97
517.016	93
517.232	86
517.448	97
517.664	82
517.879	99
518.095	88
518.311	81
518.527	103
518.742	95
518.958	103
519.173	88
519.389	87
519.605	87
519.82	100
520.036	106
520.251	103
520.467	108
520.682	98
520.898	97
521.113	107
521.329	113
521.544	161
521.76	432
521.975	1775
522.19	1059
522.406	253
522.621	119
522.836	93
523.052	106
523.267	106
523.482	89
523.698	103
523.913	98
524.128	95
524.343	97
524.559	85
524.774	84
524.989	93
525.204	113
525.419	122
525.634	88
525.849	81
526.064	99
526.28	82
526.495	95
526.71	77
526.925	85
527.14	85
527.355	71
527.57	105
527.785	98
527.999	96
528.214	91
528.429	93
528.644	77
528.859	87
529.074	102
529.289	114
529.503	148
529.718	112
529.933	79
530.148	92
530.363	97
530.577	93
530.792	95
531.007	80
531.221	94
531.436	97
531.651	85
531.865	89
532.08	82
532.295	102
532.509	94
532.724	96
532.938	94
533.153	105
533.367	89
533.582	99
533.796	97
534.011	95
534.225	104
534.44	80
534.654	95
534.868	77
535.083	84
535.297	94
535.511	107
535.726	98
535.94	104
536.154	105
536.369	88
536.583	81
536.797	104
537.011	88
537.225	89
537.44	90
537.654	98
537.868	90
538.082	91
538.296	82
538.51	96
538.724	83
538.938	97
539.153	93
539.367	104
539.581	102
539.795	94
540.009	86
540.222	87
540.436	90
540.65	89
540.864	93
541.078	85
541.292	73
541.506	86
541.72	92
541.934	83
542.147	95
542.361	95
542.575	81
542.789	85
543.002	79
543.216	93
543.43	96
543.644	96
543.857	85
544.071	85
544.285	74
544.498	81
544.712	77
544.925	81
545.139	92
545.352	91
545.566	93
545.779	83
545.993	100
546.206	92
546.42	82
546.633	97
546.847	85
547.06	91
547.274	88
547.487	85
547.7	97
547.914	83
548.127	95
548.34	95
548.554	91
548.767	100
548.98	95
549.193	86
549.407	84
549.62	102
549.833	89
550.046	82
550.259	90
550.473	73
550.686	84
550.899	84
551.112	94
551.325	82
551.538	90
551.751	90
551.964	91
552.177	96
552.39	87
552.603	93
552.816	85
553.029	90
553.242	86
553.455	95
553.667	111
553.88	108
554.093	89
554.306	110
554.519	83
554.732	81
554.944	85
555.157	90
555.37	94
555.583	87
555.795	102
556.008	103
556.221	108
556.433	83
556.646	106
556.859	94
557.071	85
557.284	95
557.496	98
557.709	90
557.921	98
558.134	102
558.346	93
558.559	91
558.771	89
558.984	84
559.196	78
559.409	86
559.621	90
559.833	90
560.046	88
560.258	77
560.47	101
560.683	110
560.895	85
561.107	111
561.32	83
561.532	93
561.744	89
561.956	89
562.168	96
562.381	82
562.593	74
562.805	89
563.017	105
563.229	87
563.441	86
563.653	90
563.865	90
564.077	93
564.289	86
564.501	93
564.713	84
564.925	83
565.137	96
565.349	89
565.561	96
565.773	85
565.985	81
566.197	98
566.408	95
566.62	98
566.832	87
567.044	97
567.255	89
567.467	94
567.679	89
567.891	92
568.102	83
568.314	86
568.526	84
568.737	88
568.949	97
569.161	88
569.372	86
569.584	85
569.795	98
570.007	124
570.218	214
570.43	121
570.641	97
570.853	73
571.064	96
571.276	72
571.487	74
571.698	91
571.91	82
572.121	93
572.333	96
572.544	84
572.755	107
572.966	96
573.178	90
573.389	93
573.6	82
573.811	85
574.023	96
574.234	85
574.445	93
574.656	88
574.867	101
575.078	85
575.289	86
575.501	87
575.712	73
575.923	87
576.134	86
576.345	86
576.556	94
576.767	97
576.978	93
577.188	105
577.399	90
577.61	98
577.821	89
578.032	111
578.243	235
578.454	607
578.665	182
578.875	96
579.086	99
579.297	108
579.508	92
579.718	82
579.929	86
580.14	86
580.35	82
580.561	105
580.772	94
580.982	78
581.193	101
581.403	81
581.614	67
581.825	97
582.035	96
582.246	94
582.456	90
582.667	83
582.877	87
583.087	78
583.298	85
583.508	88
583.719	78
583.929	78
584.139	74
584.35	79
584.56	101
584.77	81
584.981	75
585.191	86
