Data from Uncirc_1987_H10_HRD10591_00050.txt Node
Date: Wed Jan 03 12:08:58 EST 2024
User: Yrep
Spectrometer: HR+D1059
Trigger mode: 1
Integration Time (sec): 1.000000E-1
Scans to average: 1
Electric dark correction enabled: true
Nonlinearity correction enabled: false
Boxcar width: 0
XAxis mode: Wavelengths
Number of Pixels in Spectrum: 2048
>>>>>Begin Spectral Data<<<<<
223.165	-14.31
223.4	-14.31
223.635	-14.31
223.869	-10.31
224.104	-23.31
224.338	-26.31
224.573	-31.31
224.808	-18.31
225.042	-18.31
225.277	1.69
225.511	1.69
225.746	17.69
225.98	-0.31
226.215	13.69
226.449	25.69
226.683	27.69
226.918	33.69
227.152	20.69
227.387	18.69
227.621	38.69
227.856	52.69
228.09	33.69
228.324	45.69
228.559	44.69
228.793	61.69
229.027	75.69
229.262	81.69
229.496	66.69
229.73	79.69
229.964	85.69
230.199	69.69
230.433	78.69
230.667	83.69
230.901	71.69
231.136	81.69
231.37	73.69
231.604	82.69
231.838	85.69
232.072	81.69
232.306	96.69
232.541	79.69
232.775	85.69
233.009	68.69
233.243	85.69
233.477	87.69
233.711	85.69
233.945	75.69
234.179	86.69
234.413	80.69
234.647	79.69
234.881	76.69
235.115	87.69
235.349	89.69
235.583	86.69
235.817	78.69
236.051	73.69
236.285	83.69
236.519	93.69
236.753	92.69
236.987	77.69
237.221	80.69
237.455	89.69
237.689	67.69
237.922	66.69
238.156	72.69
238.39	80.69
238.624	92.69
238.858	85.69
239.091	83.69
239.325	93.69
239.559	84.69
239.793	84.69
240.027	82.69
240.26	79.69
240.494	83.69
240.728	89.69
240.961	66.69
241.195	80.69
241.429	65.69
241.662	64.69
241.896	77.69
242.13	81.69
242.363	95.69
242.597	90.69
242.83	96.69
243.064	67.69
243.298	81.69
243.531	80.69
243.765	74.69
243.998	90.69
244.232	71.69
244.465	89.69
244.699	88.69
244.932	69.69
245.166	76.69
245.399	96.69
245.633	91.69
245.866	86.69
246.099	81.69
246.333	84.69
246.566	72.69
246.8	83.69
247.033	83.69
247.266	83.69
247.5	79.69
247.733	77.69
247.966	88.69
248.2	87.69
248.433	83.69
248.666	81.69
248.899	93.69
249.133	101.69
249.366	85.69
249.599	83.69
249.832	89.69
250.066	72.69
250.299	67.69
250.532	90.69
250.765	79.69
250.998	78.69
251.231	68.69
251.465	89.69
251.698	97.69
251.931	81.69
252.164	81.69
252.397	78.69
252.63	82.69
252.863	75.69
253.096	88.69
253.329	87.69
253.562	89.69
253.795	80.69
254.028	88.69
254.261	82.69
254.494	86.69
254.727	95.69
254.96	85.69
255.193	86.69
255.426	81.69
255.659	83.69
255.892	91.69
256.124	93.69
256.357	84.69
256.59	88.69
256.823	83.69
257.056	83.69
257.289	84.69
257.521	82.69
257.754	94.69
257.987	108.69
258.22	79.69
258.452	75.69
258.685	70.69
258.918	94.69
259.151	83.69
259.383	75.69
259.616	84.69
259.849	95.69
260.081	81.69
260.314	96.69
260.547	83.69
260.779	79.69
261.012	96.69
261.244	87.69
261.477	84.69
261.71	84.69
261.942	113.69
262.175	114.69
262.407	83.69
262.64	100.69
262.872	85.69
263.105	74.69
263.337	70.69
263.57	89.69
263.802	93.69
264.035	72.69
264.267	89.69
264.499	82.69
264.732	87.69
264.964	77.69
265.197	95.69
265.429	79.69
265.661	91.69
265.894	89.69
266.126	98.69
266.358	83.69
266.591	76.69
266.823	85.69
267.055	91.69
267.287	92.69
267.52	89.69
267.752	90.69
267.984	100.69
268.216	78.69
268.448	89.69
268.681	85.69
268.913	75.69
269.145	99.69
269.377	89.69
269.609	98.69
269.841	84.69
270.073	83.69
270.306	83.69
270.538	99.69
270.77	106.69
271.002	105.69
271.234	82.69
271.466	104.69
271.698	105.69
271.93	102.69
272.162	83.69
272.394	99.69
272.626	81.69
272.858	105.69
273.09	85.69
273.322	94.69
273.553	83.69
273.785	93.69
274.017	82.69
274.249	96.69
274.481	87.69
274.713	92.69
274.945	89.69
275.176	85.69
275.408	102.69
275.64	97.69
275.872	87.69
276.104	82.69
276.335	93.69
276.567	102.69
276.799	97.69
277.031	117.69
277.262	94.69
277.494	99.69
277.726	94.69
277.957	76.69
278.189	76.69
278.421	85.69
278.652	79.69
278.884	92.69
279.115	95.69
279.347	81.69
279.579	81.69
279.81	91.69
280.042	85.69
280.273	97.69
280.505	94.69
280.736	87.69
280.968	89.69
281.199	105.69
281.431	95.69
281.662	98.69
281.894	97.69
282.125	95.69
282.356	123.69
282.588	131.69
282.819	101.69
283.051	91.69
283.282	90.69
283.513	89.69
283.745	99.69
283.976	91.69
284.207	75.69
284.439	100.69
284.67	102.69
284.901	95.69
285.132	82.69
285.364	90.69
285.595	84.69
285.826	95.69
286.057	93.69
286.288	92.69
286.52	87.69
286.751	87.69
286.982	93.69
287.213	92.69
287.444	98.69
287.675	91.69
287.906	90.69
288.138	89.69
288.369	104.69
288.6	89.69
288.831	73.69
289.062	91.69
289.293	101.69
289.524	91.69
289.755	93.69
289.986	92.69
290.217	98.69
290.448	83.69
290.679	93.69
290.91	76.69
291.141	94.69
291.371	93.69
291.602	93.69
291.833	77.69
292.064	85.69
292.295	99.69
292.526	89.69
292.757	83.69
292.987	85.69
293.218	89.69
293.449	90.69
293.68	93.69
293.91	95.69
294.141	95.69
294.372	86.69
294.603	98.69
294.833	107.69
295.064	106.69
295.295	87.69
295.525	94.69
295.756	99.69
295.987	134.69
296.217	141.69
296.448	130.69
296.679	108.69
296.909	104.69
297.14	99.69
297.37	91.69
297.601	103.69
297.831	106.69
298.062	94.69
298.292	91.69
298.523	92.69
298.753	81.69
298.984	87.69
299.214	92.69
299.445	96.69
299.675	94.69
299.905	97.69
300.136	92.69
300.366	92.69
300.597	88.69
300.827	93.69
301.057	96.69
301.288	103.69
301.518	104.69
301.748	100.69
301.979	103.69
302.209	97.69
302.439	101.69
302.669	90.69
302.9	87.69
303.13	101.69
303.36	107.69
303.59	104.69
303.82	99.69
304.051	96.69
304.281	95.69
304.511	92.69
304.741	91.69
304.971	88.69
305.201	82.69
305.431	88.69
305.661	103.69
305.891	96.69
306.121	92.69
306.352	103.69
306.582	116.69
306.812	101.69
307.042	116.69
307.272	98.69
307.502	101.69
307.731	105.69
307.961	98.69
308.191	94.69
308.421	86.69
308.651	98.69
308.881	87.69
309.111	81.69
309.341	93.69
309.571	92.69
309.8	107.69
310.03	108.69
310.26	104.69
310.49	106.69
310.72	104.69
310.949	110.69
311.179	93.69
311.409	113.69
311.639	87.69
311.868	104.69
312.098	95.69
312.328	103.69
312.557	105.69
312.787	114.69
313.017	104.69
313.246	90.69
313.476	102.69
313.706	95.69
313.935	92.69
314.165	98.69
314.394	107.69
314.624	106.69
314.853	85.69
315.083	94.69
315.312	89.69
315.542	94.69
315.771	98.69
316.001	90.69
316.23	98.69
316.46	99.69
316.689	89.69
316.919	102.69
317.148	84.69
317.377	95.69
317.607	113.69
317.836	85.69
318.065	85.69
318.295	99.69
318.524	95.69
318.753	85.69
318.983	98.69
319.212	104.69
319.441	102.69
319.67	109.69
319.9	92.69
320.129	100.69
320.358	100.69
320.587	88.69
320.816	103.69
321.046	111.69
321.275	106.69
321.504	78.69
321.733	110.69
321.962	106.69
322.191	110.69
322.42	113.69
322.649	108.69
322.878	113.69
323.108	129.69
323.337	114.69
323.566	132.69
323.795	156.69
324.024	221.69
324.253	387.69
324.482	857.69
324.71	1760.69
324.939	2365.69
325.168	849.69
325.397	256.69
325.626	140.69
325.855	135.69
326.084	146.69
326.313	131.69
326.542	152.69
326.77	244.69
326.999	460.69
327.228	970.69
327.457	1806.69
327.686	1452.69
327.914	377.69
328.143	207.69
328.372	152.69
328.6	126.69
328.829	125.69
329.058	116.69
329.287	126.69
329.515	108.69
329.744	99.69
329.972	97.69
330.201	93.69
330.43	111.69
330.658	119.69
330.887	127.69
331.115	129.69
331.344	92.69
331.572	116.69
331.801	98.69
332.03	100.69
332.258	92.69
332.486	89.69
332.715	97.69
332.943	100.69
333.172	97.69
333.4	79.69
333.629	108.69
333.857	107.69
334.085	103.69
334.314	116.69
334.542	96.69
334.771	108.69
334.999	98.69
335.227	92.69
335.455	103.69
335.684	87.69
335.912	85.69
336.14	100.69
336.369	101.69
336.597	103.69
336.825	85.69
337.053	99.69
337.281	91.69
337.51	93.69
337.738	89.69
337.966	94.69
338.194	87.69
338.422	99.69
338.65	100.69
338.878	99.69
339.106	94.69
339.334	91.69
339.562	96.69
339.79	87.69
340.018	94.69
340.246	87.69
340.474	95.69
340.702	97.69
340.93	104.69
341.158	90.69
341.386	96.69
341.614	100.69
341.842	90.69
342.07	89.69
342.298	108.69
342.526	83.69
342.754	106.69
342.981	95.69
343.209	90.69
343.437	91.69
343.665	93.69
343.893	80.69
344.12	93.69
344.348	100.69
344.576	84.69
344.804	99.69
345.031	98.69
345.259	94.69
345.487	100.69
345.714	92.69
345.942	109.69
346.17	106.69
346.397	92.69
346.625	88.69
346.853	93.69
347.08	98.69
347.308	97.69
347.535	91.69
347.763	104.69
347.99	101.69
348.218	94.69
348.445	113.69
348.673	95.69
348.9	87.69
349.128	92.69
349.355	105.69
349.583	103.69
349.81	91.69
350.037	95.69
350.265	107.69
350.492	91.69
350.72	87.69
350.947	101.69
351.174	110.69
351.402	94.69
351.629	116.69
351.856	110.69
352.083	111.69
352.311	127.69
352.538	102.69
352.765	108.69
352.992	117.69
353.22	97.69
353.447	107.69
353.674	103.69
353.901	93.69
354.128	96.69
354.355	91.69
354.583	96.69
354.81	106.69
355.037	106.69
355.264	85.69
355.491	99.69
355.718	96.69
355.945	100.69
356.172	92.69
356.399	91.69
356.626	96.69
356.853	100.69
357.08	98.69
357.307	103.69
357.534	91.69
357.761	93.69
357.988	100.69
358.215	90.69
358.441	100.69
358.668	90.69
358.895	92.69
359.122	90.69
359.349	94.69
359.576	76.69
359.802	99.69
360.029	96.69
360.256	105.69
360.483	99.69
360.709	85.69
360.936	106.69
361.163	95.69
361.39	97.69
361.616	100.69
361.843	97.69
362.07	93.69
362.296	100.69
362.523	105.69
362.749	98.69
362.976	97.69
363.203	95.69
363.429	83.69
363.656	90.69
363.882	91.69
364.109	85.69
364.335	96.69
364.562	94.69
364.788	93.69
365.015	101.69
365.241	102.69
365.468	101.69
365.694	97.69
365.92	100.69
366.147	85.69
366.373	98.69
366.599	93.69
366.826	100.69
367.052	92.69
367.278	79.69
367.505	98.69
367.731	80.69
367.957	87.69
368.184	99.69
368.41	100.69
368.636	112.69
368.862	115.69
369.089	102.69
369.315	97.69
369.541	85.69
369.767	100.69
369.993	96.69
370.219	107.69
370.445	90.69
370.672	94.69
370.898	76.69
371.124	86.69
371.35	99.69
371.576	97.69
371.802	77.69
372.028	86.69
372.254	95.69
372.48	102.69
372.706	91.69
372.932	77.69
373.158	80.69
373.384	92.69
373.61	91.69
373.835	100.69
374.061	102.69
374.287	96.69
374.513	92.69
374.739	91.69
374.965	87.69
375.191	81.69
375.416	102.69
375.642	87.69
375.868	93.69
376.094	88.69
376.319	91.69
376.545	88.69
376.771	91.69
376.997	99.69
377.222	93.69
377.448	90.69
377.674	90.69
377.899	91.69
378.125	89.69
378.35	108.69
378.576	98.69
378.802	98.69
379.027	95.69
379.253	105.69
379.478	76.69
379.704	84.69
379.929	96.69
380.155	87.69
380.38	104.69
380.606	104.69
380.831	100.69
381.057	108.69
381.282	100.69
381.507	75.69
381.733	91.69
381.958	99.69
382.184	106.69
382.409	90.69
382.634	97.69
382.86	101.69
383.085	107.69
383.31	96.69
383.535	95.69
383.761	95.69
383.986	81.69
384.211	93.69
384.436	103.69
384.662	101.69
384.887	99.69
385.112	90.69
385.337	96.69
385.562	107.69
385.787	105.69
386.013	113.69
386.238	109.69
386.463	117.69
386.688	105.69
386.913	103.69
387.138	111.69
387.363	94.69
387.588	116.69
387.813	99.69
388.038	97.69
388.263	104.69
388.488	101.69
388.713	91.69
388.938	101.69
389.163	85.69
389.387	98.69
389.612	87.69
389.837	101.69
390.062	96.69
390.287	87.69
390.512	90.69
390.736	90.69
390.961	82.69
391.186	91.69
391.411	100.69
391.636	99.69
391.86	89.69
392.085	93.69
392.31	86.69
392.534	83.69
392.759	96.69
392.984	91.69
393.208	93.69
393.433	90.69
393.658	89.69
393.882	87.69
394.107	87.69
394.331	83.69
394.556	68.69
394.78	85.69
395.005	70.69
395.229	95.69
395.454	83.69
395.678	69.69
395.903	88.69
396.127	90.69
396.352	93.69
396.576	93.69
396.801	79.69
397.025	84.69
397.249	76.69
397.474	94.69
397.698	98.69
397.922	88.69
398.147	87.69
398.371	82.69
398.595	95.69
398.82	79.69
399.044	79.69
399.268	82.69
399.492	95.69
399.717	97.69
399.941	86.69
400.165	88.69
400.389	94.69
400.613	98.69
400.837	90.69
401.062	85.69
401.286	89.69
401.51	88.69
401.734	95.69
401.958	98.69
402.182	108.69
402.406	147.69
402.63	114.69
402.854	99.69
403.078	95.69
403.302	99.69
403.526	90.69
403.75	81.69
403.974	92.69
404.198	92.69
404.422	96.69
404.645	74.69
404.869	79.69
405.093	89.69
405.317	103.69
405.541	115.69
405.765	99.69
405.988	115.69
406.212	186.69
406.436	217.69
406.66	143.69
406.883	93.69
407.107	96.69
407.331	90.69
407.555	77.69
407.778	102.69
408.002	96.69
408.226	102.69
408.449	96.69
408.673	86.69
408.896	97.69
409.12	104.69
409.344	96.69
409.567	98.69
409.791	100.69
410.014	95.69
410.238	90.69
410.461	85.69
410.685	96.69
410.908	92.69
411.132	108.69
411.355	104.69
411.578	79.69
411.802	90.69
412.025	91.69
412.249	86.69
412.472	96.69
412.695	89.69
412.919	109.69
413.142	87.69
413.365	79.69
413.589	92.69
413.812	99.69
414.035	96.69
414.258	90.69
414.482	101.69
414.705	103.69
414.928	74.69
415.151	115.69
415.374	107.69
415.597	86.69
415.821	88.69
416.044	99.69
416.267	100.69
416.49	99.69
416.713	92.69
416.936	77.69
417.159	84.69
417.382	99.69
417.605	96.69
417.828	98.69
418.051	96.69
418.274	82.69
418.497	87.69
418.72	82.69
418.943	83.69
419.166	86.69
419.389	85.69
419.611	95.69
419.834	89.69
420.057	88.69
420.28	96.69
420.503	79.69
420.726	83.69
420.948	84.69
421.171	91.69
421.394	91.69
421.617	96.69
421.839	87.69
422.062	91.69
422.285	102.69
422.507	95.69
422.73	105.69
422.953	89.69
423.175	97.69
423.398	83.69
423.621	84.69
423.843	86.69
424.066	81.69
424.288	101.69
424.511	88.69
424.733	97.69
424.956	105.69
425.178	108.69
425.401	95.69
425.623	97.69
425.846	63.69
426.068	77.69
426.291	102.69
426.513	72.69
426.735	95.69
426.958	87.69
427.18	107.69
427.402	143.69
427.625	167.69
427.847	131.69
428.069	105.69
428.292	108.69
428.514	95.69
428.736	75.69
428.958	95.69
429.181	83.69
429.403	92.69
429.625	100.69
429.847	92.69
430.069	101.69
430.292	83.69
430.514	79.69
430.736	90.69
430.958	99.69
431.18	89.69
431.402	93.69
431.624	83.69
431.846	91.69
432.068	89.69
432.29	77.69
432.512	95.69
432.734	83.69
432.956	104.69
433.178	103.69
433.4	115.69
433.622	84.69
433.844	82.69
434.066	86.69
434.287	87.69
434.509	88.69
434.731	98.69
434.953	91.69
435.175	93.69
435.397	89.69
435.618	97.69
435.84	108.69
436.062	134.69
436.284	107.69
436.505	104.69
436.727	102.69
436.949	106.69
437.17	96.69
437.392	91.69
437.614	105.69
437.835	101.69
438.057	126.69
438.278	108.69
438.5	106.69
438.721	115.69
438.943	101.69
439.165	81.69
439.386	85.69
439.608	113.69
439.829	103.69
440.05	111.69
440.272	141.69
440.493	88.69
440.715	89.69
440.936	88.69
441.158	89.69
441.379	88.69
441.6	102.69
441.822	85.69
442.043	99.69
442.264	118.69
442.486	112.69
442.707	89.69
442.928	101.69
443.149	131.69
443.371	124.69
443.592	108.69
443.813	115.69
444.034	108.69
444.255	102.69
444.476	91.69
444.698	90.69
444.919	92.69
445.14	128.69
445.361	125.69
445.582	129.69
445.803	136.69
446.024	130.69
446.245	146.69
446.466	109.69
446.687	85.69
446.908	85.69
447.129	86.69
447.35	107.69
447.571	103.69
447.792	99.69
448.013	90.69
448.234	117.69
448.455	107.69
448.675	106.69
448.896	112.69
449.117	117.69
449.338	116.69
449.559	143.69
449.779	141.69
450	94.69
450.221	92.69
450.442	98.69
450.662	99.69
450.883	93.69
451.104	100.69
451.324	87.69
451.545	85.69
451.766	83.69
451.986	93.69
452.207	84.69
452.428	103.69
452.648	97.69
452.869	114.69
453.089	124.69
453.31	101.69
453.53	104.69
453.751	79.69
453.971	83.69
454.192	104.69
454.412	99.69
454.633	86.69
454.853	95.69
455.073	97.69
455.294	104.69
455.514	115.69
455.734	96.69
455.955	73.69
456.175	91.69
456.395	84.69
456.616	97.69
456.836	70.69
457.056	80.69
457.276	96.69
457.497	81.69
457.717	92.69
457.937	89.69
458.157	91.69
458.377	101.69
458.598	100.69
458.818	142.69
459.038	162.69
459.258	104.69
459.478	87.69
459.698	83.69
459.918	88.69
460.138	92.69
460.358	86.69
460.578	82.69
460.798	92.69
461.018	84.69
461.238	83.69
461.458	83.69
461.678	96.69
461.898	98.69
462.118	97.69
462.338	81.69
462.558	101.69
462.777	81.69
462.997	83.69
463.217	99.69
463.437	80.69
463.657	90.69
463.876	89.69
464.096	89.69
464.316	99.69
464.536	80.69
464.755	92.69
464.975	112.69
465.195	168.69
465.414	162.69
465.634	105.69
465.854	100.69
466.073	93.69
466.293	91.69
466.512	79.69
466.732	87.69
466.951	93.69
467.171	95.69
467.391	92.69
467.61	102.69
467.829	96.69
468.049	98.69
468.268	84.69
468.488	84.69
468.707	80.69
468.927	83.69
469.146	94.69
469.365	86.69
469.585	99.69
469.804	98.69
470.023	92.69
470.243	95.69
470.462	101.69
470.681	109.69
470.901	84.69
471.12	94.69
471.339	85.69
471.558	75.69
471.777	83.69
471.997	96.69
472.216	102.69
472.435	93.69
472.654	87.69
472.873	99.69
473.092	90.69
473.311	93.69
473.53	96.69
473.749	88.69
473.968	100.69
474.187	94.69
474.406	106.69
474.625	97.69
474.844	101.69
475.063	93.69
475.282	92.69
475.501	105.69
475.72	91.69
475.939	97.69
476.158	96.69
476.377	98.69
476.596	89.69
476.814	99.69
477.033	98.69
477.252	91.69
477.471	89.69
477.69	94.69
477.908	91.69
478.127	91.69
478.346	93.69
478.564	99.69
478.783	104.69
479.002	95.69
479.22	96.69
479.439	96.69
479.658	114.69
479.876	102.69
480.095	85.69
480.313	82.69
480.532	89.69
480.751	85.69
480.969	91.69
481.188	124.69
481.406	99.69
481.624	86.69
481.843	85.69
482.061	83.69
482.28	93.69
482.498	82.69
482.717	105.69
482.935	90.69
483.153	99.69
483.372	95.69
483.59	89.69
483.808	90.69
484.027	88.69
484.245	99.69
484.463	107.69
484.681	97.69
484.9	94.69
485.118	91.69
485.336	80.69
485.554	90.69
485.772	101.69
485.99	112.69
486.209	106.69
486.427	122.69
486.645	114.69
486.863	111.69
487.081	100.69
487.299	95.69
487.517	106.69
487.735	104.69
487.953	104.69
488.171	104.69
488.389	100.69
488.607	110.69
488.825	92.69
489.043	112.69
489.261	92.69
489.479	97.69
489.696	105.69
489.914	83.69
490.132	107.69
490.35	105.69
490.568	77.69
490.786	93.69
491.003	93.69
491.221	99.69
491.439	98.69
491.657	96.69
491.874	100.69
492.092	87.69
492.31	91.69
492.527	88.69
492.745	81.69
492.963	79.69
493.18	96.69
493.398	100.69
493.615	86.69
493.833	80.69
494.05	102.69
494.268	85.69
494.485	90.69
494.703	83.69
494.92	94.69
495.138	83.69
495.355	84.69
495.573	104.69
495.79	93.69
496.008	101.69
496.225	90.69
496.442	98.69
496.66	91.69
496.877	83.69
497.094	97.69
497.312	109.69
497.529	100.69
497.746	95.69
497.963	87.69
498.181	101.69
498.398	89.69
498.615	114.69
498.832	107.69
499.049	105.69
499.267	100.69
499.484	83.69
499.701	91.69
499.918	90.69
500.135	97.69
500.352	83.69
500.569	95.69
500.786	103.69
501.003	87.69
501.22	83.69
501.437	102.69
501.654	90.69
501.871	112.69
502.088	84.69
502.305	97.69
502.522	101.69
502.739	96.69
502.956	112.69
503.172	93.69
503.389	117.69
503.606	100.69
503.823	86.69
504.04	114.69
504.256	99.69
504.473	85.69
504.69	91.69
504.907	105.69
505.123	87.69
505.34	86.69
505.557	92.69
505.773	86.69
505.99	85.69
506.207	85.69
506.423	89.69
506.64	92.69
506.856	100.69
507.073	81.69
507.289	83.69
507.506	93.69
507.722	106.69
507.939	96.69
508.155	87.69
508.372	96.69
508.588	91.69
508.805	112.69
509.021	85.69
509.238	101.69
509.454	106.69
509.67	88.69
509.887	96.69
510.103	123.69
510.319	196.69
510.536	744.69
510.752	2324.69
510.968	641.69
511.184	164.69
511.401	106.69
511.617	102.69
511.833	93.69
512.049	84.69
512.265	110.69
512.481	86.69
512.698	102.69
512.914	100.69
513.13	100.69
513.346	99.69
513.562	88.69
513.778	103.69
513.994	103.69
514.21	108.69
514.426	133.69
514.642	127.69
