Data from Uncirc_1987_H10_HRD10591_00020.txt Node
Date: Wed Jan 03 12:08:52 EST 2024
User: Yrep
Spectrometer: HR+D1059
Trigger mode: 1
Integration Time (sec): 1.000000E-1
Scans to average: 1
Electric dark correction enabled: true
Nonlinearity correction enabled: false
Boxcar width: 0
XAxis mode: Wavelengths
Number of Pixels in Spectrum: 2048
>>>>>Begin Spectral Data<<<<<
223.165	-14.19
223.4	-14.19
223.635	-14.19
223.869	-21.19
224.104	-2.19
224.338	-25.19
224.573	-22.19
224.808	-22.19
225.042	-4.19
225.277	-6.19
225.511	-9.19
225.746	17.81
225.98	3.81
226.215	10.81
226.449	21.81
226.683	18.81
226.918	33.81
227.152	19.81
227.387	29.81
227.621	36.81
227.856	36.81
228.09	48.81
228.324	62.81
228.559	73.81
228.793	54.81
229.027	62.81
229.262	56.81
229.496	69.81
229.73	67.81
229.964	83.81
230.199	62.81
230.433	78.81
230.667	61.81
230.901	81.81
231.136	56.81
231.37	78.81
231.604	82.81
231.838	65.81
232.072	93.81
232.306	76.81
232.541	78.81
232.775	99.81
233.009	91.81
233.243	85.81
233.477	69.81
233.711	63.81
233.945	85.81
234.179	75.81
234.413	67.81
234.647	71.81
234.881	82.81
235.115	86.81
235.349	81.81
235.583	80.81
235.817	66.81
236.051	72.81
236.285	76.81
236.519	60.81
236.753	70.81
236.987	89.81
237.221	67.81
237.455	57.81
237.689	86.81
237.922	64.81
238.156	67.81
238.39	66.81
238.624	78.81
238.858	67.81
239.091	82.81
239.325	70.81
239.559	78.81
239.793	83.81
240.027	81.81
240.26	87.81
240.494	71.81
240.728	72.81
240.961	91.81
241.195	76.81
241.429	68.81
241.662	67.81
241.896	81.81
242.13	72.81
242.363	79.81
242.597	88.81
242.83	83.81
243.064	83.81
243.298	73.81
243.531	63.81
243.765	64.81
243.998	87.81
244.232	78.81
244.465	83.81
244.699	94.81
244.932	88.81
245.166	73.81
245.399	93.81
245.633	85.81
245.866	88.81
246.099	78.81
246.333	94.81
246.566	81.81
246.8	81.81
247.033	78.81
247.266	82.81
247.5	81.81
247.733	79.81
247.966	77.81
248.2	82.81
248.433	76.81
248.666	73.81
248.899	85.81
249.133	83.81
249.366	79.81
249.599	96.81
249.832	68.81
250.066	81.81
250.299	80.81
250.532	74.81
250.765	74.81
250.998	78.81
251.231	74.81
251.465	85.81
251.698	74.81
251.931	71.81
252.164	82.81
252.397	87.81
252.63	77.81
252.863	78.81
253.096	71.81
253.329	86.81
253.562	74.81
253.795	77.81
254.028	86.81
254.261	83.81
254.494	68.81
254.727	84.81
254.96	86.81
255.193	81.81
255.426	81.81
255.659	76.81
255.892	84.81
256.124	74.81
256.357	89.81
256.59	76.81
256.823	76.81
257.056	73.81
257.289	76.81
257.521	84.81
257.754	68.81
257.987	87.81
258.22	96.81
258.452	66.81
258.685	93.81
258.918	100.81
259.151	81.81
259.383	80.81
259.616	78.81
259.849	82.81
260.081	77.81
260.314	87.81
260.547	81.81
260.779	97.81
261.012	89.81
261.244	66.81
261.477	73.81
261.71	73.81
261.942	92.81
262.175	94.81
262.407	84.81
262.64	86.81
262.872	82.81
263.105	84.81
263.337	78.81
263.57	60.81
263.802	78.81
264.035	90.81
264.267	83.81
264.499	87.81
264.732	66.81
264.964	78.81
265.197	76.81
265.429	79.81
265.661	77.81
265.894	80.81
266.126	77.81
266.358	69.81
266.591	78.81
266.823	70.81
267.055	82.81
267.287	81.81
267.52	88.81
267.752	75.81
267.984	77.81
268.216	85.81
268.448	81.81
268.681	88.81
268.913	77.81
269.145	79.81
269.377	90.81
269.609	86.81
269.841	72.81
270.073	63.81
270.306	95.81
270.538	85.81
270.77	67.81
271.002	73.81
271.234	88.81
271.466	86.81
271.698	82.81
271.93	88.81
272.162	81.81
272.394	81.81
272.626	73.81
272.858	78.81
273.09	86.81
273.322	86.81
273.553	76.81
273.785	80.81
274.017	78.81
274.249	93.81
274.481	92.81
274.713	84.81
274.945	77.81
275.176	86.81
275.408	72.81
275.64	75.81
275.872	78.81
276.104	99.81
276.335	89.81
276.567	96.81
276.799	94.81
277.031	86.81
277.262	86.81
277.494	87.81
277.726	84.81
277.957	61.81
278.189	86.81
278.421	80.81
278.652	91.81
278.884	84.81
279.115	85.81
279.347	77.81
279.579	73.81
279.81	92.81
280.042	84.81
280.273	83.81
280.505	81.81
280.736	89.81
280.968	92.81
281.199	88.81
281.431	89.81
281.662	85.81
281.894	94.81
282.125	94.81
282.356	106.81
282.588	112.81
282.819	110.81
283.051	96.81
283.282	74.81
283.513	77.81
283.745	86.81
283.976	76.81
284.207	83.81
284.439	83.81
284.67	77.81
284.901	87.81
285.132	72.81
285.364	85.81
285.595	90.81
285.826	84.81
286.057	79.81
286.288	73.81
286.52	84.81
286.751	92.81
286.982	90.81
287.213	69.81
287.444	107.81
287.675	93.81
287.906	87.81
288.138	82.81
288.369	87.81
288.6	92.81
288.831	89.81
289.062	82.81
289.293	96.81
289.524	88.81
289.755	86.81
289.986	79.81
290.217	89.81
290.448	78.81
290.679	80.81
290.91	81.81
291.141	73.81
291.371	77.81
291.602	80.81
291.833	74.81
292.064	80.81
292.295	90.81
292.526	90.81
292.757	96.81
292.987	71.81
293.218	78.81
293.449	78.81
293.68	89.81
293.91	102.81
294.141	87.81
294.372	89.81
294.603	95.81
294.833	97.81
295.064	86.81
295.295	83.81
295.525	96.81
295.756	79.81
295.987	101.81
296.217	111.81
296.448	97.81
296.679	90.81
296.909	96.81
297.14	83.81
297.37	93.81
297.601	87.81
297.831	89.81
298.062	95.81
298.292	70.81
298.523	71.81
298.753	92.81
298.984	96.81
299.214	78.81
299.445	103.81
299.675	96.81
299.905	90.81
300.136	82.81
300.366	86.81
300.597	84.81
300.827	89.81
301.057	95.81
301.288	89.81
301.518	94.81
301.748	94.81
301.979	105.81
302.209	87.81
302.439	76.81
302.669	86.81
302.9	87.81
303.13	81.81
303.36	85.81
303.59	80.81
303.82	92.81
304.051	94.81
304.281	81.81
304.511	83.81
304.741	78.81
304.971	77.81
305.201	92.81
305.431	85.81
305.661	81.81
305.891	84.81
306.121	104.81
306.352	103.81
306.582	86.81
306.812	96.81
307.042	94.81
307.272	77.81
307.502	90.81
307.731	85.81
307.961	85.81
308.191	89.81
308.421	93.81
308.651	101.81
308.881	95.81
309.111	88.81
309.341	101.81
309.571	83.81
309.8	72.81
310.03	92.81
310.26	93.81
310.49	98.81
310.72	85.81
310.949	108.81
311.179	88.81
311.409	89.81
311.639	93.81
311.868	93.81
312.098	82.81
312.328	88.81
312.557	101.81
312.787	92.81
313.017	96.81
313.246	92.81
313.476	101.81
313.706	89.81
313.935	90.81
314.165	107.81
314.394	102.81
314.624	86.81
314.853	89.81
315.083	90.81
315.312	105.81
315.542	82.81
315.771	95.81
316.001	85.81
316.23	74.81
316.46	85.81
316.689	93.81
316.919	80.81
317.148	99.81
317.377	96.81
317.607	98.81
317.836	100.81
318.065	82.81
318.295	91.81
318.524	94.81
318.753	89.81
318.983	90.81
319.212	101.81
319.441	93.81
319.67	103.81
319.9	84.81
320.129	91.81
320.358	94.81
320.587	88.81
320.816	94.81
321.046	101.81
321.275	105.81
321.504	93.81
321.733	94.81
321.962	94.81
322.191	91.81
322.42	83.81
322.649	101.81
322.878	101.81
323.108	106.81
323.337	124.81
323.566	116.81
323.795	142.81
324.024	190.81
324.253	326.81
324.482	633.81
324.71	1355.81
324.939	1822.81
325.168	667.81
325.397	197.81
325.626	124.81
325.855	113.81
326.084	114.81
326.313	126.81
326.542	133.81
326.77	204.81
326.999	374.81
327.228	784.81
327.457	1411.81
327.686	1160.81
327.914	310.81
328.143	164.81
328.372	124.81
328.6	109.81
328.829	108.81
329.058	122.81
329.287	101.81
329.515	104.81
329.744	93.81
329.972	101.81
330.201	104.81
330.43	107.81
330.658	118.81
330.887	116.81
331.115	93.81
331.344	103.81
331.572	104.81
331.801	99.81
332.03	88.81
332.258	89.81
332.486	97.81
332.715	95.81
332.943	91.81
333.172	80.81
333.4	86.81
333.629	99.81
333.857	100.81
334.085	102.81
334.314	92.81
334.542	86.81
334.771	87.81
334.999	85.81
335.227	87.81
335.455	93.81
335.684	99.81
335.912	90.81
336.14	102.81
336.369	90.81
336.597	103.81
336.825	100.81
337.053	82.81
337.281	85.81
337.51	93.81
337.738	100.81
337.966	93.81
338.194	81.81
338.422	80.81
338.65	82.81
338.878	101.81
339.106	64.81
339.334	94.81
339.562	85.81
339.79	94.81
340.018	84.81
340.246	88.81
340.474	89.81
340.702	89.81
340.93	94.81
341.158	92.81
341.386	95.81
341.614	85.81
341.842	101.81
342.07	93.81
342.298	87.81
342.526	88.81
342.754	96.81
342.981	72.81
343.209	93.81
343.437	95.81
343.665	96.81
343.893	103.81
344.12	84.81
344.348	95.81
344.576	94.81
344.804	86.81
345.031	77.81
345.259	94.81
345.487	86.81
345.714	92.81
345.942	80.81
346.17	88.81
346.397	87.81
346.625	82.81
346.853	89.81
347.08	92.81
347.308	99.81
347.535	98.81
347.763	100.81
347.99	97.81
348.218	97.81
348.445	106.81
348.673	103.81
348.9	92.81
349.128	82.81
349.355	85.81
349.583	94.81
349.81	85.81
350.037	84.81
350.265	85.81
350.492	89.81
350.72	94.81
350.947	88.81
351.174	94.81
351.402	98.81
351.629	94.81
351.856	98.81
352.083	91.81
352.311	102.81
352.538	92.81
352.765	114.81
352.992	105.81
353.22	112.81
353.447	98.81
353.674	103.81
353.901	98.81
354.128	97.81
354.355	96.81
354.583	89.81
354.81	84.81
355.037	92.81
355.264	106.81
355.491	91.81
355.718	73.81
355.945	89.81
356.172	97.81
356.399	92.81
356.626	97.81
356.853	95.81
357.08	96.81
357.307	110.81
357.534	86.81
357.761	100.81
357.988	103.81
358.215	107.81
358.441	85.81
358.668	75.81
358.895	99.81
359.122	79.81
359.349	92.81
359.576	96.81
359.802	87.81
360.029	100.81
360.256	96.81
360.483	78.81
360.709	80.81
360.936	90.81
361.163	90.81
361.39	93.81
361.616	100.81
361.843	93.81
362.07	102.81
362.296	87.81
362.523	63.81
362.749	99.81
362.976	91.81
363.203	88.81
363.429	94.81
363.656	77.81
363.882	73.81
364.109	92.81
364.335	92.81
364.562	72.81
364.788	97.81
365.015	80.81
365.241	81.81
365.468	84.81
365.694	88.81
365.92	78.81
366.147	90.81
366.373	92.81
366.599	88.81
366.826	86.81
367.052	80.81
367.278	89.81
367.505	83.81
367.731	92.81
367.957	94.81
368.184	109.81
368.41	104.81
368.636	98.81
368.862	114.81
369.089	80.81
369.315	82.81
369.541	89.81
369.767	97.81
369.993	94.81
370.219	90.81
370.445	78.81
370.672	96.81
370.898	100.81
371.124	100.81
371.35	90.81
371.576	99.81
371.802	88.81
372.028	91.81
372.254	80.81
372.48	97.81
372.706	74.81
372.932	103.81
373.158	90.81
373.384	84.81
373.61	95.81
373.835	95.81
374.061	88.81
374.287	90.81
374.513	71.81
374.739	84.81
374.965	88.81
375.191	87.81
375.416	63.81
375.642	89.81
375.868	100.81
376.094	87.81
376.319	86.81
376.545	97.81
376.771	60.81
376.997	93.81
377.222	96.81
377.448	82.81
377.674	73.81
377.899	83.81
378.125	88.81
378.35	79.81
378.576	91.81
378.802	97.81
379.027	82.81
379.253	78.81
379.478	101.81
379.704	94.81
379.929	85.81
380.155	104.81
380.38	71.81
380.606	80.81
380.831	89.81
381.057	92.81
381.282	86.81
381.507	79.81
381.733	97.81
381.958	90.81
382.184	98.81
382.409	99.81
382.634	97.81
382.86	91.81
383.085	96.81
383.31	108.81
383.535	102.81
383.761	92.81
383.986	101.81
384.211	95.81
384.436	97.81
384.662	100.81
384.887	89.81
385.112	95.81
385.337	118.81
385.562	93.81
385.787	102.81
386.013	109.81
386.238	99.81
386.463	102.81
386.688	94.81
386.913	96.81
387.138	97.81
387.363	81.81
387.588	108.81
387.813	95.81
388.038	90.81
388.263	105.81
388.488	100.81
388.713	89.81
388.938	92.81
389.163	85.81
389.387	102.81
389.612	96.81
389.837	88.81
390.062	88.81
390.287	84.81
390.512	88.81
390.736	102.81
390.961	87.81
391.186	102.81
391.411	84.81
391.636	86.81
391.86	84.81
392.085	93.81
392.31	88.81
392.534	99.81
392.759	94.81
392.984	85.81
393.208	95.81
393.433	101.81
393.658	91.81
393.882	82.81
394.107	81.81
394.331	93.81
394.556	62.81
394.78	86.81
395.005	84.81
395.229	96.81
395.454	90.81
395.678	92.81
395.903	86.81
396.127	96.81
396.352	81.81
396.576	82.81
396.801	84.81
397.025	89.81
397.249	86.81
397.474	100.81
397.698	79.81
397.922	89.81
398.147	79.81
398.371	78.81
398.595	87.81
398.82	79.81
399.044	88.81
399.268	89.81
399.492	78.81
399.717	72.81
399.941	91.81
400.165	86.81
400.389	85.81
400.613	69.81
400.837	80.81
401.062	90.81
401.286	94.81
401.51	94.81
401.734	91.81
401.958	93.81
402.182	123.81
402.406	138.81
402.63	97.81
402.854	80.81
403.078	93.81
403.302	86.81
403.526	87.81
403.75	86.81
403.974	89.81
404.198	83.81
404.422	84.81
404.645	92.81
404.869	89.81
405.093	79.81
405.317	80.81
405.541	93.81
405.765	86.81
405.988	100.81
406.212	137.81
406.436	179.81
406.66	127.81
406.883	93.81
407.107	100.81
407.331	105.81
407.555	97.81
407.778	65.81
408.002	82.81
408.226	61.81
408.449	99.81
408.673	102.81
408.896	89.81
409.12	85.81
409.344	98.81
409.567	92.81
409.791	82.81
410.014	96.81
410.238	80.81
410.461	85.81
410.685	104.81
410.908	105.81
411.132	101.81
411.355	102.81
411.578	84.81
411.802	96.81
412.025	92.81
412.249	74.81
412.472	93.81
412.695	83.81
412.919	94.81
413.142	90.81
413.365	92.81
413.589	95.81
413.812	81.81
414.035	84.81
414.258	100.81
414.482	100.81
414.705	76.81
414.928	86.81
415.151	100.81
415.374	108.81
415.597	93.81
415.821	79.81
416.044	95.81
416.267	76.81
416.49	77.81
416.713	86.81
416.936	85.81
417.159	93.81
417.382	89.81
417.605	69.81
417.828	81.81
418.051	92.81
418.274	78.81
418.497	90.81
418.72	78.81
418.943	76.81
419.166	89.81
419.389	88.81
419.611	68.81
419.834	89.81
420.057	83.81
420.28	91.81
420.503	82.81
420.726	92.81
420.948	94.81
421.171	79.81
421.394	81.81
421.617	71.81
421.839	76.81
422.062	84.81
422.285	88.81
422.507	86.81
422.73	98.81
422.953	89.81
423.175	81.81
423.398	69.81
423.621	84.81
423.843	83.81
424.066	85.81
424.288	83.81
424.511	98.81
424.733	95.81
424.956	101.81
425.178	86.81
425.401	88.81
425.623	100.81
425.846	85.81
426.068	94.81
426.291	85.81
426.513	88.81
426.735	78.81
426.958	94.81
427.18	107.81
427.402	115.81
427.625	156.81
427.847	112.81
428.069	87.81
428.292	98.81
428.514	78.81
428.736	84.81
428.958	94.81
429.181	91.81
429.403	91.81
429.625	82.81
429.847	94.81
430.069	90.81
430.292	80.81
430.514	78.81
430.736	70.81
430.958	79.81
431.18	83.81
431.402	90.81
431.624	89.81
431.846	91.81
432.068	84.81
432.29	92.81
432.512	90.81
432.734	86.81
432.956	95.81
433.178	103.81
433.4	89.81
433.622	93.81
433.844	93.81
434.066	85.81
434.287	90.81
434.509	96.81
434.731	81.81
434.953	91.81
435.175	84.81
435.397	82.81
435.618	87.81
435.84	104.81
436.062	126.81
436.284	108.81
436.505	93.81
436.727	100.81
436.949	98.81
437.17	92.81
437.392	78.81
437.614	82.81
437.835	98.81
438.057	108.81
438.278	100.81
438.5	101.81
438.721	117.81
438.943	81.81
439.165	97.81
439.386	82.81
439.608	92.81
439.829	105.81
440.05	112.81
440.272	135.81
440.493	99.81
440.715	101.81
440.936	86.81
441.158	80.81
441.379	90.81
441.6	74.81
441.822	87.81
442.043	77.81
442.264	73.81
442.486	90.81
442.707	97.81
442.928	85.81
443.149	116.81
443.371	108.81
443.592	94.81
443.813	115.81
444.034	101.81
444.255	91.81
444.476	72.81
444.698	93.81
444.919	82.81
445.14	116.81
445.361	112.81
445.582	95.81
445.803	106.81
446.024	125.81
446.245	123.81
446.466	102.81
446.687	83.81
446.908	93.81
447.129	99.81
447.35	84.81
447.571	95.81
447.792	94.81
448.013	100.81
448.234	100.81
448.455	97.81
448.675	116.81
448.896	95.81
449.117	88.81
449.338	99.81
449.559	112.81
449.779	135.81
450	92.81
450.221	85.81
450.442	93.81
450.662	67.81
450.883	101.81
451.104	104.81
451.324	89.81
451.545	84.81
451.766	88.81
451.986	97.81
452.207	74.81
452.428	90.81
452.648	95.81
452.869	104.81
453.089	100.81
453.31	96.81
453.53	77.81
453.751	102.81
453.971	98.81
454.192	102.81
454.412	93.81
454.633	72.81
454.853	82.81
455.073	87.81
455.294	90.81
455.514	77.81
455.734	86.81
455.955	98.81
456.175	86.81
456.395	92.81
456.616	95.81
456.836	84.81
457.056	80.81
457.276	85.81
457.497	77.81
457.717	82.81
457.937	100.81
458.157	73.81
458.377	86.81
458.598	92.81
458.818	118.81
459.038	153.81
459.258	110.81
459.478	90.81
459.698	99.81
459.918	80.81
460.138	84.81
460.358	72.81
460.578	85.81
460.798	76.81
461.018	80.81
461.238	80.81
461.458	83.81
461.678	92.81
461.898	100.81
462.118	93.81
462.338	87.81
462.558	81.81
462.777	84.81
462.997	90.81
463.217	78.81
463.437	94.81
463.657	92.81
463.876	80.81
464.096	84.81
464.316	80.81
464.536	83.81
464.755	88.81
464.975	105.81
465.195	141.81
465.414	150.81
465.634	92.81
465.854	89.81
466.073	77.81
466.293	83.81
466.512	87.81
466.732	90.81
466.951	98.81
467.171	90.81
467.391	84.81
467.61	93.81
467.829	103.81
468.049	78.81
468.268	83.81
468.488	86.81
468.707	92.81
468.927	92.81
469.146	92.81
469.365	95.81
469.585	92.81
469.804	108.81
470.023	92.81
470.243	87.81
470.462	101.81
470.681	106.81
470.901	79.81
471.12	78.81
471.339	90.81
471.558	91.81
471.777	78.81
471.997	76.81
472.216	75.81
472.435	85.81
472.654	83.81
472.873	88.81
473.092	86.81
473.311	90.81
473.53	83.81
473.749	84.81
473.968	91.81
474.187	96.81
474.406	86.81
474.625	91.81
474.844	80.81
475.063	84.81
475.282	90.81
475.501	93.81
475.72	86.81
475.939	107.81
476.158	84.81
476.377	81.81
476.596	76.81
476.814	89.81
477.033	87.81
477.252	89.81
477.471	81.81
477.69	92.81
477.908	82.81
478.127	86.81
478.346	77.81
478.564	93.81
478.783	82.81
479.002	86.81
479.22	84.81
479.439	79.81
479.658	100.81
479.876	86.81
480.095	90.81
480.313	92.81
480.532	78.81
480.751	97.81
480.969	96.81
481.188	106.81
481.406	89.81
481.624	94.81
481.843	74.81
482.061	75.81
482.28	88.81
482.498	82.81
482.717	78.81
482.935	73.81
483.153	100.81
483.372	80.81
483.59	82.81
483.808	76.81
484.027	86.81
484.245	81.81
484.463	88.81
484.681	95.81
484.9	98.81
485.118	95.81
485.336	83.81
485.554	89.81
485.772	97.81
485.99	98.81
486.209	90.81
486.427	94.81
486.645	100.81
486.863	107.81
487.081	93.81
487.299	99.81
487.517	97.81
487.735	84.81
487.953	94.81
488.171	95.81
488.389	95.81
488.607	89.81
488.825	82.81
489.043	90.81
489.261	94.81
489.479	88.81
489.696	80.81
489.914	76.81
490.132	82.81
490.35	82.81
490.568	87.81
490.786	88.81
491.003	81.81
491.221	83.81
491.439	85.81
491.657	97.81
491.874	94.81
492.092	84.81
492.31	81.81
492.527	95.81
492.745	94.81
492.963	87.81
493.18	88.81
493.398	76.81
493.615	99.81
493.833	95.81
494.05	90.81
494.268	101.81
494.485	85.81
494.703	89.81
494.92	90.81
495.138	96.81
495.355	97.81
495.573	92.81
495.79	108.81
496.008	85.81
496.225	80.81
496.442	81.81
496.66	88.81
496.877	94.81
497.094	92.81
497.312	100.81
497.529	87.81
497.746	96.81
497.963	90.81
498.181	92.81
498.398	94.81
498.615	98.81
498.832	100.81
499.049	84.81
499.267	72.81
499.484	80.81
499.701	98.81
499.918	98.81
500.135	78.81
500.352	82.81
500.569	88.81
500.786	99.81
501.003	85.81
501.22	83.81
501.437	87.81
501.654	94.81
501.871	101.81
502.088	93.81
502.305	91.81
502.522	85.81
502.739	99.81
502.956	81.81
503.172	80.81
503.389	85.81
503.606	87.81
503.823	85.81
504.04	98.81
504.256	103.81
504.473	85.81
504.69	69.81
504.907	102.81
505.123	85.81
505.34	99.81
505.557	92.81
505.773	100.81
505.99	92.81
506.207	80.81
506.423	82.81
506.64	86.81
506.856	106.81
507.073	73.81
507.289	96.81
507.506	89.81
507.722	115.81
507.939	98.81
508.155	86.81
508.372	93.81
508.588	89.81
508.805	104.81
509.021	106.81
509.238	85.81
509.454	105.81
509.67	102.81
509.887	104.81
510.103	123.81
510.319	186.81
510.536	580.81
510.752	1772.81
510.968	499.81
511.184	134.81
511.401	99.81
511.617	89.81
511.833	95.81
512.049	86.81
512.265	83.81
512.481	87.81
512.698	83.81
512.914	92.81
513.13	92.81
513.346	92.81
513.562	89.81
513.778	90.81
513.994	90.81
514.21	105.81
514.426	101.81
514.642	113.81
514.858	114.81
515.074	134.81
515.29	340.81
515.506	1068.81
515.721	430.81
515.937	129.81
516.153	104.81
516.369	100.81
516.585	96.81
516.801	93.81
517.016	91.81
