Data from Uncirc_1987_H10_HRD10591_00095.txt Node
Date: Wed Jan 03 12:09:07 EST 2024
User: Yrep
Spectrometer: HR+D1059
Trigger mode: 1
Integration Time (sec): 1.000000E-1
Scans to average: 1
Electric dark correction enabled: true
Nonlinearity correction enabled: false
Boxcar width: 0
XAxis mode: Wavelengths
Number of Pixels in Spectrum: 2048
>>>>>Begin Spectral Data<<<<<
223.165	-6
223.4	-6
223.635	-6
223.869	-29
224.104	-29
224.338	-21
224.573	-19
224.808	-21
225.042	13
225.277	1
225.511	-5
225.746	13
225.98	-4
226.215	2
226.449	11
226.683	32
226.918	35
227.152	27
227.387	40
227.621	36
227.856	47
228.09	67
228.324	45
228.559	61
228.793	68
229.027	58
229.262	61
229.496	75
229.73	71
229.964	91
230.199	84
230.433	93
230.667	76
230.901	83
231.136	68
231.37	76
231.604	84
231.838	80
232.072	76
232.306	75
232.541	71
232.775	70
233.009	68
233.243	81
233.477	72
233.711	88
233.945	79
234.179	77
234.413	82
234.647	86
234.881	82
235.115	70
235.349	75
235.583	77
235.817	84
236.051	72
236.285	83
236.519	81
236.753	71
236.987	81
237.221	77
237.455	86
237.689	91
237.922	76
238.156	58
238.39	69
238.624	71
238.858	68
239.091	75
239.325	73
239.559	86
239.793	69
240.027	78
240.26	68
240.494	74
240.728	86
240.961	89
241.195	67
241.429	78
241.662	76
241.896	73
242.13	87
242.363	73
242.597	60
242.83	72
243.064	76
243.298	63
243.531	66
243.765	79
243.998	71
244.232	83
244.465	83
244.699	86
244.932	83
245.166	81
245.399	72
245.633	82
245.866	67
246.099	71
246.333	77
246.566	77
246.8	75
247.033	71
247.266	83
247.5	81
247.733	73
247.966	88
248.2	78
248.433	68
248.666	71
248.899	73
249.133	97
249.366	100
249.599	101
249.832	79
250.066	93
250.299	76
250.532	81
250.765	84
250.998	71
251.231	77
251.465	72
251.698	77
251.931	84
252.164	82
252.397	68
252.63	69
252.863	72
253.096	79
253.329	91
253.562	89
253.795	77
254.028	79
254.261	80
254.494	85
254.727	75
254.96	79
255.193	68
255.426	83
255.659	86
255.892	97
256.124	75
256.357	71
256.59	73
256.823	65
257.056	72
257.289	71
257.521	73
257.754	85
257.987	75
258.22	77
258.452	97
258.685	80
258.918	88
259.151	79
259.383	84
259.616	71
259.849	75
260.081	71
260.314	92
260.547	95
260.779	73
261.012	81
261.244	89
261.477	76
261.71	93
261.942	121
262.175	112
262.407	95
262.64	84
262.872	96
263.105	87
263.337	80
263.57	71
263.802	105
264.035	94
264.267	88
264.499	75
264.732	91
264.964	72
265.197	85
265.429	88
265.661	67
265.894	81
266.126	86
266.358	71
266.591	77
266.823	95
267.055	84
267.287	75
267.52	72
267.752	81
267.984	81
268.216	92
268.448	86
268.681	85
268.913	81
269.145	79
269.377	94
269.609	87
269.841	77
270.073	73
270.306	87
270.538	78
270.77	86
271.002	92
271.234	80
271.466	80
271.698	91
271.93	63
272.162	94
272.394	92
272.626	88
272.858	77
273.09	83
273.322	84
273.553	87
273.785	92
274.017	77
274.249	83
274.481	87
274.713	87
274.945	83
275.176	98
275.408	86
275.64	90
275.872	86
276.104	96
276.335	95
276.567	111
276.799	115
277.031	96
277.262	93
277.494	90
277.726	79
277.957	75
278.189	76
278.421	90
278.652	88
278.884	85
279.115	73
279.347	84
279.579	88
279.81	91
280.042	102
280.273	86
280.505	92
280.736	78
280.968	81
281.199	89
281.431	91
281.662	94
281.894	93
282.125	97
282.356	133
282.588	146
282.819	110
283.051	88
283.282	82
283.513	85
283.745	83
283.976	64
284.207	83
284.439	92
284.67	88
284.901	76
285.132	87
285.364	89
285.595	81
285.826	90
286.057	85
286.288	91
286.52	83
286.751	75
286.982	91
287.213	85
287.444	96
287.675	95
287.906	91
288.138	89
288.369	90
288.6	91
288.831	91
289.062	92
289.293	78
289.524	78
289.755	85
289.986	69
290.217	86
290.448	90
290.679	81
290.91	84
291.141	91
291.371	87
291.602	96
291.833	85
292.064	75
292.295	93
292.526	91
292.757	89
292.987	92
293.218	81
293.449	84
293.68	86
293.91	76
294.141	89
294.372	91
294.603	90
294.833	98
295.064	82
295.295	93
295.525	94
295.756	93
295.987	107
296.217	134
296.448	127
296.679	93
296.909	91
297.14	89
297.37	84
297.601	92
297.831	86
298.062	81
298.292	80
298.523	77
298.753	79
298.984	89
299.214	93
299.445	83
299.675	88
299.905	102
300.136	95
300.366	88
300.597	82
300.827	85
301.057	106
301.288	112
301.518	82
301.748	99
301.979	97
302.209	97
302.439	69
302.669	88
302.9	93
303.13	104
303.36	98
303.59	101
303.82	104
304.051	93
304.281	79
304.511	87
304.741	89
304.971	88
305.201	96
305.431	95
305.661	96
305.891	83
306.121	88
306.352	112
306.582	98
306.812	101
307.042	95
307.272	86
307.502	98
307.731	83
307.961	89
308.191	68
308.421	74
308.651	86
308.881	100
309.111	94
309.341	103
309.571	110
309.8	97
310.03	88
310.26	100
310.49	95
310.72	91
310.949	97
311.179	98
311.409	88
311.639	108
311.868	90
312.098	96
312.328	103
312.557	113
312.787	107
313.017	98
313.246	100
313.476	90
313.706	86
313.935	101
314.165	100
314.394	110
314.624	88
314.853	94
315.083	88
315.312	105
315.542	84
315.771	95
316.001	89
316.23	81
316.46	95
316.689	95
316.919	87
317.148	100
317.377	109
317.607	93
317.836	86
318.065	105
318.295	93
318.524	97
318.753	111
318.983	91
319.212	101
319.441	103
319.67	108
319.9	99
320.129	86
320.358	98
320.587	78
320.816	100
321.046	89
321.275	112
321.504	97
321.733	96
321.962	89
322.191	96
322.42	85
322.649	102
322.878	108
323.108	112
323.337	133
323.566	115
323.795	158
324.024	215
324.253	404
324.482	895
324.71	1849
324.939	2513
325.168	923
325.397	268
325.626	149
325.855	131
326.084	131
326.313	135
326.542	145
326.77	229
326.999	467
327.228	1028
327.457	1883
327.686	1511
327.914	398
328.143	208
328.372	156
328.6	119
328.829	130
329.058	135
329.287	137
329.515	111
329.744	102
329.972	96
330.201	105
330.43	130
330.658	131
330.887	161
331.115	135
331.344	94
331.572	101
331.801	93
332.03	109
332.258	98
332.486	83
332.715	93
332.943	103
333.172	93
333.4	88
333.629	84
333.857	120
334.085	110
334.314	106
334.542	128
334.771	117
334.999	102
335.227	90
335.455	85
335.684	88
335.912	90
336.14	92
336.369	94
336.597	94
336.825	81
337.053	82
337.281	92
337.51	87
337.738	104
337.966	96
338.194	96
338.422	84
338.65	91
338.878	90
339.106	95
339.334	90
339.562	83
339.79	95
340.018	100
340.246	88
340.474	94
340.702	83
340.93	99
341.158	87
341.386	77
341.614	97
341.842	96
342.07	83
342.298	85
342.526	83
342.754	83
342.981	89
343.209	93
343.437	86
343.665	108
343.893	79
344.12	92
344.348	89
344.576	103
344.804	94
345.031	93
345.259	85
345.487	92
345.714	104
345.942	88
346.17	111
346.397	103
346.625	93
346.853	91
347.08	99
347.308	94
347.535	79
347.763	112
347.99	115
348.218	104
348.445	111
348.673	104
348.9	81
349.128	92
349.355	99
349.583	101
349.81	83
350.037	87
350.265	90
350.492	99
350.72	106
350.947	96
351.174	124
351.402	98
351.629	105
351.856	95
352.083	97
352.311	102
352.538	93
352.765	96
352.992	116
353.22	109
353.447	101
353.674	104
353.901	103
354.128	88
354.355	83
354.583	91
354.81	101
355.037	101
355.264	89
355.491	78
355.718	84
355.945	109
356.172	93
356.399	85
356.626	95
356.853	111
357.08	100
357.307	91
357.534	95
357.761	86
357.988	90
358.215	87
358.441	101
358.668	99
358.895	95
359.122	89
359.349	88
359.576	88
359.802	103
360.029	101
360.256	124
360.483	106
360.709	84
360.936	99
361.163	113
361.39	103
361.616	101
361.843	88
362.07	92
362.296	97
362.523	95
362.749	89
362.976	87
363.203	83
363.429	80
363.656	83
363.882	98
364.109	92
364.335	99
364.562	97
364.788	85
365.015	89
365.241	106
365.468	111
365.694	101
365.92	91
366.147	82
366.373	90
366.599	82
366.826	85
367.052	108
367.278	86
367.505	85
367.731	95
367.957	92
368.184	95
368.41	109
368.636	102
368.862	125
369.089	103
369.315	80
369.541	92
369.767	90
369.993	96
370.219	93
370.445	81
370.672	68
370.898	85
371.124	92
371.35	77
371.576	80
371.802	75
372.028	83
372.254	73
372.48	83
372.706	79
372.932	102
373.158	94
373.384	101
373.61	99
373.835	90
374.061	91
374.287	97
374.513	75
374.739	97
374.965	88
375.191	96
375.416	94
375.642	79
375.868	88
376.094	88
376.319	73
376.545	85
376.771	72
376.997	83
377.222	83
377.448	93
377.674	76
377.899	83
378.125	96
378.35	87
378.576	98
378.802	96
379.027	92
379.253	85
379.478	104
379.704	102
379.929	90
380.155	101
380.38	97
380.606	100
380.831	83
381.057	94
381.282	91
381.507	97
381.733	87
381.958	84
382.184	88
382.409	84
382.634	108
382.86	97
383.085	98
383.31	98
383.535	84
383.761	92
383.986	106
384.211	92
384.436	92
384.662	97
384.887	90
385.112	97
385.337	95
385.562	99
385.787	104
386.013	111
386.238	103
386.463	96
386.688	112
386.913	103
387.138	97
387.363	95
387.588	85
387.813	83
388.038	103
388.263	104
388.488	104
388.713	95
388.938	109
389.163	99
389.387	104
389.612	91
389.837	87
390.062	95
390.287	97
390.512	85
390.736	76
390.961	87
391.186	89
391.411	89
391.636	100
391.86	83
392.085	77
392.31	92
392.534	109
392.759	93
392.984	87
393.208	86
393.433	98
393.658	86
393.882	84
394.107	76
394.331	80
394.556	78
394.78	91
395.005	75
395.229	91
395.454	73
395.678	62
395.903	86
396.127	91
396.352	70
396.576	72
396.801	76
397.025	80
397.249	84
397.474	85
397.698	73
397.922	71
398.147	92
398.371	89
398.595	100
398.82	92
399.044	97
399.268	91
399.492	79
399.717	102
399.941	88
400.165	93
400.389	87
400.613	84
400.837	107
401.062	82
401.286	93
401.51	80
401.734	100
401.958	100
402.182	138
402.406	194
402.63	117
402.854	99
403.078	85
403.302	83
403.526	94
403.75	91
403.974	100
404.198	102
404.422	87
404.645	89
404.869	89
405.093	96
405.317	100
405.541	86
405.765	91
405.988	111
406.212	174
406.436	230
406.66	161
406.883	111
407.107	96
407.331	95
407.555	85
407.778	86
408.002	93
408.226	85
408.449	87
408.673	79
408.896	97
409.12	88
409.344	88
409.567	93
409.791	92
410.014	87
410.238	96
410.461	95
410.685	101
410.908	94
411.132	90
411.355	104
411.578	88
411.802	86
412.025	90
412.249	87
412.472	87
412.695	100
412.919	107
413.142	112
413.365	81
413.589	85
413.812	75
414.035	107
414.258	91
414.482	99
414.705	85
414.928	91
415.151	98
415.374	93
415.597	77
415.821	88
416.044	83
416.267	80
416.49	93
416.713	91
416.936	88
417.159	93
417.382	86
417.605	89
417.828	99
418.051	85
418.274	92
418.497	87
418.72	98
418.943	86
419.166	78
419.389	88
419.611	83
419.834	68
420.057	94
420.28	82
420.503	93
420.726	79
420.948	89
421.171	98
421.394	81
421.617	84
421.839	102
422.062	79
422.285	87
422.507	98
422.73	103
422.953	95
423.175	86
423.398	79
423.621	100
423.843	85
424.066	91
424.288	98
424.511	87
424.733	114
424.956	112
425.178	93
425.401	102
425.623	103
425.846	87
426.068	93
426.291	81
426.513	89
426.735	103
426.958	101
427.18	110
427.402	151
427.625	189
427.847	141
428.069	106
428.292	89
428.514	81
428.736	82
428.958	99
429.181	80
429.403	87
429.625	91
429.847	92
430.069	108
430.292	103
430.514	82
430.736	84
430.958	88
431.18	76
431.402	87
431.624	86
431.846	92
432.068	86
432.29	92
432.512	92
432.734	88
432.956	101
433.178	102
433.4	85
433.622	89
433.844	84
434.066	97
434.287	88
434.509	91
434.731	93
434.953	97
435.175	85
435.397	84
435.618	87
435.84	111
436.062	114
436.284	123
436.505	111
436.727	99
436.949	83
437.17	90
437.392	86
437.614	112
437.835	106
438.057	127
438.278	113
438.5	94
438.721	115
438.943	104
439.165	79
439.386	96
439.608	79
439.829	95
440.05	109
440.272	144
440.493	110
440.715	92
440.936	85
441.158	79
441.379	77
441.6	104
441.822	87
442.043	103
442.264	104
442.486	93
442.707	87
442.928	113
443.149	129
443.371	134
443.592	107
443.813	114
444.034	87
444.255	98
444.476	96
444.698	82
444.919	89
445.14	133
445.361	123
445.582	123
445.803	159
446.024	142
446.245	142
446.466	107
446.687	97
446.908	78
447.129	79
447.35	92
447.571	93
447.792	85
448.013	93
448.234	107
448.455	104
448.675	124
448.896	130
449.117	112
449.338	114
449.559	123
449.779	132
450	94
450.221	107
450.442	78
450.662	90
450.883	104
451.104	81
451.324	102
451.545	101
451.766	104
451.986	93
452.207	93
452.428	103
452.648	101
452.869	107
453.089	109
453.31	134
453.53	97
453.751	87
453.971	102
454.192	117
454.412	96
454.633	93
454.853	89
455.073	87
455.294	100
455.514	107
455.734	86
455.955	99
456.175	87
456.395	86
456.616	90
456.836	96
457.056	95
457.276	87
457.497	92
457.717	90
457.937	80
458.157	101
458.377	93
458.598	108
458.818	158
459.038	167
459.258	123
459.478	108
459.698	93
459.918	92
460.138	87
460.358	69
460.578	77
460.798	94
461.018	97
461.238	75
461.458	95
461.678	84
461.898	85
462.118	77
462.338	96
462.558	88
462.777	94
462.997	81
463.217	83
463.437	87
463.657	96
463.876	85
464.096	90
464.316	91
464.536	93
464.755	91
464.975	107
465.195	178
465.414	173
465.634	97
465.854	82
466.073	80
466.293	66
466.512	89
466.732	86
466.951	85
467.171	108
467.391	92
467.61	89
467.829	87
468.049	98
468.268	95
468.488	91
468.707	86
468.927	99
469.146	80
469.365	77
469.585	102
469.804	98
470.023	106
470.243	93
470.462	104
470.681	112
470.901	84
471.12	67
471.339	99
471.558	80
471.777	95
471.997	84
472.216	105
472.435	141
472.654	102
472.873	84
473.092	92
473.311	82
473.53	69
473.749	100
473.968	104
474.187	89
474.406	89
474.625	84
474.844	89
475.063	79
475.282	83
475.501	98
475.72	87
475.939	83
476.158	72
476.377	98
476.596	87
476.814	76
477.033	92
477.252	95
477.471	65
477.69	83
477.908	83
478.127	80
478.346	92
478.564	91
478.783	96
479.002	89
479.22	98
479.439	104
479.658	101
479.876	105
480.095	99
480.313	78
480.532	98
480.751	111
480.969	95
481.188	186
481.406	147
481.624	95
481.843	95
482.061	87
482.28	93
482.498	102
482.717	105
482.935	99
483.153	88
483.372	100
483.59	95
483.808	72
484.027	97
484.245	98
484.463	91
484.681	112
484.9	93
485.118	92
485.336	87
485.554	91
485.772	92
485.99	110
486.209	116
486.427	101
486.645	115
486.863	113
487.081	98
487.299	102
487.517	95
487.735	90
487.953	97
488.171	94
488.389	87
488.607	96
488.825	91
489.043	92
489.261	99
489.479	89
489.696	88
489.914	86
490.132	93
490.35	73
490.568	92
490.786	93
491.003	105
491.221	81
491.439	80
491.657	109
491.874	87
492.092	91
492.31	83
492.527	91
492.745	89
492.963	86
493.18	94
493.398	75
493.615	99
493.833	106
494.05	79
494.268	88
494.485	98
494.703	88
494.92	87
495.138	89
495.355	96
495.573	96
495.79	82
496.008	88
496.225	95
496.442	83
496.66	87
496.877	87
497.094	105
497.312	96
497.529	96
497.746	95
497.963	90
498.181	83
498.398	88
498.615	99
498.832	103
499.049	77
499.267	87
499.484	107
499.701	99
499.918	90
500.135	89
500.352	84
500.569	88
500.786	99
501.003	95
501.22	80
501.437	87
501.654	92
501.871	94
502.088	95
502.305	99
502.522	87
502.739	78
502.956	95
503.172	93
503.389	97
503.606	112
503.823	108
504.04	92
504.256	100
504.473	88
504.69	88
504.907	93
505.123	91
505.34	99
505.557	92
505.773	91
505.99	76
506.207	89
506.423	99
506.64	95
506.856	97
507.073	100
507.289	87
507.506	90
507.722	119
507.939	98
508.155	109
508.372	94
508.588	102
508.805	86
509.021	102
509.238	105
509.454	116
509.67	108
509.887	118
510.103	145
510.319	231
510.536	793
510.752	2702
510.968	723
511.184	161
511.401	116
511.617	94
511.833	96
512.049	94
512.265	89
512.481	94
512.698	80
512.914	103
513.13	91
513.346	96
513.562	96
513.778	93
513.994	103
514.21	104
514.426	112
514.642	123
514.858	139
515.074	182
515.29	532
515.506	1728
515.721	604
515.937	167
516.153	111
516.369	112
516.585	109
516.801	95
517.016	99
517.232	101
517.448	99
517.664	97
517.879	101
518.095	93
518.311	96
518.527	101
518.742	99
518.958	103
519.173	92
519.389	97
519.605	94
519.82	89
520.036	95
520.251	126
520.467	111
520.682	114
520.898	108
521.113	117
521.329	148
521.544	215
521.76	681
521.975	2908
522.19	1696
522.406	358
522.621	139
522.836	103
523.052	102
523.267	107
523.482	105
523.698	112
523.913	125
524.128	100
524.343	81
524.559	98
524.774	87
524.989	97
525.204	107
525.419	96
525.634	83
525.849	87
526.064	96
526.28	93
526.495	86
526.71	81
526.925	85
527.14	90
527.355	91
527.57	86
527.785	87
527.999	100
528.214	105
528.429	91
528.644	83
528.859	95
529.074	88
529.289	121
529.503	176
529.718	102
529.933	104
530.148	96
530.363	83
530.577	95
530.792	103
531.007	86
531.221	92
531.436	88
531.651	84
531.865	101
532.08	80
532.295	110
532.509	91
532.724	91
532.938	80
533.153	85
533.367	95
533.582	96
533.796	88
534.011	99
534.225	87
534.44	90
534.654	89
534.868	83
535.083	109
535.297	95
535.511	103
535.726	101
535.94	106
536.154	105
536.369	91
536.583	73
536.797	85
537.011	80
537.225	92
537.44	92
537.654	95
537.868	105
538.082	84
538.296	93
538.51	90
538.724	87
538.938	87
539.153	101
539.367	107
539.581	101
539.795	84
540.009	91
540.222	94
540.436	100
540.65	89
540.864	92
541.078	86
541.292	90
541.506	95
541.72	74
541.934	92
542.147	75
542.361	93
542.575	75
542.789	85
543.002	93
543.216	81
543.43	101
543.644	94
543.857	104
544.071	96
544.285	89
544.498	87
544.712	89
544.925	96
545.139	96
545.352	86
545.566	89
545.779	99
545.993	85
546.206	79
546.42	100
546.633	93
546.847	86
547.06	77
547.274	80
547.487	90
547.7	82
547.914	92
548.127	83
548.34	86
548.554	81
548.767	80
548.98	99
549.193	87
549.407	79
549.62	78
549.833	81
550.046	100
550.259	87
550.473	96
550.686	96
550.899	87
551.112	90
551.325	86
551.538	99
551.751	86
551.964	77
552.177	92
552.39	83
552.603	83
552.816	89
553.029	94
553.242	93
553.455	91
553.667	100
553.88	111
554.093	93
554.306	95
554.519	85
554.732	92
554.944	84
555.157	94
555.37	95
555.583	92
555.795	87
556.008	91
556.221	73
556.433	98
556.646	95
556.859	84
557.071	83
557.284	80
557.496	86
557.709	86
557.921	89
558.134	92
558.346	100
558.559	88
558.771	79
558.984	97
559.196	91
559.409	97
559.621	86
559.833	79
560.046	85
560.258	96
560.47	84
560.683	89
560.895	84
561.107	86
561.32	95
561.532	87
561.744	92
561.956	88
562.168	87
562.381	98
562.593	88
562.805	92
563.017	83
563.229	95
563.441	88
563.653	81
563.865	91
564.077	79
564.289	85
564.501	81
564.713	97
564.925	87
565.137	94
565.349	82
565.561	87
565.773	78
565.985	72
566.197	74
566.408	75
566.62	76
566.832	102
567.044	80
567.255	94
567.467	79
567.679	89
567.891	78
568.102	85
568.314	92
568.526	88
568.737	85
568.949	86
569.161	98
569.372	84
569.584	85
569.795	93
570.007	127
570.218	292
570.43	132
570.641	81
570.853	81
571.064	97
571.276	71
571.487	69
571.698	93
571.91	77
572.121	79
572.333	83
572.544	70
572.755	89
572.966	91
573.178	75
573.389	92
573.6	99
573.811	83
574.023	94
574.234	79
574.445	98
574.656	86
574.867	87
575.078	95
575.289	95
575.501	92
575.712	85
575.923	91
576.134	97
576.345	93
576.556	97
576.767	85
576.978	110
577.188	92
577.399	88
577.61	86
577.821	95
578.032	112
578.243	293
578.454	844
578.665	228
578.875	97
579.086	91
579.297	76
579.508	89
579.718	92
579.929	77
580.14	81
580.35	84
580.561	84
580.772	85
580.982	93
581.193	93
581.403	83
581.614	82
581.825	70
582.035	95
582.246	89
582.456	96
582.667	92
582.877	79
583.087	75
583.298	80
583.508	81
583.719	72
583.929	81
584.139	93
