Data from Uncirc_1987_H10_HRD10591_00007.txt Node
Date: Wed Jan 03 12:08:49 EST 2024
User: Yrep
Spectrometer: HR+D1059
Trigger mode: 1
Integration Time (sec): 1.000000E-1
Scans to average: 1
Electric dark correction enabled: true
Nonlinearity correction enabled: false
Boxcar width: 0
XAxis mode: Wavelengths
Number of Pixels in Spectrum: 2048
>>>>>Begin Spectral Data<<<<<
223.165	-12.62
223.4	-12.62
223.635	-12.62
223.869	-23.62
224.104	-15.62
224.338	-25.62
224.573	-13.62
224.808	-13.62
225.042	-15.62
225.277	-12.62
225.511	-16.62
225.746	14.38
225.98	6.38
226.215	20.38
226.449	26.38
226.683	21.38
226.918	25.38
227.152	35.38
227.387	41.38
227.621	51.38
227.856	35.38
228.09	40.38
228.324	47.38
228.559	62.38
228.793	164.38
229.027	430.38
229.262	494.38
229.496	591.38
229.73	750.38
229.964	798.38
230.199	521.38
230.433	467.38
230.667	471.38
230.901	469.38
231.136	443.38
231.37	440.38
231.604	449.38
231.838	453.38
232.072	438.38
232.306	467.38
232.541	473.38
232.775	477.38
233.009	463.38
233.243	475.38
233.477	479.38
233.711	480.38
233.945	507.38
234.179	530.38
234.413	499.38
234.647	491.38
234.881	499.38
235.115	529.38
235.349	562.38
235.583	561.38
235.817	582.38
236.051	612.38
236.285	595.38
236.519	617.38
236.753	688.38
236.987	864.38
237.221	1294.38
237.455	1408.38
237.689	856.38
237.922	720.38
238.156	741.38
238.39	662.38
238.624	647.38
238.858	674.38
239.091	655.38
239.325	636.38
239.559	673.38
239.793	722.38
240.027	756.38
240.26	864.38
240.494	927.38
240.728	924.38
240.961	875.38
241.195	810.38
241.429	766.38
241.662	784.38
241.896	784.38
242.13	796.38
242.363	767.38
242.597	784.38
242.83	805.38
243.064	806.38
243.298	805.38
243.531	808.38
243.765	827.38
243.998	850.38
244.232	866.38
244.465	866.38
244.699	893.38
244.932	943.38
245.166	898.38
245.399	916.38
245.633	884.38
245.866	903.38
246.099	928.38
246.333	949.38
246.566	960.38
246.8	963.38
247.033	988.38
247.266	1048.38
247.5	1070.38
247.733	1156.38
247.966	1141.38
248.2	1159.38
248.433	1155.38
248.666	1208.38
248.899	1326.38
249.133	1403.38
249.366	1357.38
249.599	1255.38
249.832	1206.38
250.066	1182.38
250.299	1237.38
250.532	1294.38
250.765	1459.38
250.998	1650.38
251.231	1598.38
251.465	1496.38
251.698	1421.38
251.931	1403.38
252.164	1390.38
252.397	1381.38
252.63	1427.38
252.863	1525.38
253.096	1614.38
253.329	1684.38
253.562	1613.38
253.795	1575.38
254.028	1535.38
254.261	1579.38
254.494	1738.38
254.727	2045.38
254.96	2130.38
255.193	1881.38
255.426	1719.38
255.659	1606.38
255.892	1556.38
256.124	1570.38
256.357	1555.38
256.59	1523.38
256.823	1510.38
257.056	1504.38
257.289	1513.38
257.521	1534.38
257.754	1522.38
257.987	1507.38
258.22	1532.38
258.452	1539.38
258.685	1530.38
258.918	1566.38
259.151	1612.38
259.383	1672.38
259.616	1668.38
259.849	1753.38
260.081	1873.38
260.314	2048.38
260.547	1978.38
260.779	1844.38
261.012	1764.38
261.244	1724.38
261.477	1662.38
261.71	1692.38
261.942	1739.38
262.175	1766.38
262.407	1690.38
262.64	1636.38
262.872	1680.38
263.105	1647.38
263.337	1639.38
263.57	1645.38
263.802	1710.38
264.035	1665.38
264.267	1657.38
264.499	1683.38
264.732	1726.38
264.964	1645.38
265.197	1676.38
265.429	1673.38
265.661	1712.38
265.894	1765.38
266.126	1758.38
266.358	1749.38
266.591	1772.38
266.823	1880.38
267.055	1870.38
267.287	1872.38
267.52	1824.38
267.752	1813.38
267.984	1832.38
268.216	1895.38
268.448	1899.38
268.681	1968.38
268.913	2109.38
269.145	2280.38
269.377	2320.38
269.609	2269.38
269.841	2193.38
270.073	2293.38
270.306	2567.38
270.538	2718.38
270.77	2622.38
271.002	2411.38
271.234	2456.38
271.466	2492.38
271.698	2653.38
271.93	2619.38
272.162	2651.38
272.394	2572.38
272.626	2433.38
272.858	2353.38
273.09	2243.38
273.322	2256.38
273.553	2170.38
273.785	2179.38
274.017	2211.38
274.249	2229.38
274.481	2210.38
274.713	2211.38
274.945	2255.38
275.176	2290.38
275.408	2178.38
275.64	2229.38
275.872	2224.38
276.104	2288.38
276.335	2261.38
276.567	2348.38
276.799	2477.38
277.031	2674.38
277.262	2760.38
277.494	2650.38
277.726	2498.38
277.957	2420.38
278.189	2432.38
278.421	2339.38
278.652	2348.38
278.884	2342.38
279.115	2320.38
279.347	2328.38
279.579	2330.38
279.81	2370.38
280.042	2347.38
280.273	2380.38
280.505	2386.38
280.736	2359.38
280.968	2398.38
281.199	2426.38
281.431	2393.38
281.662	2449.38
281.894	2457.38
282.125	2523.38
282.356	2612.38
282.588	2776.38
282.819	2586.38
283.051	2494.38
283.282	2488.38
283.513	2587.38
283.745	2600.38
283.976	2619.38
284.207	2574.38
284.439	2577.38
284.67	2564.38
284.901	2607.38
285.132	2602.38
285.364	2578.38
285.595	2637.38
285.826	2585.38
286.057	2610.38
286.288	2632.38
286.52	2636.38
286.751	2678.38
286.982	2663.38
287.213	2658.38
287.444	2677.38
287.675	2762.38
287.906	2823.38
288.138	2871.38
288.369	2931.38
288.6	2828.38
288.831	2854.38
289.062	2807.38
289.293	2786.38
289.524	2739.38
289.755	2724.38
289.986	2796.38
290.217	2752.38
290.448	2754.38
290.679	2748.38
290.91	2774.38
291.141	2748.38
291.371	2767.38
291.602	2797.38
291.833	2760.38
292.064	2800.38
292.295	2729.38
292.526	2791.38
292.757	2790.38
292.987	2773.38
293.218	2735.38
293.449	2872.38
293.68	2811.38
293.91	2835.38
294.141	2839.38
294.372	2777.38
294.603	2846.38
294.833	2855.38
295.064	2859.38
295.295	2872.38
295.525	2838.38
295.756	2887.38
295.987	2934.38
296.217	3141.38
296.448	3034.38
296.679	2917.38
296.909	2930.38
297.14	2949.38
297.37	2999.38
297.601	3046.38
297.831	2929.38
298.062	3026.38
298.292	3052.38
298.523	3078.38
298.753	3080.38
298.984	3044.38
299.214	3040.38
299.445	3052.38
299.675	3055.38
299.905	3092.38
300.136	3046.38
300.366	3077.38
300.597	3140.38
300.827	3226.38
301.057	3255.38
301.288	3278.38
301.518	3323.38
301.748	3322.38
301.979	3341.38
302.209	3324.38
302.439	3342.38
302.669	3272.38
302.9	3226.38
303.13	3205.38
303.36	3265.38
303.59	3358.38
303.82	3387.38
304.051	3299.38
304.281	3304.38
304.511	3257.38
304.741	3302.38
304.971	3229.38
305.201	3211.38
305.431	3212.38
305.661	3194.38
305.891	3184.38
306.121	3261.38
306.352	3282.38
306.582	3214.38
306.812	3172.38
307.042	3208.38
307.272	3244.38
307.502	3157.38
307.731	3287.38
307.961	3239.38
308.191	3227.38
308.421	3231.38
308.651	3249.38
308.881	3220.38
309.111	3252.38
309.341	3298.38
309.571	3358.38
309.8	3403.38
310.03	3490.38
310.26	3452.38
310.49	3470.38
310.72	3575.38
310.949	3616.38
311.179	3596.38
311.409	3507.38
311.639	3453.38
311.868	3592.38
312.098	3639.38
312.328	3606.38
312.557	3790.38
312.787	3786.38
313.017	3705.38
313.246	3671.38
313.476	3631.38
313.706	3677.38
313.935	3797.38
314.165	3846.38
314.394	3888.38
314.624	3767.38
314.853	3717.38
315.083	3637.38
315.312	3634.38
315.542	3625.38
315.771	3639.38
316.001	3566.38
316.23	3603.38
316.46	3634.38
316.689	3682.38
316.919	3676.38
317.148	3699.38
317.377	3637.38
317.607	3644.38
317.836	3600.38
318.065	3594.38
318.295	3555.38
318.524	3622.38
318.753	3532.38
318.983	3538.38
319.212	3528.38
319.441	3636.38
319.67	3659.38
319.9	3575.38
320.129	3598.38
320.358	3650.38
320.587	3706.38
320.816	3723.38
321.046	3708.38
321.275	3750.38
321.504	3677.38
321.733	3732.38
321.962	3803.38
322.191	3889.38
322.42	3888.38
322.649	4001.38
322.878	4054.38
323.108	4151.38
323.337	4338.38
323.566	4406.38
323.795	4735.38
324.024	5161.38
324.253	6654.38
324.482	9888.38
324.71	14427.38
324.939	15624.38
325.168	11196.38
325.397	6075.38
325.626	4963.38
325.855	4556.38
326.084	4536.38
326.313	4634.38
326.542	4669.38
326.77	5210.38
326.999	6511.38
327.228	9355.38
327.457	13554.38
327.686	12581.38
327.914	6763.38
328.143	5335.38
328.372	5033.38
328.6	4928.38
328.829	4866.38
329.058	5021.38
329.287	4941.38
329.515	4677.38
329.744	4542.38
329.972	4583.38
330.201	4611.38
330.43	4819.38
330.658	5072.38
330.887	5336.38
331.115	5006.38
331.344	4705.38
331.572	4656.38
331.801	4826.38
332.03	4835.38
332.258	4772.38
332.486	4772.38
332.715	4931.38
332.943	5043.38
333.172	5219.38
333.4	5269.38
333.629	5455.38
333.857	5471.38
334.085	5372.38
334.314	5295.38
334.542	5301.38
334.771	5205.38
334.999	5086.38
335.227	5024.38
335.455	4977.38
335.684	4897.38
335.912	4940.38
336.14	4858.38
336.369	4771.38
336.597	4917.38
336.825	4819.38
337.053	4712.38
337.281	4638.38
337.51	4673.38
337.738	4583.38
337.966	4474.38
338.194	4574.38
338.422	4501.38
338.65	4424.38
338.878	4448.38
339.106	4378.38
339.334	4427.38
339.562	4352.38
339.79	4300.38
340.018	4214.38
340.246	4279.38
340.474	4276.38
340.702	4310.38
340.93	4251.38
341.158	4283.38
341.386	4279.38
341.614	4315.38
341.842	4228.38
342.07	4210.38
342.298	4247.38
342.526	4120.38
342.754	4218.38
342.981	4196.38
343.209	4283.38
343.437	4567.38
343.665	4859.38
343.893	5058.38
344.12	5063.38
344.348	4793.38
344.576	4621.38
344.804	4596.38
345.031	4490.38
345.259	4468.38
345.487	4282.38
345.714	4194.38
345.942	4156.38
346.17	4129.38
346.397	4092.38
346.625	4111.38
346.853	4054.38
347.08	4077.38
347.308	4030.38
347.535	4148.38
347.763	4204.38
347.99	4072.38
348.218	4124.38
348.445	4137.38
348.673	4123.38
348.9	4053.38
349.128	4019.38
349.355	3941.38
349.583	4013.38
349.81	3944.38
350.037	3964.38
350.265	3952.38
350.492	3911.38
350.72	3953.38
350.947	4044.38
351.174	4022.38
351.402	4104.38
351.629	4074.38
351.856	4074.38
352.083	4136.38
352.311	4067.38
352.538	4103.38
352.765	4061.38
352.992	4050.38
353.22	3982.38
353.447	3948.38
353.674	3909.38
353.901	3908.38
354.128	3798.38
354.355	3883.38
354.583	3850.38
354.81	3878.38
355.037	3865.38
355.264	3818.38
355.491	3840.38
355.718	3828.38
355.945	3830.38
356.172	3821.38
356.399	3856.38
356.626	3891.38
356.853	3921.38
357.08	3904.38
357.307	3837.38
357.534	3834.38
357.761	3858.38
357.988	3918.38
358.215	3859.38
358.441	3916.38
358.668	3889.38
358.895	4033.38
359.122	3925.38
359.349	4032.38
359.576	4083.38
359.802	4270.38
360.029	4371.38
360.256	4347.38
360.483	4197.38
360.709	4057.38
360.936	4099.38
361.163	4044.38
361.39	4094.38
361.616	4025.38
361.843	4062.38
362.07	4099.38
362.296	4027.38
362.523	4005.38
362.749	4037.38
362.976	3987.38
363.203	4004.38
363.429	3914.38
363.656	3943.38
363.882	3939.38
364.109	3939.38
364.335	3895.38
364.562	3954.38
364.788	3891.38
365.015	3878.38
365.241	3939.38
365.468	4011.38
365.694	4020.38
365.92	3980.38
366.147	3927.38
366.373	3893.38
366.599	3911.38
366.826	3940.38
367.052	3899.38
367.278	3948.38
367.505	3938.38
367.731	3967.38
367.957	3915.38
368.184	4035.38
368.41	4042.38
368.636	4102.38
368.862	4109.38
369.089	4003.38
369.315	3982.38
369.541	4008.38
369.767	4054.38
369.993	4042.38
370.219	4056.38
370.445	4130.38
370.672	4126.38
370.898	4120.38
371.124	4201.38
371.35	4210.38
371.576	4235.38
371.802	4198.38
372.028	4170.38
372.254	4216.38
372.48	4253.38
372.706	4364.38
372.932	4355.38
373.158	4269.38
373.384	4234.38
373.61	4229.38
373.835	4238.38
374.061	4282.38
374.287	4295.38
374.513	4406.38
374.739	4532.38
374.965	4648.38
375.191	4700.38
375.416	4516.38
375.642	4367.38
375.868	4420.38
376.094	4305.38
376.319	4281.38
376.545	4305.38
376.771	4246.38
376.997	4224.38
377.222	4261.38
377.448	4154.38
377.674	4197.38
377.899	4165.38
378.125	4213.38
378.35	4116.38
378.576	4170.38
378.802	4150.38
379.027	4155.38
379.253	4185.38
379.478	4221.38
379.704	4172.38
379.929	4215.38
380.155	4259.38
380.38	4162.38
380.606	4224.38
380.831	4201.38
381.057	4185.38
381.282	4189.38
381.507	4312.38
381.733	4304.38
381.958	4346.38
382.184	4413.38
382.409	4422.38
382.634	4504.38
382.86	4443.38
383.085	4501.38
383.31	4503.38
383.535	4619.38
383.761	4692.38
383.986	4789.38
384.211	4832.38
384.436	4902.38
384.662	4995.38
384.887	5089.38
385.112	5006.38
385.337	5062.38
385.562	5156.38
385.787	5063.38
386.013	5176.38
386.238	5179.38
386.463	5099.38
386.688	5163.38
386.913	5043.38
387.138	5063.38
387.363	5075.38
387.588	4974.38
387.813	5036.38
388.038	4982.38
388.263	5018.38
388.488	5062.38
388.713	5110.38
388.938	5053.38
389.163	5028.38
389.387	5010.38
389.612	4940.38
389.837	4975.38
390.062	4929.38
390.287	4973.38
390.512	4971.38
390.736	5027.38
390.961	5104.38
391.186	5119.38
391.411	5357.38
391.636	5456.38
391.86	5633.38
392.085	5711.38
392.31	5543.38
392.534	5433.38
392.759	5337.38
392.984	5265.38
393.208	5243.38
393.433	5307.38
393.658	5264.38
393.882	5225.38
394.107	5268.38
394.331	5320.38
394.556	5247.38
394.78	5416.38
395.005	5406.38
395.229	5447.38
395.454	5637.38
395.678	5694.38
395.903	5639.38
396.127	5712.38
396.352	5499.38
396.576	5330.38
396.801	5365.38
397.025	5442.38
397.249	5585.38
397.474	5649.38
397.698	5672.38
397.922	5829.38
398.147	5915.38
398.371	6047.38
398.595	6161.38
398.82	6403.38
399.044	6979.38
399.268	7656.38
399.492	8708.38
399.717	9415.38
399.941	9156.38
400.165	8551.38
400.389	7813.38
400.613	7106.38
400.837	6598.38
401.062	6464.38
401.286	6380.38
401.51	6369.38
401.734	6236.38
401.958	6424.38
402.182	6566.38
402.406	6626.38
402.63	6719.38
402.854	6832.38
403.078	6915.38
403.302	6986.38
403.526	7092.38
403.75	7194.38
403.974	7228.38
404.198	7195.38
404.422	7290.38
404.645	7246.38
404.869	7134.38
405.093	7277.38
405.317	7302.38
405.541	7361.38
405.765	7084.38
405.988	7050.38
406.212	7175.38
406.436	7298.38
406.66	7507.38
406.883	7452.38
407.107	8110.38
407.331	8591.38
407.555	9158.38
407.778	8778.38
408.002	8102.38
408.226	7716.38
408.449	7538.38
408.673	7451.38
408.896	7522.38
409.12	7786.38
409.344	7375.38
409.567	7012.38
409.791	7004.38
410.014	6844.38
410.238	6755.38
410.461	6831.38
410.685	6851.38
410.908	6949.38
411.132	7180.38
411.355	7137.38
411.578	6853.38
411.802	6592.38
412.025	6662.38
412.249	6639.38
412.472	6668.38
412.695	6516.38
412.919	6329.38
413.142	6243.38
413.365	6234.38
413.589	6228.38
413.812	6193.38
414.035	6140.38
414.258	6230.38
414.482	6218.38
414.705	6346.38
414.928	6254.38
415.151	6214.38
415.374	6256.38
415.597	6163.38
415.821	6162.38
416.044	6151.38
416.267	6176.38
416.49	6111.38
416.713	6079.38
416.936	6179.38
417.159	6113.38
417.382	6148.38
417.605	6169.38
417.828	6270.38
418.051	6518.38
418.274	6307.38
418.497	6200.38
418.72	6381.38
418.943	6325.38
419.166	6707.38
419.389	7097.38
419.611	7062.38
419.834	6701.38
420.057	6574.38
420.28	6516.38
420.503	6274.38
420.726	6241.38
420.948	6425.38
421.171	6823.38
421.394	6918.38
421.617	6356.38
421.839	6339.38
422.062	6487.38
422.285	6640.38
422.507	7224.38
422.73	7706.38
422.953	7164.38
423.175	6721.38
423.398	6870.38
423.621	6761.38
423.843	7110.38
424.066	7001.38
424.288	6908.38
424.511	7151.38
424.733	7628.38
424.956	7952.38
425.178	7488.38
425.401	7716.38
425.623	7561.38
425.846	6559.38
426.068	6486.38
426.291	6364.38
426.513	6343.38
426.735	6476.38
426.958	6970.38
427.18	7565.38
427.402	8780.38
427.625	8620.38
427.847	7227.38
428.069	6544.38
428.292	6322.38
428.514	5937.38
428.736	5776.38
428.958	5849.38
429.181	5619.38
429.403	5679.38
429.625	5823.38
429.847	6120.38
430.069	6667.38
430.292	6276.38
430.514	5658.38
430.736	5635.38
430.958	5610.38
431.18	5501.38
431.402	5515.38
431.624	5495.38
431.846	5562.38
432.068	5579.38
432.29	5726.38
432.512	5604.38
432.734	5717.38
432.956	5640.38
433.178	5666.38
433.4	5745.38
433.622	5594.38
433.844	5648.38
434.066	5685.38
434.287	5737.38
434.509	6017.38
434.731	6195.38
434.953	6261.38
435.175	6435.38
435.397	6560.38
435.618	6472.38
435.84	6887.38
436.062	7557.38
436.284	7558.38
436.505	6419.38
436.727	6058.38
436.949	5852.38
437.17	5754.38
437.392	5688.38
437.614	5785.38
437.835	6169.38
438.057	7108.38
438.278	7624.38
438.5	7691.38
438.721	8359.38
438.943	7361.38
439.165	6252.38
439.386	6011.38
439.608	6059.38
439.829	6183.38
440.05	6425.38
440.272	6770.38
440.493	6196.38
440.715	5999.38
440.936	5979.38
441.158	6005.38
441.379	6103.38
441.6	6404.38
441.822	6625.38
442.043	7114.38
442.264	7868.38
442.486	7525.38
442.707	6732.38
442.928	6506.38
443.149	6745.38
443.371	6891.38
443.592	7374.38
443.813	8408.38
444.034	8376.38
444.255	7364.38
444.476	7153.38
444.698	7372.38
444.919	7447.38
445.14	7167.38
445.361	7101.38
445.582	7162.38
445.803	7606.38
446.024	8275.38
446.245	7941.38
446.466	7158.38
446.687	6382.38
446.908	5964.38
447.129	5709.38
447.35	5604.38
447.571	5512.38
447.792	5381.38
448.013	5511.38
448.234	5695.38
448.455	6360.38
448.675	7582.38
448.896	7925.38
449.117	6573.38
449.338	6689.38
449.559	7944.38
449.779	8193.38
450	6218.38
450.221	5636.38
450.442	5400.38
450.662	5287.38
450.883	5422.38
451.104	5424.38
451.324	5284.38
451.545	5189.38
451.766	5136.38
451.986	4989.38
452.207	4951.38
452.428	4890.38
452.648	4957.38
452.869	4982.38
453.089	5078.38
453.31	5109.38
453.53	4997.38
453.751	4957.38
453.971	4974.38
454.192	5016.38
454.412	4774.38
454.633	4788.38
454.853	4765.38
455.073	4794.38
455.294	5219.38
455.514	5702.38
455.734	5150.38
455.955	4683.38
456.175	4583.38
456.395	4564.38
456.616	4526.38
456.836	4531.38
457.056	4587.38
457.276	4490.38
457.497	4668.38
457.717	4560.38
457.937	4728.38
458.157	4765.38
458.377	4837.38
458.598	5163.38
458.818	5753.38
459.038	6501.38
459.258	6431.38
459.478	5666.38
459.698	5631.38
459.918	5751.38
460.138	5843.38
460.358	6171.38
460.578	6160.38
460.798	6231.38
461.018	6186.38
461.238	6101.38
461.458	6086.38
461.678	6075.38
461.898	6202.38
462.118	6170.38
462.338	6632.38
462.558	6709.38
462.777	6910.38
462.997	7587.38
463.217	7928.38
463.437	7765.38
463.657	7218.38
463.876	7010.38
464.096	7082.38
464.316	7043.38
464.536	7039.38
464.755	6789.38
464.975	6695.38
465.195	6850.38
465.414	6659.38
465.634	6023.38
465.854	5738.38
466.073	5506.38
466.293	5333.38
466.512	5182.38
466.732	5132.38
466.951	5134.38
467.171	5054.38
467.391	5136.38
467.61	5221.38
467.829	5110.38
468.049	5045.38
468.268	4922.38
468.488	4857.38
468.707	4782.38
468.927	4895.38
469.146	4870.38
469.365	4983.38
469.585	5025.38
469.804	5204.38
470.023	5289.38
470.243	5279.38
470.462	5349.38
470.681	5424.38
470.901	5358.38
471.12	5188.38
471.339	5159.38
471.558	5127.38
471.777	5082.38
471.997	5024.38
472.216	4909.38
472.435	4957.38
472.654	4820.38
472.873	4861.38
473.092	4890.38
473.311	4874.38
473.53	4908.38
473.749	4984.38
473.968	5495.38
474.187	6415.38
474.406	6019.38
474.625	5140.38
474.844	4931.38
475.063	4905.38
475.282	4913.38
475.501	4958.38
475.72	4964.38
475.939	5028.38
476.158	5097.38
476.377	5096.38
476.596	5014.38
476.814	5204.38
477.033	5286.38
477.252	5304.38
477.471	5395.38
477.69	5565.38
477.908	5650.38
478.127	5776.38
478.346	5821.38
478.564	5968.38
478.783	6005.38
479.002	6196.38
479.22	6202.38
479.439	6215.38
479.658	6336.38
479.876	6315.38
480.095	6568.38
480.313	6987.38
480.532	6806.38
480.751	6695.38
480.969	6670.38
481.188	6479.38
481.406	6232.38
481.624	6118.38
481.843	5987.38
482.061	5877.38
482.28	5763.38
482.498	5761.38
482.717	5742.38
482.935	5765.38
483.153	5722.38
483.372	5756.38
483.59	5651.38
483.808	5715.38
484.027	5761.38
484.245	5776.38
484.463	5799.38
484.681	5887.38
484.9	5916.38
485.118	5933.38
485.336	6028.38
485.554	6147.38
485.772	6100.38
485.99	6062.38
486.209	6098.38
486.427	6157.38
486.645	6209.38
486.863	6272.38
487.081	6306.38
487.299	6154.38
487.517	6048.38
487.735	6179.38
