Data from Uncirc_1987_H10_HRD10591_00008.txt Node
Date: Wed Jan 03 12:08:50 EST 2024
User: Yrep
Spectrometer: HR+D1059
Trigger mode: 1
Integration Time (sec): 1.000000E-1
Scans to average: 1
Electric dark correction enabled: true
Nonlinearity correction enabled: false
Boxcar width: 0
XAxis mode: Wavelengths
Number of Pixels in Spectrum: 2048
>>>>>Begin Spectral Data<<<<<
223.165	-25.31
223.4	-25.31
223.635	-25.31
223.869	-11.31
224.104	-21.31
224.338	-19.31
224.573	-17.31
224.808	-16.31
225.042	-0.31
225.277	-1.31
225.511	-3.31
225.746	8.69
225.98	7.69
226.215	15.69
226.449	17.69
226.683	23.69
226.918	18.69
227.152	23.69
227.387	35.69
227.621	40.69
227.856	51.69
228.09	47.69
228.324	48.69
228.559	50.69
228.793	166.69
229.027	422.69
229.262	486.69
229.496	561.69
229.73	726.69
229.964	725.69
230.199	506.69
230.433	442.69
230.667	430.69
230.901	434.69
231.136	421.69
231.37	439.69
231.604	421.69
231.838	433.69
232.072	446.69
232.306	462.69
232.541	455.69
232.775	456.69
233.009	483.69
233.243	486.69
233.477	471.69
233.711	453.69
233.945	496.69
234.179	504.69
234.413	495.69
234.647	517.69
234.881	484.69
235.115	508.69
235.349	507.69
235.583	539.69
235.817	583.69
236.051	601.69
236.285	589.69
236.519	598.69
236.753	656.69
236.987	843.69
237.221	1237.69
237.455	1371.69
237.689	855.69
237.922	723.69
238.156	694.69
238.39	661.69
238.624	629.69
238.858	623.69
239.091	676.69
239.325	637.69
239.559	633.69
239.793	673.69
240.027	719.69
240.26	851.69
240.494	863.69
240.728	886.69
240.961	852.69
241.195	798.69
241.429	774.69
241.662	752.69
241.896	745.69
242.13	766.69
242.363	773.69
242.597	785.69
242.83	795.69
243.064	818.69
243.298	810.69
243.531	819.69
243.765	829.69
243.998	846.69
244.232	825.69
244.465	882.69
244.699	897.69
244.932	895.69
245.166	893.69
245.399	907.69
245.633	872.69
245.866	897.69
246.099	928.69
246.333	916.69
246.566	964.69
246.8	947.69
247.033	1001.69
247.266	1021.69
247.5	1071.69
247.733	1096.69
247.966	1109.69
248.2	1127.69
248.433	1123.69
248.666	1200.69
248.899	1279.69
249.133	1362.69
249.366	1343.69
249.599	1260.69
249.832	1153.69
250.066	1207.69
250.299	1208.69
250.532	1303.69
250.765	1460.69
250.998	1573.69
251.231	1547.69
251.465	1439.69
251.698	1399.69
251.931	1313.69
252.164	1341.69
252.397	1384.69
252.63	1472.69
252.863	1475.69
253.096	1575.69
253.329	1663.69
253.562	1559.69
253.795	1535.69
254.028	1504.69
254.261	1590.69
254.494	1690.69
254.727	1976.69
254.96	2091.69
255.193	1880.69
255.426	1689.69
255.659	1628.69
255.892	1562.69
256.124	1496.69
256.357	1519.69
256.59	1487.69
256.823	1504.69
257.056	1458.69
257.289	1507.69
257.521	1469.69
257.754	1504.69
257.987	1520.69
258.22	1497.69
258.452	1508.69
258.685	1521.69
258.918	1518.69
259.151	1577.69
259.383	1652.69
259.616	1662.69
259.849	1689.69
260.081	1838.69
260.314	1973.69
260.547	1893.69
260.779	1762.69
261.012	1746.69
261.244	1689.69
261.477	1626.69
261.71	1615.69
261.942	1699.69
262.175	1691.69
262.407	1686.69
262.64	1585.69
262.872	1640.69
263.105	1647.69
263.337	1605.69
263.57	1619.69
263.802	1629.69
264.035	1643.69
264.267	1650.69
264.499	1635.69
264.732	1658.69
264.964	1628.69
265.197	1659.69
265.429	1670.69
265.661	1684.69
265.894	1703.69
266.126	1729.69
266.358	1720.69
266.591	1722.69
266.823	1843.69
267.055	1836.69
267.287	1807.69
267.52	1803.69
267.752	1773.69
267.984	1808.69
268.216	1827.69
268.448	1885.69
268.681	1938.69
268.913	2051.69
269.145	2227.69
269.377	2285.69
269.609	2172.69
269.841	2142.69
270.073	2216.69
270.306	2475.69
270.538	2589.69
270.77	2567.69
271.002	2381.69
271.234	2293.69
271.466	2507.69
271.698	2585.69
271.93	2577.69
272.162	2560.69
272.394	2524.69
272.626	2435.69
272.858	2257.69
273.09	2279.69
273.322	2193.69
273.553	2183.69
273.785	2145.69
274.017	2176.69
274.249	2192.69
274.481	2184.69
274.713	2176.69
274.945	2196.69
275.176	2212.69
275.408	2203.69
275.64	2204.69
275.872	2200.69
276.104	2229.69
276.335	2251.69
276.567	2301.69
276.799	2402.69
277.031	2555.69
277.262	2700.69
277.494	2663.69
277.726	2463.69
277.957	2400.69
278.189	2340.69
278.421	2297.69
278.652	2321.69
278.884	2322.69
279.115	2318.69
279.347	2333.69
279.579	2310.69
279.81	2304.69
280.042	2281.69
280.273	2334.69
280.505	2350.69
280.736	2321.69
280.968	2372.69
281.199	2353.69
281.431	2367.69
281.662	2386.69
281.894	2409.69
282.125	2445.69
282.356	2560.69
282.588	2721.69
282.819	2547.69
283.051	2446.69
283.282	2484.69
283.513	2497.69
283.745	2503.69
283.976	2552.69
284.207	2586.69
284.439	2527.69
284.67	2535.69
284.901	2533.69
285.132	2607.69
285.364	2564.69
285.595	2549.69
285.826	2547.69
286.057	2565.69
286.288	2564.69
286.52	2607.69
286.751	2624.69
286.982	2640.69
287.213	2653.69
287.444	2699.69
287.675	2727.69
287.906	2745.69
288.138	2784.69
288.369	2822.69
288.6	2800.69
288.831	2764.69
289.062	2779.69
289.293	2737.69
289.524	2724.69
289.755	2783.69
289.986	2737.69
290.217	2699.69
290.448	2707.69
290.679	2730.69
290.91	2743.69
291.141	2732.69
291.371	2743.69
291.602	2764.69
291.833	2742.69
292.064	2786.69
292.295	2739.69
292.526	2770.69
292.757	2734.69
292.987	2743.69
293.218	2764.69
293.449	2785.69
293.68	2739.69
293.91	2714.69
294.141	2786.69
294.372	2739.69
294.603	2774.69
294.833	2774.69
295.064	2829.69
295.295	2839.69
295.525	2849.69
295.756	2865.69
295.987	2928.69
296.217	3045.69
296.448	2943.69
296.679	2905.69
296.909	2851.69
297.14	2855.69
297.37	2986.69
297.601	3015.69
297.831	2957.69
298.062	2962.69
298.292	2994.69
298.523	3005.69
298.753	3064.69
298.984	3064.69
299.214	2958.69
299.445	2994.69
299.675	3060.69
299.905	3075.69
300.136	3040.69
300.366	3043.69
300.597	3041.69
300.827	3191.69
301.057	3242.69
301.288	3251.69
301.518	3238.69
301.748	3249.69
301.979	3295.69
302.209	3290.69
302.439	3276.69
302.669	3243.69
302.9	3204.69
303.13	3215.69
303.36	3245.69
303.59	3265.69
303.82	3222.69
304.051	3271.69
304.281	3254.69
304.511	3200.69
304.741	3188.69
304.971	3197.69
305.201	3191.69
305.431	3142.69
305.661	3195.69
305.891	3174.69
306.121	3188.69
306.352	3219.69
306.582	3220.69
306.812	3169.69
307.042	3154.69
307.272	3193.69
307.502	3205.69
307.731	3180.69
307.961	3191.69
308.191	3132.69
308.421	3156.69
308.651	3181.69
308.881	3176.69
309.111	3278.69
309.341	3264.69
309.571	3281.69
309.8	3315.69
310.03	3358.69
310.26	3438.69
310.49	3407.69
310.72	3494.69
310.949	3553.69
311.179	3479.69
311.409	3483.69
311.639	3435.69
311.868	3507.69
312.098	3525.69
312.328	3549.69
312.557	3667.69
312.787	3707.69
313.017	3617.69
313.246	3645.69
313.476	3573.69
313.706	3609.69
313.935	3643.69
314.165	3787.69
314.394	3807.69
314.624	3724.69
314.853	3649.69
315.083	3598.69
315.312	3600.69
315.542	3603.69
315.771	3574.69
316.001	3548.69
316.23	3517.69
316.46	3554.69
316.689	3570.69
316.919	3588.69
317.148	3580.69
317.377	3569.69
317.607	3554.69
317.836	3571.69
318.065	3488.69
318.295	3532.69
318.524	3453.69
318.753	3528.69
318.983	3604.69
319.212	3509.69
319.441	3554.69
319.67	3523.69
319.9	3547.69
320.129	3610.69
320.358	3566.69
320.587	3607.69
320.816	3649.69
321.046	3675.69
321.275	3703.69
321.504	3691.69
321.733	3742.69
321.962	3727.69
322.191	3742.69
322.42	3915.69
322.649	3947.69
322.878	3941.69
323.108	4071.69
323.337	4157.69
323.566	4369.69
323.795	4563.69
324.024	5042.69
324.253	6396.69
324.482	9427.69
324.71	14001.69
324.939	15625.69
325.168	10503.69
325.397	5861.69
325.626	4866.69
325.855	4534.69
326.084	4421.69
326.313	4443.69
326.542	4610.69
326.77	5057.69
326.999	6254.69
327.228	8899.69
327.457	12990.69
327.686	12176.69
327.914	6516.69
328.143	5157.69
328.372	4871.69
328.6	4796.69
328.829	4673.69
329.058	4832.69
329.287	4736.69
329.515	4576.69
329.744	4458.69
329.972	4517.69
330.201	4557.69
330.43	4656.69
330.658	4856.69
330.887	5078.69
331.115	4855.69
331.344	4644.69
331.572	4550.69
331.801	4649.69
332.03	4710.69
332.258	4607.69
332.486	4701.69
332.715	4782.69
332.943	4937.69
333.172	5130.69
333.4	5245.69
333.629	5331.69
333.857	5303.69
334.085	5241.69
334.314	5217.69
334.542	5094.69
334.771	5105.69
334.999	5012.69
335.227	4930.69
335.455	4897.69
335.684	4855.69
335.912	4840.69
336.14	4728.69
336.369	4697.69
336.597	4718.69
336.825	4718.69
337.053	4658.69
337.281	4556.69
337.51	4571.69
337.738	4593.69
337.966	4443.69
338.194	4455.69
338.422	4465.69
338.65	4348.69
338.878	4376.69
339.106	4279.69
339.334	4350.69
339.562	4214.69
339.79	4215.69
340.018	4200.69
340.246	4227.69
340.474	4224.69
340.702	4207.69
340.93	4205.69
341.158	4223.69
341.386	4160.69
341.614	4269.69
341.842	4210.69
342.07	4114.69
342.298	4120.69
342.526	4090.69
342.754	4107.69
342.981	4182.69
343.209	4280.69
343.437	4443.69
343.665	4728.69
343.893	4991.69
344.12	5032.69
344.348	4837.69
344.576	4587.69
344.804	4511.69
345.031	4370.69
345.259	4344.69
345.487	4212.69
345.714	4136.69
345.942	4066.69
346.17	4077.69
346.397	4037.69
346.625	3913.69
346.853	4021.69
347.08	3989.69
347.308	4075.69
347.535	4143.69
347.763	4078.69
347.99	4073.69
348.218	4088.69
348.445	4087.69
348.673	3958.69
348.9	4028.69
349.128	3917.69
349.355	3968.69
349.583	3980.69
349.81	3955.69
350.037	3858.69
350.265	3919.69
350.492	3926.69
350.72	3888.69
350.947	3888.69
351.174	3998.69
351.402	3936.69
351.629	3942.69
351.856	3925.69
352.083	4005.69
352.311	4022.69
352.538	4033.69
352.765	4018.69
352.992	3987.69
353.22	3885.69
353.447	3818.69
353.674	3855.69
353.901	3826.69
354.128	3776.69
354.355	3875.69
354.583	3844.69
354.81	3811.69
355.037	3828.69
355.264	3796.69
355.491	3788.69
355.718	3830.69
355.945	3864.69
356.172	3791.69
356.399	3774.69
356.626	3800.69
356.853	3822.69
357.08	3755.69
357.307	3873.69
357.534	3768.69
357.761	3833.69
357.988	3824.69
358.215	3805.69
358.441	3862.69
358.668	3873.69
358.895	3899.69
359.122	3847.69
359.349	4011.69
359.576	4009.69
359.802	4152.69
360.029	4304.69
360.256	4210.69
360.483	4175.69
360.709	3957.69
360.936	3993.69
361.163	4035.69
361.39	3998.69
361.616	4034.69
361.843	3975.69
362.07	3982.69
362.296	3965.69
362.523	3944.69
362.749	3995.69
362.976	3899.69
363.203	3901.69
363.429	3863.69
363.656	3881.69
363.882	3885.69
364.109	3838.69
364.335	3821.69
364.562	3840.69
364.788	3843.69
365.015	3915.69
365.241	3832.69
365.468	3907.69
365.694	3947.69
365.92	3863.69
366.147	3848.69
366.373	3844.69
366.599	3823.69
366.826	3871.69
367.052	3738.69
367.278	3946.69
367.505	3906.69
367.731	3951.69
367.957	3934.69
368.184	3914.69
368.41	4023.69
368.636	4044.69
368.862	4046.69
369.089	4031.69
369.315	3982.69
369.541	3933.69
369.767	4033.69
369.993	4029.69
370.219	3990.69
370.445	4055.69
370.672	4096.69
370.898	4070.69
371.124	4159.69
371.35	4185.69
371.576	4112.69
371.802	4123.69
372.028	4109.69
372.254	4121.69
372.48	4184.69
372.706	4303.69
372.932	4335.69
373.158	4254.69
373.384	4264.69
373.61	4203.69
373.835	4155.69
374.061	4148.69
374.287	4199.69
374.513	4374.69
374.739	4467.69
374.965	4581.69
375.191	4645.69
375.416	4469.69
375.642	4379.69
375.868	4357.69
376.094	4283.69
376.319	4228.69
376.545	4256.69
376.771	4185.69
376.997	4193.69
377.222	4212.69
377.448	4125.69
377.674	4168.69
377.899	4112.69
378.125	4126.69
378.35	4087.69
378.576	4125.69
378.802	4054.69
379.027	4112.69
379.253	4161.69
379.478	4097.69
379.704	4145.69
379.929	4173.69
380.155	4123.69
380.38	4147.69
380.606	4180.69
380.831	4175.69
381.057	4171.69
381.282	4155.69
381.507	4196.69
381.733	4230.69
381.958	4266.69
382.184	4341.69
382.409	4357.69
382.634	4394.69
382.86	4399.69
383.085	4453.69
383.31	4556.69
383.535	4593.69
383.761	4675.69
383.986	4685.69
384.211	4836.69
384.436	4803.69
384.662	4918.69
384.887	5012.69
385.112	5018.69
385.337	5098.69
385.562	5073.69
385.787	4984.69
386.013	5160.69
386.238	5049.69
386.463	5089.69
386.688	5098.69
386.913	5020.69
387.138	4970.69
387.363	4910.69
387.588	4967.69
387.813	4959.69
388.038	5026.69
388.263	5047.69
388.488	4952.69
388.713	4967.69
388.938	4982.69
389.163	4935.69
389.387	4923.69
389.612	4830.69
389.837	4969.69
390.062	4889.69
390.287	4886.69
390.512	4956.69
390.736	4962.69
390.961	5098.69
391.186	5171.69
391.411	5345.69
391.636	5437.69
391.86	5585.69
392.085	5631.69
392.31	5501.69
392.534	5417.69
392.759	5317.69
392.984	5229.69
393.208	5207.69
393.433	5113.69
393.658	5224.69
393.882	5181.69
394.107	5182.69
394.331	5243.69
394.556	5271.69
394.78	5291.69
395.005	5293.69
395.229	5296.69
395.454	5510.69
395.678	5651.69
395.903	5663.69
396.127	5661.69
396.352	5491.69
396.576	5343.69
396.801	5192.69
397.025	5381.69
397.249	5563.69
397.474	5635.69
397.698	5684.69
397.922	5750.69
398.147	5851.69
398.371	5937.69
398.595	6033.69
398.82	6380.69
399.044	6845.69
399.268	7643.69
399.492	8708.69
399.717	9337.69
399.941	9028.69
400.165	8511.69
400.389	7774.69
400.613	7043.69
400.837	6596.69
401.062	6515.69
401.286	6307.69
401.51	6326.69
401.734	6260.69
401.958	6383.69
402.182	6550.69
402.406	6533.69
402.63	6617.69
402.854	6811.69
403.078	6818.69
403.302	6902.69
403.526	7020.69
403.75	7045.69
403.974	7198.69
404.198	7070.69
404.422	7156.69
404.645	7125.69
404.869	7078.69
405.093	7234.69
405.317	7260.69
405.541	7285.69
405.765	6968.69
405.988	7009.69
406.212	7036.69
406.436	7180.69
406.66	7408.69
406.883	7385.69
407.107	7957.69
407.331	8486.69
407.555	8989.69
407.778	8710.69
408.002	7977.69
408.226	7692.69
408.449	7454.69
408.673	7392.69
408.896	7540.69
409.12	7653.69
409.344	7254.69
409.567	6943.69
409.791	6995.69
410.014	6902.69
410.238	6705.69
410.461	6757.69
410.685	6728.69
410.908	6835.69
411.132	7083.69
411.355	7142.69
411.578	6646.69
411.802	6588.69
412.025	6509.69
412.249	6529.69
412.472	6551.69
412.695	6421.69
412.919	6263.69
413.142	6247.69
413.365	6169.69
413.589	6187.69
413.812	6195.69
414.035	6038.69
414.258	6169.69
414.482	6206.69
414.705	6216.69
414.928	6147.69
415.151	6172.69
415.374	6199.69
415.597	6176.69
415.821	6118.69
416.044	5992.69
416.267	6072.69
416.49	5998.69
416.713	5959.69
416.936	6073.69
417.159	6038.69
417.382	6153.69
417.605	6099.69
417.828	6201.69
418.051	6355.69
418.274	6314.69
418.497	6141.69
418.72	6315.69
418.943	6283.69
419.166	6670.69
419.389	7021.69
419.611	6843.69
419.834	6646.69
420.057	6534.69
420.28	6341.69
420.503	6108.69
420.726	6183.69
420.948	6388.69
421.171	6782.69
421.394	6696.69
421.617	6318.69
421.839	6252.69
422.062	6390.69
422.285	6504.69
422.507	7165.69
422.73	7565.69
422.953	7181.69
423.175	6790.69
423.398	6741.69
423.621	6764.69
423.843	6984.69
424.066	6936.69
424.288	6861.69
424.511	7073.69
424.733	7526.69
424.956	7909.69
425.178	7339.69
425.401	7537.69
425.623	7344.69
425.846	6523.69
426.068	6340.69
426.291	6290.69
426.513	6313.69
426.735	6424.69
426.958	6777.69
427.18	7504.69
427.402	8490.69
427.625	8449.69
427.847	7170.69
428.069	6486.69
428.292	6128.69
428.514	5843.69
428.736	5709.69
428.958	5783.69
429.181	5549.69
429.403	5602.69
429.625	5727.69
429.847	5981.69
430.069	6529.69
430.292	6150.69
430.514	5655.69
430.736	5605.69
430.958	5545.69
431.18	5487.69
431.402	5457.69
431.624	5508.69
431.846	5509.69
432.068	5444.69
432.29	5648.69
432.512	5612.69
432.734	5645.69
432.956	5520.69
433.178	5665.69
433.4	5646.69
433.622	5555.69
433.844	5515.69
434.066	5603.69
434.287	5690.69
434.509	5894.69
434.731	6133.69
434.953	6312.69
435.175	6339.69
435.397	6473.69
435.618	6415.69
435.84	6653.69
436.062	7415.69
436.284	7367.69
436.505	6278.69
436.727	5986.69
436.949	5727.69
437.17	5590.69
437.392	5590.69
437.614	5703.69
437.835	6070.69
438.057	6963.69
438.278	7410.69
438.5	7422.69
438.721	8248.69
438.943	7333.69
439.165	6070.69
439.386	5907.69
439.608	5977.69
439.829	6061.69
440.05	6398.69
440.272	6608.69
440.493	6159.69
440.715	5933.69
440.936	5911.69
441.158	5949.69
441.379	6054.69
441.6	6378.69
441.822	6633.69
442.043	6976.69
442.264	7632.69
442.486	7382.69
442.707	6557.69
442.928	6465.69
443.149	6611.69
443.371	6740.69
443.592	7321.69
443.813	8203.69
444.034	8156.69
444.255	7180.69
444.476	7063.69
444.698	7219.69
444.919	7443.69
445.14	7176.69
445.361	6915.69
445.582	7032.69
445.803	7416.69
446.024	8015.69
446.245	7793.69
446.466	6997.69
446.687	6156.69
446.908	5861.69
447.129	5663.69
447.35	5465.69
447.571	5470.69
447.792	5308.69
448.013	5424.69
448.234	5577.69
448.455	6172.69
448.675	7297.69
448.896	7716.69
449.117	6414.69
449.338	6689.69
449.559	7847.69
449.779	7905.69
450	6161.69
450.221	5583.69
450.442	5331.69
450.662	5264.69
450.883	5341.69
451.104	5362.69
451.324	5238.69
451.545	5122.69
451.766	4996.69
451.986	4877.69
452.207	4880.69
452.428	4839.69
452.648	4918.69
452.869	4944.69
453.089	4988.69
453.31	5086.69
453.53	4931.69
453.751	4888.69
453.971	4832.69
454.192	4952.69
454.412	4774.69
454.633	4736.69
454.853	4742.69
455.073	4715.69
455.294	5080.69
455.514	5540.69
455.734	5135.69
455.955	4647.69
456.175	4522.69
456.395	4529.69
456.616	4532.69
456.836	4504.69
457.056	4482.69
457.276	4426.69
457.497	4546.69
457.717	4558.69
457.937	4661.69
458.157	4683.69
458.377	4818.69
458.598	5101.69
458.818	5541.69
459.038	6204.69
459.258	6304.69
459.478	5648.69
459.698	5588.69
459.918	5691.69
460.138	5877.69
460.358	6085.69
460.578	6123.69
460.798	6204.69
461.018	6171.69
461.238	6032.69
461.458	5995.69
461.678	6013.69
461.898	6121.69
462.118	6149.69
462.338	6534.69
462.558	6677.69
462.777	6972.69
462.997	7514.69
463.217	7935.69
463.437	7723.69
463.657	7150.69
463.876	6887.69
464.096	6946.69
464.316	6992.69
464.536	6977.69
464.755	6754.69
464.975	6565.69
465.195	6627.69
465.414	6539.69
465.634	5864.69
465.854	5581.69
466.073	5462.69
466.293	5306.69
466.512	5149.69
466.732	5074.69
466.951	4986.69
467.171	4950.69
467.391	5067.69
467.61	5138.69
467.829	5096.69
468.049	4989.69
468.268	4860.69
468.488	4827.69
468.707	4771.69
468.927	4809.69
469.146	4815.69
469.365	4921.69
469.585	4915.69
469.804	5134.69
470.023	5232.69
470.243	5157.69
470.462	5259.69
470.681	5368.69
470.901	5259.69
471.12	5179.69
471.339	5105.69
471.558	5134.69
471.777	4909.69
471.997	4899.69
472.216	4869.69
472.435	4832.69
472.654	4819.69
472.873	4787.69
473.092	4735.69
473.311	4790.69
473.53	4821.69
473.749	4979.69
473.968	5333.69
474.187	6215.69
474.406	5782.69
474.625	5064.69
474.844	4909.69
475.063	4882.69
475.282	4897.69
475.501	4920.69
475.72	4890.69
475.939	4941.69
476.158	4958.69
476.377	5004.69
476.596	4985.69
476.814	5134.69
477.033	5188.69
477.252	5237.69
477.471	5361.69
477.69	5412.69
477.908	5541.69
478.127	5736.69
478.346	5715.69
478.564	5847.69
478.783	5944.69
479.002	6059.69
479.22	6072.69
479.439	6100.69
479.658	6216.69
479.876	6244.69
480.095	6519.69
480.313	6906.69
480.532	6822.69
480.751	6661.69
480.969	6455.69
481.188	6437.69
481.406	6207.69
481.624	6021.69
481.843	5778.69
482.061	5761.69
482.28	5696.69
482.498	5719.69
482.717	5652.69
482.935	5639.69
483.153	5714.69
483.372	5712.69
483.59	5573.69
483.808	5692.69
484.027	5671.69
484.245	5766.69
484.463	5667.69
484.681	5840.69
484.9	5868.69
485.118	5859.69
485.336	5961.69
485.554	6035.69
485.772	5994.69
485.99	6063.69
486.209	6058.69
486.427	6097.69
486.645	6171.69
486.863	6220.69
487.081	6144.69
487.299	6081.69
487.517	6121.69
487.735	6094.69
487.953	6037.69
