Data from Uncirc_1987_H10_HRD10591_00090.txt Node
Date: Wed Jan 03 12:09:06 EST 2024
User: Yrep
Spectrometer: HR+D1059
Trigger mode: 1
Integration Time (sec): 1.000000E-1
Scans to average: 1
Electric dark correction enabled: true
Nonlinearity correction enabled: false
Boxcar width: 0
XAxis mode: Wavelengths
Number of Pixels in Spectrum: 2048
>>>>>Begin Spectral Data<<<<<
223.165	-14.69
223.4	-14.69
223.635	-14.69
223.869	-17.69
224.104	-19.69
224.338	-26.69
224.573	-14.69
224.808	-5.69
225.042	-4.69
225.277	-6.69
225.511	-5.69
225.746	17.31
225.98	10.31
226.215	7.31
226.449	2.31
226.683	20.31
226.918	30.31
227.152	28.31
227.387	15.31
227.621	30.31
227.856	37.31
228.09	32.31
228.324	42.31
228.559	44.31
228.793	55.31
229.027	49.31
229.262	62.31
229.496	79.31
229.73	81.31
229.964	76.31
230.199	75.31
230.433	80.31
230.667	59.31
230.901	64.31
231.136	72.31
231.37	77.31
231.604	78.31
231.838	62.31
232.072	67.31
232.306	56.31
232.541	72.31
232.775	64.31
233.009	81.31
233.243	68.31
233.477	68.31
233.711	67.31
233.945	82.31
234.179	70.31
234.413	83.31
234.647	61.31
234.881	74.31
235.115	75.31
235.349	75.31
235.583	68.31
235.817	66.31
236.051	72.31
236.285	62.31
236.519	69.31
236.753	73.31
236.987	64.31
237.221	78.31
237.455	83.31
237.689	86.31
237.922	73.31
238.156	57.31
238.39	64.31
238.624	68.31
238.858	72.31
239.091	64.31
239.325	65.31
239.559	69.31
239.793	71.31
240.027	77.31
240.26	60.31
240.494	74.31
240.728	69.31
240.961	59.31
241.195	74.31
241.429	70.31
241.662	75.31
241.896	78.31
242.13	67.31
242.363	70.31
242.597	55.31
242.83	62.31
243.064	68.31
243.298	79.31
243.531	74.31
243.765	75.31
243.998	67.31
244.232	73.31
244.465	72.31
244.699	74.31
244.932	84.31
245.166	74.31
245.399	62.31
245.633	87.31
245.866	67.31
246.099	71.31
246.333	63.31
246.566	73.31
246.8	57.31
247.033	75.31
247.266	76.31
247.5	70.31
247.733	73.31
247.966	73.31
248.2	72.31
248.433	78.31
248.666	81.31
248.899	75.31
249.133	65.31
249.366	96.31
249.599	94.31
249.832	72.31
250.066	75.31
250.299	75.31
250.532	73.31
250.765	75.31
250.998	80.31
251.231	60.31
251.465	86.31
251.698	77.31
251.931	71.31
252.164	72.31
252.397	66.31
252.63	74.31
252.863	66.31
253.096	88.31
253.329	62.31
253.562	60.31
253.795	78.31
254.028	89.31
254.261	79.31
254.494	78.31
254.727	79.31
254.96	74.31
255.193	77.31
255.426	76.31
255.659	75.31
255.892	78.31
256.124	72.31
256.357	78.31
256.59	60.31
256.823	72.31
257.056	82.31
257.289	62.31
257.521	68.31
257.754	67.31
257.987	75.31
258.22	77.31
258.452	87.31
258.685	75.31
258.918	81.31
259.151	82.31
259.383	87.31
259.616	64.31
259.849	81.31
260.081	76.31
260.314	63.31
260.547	83.31
260.779	66.31
261.012	86.31
261.244	77.31
261.477	91.31
261.71	96.31
261.942	91.31
262.175	107.31
262.407	81.31
262.64	71.31
262.872	95.31
263.105	88.31
263.337	65.31
263.57	80.31
263.802	80.31
264.035	77.31
264.267	67.31
264.499	66.31
264.732	64.31
264.964	79.31
265.197	73.31
265.429	85.31
265.661	62.31
265.894	81.31
266.126	81.31
266.358	83.31
266.591	71.31
266.823	85.31
267.055	77.31
267.287	99.31
267.52	70.31
267.752	75.31
267.984	84.31
268.216	75.31
268.448	84.31
268.681	72.31
268.913	68.31
269.145	81.31
269.377	76.31
269.609	81.31
269.841	93.31
270.073	65.31
270.306	84.31
270.538	74.31
270.77	62.31
271.002	76.31
271.234	70.31
271.466	80.31
271.698	79.31
271.93	68.31
272.162	71.31
272.394	78.31
272.626	79.31
272.858	84.31
273.09	68.31
273.322	74.31
273.553	73.31
273.785	77.31
274.017	65.31
274.249	74.31
274.481	74.31
274.713	80.31
274.945	72.31
275.176	77.31
275.408	84.31
275.64	86.31
275.872	82.31
276.104	83.31
276.335	78.31
276.567	95.31
276.799	94.31
277.031	99.31
277.262	63.31
277.494	67.31
277.726	79.31
277.957	85.31
278.189	84.31
278.421	71.31
278.652	78.31
278.884	82.31
279.115	93.31
279.347	80.31
279.579	72.31
279.81	76.31
280.042	71.31
280.273	63.31
280.505	86.31
280.736	75.31
280.968	88.31
281.199	82.31
281.431	87.31
281.662	82.31
281.894	80.31
282.125	86.31
282.356	96.31
282.588	120.31
282.819	100.31
283.051	90.31
283.282	89.31
283.513	92.31
283.745	88.31
283.976	90.31
284.207	64.31
284.439	71.31
284.67	79.31
284.901	63.31
285.132	84.31
285.364	76.31
285.595	83.31
285.826	77.31
286.057	74.31
286.288	83.31
286.52	77.31
286.751	95.31
286.982	94.31
287.213	81.31
287.444	83.31
287.675	68.31
287.906	70.31
288.138	86.31
288.369	78.31
288.6	82.31
288.831	81.31
289.062	80.31
289.293	77.31
289.524	81.31
289.755	70.31
289.986	83.31
290.217	87.31
290.448	76.31
290.679	80.31
290.91	83.31
291.141	83.31
291.371	63.31
291.602	70.31
291.833	74.31
292.064	72.31
292.295	82.31
292.526	66.31
292.757	81.31
292.987	79.31
293.218	82.31
293.449	76.31
293.68	83.31
293.91	82.31
294.141	91.31
294.372	76.31
294.603	71.31
294.833	71.31
295.064	75.31
295.295	83.31
295.525	94.31
295.756	104.31
295.987	101.31
296.217	119.31
296.448	110.31
296.679	86.31
296.909	83.31
297.14	85.31
297.37	88.31
297.601	92.31
297.831	90.31
298.062	74.31
298.292	89.31
298.523	81.31
298.753	87.31
298.984	76.31
299.214	71.31
299.445	73.31
299.675	72.31
299.905	72.31
300.136	86.31
300.366	86.31
300.597	86.31
300.827	80.31
301.057	83.31
301.288	90.31
301.518	76.31
301.748	81.31
301.979	95.31
302.209	83.31
302.439	71.31
302.669	77.31
302.9	75.31
303.13	72.31
303.36	78.31
303.59	101.31
303.82	97.31
304.051	76.31
304.281	92.31
304.511	86.31
304.741	89.31
304.971	77.31
305.201	95.31
305.431	80.31
305.661	71.31
305.891	77.31
306.121	89.31
306.352	91.31
306.582	86.31
306.812	75.31
307.042	83.31
307.272	77.31
307.502	94.31
307.731	95.31
307.961	90.31
308.191	91.31
308.421	78.31
308.651	84.31
308.881	79.31
309.111	93.31
309.341	86.31
309.571	90.31
309.8	83.31
310.03	92.31
310.26	80.31
310.49	95.31
310.72	87.31
310.949	83.31
311.179	75.31
311.409	86.31
311.639	76.31
311.868	87.31
312.098	95.31
312.328	73.31
312.557	73.31
312.787	94.31
313.017	91.31
313.246	85.31
313.476	87.31
313.706	72.31
313.935	83.31
314.165	95.31
314.394	92.31
314.624	88.31
314.853	89.31
315.083	87.31
315.312	76.31
315.542	72.31
315.771	98.31
316.001	85.31
316.23	74.31
316.46	87.31
316.689	82.31
316.919	89.31
317.148	86.31
317.377	95.31
317.607	74.31
317.836	81.31
318.065	71.31
318.295	76.31
318.524	76.31
318.753	79.31
318.983	92.31
319.212	89.31
319.441	99.31
319.67	80.31
319.9	88.31
320.129	98.31
320.358	99.31
320.587	79.31
320.816	91.31
321.046	91.31
321.275	94.31
321.504	80.31
321.733	80.31
321.962	97.31
322.191	96.31
322.42	99.31
322.649	99.31
322.878	91.31
323.108	106.31
323.337	101.31
323.566	120.31
323.795	132.31
324.024	196.31
324.253	323.31
324.482	690.31
324.71	1433.31
324.939	1862.31
325.168	668.31
325.397	194.31
325.626	142.31
325.855	121.31
326.084	118.31
326.313	111.31
326.542	129.31
326.77	204.31
326.999	379.31
327.228	780.31
327.457	1450.31
327.686	1131.31
327.914	307.31
328.143	170.31
328.372	139.31
328.6	106.31
328.829	105.31
329.058	94.31
329.287	123.31
329.515	108.31
329.744	93.31
329.972	96.31
330.201	122.31
330.43	118.31
330.658	113.31
330.887	105.31
331.115	114.31
331.344	85.31
331.572	88.31
331.801	87.31
332.03	90.31
332.258	91.31
332.486	83.31
332.715	85.31
332.943	83.31
333.172	89.31
333.4	88.31
333.629	95.31
333.857	94.31
334.085	99.31
334.314	112.31
334.542	114.31
334.771	111.31
334.999	96.31
335.227	93.31
335.455	91.31
335.684	97.31
335.912	95.31
336.14	84.31
336.369	94.31
336.597	91.31
336.825	86.31
337.053	83.31
337.281	85.31
337.51	85.31
337.738	77.31
337.966	89.31
338.194	84.31
338.422	86.31
338.65	97.31
338.878	85.31
339.106	88.31
339.334	102.31
339.562	84.31
339.79	91.31
340.018	91.31
340.246	86.31
340.474	83.31
340.702	105.31
340.93	80.31
341.158	75.31
341.386	98.31
341.614	88.31
341.842	93.31
342.07	90.31
342.298	72.31
342.526	91.31
342.754	86.31
342.981	84.31
343.209	68.31
343.437	88.31
343.665	88.31
343.893	79.31
344.12	87.31
344.348	75.31
344.576	87.31
344.804	75.31
345.031	83.31
345.259	93.31
345.487	83.31
345.714	81.31
345.942	74.31
346.17	85.31
346.397	83.31
346.625	87.31
346.853	95.31
347.08	91.31
347.308	80.31
347.535	93.31
347.763	94.31
347.99	103.31
348.218	90.31
348.445	72.31
348.673	83.31
348.9	87.31
349.128	84.31
349.355	82.31
349.583	104.31
349.81	84.31
350.037	92.31
350.265	83.31
350.492	76.31
350.72	78.31
350.947	109.31
351.174	106.31
351.402	103.31
351.629	87.31
351.856	104.31
352.083	82.31
352.311	97.31
352.538	101.31
352.765	98.31
352.992	102.31
353.22	95.31
353.447	95.31
353.674	104.31
353.901	88.31
354.128	72.31
354.355	96.31
354.583	96.31
354.81	88.31
355.037	80.31
355.264	84.31
355.491	76.31
355.718	85.31
355.945	87.31
356.172	94.31
356.399	80.31
356.626	89.31
356.853	86.31
357.08	72.31
357.307	78.31
357.534	78.31
357.761	82.31
357.988	87.31
358.215	65.31
358.441	84.31
358.668	76.31
358.895	89.31
359.122	84.31
359.349	72.31
359.576	72.31
359.802	93.31
360.029	96.31
360.256	89.31
360.483	95.31
360.709	82.31
360.936	86.31
361.163	76.31
361.39	83.31
361.616	98.31
361.843	87.31
362.07	82.31
362.296	89.31
362.523	78.31
362.749	61.31
362.976	81.31
363.203	95.31
363.429	90.31
363.656	78.31
363.882	92.31
364.109	96.31
364.335	89.31
364.562	83.31
364.788	72.31
365.015	84.31
365.241	90.31
365.468	91.31
365.694	103.31
365.92	91.31
366.147	79.31
366.373	85.31
366.599	81.31
366.826	80.31
367.052	83.31
367.278	75.31
367.505	70.31
367.731	94.31
367.957	88.31
368.184	91.31
368.41	87.31
368.636	77.31
368.862	102.31
369.089	96.31
369.315	82.31
369.541	72.31
369.767	78.31
369.993	80.31
370.219	87.31
370.445	87.31
370.672	84.31
370.898	84.31
371.124	71.31
371.35	92.31
371.576	86.31
371.802	87.31
372.028	66.31
372.254	76.31
372.48	67.31
372.706	68.31
372.932	81.31
373.158	75.31
373.384	78.31
373.61	85.31
373.835	70.31
374.061	68.31
374.287	79.31
374.513	82.31
374.739	58.31
374.965	80.31
375.191	72.31
375.416	83.31
375.642	82.31
375.868	91.31
376.094	62.31
376.319	87.31
376.545	92.31
376.771	83.31
376.997	88.31
377.222	72.31
377.448	71.31
377.674	91.31
377.899	69.31
378.125	74.31
378.35	85.31
378.576	86.31
378.802	100.31
379.027	70.31
379.253	84.31
379.478	86.31
379.704	90.31
379.929	91.31
380.155	55.31
380.38	70.31
380.606	73.31
380.831	78.31
381.057	89.31
381.282	91.31
381.507	81.31
381.733	78.31
381.958	82.31
382.184	86.31
382.409	90.31
382.634	81.31
382.86	74.31
383.085	87.31
383.31	105.31
383.535	81.31
383.761	89.31
383.986	87.31
384.211	96.31
384.436	85.31
384.662	81.31
384.887	86.31
385.112	96.31
385.337	100.31
385.562	78.31
385.787	99.31
386.013	80.31
386.238	105.31
386.463	99.31
386.688	91.31
386.913	79.31
387.138	90.31
387.363	81.31
387.588	93.31
387.813	87.31
388.038	89.31
388.263	83.31
388.488	104.31
388.713	87.31
388.938	82.31
389.163	91.31
389.387	95.31
389.612	77.31
389.837	77.31
390.062	96.31
390.287	82.31
390.512	66.31
390.736	86.31
390.961	82.31
391.186	104.31
391.411	82.31
391.636	83.31
391.86	69.31
392.085	92.31
392.31	88.31
392.534	93.31
392.759	87.31
392.984	78.31
393.208	74.31
393.433	84.31
393.658	81.31
393.882	85.31
394.107	85.31
394.331	78.31
394.556	70.31
394.78	92.31
395.005	81.31
395.229	80.31
395.454	76.31
395.678	86.31
395.903	87.31
396.127	65.31
396.352	97.31
396.576	83.31
396.801	71.31
397.025	73.31
397.249	88.31
397.474	83.31
397.698	84.31
397.922	69.31
398.147	86.31
398.371	86.31
398.595	87.31
398.82	82.31
399.044	76.31
399.268	82.31
399.492	78.31
399.717	93.31
399.941	77.31
400.165	89.31
400.389	94.31
400.613	89.31
400.837	86.31
401.062	91.31
401.286	91.31
401.51	71.31
401.734	54.31
401.958	84.31
402.182	109.31
402.406	145.31
402.63	112.31
402.854	93.31
403.078	77.31
403.302	74.31
403.526	78.31
403.75	77.31
403.974	81.31
404.198	79.31
404.422	90.31
404.645	84.31
404.869	78.31
405.093	89.31
405.317	92.31
405.541	99.31
405.765	107.31
405.988	98.31
406.212	143.31
406.436	190.31
406.66	123.31
406.883	90.31
407.107	83.31
407.331	89.31
407.555	96.31
407.778	88.31
408.002	82.31
408.226	87.31
408.449	83.31
408.673	92.31
408.896	71.31
409.12	90.31
409.344	89.31
409.567	78.31
409.791	88.31
410.014	105.31
410.238	87.31
410.461	83.31
410.685	95.31
410.908	93.31
411.132	95.31
411.355	99.31
411.578	101.31
411.802	78.31
412.025	88.31
412.249	76.31
412.472	92.31
412.695	96.31
412.919	93.31
413.142	85.31
413.365	80.31
413.589	84.31
413.812	95.31
414.035	81.31
414.258	95.31
414.482	87.31
414.705	82.31
414.928	78.31
415.151	97.31
415.374	84.31
415.597	80.31
415.821	80.31
416.044	67.31
416.267	75.31
416.49	76.31
416.713	72.31
416.936	71.31
417.159	92.31
417.382	76.31
417.605	77.31
417.828	73.31
418.051	68.31
418.274	82.31
418.497	77.31
418.72	77.31
418.943	78.31
419.166	79.31
419.389	66.31
419.611	75.31
419.834	81.31
420.057	89.31
420.28	81.31
420.503	78.31
420.726	89.31
420.948	84.31
421.171	70.31
421.394	92.31
421.617	78.31
421.839	84.31
422.062	83.31
422.285	88.31
422.507	85.31
422.73	82.31
422.953	80.31
423.175	79.31
423.398	76.31
423.621	80.31
423.843	65.31
424.066	71.31
424.288	83.31
424.511	75.31
424.733	79.31
424.956	90.31
425.178	81.31
425.401	90.31
425.623	96.31
425.846	80.31
426.068	89.31
426.291	83.31
426.513	94.31
426.735	84.31
426.958	98.31
427.18	101.31
427.402	126.31
427.625	127.31
427.847	116.31
428.069	99.31
428.292	88.31
428.514	88.31
428.736	67.31
428.958	74.31
429.181	73.31
429.403	83.31
429.625	86.31
429.847	85.31
430.069	88.31
430.292	89.31
430.514	74.31
430.736	85.31
430.958	90.31
431.18	80.31
431.402	80.31
431.624	81.31
431.846	82.31
432.068	66.31
432.29	91.31
432.512	74.31
432.734	62.31
432.956	93.31
433.178	85.31
433.4	78.31
433.622	90.31
433.844	81.31
434.066	91.31
434.287	70.31
434.509	66.31
434.731	72.31
434.953	75.31
435.175	84.31
435.397	81.31
435.618	87.31
435.84	86.31
436.062	100.31
436.284	94.31
436.505	93.31
436.727	89.31
436.949	98.31
437.17	89.31
437.392	89.31
437.614	67.31
437.835	84.31
438.057	102.31
438.278	102.31
438.5	96.31
438.721	101.31
438.943	99.31
439.165	93.31
439.386	83.31
439.608	90.31
439.829	91.31
440.05	108.31
440.272	115.31
440.493	98.31
440.715	78.31
440.936	86.31
441.158	78.31
441.379	80.31
441.6	85.31
441.822	89.31
442.043	93.31
442.264	99.31
442.486	93.31
442.707	67.31
442.928	88.31
443.149	119.31
443.371	110.31
443.592	78.31
443.813	111.31
444.034	89.31
444.255	86.31
444.476	59.31
444.698	73.31
444.919	80.31
445.14	113.31
445.361	107.31
445.582	94.31
445.803	113.31
446.024	127.31
446.245	114.31
446.466	85.31
446.687	71.31
446.908	66.31
447.129	78.31
447.35	79.31
447.571	93.31
447.792	78.31
448.013	75.31
448.234	98.31
448.455	98.31
448.675	110.31
448.896	96.31
449.117	100.31
449.338	89.31
449.559	110.31
449.779	104.31
450	85.31
450.221	88.31
450.442	81.31
450.662	93.31
450.883	89.31
451.104	95.31
451.324	94.31
451.545	89.31
451.766	85.31
451.986	78.31
452.207	76.31
452.428	90.31
452.648	104.31
452.869	99.31
453.089	99.31
453.31	116.31
453.53	91.31
453.751	90.31
453.971	98.31
454.192	99.31
454.412	82.31
454.633	67.31
454.853	80.31
455.073	74.31
455.294	76.31
455.514	92.31
455.734	77.31
455.955	79.31
456.175	75.31
456.395	90.31
456.616	81.31
456.836	73.31
457.056	93.31
457.276	75.31
457.497	82.31
457.717	76.31
457.937	75.31
458.157	81.31
458.377	92.31
458.598	82.31
458.818	113.31
459.038	144.31
459.258	110.31
459.478	83.31
459.698	83.31
459.918	86.31
460.138	92.31
460.358	79.31
460.578	79.31
460.798	88.31
461.018	68.31
461.238	82.31
461.458	84.31
461.678	75.31
461.898	74.31
462.118	72.31
462.338	83.31
462.558	75.31
462.777	77.31
462.997	86.31
463.217	78.31
463.437	74.31
463.657	103.31
463.876	77.31
464.096	80.31
464.316	95.31
464.536	88.31
464.755	86.31
464.975	92.31
465.195	141.31
465.414	137.31
465.634	84.31
465.854	75.31
466.073	73.31
466.293	83.31
466.512	78.31
466.732	79.31
466.951	68.31
467.171	79.31
467.391	94.31
467.61	87.31
467.829	94.31
468.049	71.31
468.268	88.31
468.488	80.31
468.707	99.31
468.927	72.31
469.146	56.31
469.365	85.31
469.585	70.31
469.804	90.31
470.023	80.31
470.243	81.31
470.462	82.31
470.681	86.31
470.901	73.31
471.12	90.31
471.339	89.31
471.558	75.31
471.777	77.31
471.997	66.31
472.216	85.31
472.435	121.31
472.654	96.31
472.873	91.31
473.092	72.31
473.311	78.31
473.53	82.31
473.749	76.31
473.968	81.31
474.187	92.31
474.406	70.31
474.625	88.31
474.844	77.31
475.063	72.31
475.282	80.31
475.501	84.31
475.72	88.31
475.939	77.31
476.158	78.31
476.377	81.31
476.596	85.31
476.814	94.31
477.033	86.31
477.252	90.31
477.471	86.31
477.69	84.31
477.908	79.31
478.127	72.31
478.346	74.31
478.564	82.31
478.783	86.31
479.002	86.31
479.22	83.31
479.439	77.31
479.658	91.31
479.876	95.31
480.095	84.31
480.313	83.31
480.532	92.31
480.751	83.31
480.969	107.31
481.188	150.31
481.406	116.31
481.624	90.31
481.843	80.31
482.061	76.31
482.28	94.31
482.498	83.31
482.717	81.31
482.935	79.31
483.153	86.31
483.372	76.31
483.59	89.31
483.808	89.31
484.027	84.31
484.245	83.31
484.463	104.31
484.681	90.31
484.9	83.31
485.118	90.31
485.336	88.31
485.554	91.31
485.772	84.31
485.99	94.31
486.209	99.31
486.427	91.31
486.645	89.31
486.863	118.31
487.081	82.31
487.299	88.31
487.517	90.31
487.735	90.31
487.953	91.31
488.171	80.31
488.389	80.31
488.607	86.31
488.825	82.31
489.043	82.31
489.261	82.31
489.479	87.31
489.696	75.31
489.914	77.31
490.132	82.31
490.35	96.31
490.568	91.31
490.786	79.31
491.003	82.31
491.221	88.31
491.439	84.31
491.657	85.31
491.874	91.31
492.092	86.31
492.31	82.31
492.527	82.31
492.745	76.31
492.963	93.31
493.18	81.31
493.398	79.31
493.615	94.31
493.833	83.31
494.05	102.31
494.268	80.31
494.485	83.31
494.703	77.31
494.92	81.31
495.138	82.31
495.355	84.31
495.573	85.31
495.79	74.31
496.008	79.31
496.225	93.31
496.442	73.31
496.66	89.31
496.877	77.31
497.094	88.31
497.312	70.31
497.529	81.31
497.746	72.31
497.963	87.31
498.181	89.31
498.398	97.31
498.615	83.31
498.832	96.31
499.049	75.31
499.267	92.31
499.484	77.31
499.701	81.31
499.918	106.31
500.135	79.31
500.352	77.31
500.569	78.31
500.786	68.31
501.003	84.31
501.22	90.31
501.437	91.31
501.654	80.31
501.871	83.31
502.088	90.31
502.305	86.31
502.522	82.31
502.739	77.31
502.956	81.31
503.172	77.31
503.389	94.31
503.606	92.31
503.823	84.31
504.04	72.31
504.256	90.31
504.473	96.31
504.69	75.31
504.907	87.31
505.123	86.31
505.34	102.31
505.557	81.31
505.773	96.31
505.99	81.31
506.207	77.31
506.423	74.31
506.64	81.31
506.856	91.31
507.073	84.31
507.289	87.31
507.506	80.31
507.722	113.31
507.939	99.31
508.155	87.31
508.372	81.31
508.588	86.31
508.805	94.31
509.021	87.31
509.238	102.31
509.454	88.31
509.67	102.31
509.887	105.31
510.103	112.31
510.319	193.31
510.536	653.31
510.752	1944.31
510.968	537.31
511.184	141.31
511.401	113.31
511.617	86.31
511.833	81.31
512.049	88.31
512.265	87.31
512.481	94.31
512.698	91.31
512.914	78.31
513.13	100.31
513.346	99.31
513.562	94.31
513.778	102.31
513.994	91.31
514.21	102.31
514.426	111.31
514.642	121.31
514.858	117.31
515.074	138.31
515.29	380.31
515.506	1178.31
515.721	435.31
515.937	126.31
516.153	96.31
516.369	95.31
516.585	96.31
516.801	81.31
517.016	98.31
517.232	91.31
517.448	84.31
517.664	90.31
517.879	89.31
518.095	86.31
