Data from Uncirc_1987_H10_HRD10591_00071.txt Node
Date: Wed Jan 03 12:09:02 EST 2024
User: Yrep
Spectrometer: HR+D1059
Trigger mode: 1
Integration Time (sec): 1.000000E-1
Scans to average: 1
Electric dark correction enabled: true
Nonlinearity correction enabled: false
Boxcar width: 0
XAxis mode: Wavelengths
Number of Pixels in Spectrum: 2048
>>>>>Begin Spectral Data<<<<<
223.165	-21.25
223.4	-21.25
223.635	-21.25
223.869	-25.25
224.104	-26.25
224.338	-16.25
224.573	-17.25
224.808	-16.25
225.042	-19.25
225.277	-10.25
225.511	6.75
225.746	13.75
225.98	15.75
226.215	5.75
226.449	21.75
226.683	26.75
226.918	27.75
227.152	33.75
227.387	33.75
227.621	31.75
227.856	39.75
228.09	40.75
228.324	39.75
228.559	57.75
228.793	51.75
229.027	66.75
229.262	75.75
229.496	68.75
229.73	85.75
229.964	79.75
230.199	55.75
230.433	76.75
230.667	83.75
230.901	75.75
231.136	67.75
231.37	72.75
231.604	85.75
231.838	75.75
232.072	78.75
232.306	79.75
232.541	67.75
232.775	83.75
233.009	77.75
233.243	67.75
233.477	79.75
233.711	72.75
233.945	83.75
234.179	83.75
234.413	89.75
234.647	77.75
234.881	90.75
235.115	88.75
235.349	78.75
235.583	83.75
235.817	72.75
236.051	79.75
236.285	76.75
236.519	66.75
236.753	71.75
236.987	79.75
237.221	82.75
237.455	97.75
237.689	77.75
237.922	88.75
238.156	75.75
238.39	83.75
238.624	72.75
238.858	71.75
239.091	66.75
239.325	69.75
239.559	73.75
239.793	74.75
240.027	71.75
240.26	75.75
240.494	89.75
240.728	74.75
240.961	73.75
241.195	73.75
241.429	72.75
241.662	65.75
241.896	77.75
242.13	75.75
242.363	76.75
242.597	79.75
242.83	70.75
243.064	73.75
243.298	71.75
243.531	78.75
243.765	82.75
243.998	80.75
244.232	75.75
244.465	81.75
244.699	74.75
244.932	73.75
245.166	63.75
245.399	72.75
245.633	81.75
245.866	79.75
246.099	68.75
246.333	73.75
246.566	88.75
246.8	87.75
247.033	74.75
247.266	78.75
247.5	79.75
247.733	79.75
247.966	80.75
248.2	77.75
248.433	77.75
248.666	83.75
248.899	73.75
249.133	82.75
249.366	92.75
249.599	80.75
249.832	75.75
250.066	83.75
250.299	82.75
250.532	85.75
250.765	78.75
250.998	93.75
251.231	83.75
251.465	70.75
251.698	79.75
251.931	77.75
252.164	90.75
252.397	71.75
252.63	83.75
252.863	63.75
253.096	65.75
253.329	81.75
253.562	78.75
253.795	81.75
254.028	67.75
254.261	81.75
254.494	79.75
254.727	88.75
254.96	73.75
255.193	85.75
255.426	76.75
255.659	80.75
255.892	100.75
256.124	74.75
256.357	77.75
256.59	82.75
256.823	83.75
257.056	87.75
257.289	77.75
257.521	80.75
257.754	75.75
257.987	80.75
258.22	81.75
258.452	81.75
258.685	93.75
258.918	82.75
259.151	91.75
259.383	73.75
259.616	83.75
259.849	72.75
260.081	83.75
260.314	78.75
260.547	78.75
260.779	70.75
261.012	72.75
261.244	85.75
261.477	92.75
261.71	89.75
261.942	101.75
262.175	103.75
262.407	95.75
262.64	92.75
262.872	79.75
263.105	87.75
263.337	97.75
263.57	80.75
263.802	80.75
264.035	73.75
264.267	79.75
264.499	72.75
264.732	76.75
264.964	87.75
265.197	70.75
265.429	77.75
265.661	96.75
265.894	79.75
266.126	86.75
266.358	75.75
266.591	67.75
266.823	87.75
267.055	96.75
267.287	86.75
267.52	79.75
267.752	80.75
267.984	89.75
268.216	61.75
268.448	85.75
268.681	78.75
268.913	97.75
269.145	72.75
269.377	87.75
269.609	91.75
269.841	78.75
270.073	92.75
270.306	91.75
270.538	89.75
270.77	85.75
271.002	89.75
271.234	84.75
271.466	79.75
271.698	84.75
271.93	75.75
272.162	73.75
272.394	67.75
272.626	82.75
272.858	72.75
273.09	95.75
273.322	84.75
273.553	78.75
273.785	89.75
274.017	80.75
274.249	83.75
274.481	82.75
274.713	78.75
274.945	96.75
275.176	82.75
275.408	84.75
275.64	79.75
275.872	76.75
276.104	102.75
276.335	94.75
276.567	99.75
276.799	110.75
277.031	96.75
277.262	76.75
277.494	72.75
277.726	87.75
277.957	84.75
278.189	78.75
278.421	87.75
278.652	80.75
278.884	84.75
279.115	85.75
279.347	78.75
279.579	88.75
279.81	77.75
280.042	103.75
280.273	85.75
280.505	76.75
280.736	87.75
280.968	72.75
281.199	85.75
281.431	93.75
281.662	68.75
281.894	99.75
282.125	94.75
282.356	96.75
282.588	129.75
282.819	103.75
283.051	100.75
283.282	86.75
283.513	95.75
283.745	92.75
283.976	92.75
284.207	109.75
284.439	88.75
284.67	86.75
284.901	86.75
285.132	87.75
285.364	87.75
285.595	84.75
285.826	92.75
286.057	99.75
286.288	92.75
286.52	94.75
286.751	87.75
286.982	67.75
287.213	84.75
287.444	88.75
287.675	93.75
287.906	79.75
288.138	95.75
288.369	87.75
288.6	92.75
288.831	89.75
289.062	87.75
289.293	87.75
289.524	85.75
289.755	77.75
289.986	89.75
290.217	83.75
290.448	85.75
290.679	90.75
290.91	83.75
291.141	87.75
291.371	85.75
291.602	83.75
291.833	80.75
292.064	67.75
292.295	72.75
292.526	69.75
292.757	79.75
292.987	83.75
293.218	90.75
293.449	75.75
293.68	84.75
293.91	87.75
294.141	93.75
294.372	75.75
294.603	84.75
294.833	94.75
295.064	79.75
295.295	76.75
295.525	97.75
295.756	101.75
295.987	116.75
296.217	125.75
296.448	125.75
296.679	92.75
296.909	91.75
297.14	79.75
297.37	94.75
297.601	83.75
297.831	73.75
298.062	75.75
298.292	81.75
298.523	103.75
298.753	96.75
298.984	82.75
299.214	76.75
299.445	82.75
299.675	103.75
299.905	99.75
300.136	102.75
300.366	77.75
300.597	81.75
300.827	86.75
301.057	91.75
301.288	104.75
301.518	86.75
301.748	72.75
301.979	102.75
302.209	100.75
302.439	91.75
302.669	96.75
302.9	83.75
303.13	86.75
303.36	104.75
303.59	89.75
303.82	102.75
304.051	85.75
304.281	88.75
304.511	85.75
304.741	95.75
304.971	72.75
305.201	78.75
305.431	88.75
305.661	83.75
305.891	84.75
306.121	78.75
306.352	87.75
306.582	101.75
306.812	102.75
307.042	109.75
307.272	95.75
307.502	97.75
307.731	95.75
307.961	85.75
308.191	72.75
308.421	89.75
308.651	84.75
308.881	82.75
309.111	81.75
309.341	88.75
309.571	99.75
309.8	90.75
310.03	101.75
310.26	92.75
310.49	90.75
310.72	96.75
310.949	112.75
311.179	88.75
311.409	84.75
311.639	89.75
311.868	102.75
312.098	94.75
312.328	87.75
312.557	111.75
312.787	113.75
313.017	100.75
313.246	95.75
313.476	94.75
313.706	92.75
313.935	93.75
314.165	95.75
314.394	96.75
314.624	84.75
314.853	108.75
315.083	98.75
315.312	86.75
315.542	90.75
315.771	87.75
316.001	88.75
316.23	101.75
316.46	96.75
316.689	83.75
316.919	81.75
317.148	102.75
317.377	91.75
317.607	86.75
317.836	85.75
318.065	88.75
318.295	90.75
318.524	85.75
318.753	91.75
318.983	84.75
319.212	89.75
319.441	104.75
319.67	92.75
319.9	103.75
320.129	91.75
320.358	87.75
320.587	105.75
320.816	102.75
321.046	103.75
321.275	95.75
321.504	91.75
321.733	93.75
321.962	99.75
322.191	93.75
322.42	101.75
322.649	95.75
322.878	101.75
323.108	114.75
323.337	135.75
323.566	128.75
323.795	148.75
324.024	189.75
324.253	344.75
324.482	731.75
324.71	1461.75
324.939	1965.75
325.168	713.75
325.397	240.75
325.626	126.75
325.855	119.75
326.084	128.75
326.313	120.75
326.542	139.75
326.77	202.75
326.999	413.75
327.228	859.75
327.457	1569.75
327.686	1201.75
327.914	347.75
328.143	173.75
328.372	137.75
328.6	127.75
328.829	102.75
329.058	113.75
329.287	121.75
329.515	109.75
329.744	109.75
329.972	95.75
330.201	107.75
330.43	109.75
330.658	115.75
330.887	124.75
331.115	104.75
331.344	85.75
331.572	100.75
331.801	87.75
332.03	108.75
332.258	92.75
332.486	85.75
332.715	100.75
332.943	91.75
333.172	88.75
333.4	94.75
333.629	86.75
333.857	109.75
334.085	110.75
334.314	83.75
334.542	115.75
334.771	92.75
334.999	92.75
335.227	86.75
335.455	91.75
335.684	92.75
335.912	103.75
336.14	84.75
336.369	93.75
336.597	91.75
336.825	101.75
337.053	107.75
337.281	88.75
337.51	100.75
337.738	96.75
337.966	89.75
338.194	88.75
338.422	111.75
338.65	94.75
338.878	79.75
339.106	90.75
339.334	94.75
339.562	97.75
339.79	78.75
340.018	93.75
340.246	86.75
340.474	91.75
340.702	82.75
340.93	94.75
341.158	79.75
341.386	84.75
341.614	103.75
341.842	104.75
342.07	89.75
342.298	92.75
342.526	73.75
342.754	98.75
342.981	83.75
343.209	84.75
343.437	95.75
343.665	90.75
343.893	95.75
344.12	95.75
344.348	95.75
344.576	95.75
344.804	93.75
345.031	91.75
345.259	90.75
345.487	92.75
345.714	91.75
345.942	84.75
346.17	85.75
346.397	96.75
346.625	86.75
346.853	83.75
347.08	103.75
347.308	106.75
347.535	94.75
347.763	96.75
347.99	91.75
348.218	72.75
348.445	87.75
348.673	99.75
348.9	106.75
349.128	116.75
349.355	92.75
349.583	77.75
349.81	86.75
350.037	93.75
350.265	86.75
350.492	95.75
350.72	87.75
350.947	89.75
351.174	84.75
351.402	107.75
351.629	102.75
351.856	94.75
352.083	90.75
352.311	97.75
352.538	96.75
352.765	99.75
352.992	103.75
353.22	112.75
353.447	110.75
353.674	102.75
353.901	96.75
354.128	91.75
354.355	100.75
354.583	102.75
354.81	120.75
355.037	109.75
355.264	83.75
355.491	104.75
355.718	101.75
355.945	93.75
356.172	79.75
356.399	79.75
356.626	102.75
356.853	88.75
357.08	87.75
357.307	90.75
357.534	101.75
357.761	103.75
357.988	83.75
358.215	97.75
358.441	80.75
358.668	84.75
358.895	84.75
359.122	84.75
359.349	89.75
359.576	94.75
359.802	88.75
360.029	95.75
360.256	113.75
360.483	95.75
360.709	83.75
360.936	89.75
361.163	93.75
361.39	82.75
361.616	90.75
361.843	79.75
362.07	91.75
362.296	87.75
362.523	75.75
362.749	94.75
362.976	94.75
363.203	86.75
363.429	77.75
363.656	87.75
363.882	76.75
364.109	76.75
364.335	89.75
364.562	79.75
364.788	87.75
365.015	92.75
365.241	98.75
365.468	92.75
365.694	105.75
365.92	95.75
366.147	83.75
366.373	105.75
366.599	81.75
366.826	83.75
367.052	89.75
367.278	77.75
367.505	87.75
367.731	83.75
367.957	94.75
368.184	104.75
368.41	90.75
368.636	94.75
368.862	113.75
369.089	105.75
369.315	91.75
369.541	99.75
369.767	99.75
369.993	81.75
370.219	86.75
370.445	87.75
370.672	82.75
370.898	98.75
371.124	94.75
371.35	84.75
371.576	89.75
371.802	69.75
372.028	75.75
372.254	78.75
372.48	81.75
372.706	89.75
372.932	79.75
373.158	91.75
373.384	68.75
373.61	85.75
373.835	96.75
374.061	95.75
374.287	95.75
374.513	94.75
374.739	82.75
374.965	84.75
375.191	87.75
375.416	99.75
375.642	85.75
375.868	85.75
376.094	105.75
376.319	90.75
376.545	97.75
376.771	86.75
376.997	83.75
377.222	78.75
377.448	89.75
377.674	91.75
377.899	86.75
378.125	85.75
378.35	87.75
378.576	97.75
378.802	93.75
379.027	88.75
379.253	96.75
379.478	84.75
379.704	92.75
379.929	80.75
380.155	95.75
380.38	95.75
380.606	81.75
380.831	92.75
381.057	102.75
381.282	85.75
381.507	91.75
381.733	103.75
381.958	95.75
382.184	97.75
382.409	101.75
382.634	106.75
382.86	95.75
383.085	104.75
383.31	89.75
383.535	89.75
383.761	92.75
383.986	111.75
384.211	92.75
384.436	103.75
384.662	95.75
384.887	100.75
385.112	101.75
385.337	101.75
385.562	92.75
385.787	97.75
386.013	96.75
386.238	105.75
386.463	103.75
386.688	96.75
386.913	90.75
387.138	94.75
387.363	101.75
387.588	99.75
387.813	98.75
388.038	102.75
388.263	108.75
388.488	98.75
388.713	89.75
388.938	100.75
389.163	79.75
389.387	105.75
389.612	93.75
389.837	92.75
390.062	107.75
390.287	86.75
390.512	89.75
390.736	99.75
390.961	89.75
391.186	100.75
391.411	92.75
391.636	89.75
391.86	70.75
392.085	79.75
392.31	94.75
392.534	88.75
392.759	91.75
392.984	95.75
393.208	79.75
393.433	72.75
393.658	77.75
393.882	83.75
394.107	94.75
394.331	73.75
394.556	89.75
394.78	80.75
395.005	80.75
395.229	113.75
395.454	100.75
395.678	71.75
395.903	80.75
396.127	95.75
396.352	98.75
396.576	91.75
396.801	84.75
397.025	85.75
397.249	85.75
397.474	100.75
397.698	91.75
397.922	91.75
398.147	87.75
398.371	86.75
398.595	85.75
398.82	82.75
399.044	72.75
399.268	86.75
399.492	88.75
399.717	80.75
399.941	81.75
400.165	80.75
400.389	78.75
400.613	96.75
400.837	92.75
401.062	89.75
401.286	83.75
401.51	80.75
401.734	85.75
401.958	87.75
402.182	104.75
402.406	113.75
402.63	108.75
402.854	93.75
403.078	100.75
403.302	83.75
403.526	90.75
403.75	91.75
403.974	88.75
404.198	101.75
404.422	82.75
404.645	74.75
404.869	81.75
405.093	93.75
405.317	89.75
405.541	102.75
405.765	96.75
405.988	100.75
406.212	156.75
406.436	195.75
406.66	129.75
406.883	108.75
407.107	82.75
407.331	92.75
407.555	92.75
407.778	91.75
408.002	81.75
408.226	102.75
408.449	85.75
408.673	86.75
408.896	87.75
409.12	81.75
409.344	71.75
409.567	76.75
409.791	95.75
410.014	93.75
410.238	86.75
410.461	88.75
410.685	110.75
410.908	107.75
411.132	95.75
411.355	95.75
411.578	83.75
411.802	81.75
412.025	91.75
412.249	104.75
412.472	89.75
412.695	77.75
412.919	93.75
413.142	93.75
413.365	98.75
413.589	83.75
413.812	72.75
414.035	89.75
414.258	89.75
414.482	109.75
414.705	103.75
414.928	93.75
415.151	90.75
415.374	93.75
415.597	80.75
415.821	76.75
416.044	83.75
416.267	85.75
416.49	92.75
416.713	79.75
416.936	83.75
417.159	96.75
417.382	89.75
417.605	90.75
417.828	91.75
418.051	99.75
418.274	100.75
418.497	83.75
418.72	86.75
418.943	94.75
419.166	73.75
419.389	81.75
419.611	94.75
419.834	82.75
420.057	90.75
420.28	79.75
420.503	83.75
420.726	81.75
420.948	89.75
421.171	85.75
421.394	90.75
421.617	97.75
421.839	100.75
422.062	91.75
422.285	92.75
422.507	97.75
422.73	102.75
422.953	86.75
423.175	80.75
423.398	81.75
423.621	96.75
423.843	80.75
424.066	77.75
424.288	84.75
424.511	87.75
424.733	76.75
424.956	89.75
425.178	85.75
425.401	94.75
425.623	94.75
425.846	91.75
426.068	94.75
426.291	76.75
426.513	98.75
426.735	89.75
426.958	73.75
427.18	100.75
427.402	118.75
427.625	145.75
427.847	107.75
428.069	98.75
428.292	89.75
428.514	90.75
428.736	86.75
428.958	80.75
429.181	87.75
429.403	72.75
429.625	87.75
429.847	79.75
430.069	91.75
430.292	91.75
430.514	90.75
430.736	91.75
430.958	78.75
431.18	78.75
431.402	76.75
431.624	85.75
431.846	86.75
432.068	81.75
432.29	93.75
432.512	97.75
432.734	91.75
432.956	84.75
433.178	88.75
433.4	100.75
433.622	98.75
433.844	91.75
434.066	85.75
434.287	90.75
434.509	86.75
434.731	88.75
434.953	87.75
435.175	89.75
435.397	88.75
435.618	80.75
435.84	100.75
436.062	94.75
436.284	101.75
436.505	102.75
436.727	93.75
436.949	75.75
437.17	93.75
437.392	96.75
437.614	107.75
437.835	105.75
438.057	97.75
438.278	108.75
438.5	107.75
438.721	117.75
438.943	95.75
439.165	75.75
439.386	92.75
439.608	81.75
439.829	96.75
440.05	113.75
440.272	127.75
440.493	84.75
440.715	78.75
440.936	90.75
441.158	90.75
441.379	91.75
441.6	80.75
441.822	96.75
442.043	98.75
442.264	95.75
442.486	102.75
442.707	92.75
442.928	89.75
443.149	124.75
443.371	107.75
443.592	109.75
443.813	98.75
444.034	107.75
444.255	84.75
444.476	84.75
444.698	83.75
444.919	71.75
445.14	122.75
445.361	101.75
445.582	120.75
445.803	131.75
446.024	114.75
446.245	120.75
446.466	100.75
446.687	81.75
446.908	102.75
447.129	77.75
447.35	89.75
447.571	71.75
447.792	95.75
448.013	88.75
448.234	103.75
448.455	101.75
448.675	128.75
448.896	105.75
449.117	91.75
449.338	99.75
449.559	134.75
449.779	115.75
450	108.75
450.221	83.75
450.442	87.75
450.662	91.75
450.883	103.75
451.104	103.75
451.324	92.75
451.545	93.75
451.766	78.75
451.986	67.75
452.207	64.75
452.428	83.75
452.648	91.75
452.869	103.75
453.089	112.75
453.31	109.75
453.53	97.75
453.751	94.75
453.971	95.75
454.192	100.75
454.412	80.75
454.633	74.75
454.853	96.75
455.073	61.75
455.294	84.75
455.514	93.75
455.734	80.75
455.955	88.75
456.175	75.75
456.395	79.75
456.616	85.75
456.836	77.75
457.056	81.75
457.276	96.75
457.497	88.75
457.717	85.75
457.937	101.75
458.157	89.75
458.377	79.75
458.598	107.75
458.818	140.75
459.038	130.75
459.258	114.75
459.478	87.75
459.698	76.75
459.918	87.75
460.138	95.75
460.358	83.75
460.578	83.75
460.798	92.75
461.018	91.75
461.238	69.75
461.458	78.75
461.678	75.75
461.898	89.75
462.118	99.75
462.338	69.75
462.558	88.75
462.777	77.75
462.997	70.75
463.217	99.75
463.437	85.75
463.657	77.75
463.876	85.75
464.096	77.75
464.316	87.75
464.536	80.75
464.755	87.75
464.975	101.75
465.195	145.75
465.414	137.75
465.634	103.75
465.854	89.75
466.073	79.75
466.293	82.75
466.512	80.75
466.732	71.75
466.951	82.75
467.171	83.75
467.391	98.75
467.61	85.75
467.829	100.75
468.049	94.75
468.268	105.75
468.488	89.75
468.707	84.75
468.927	86.75
469.146	84.75
469.365	82.75
469.585	105.75
469.804	95.75
470.023	97.75
470.243	87.75
470.462	85.75
470.681	99.75
470.901	92.75
471.12	89.75
471.339	80.75
471.558	89.75
471.777	88.75
471.997	88.75
472.216	96.75
472.435	115.75
472.654	100.75
472.873	95.75
473.092	96.75
473.311	81.75
473.53	101.75
473.749	95.75
473.968	93.75
474.187	104.75
474.406	86.75
474.625	94.75
474.844	97.75
475.063	76.75
475.282	83.75
475.501	78.75
475.72	80.75
475.939	89.75
476.158	83.75
476.377	93.75
476.596	104.75
476.814	88.75
477.033	82.75
477.252	95.75
477.471	86.75
477.69	87.75
477.908	95.75
478.127	83.75
478.346	84.75
478.564	84.75
478.783	90.75
479.002	87.75
479.22	105.75
479.439	102.75
479.658	95.75
479.876	84.75
480.095	84.75
480.313	93.75
480.532	86.75
480.751	92.75
480.969	100.75
481.188	120.75
481.406	124.75
481.624	93.75
481.843	85.75
482.061	98.75
482.28	96.75
482.498	87.75
482.717	85.75
482.935	73.75
483.153	100.75
483.372	103.75
483.59	88.75
483.808	79.75
484.027	85.75
484.245	87.75
484.463	92.75
484.681	83.75
484.9	92.75
485.118	101.75
485.336	96.75
485.554	88.75
485.772	95.75
485.99	93.75
486.209	101.75
486.427	111.75
486.645	98.75
486.863	113.75
487.081	98.75
487.299	98.75
487.517	99.75
487.735	86.75
487.953	72.75
488.171	76.75
488.389	85.75
488.607	81.75
488.825	85.75
489.043	80.75
489.261	92.75
489.479	78.75
489.696	89.75
489.914	93.75
490.132	92.75
490.35	78.75
490.568	86.75
490.786	86.75
491.003	79.75
491.221	104.75
491.439	94.75
491.657	91.75
491.874	89.75
492.092	84.75
492.31	102.75
492.527	80.75
492.745	89.75
492.963	86.75
493.18	96.75
493.398	75.75
493.615	103.75
493.833	94.75
494.05	100.75
494.268	84.75
494.485	90.75
494.703	98.75
494.92	96.75
495.138	92.75
495.355	98.75
495.573	102.75
495.79	92.75
496.008	93.75
496.225	73.75
496.442	83.75
496.66	86.75
496.877	96.75
497.094	98.75
497.312	94.75
497.529	86.75
497.746	103.75
497.963	75.75
498.181	104.75
498.398	99.75
498.615	96.75
498.832	83.75
499.049	83.75
499.267	89.75
499.484	87.75
499.701	100.75
499.918	91.75
500.135	85.75
500.352	86.75
500.569	83.75
500.786	79.75
501.003	80.75
501.22	87.75
501.437	91.75
501.654	92.75
501.871	96.75
502.088	96.75
502.305	88.75
502.522	75.75
502.739	92.75
502.956	73.75
503.172	93.75
503.389	86.75
503.606	107.75
503.823	98.75
504.04	83.75
504.256	88.75
504.473	83.75
504.69	88.75
504.907	95.75
505.123	80.75
505.34	87.75
505.557	95.75
505.773	101.75
505.99	77.75
506.207	83.75
506.423	82.75
506.64	91.75
506.856	90.75
507.073	76.75
507.289	103.75
507.506	98.75
507.722	95.75
507.939	90.75
508.155	87.75
508.372	105.75
508.588	93.75
508.805	94.75
509.021	93.75
509.238	100.75
509.454	107.75
509.67	110.75
509.887	102.75
510.103	113.75
510.319	183.75
510.536	653.75
510.752	1955.75
510.968	547.75
511.184	134.75
511.401	110.75
511.617	103.75
511.833	95.75
512.049	79.75
512.265	92.75
512.481	86.75
512.698	75.75
512.914	101.75
513.13	88.75
513.346	96.75
513.562	95.75
513.778	99.75
513.994	91.75
514.21	95.75
514.426	104.75
514.642	121.75
514.858	103.75
515.074	151.75
515.29	389.75
515.506	1201.75
515.721	463.75
515.937	141.75
516.153	103.75
516.369	105.75
