Data from Uncirc_1987_H10_HRD10591_00035.txt Node
Date: Wed Jan 03 12:08:55 EST 2024
User: Yrep
Spectrometer: HR+D1059
Trigger mode: 1
Integration Time (sec): 1.000000E-1
Scans to average: 1
Electric dark correction enabled: true
Nonlinearity correction enabled: false
Boxcar width: 0
XAxis mode: Wavelengths
Number of Pixels in Spectrum: 2048
>>>>>Begin Spectral Data<<<<<
223.165	-13.19
223.4	-13.19
223.635	-13.19
223.869	-15.19
224.104	-21.19
224.338	-25.19
224.573	-19.19
224.808	-14.19
225.042	-5.19
225.277	-5.19
225.511	-7.19
225.746	-1.19
225.98	7.81
226.215	14.81
226.449	18.81
226.683	19.81
226.918	29.81
227.152	35.81
227.387	33.81
227.621	24.81
227.856	56.81
228.09	55.81
228.324	51.81
228.559	67.81
228.793	63.81
229.027	68.81
229.262	52.81
229.496	66.81
229.73	82.81
229.964	69.81
230.199	66.81
230.433	77.81
230.667	86.81
230.901	83.81
231.136	81.81
231.37	78.81
231.604	85.81
231.838	71.81
232.072	69.81
232.306	78.81
232.541	70.81
232.775	90.81
233.009	83.81
233.243	72.81
233.477	75.81
233.711	84.81
233.945	65.81
234.179	61.81
234.413	83.81
234.647	80.81
234.881	84.81
235.115	77.81
235.349	84.81
235.583	82.81
235.817	58.81
236.051	71.81
236.285	81.81
236.519	81.81
236.753	69.81
236.987	90.81
237.221	74.81
237.455	91.81
237.689	78.81
237.922	68.81
238.156	70.81
238.39	71.81
238.624	79.81
238.858	80.81
239.091	67.81
239.325	72.81
239.559	56.81
239.793	87.81
240.027	63.81
240.26	85.81
240.494	74.81
240.728	55.81
240.961	79.81
241.195	66.81
241.429	79.81
241.662	80.81
241.896	70.81
242.13	59.81
242.363	81.81
242.597	65.81
242.83	68.81
243.064	64.81
243.298	80.81
243.531	62.81
243.765	76.81
243.998	68.81
244.232	92.81
244.465	76.81
244.699	81.81
244.932	71.81
245.166	65.81
245.399	66.81
245.633	88.81
245.866	75.81
246.099	77.81
246.333	67.81
246.566	76.81
246.8	79.81
247.033	79.81
247.266	66.81
247.5	85.81
247.733	69.81
247.966	78.81
248.2	79.81
248.433	78.81
248.666	72.81
248.899	84.81
249.133	84.81
249.366	88.81
249.599	87.81
249.832	79.81
250.066	81.81
250.299	77.81
250.532	80.81
250.765	84.81
250.998	69.81
251.231	62.81
251.465	90.81
251.698	76.81
251.931	65.81
252.164	71.81
252.397	83.81
252.63	80.81
252.863	87.81
253.096	70.81
253.329	66.81
253.562	81.81
253.795	72.81
254.028	87.81
254.261	79.81
254.494	88.81
254.727	83.81
254.96	70.81
255.193	63.81
255.426	75.81
255.659	73.81
255.892	71.81
256.124	78.81
256.357	68.81
256.59	72.81
256.823	80.81
257.056	84.81
257.289	79.81
257.521	94.81
257.754	74.81
257.987	85.81
258.22	90.81
258.452	80.81
258.685	85.81
258.918	67.81
259.151	76.81
259.383	83.81
259.616	66.81
259.849	77.81
260.081	71.81
260.314	86.81
260.547	70.81
260.779	86.81
261.012	71.81
261.244	66.81
261.477	93.81
261.71	82.81
261.942	111.81
262.175	102.81
262.407	82.81
262.64	90.81
262.872	74.81
263.105	93.81
263.337	92.81
263.57	90.81
263.802	71.81
264.035	66.81
264.267	86.81
264.499	101.81
264.732	86.81
264.964	92.81
265.197	85.81
265.429	78.81
265.661	86.81
265.894	76.81
266.126	79.81
266.358	83.81
266.591	80.81
266.823	90.81
267.055	77.81
267.287	80.81
267.52	70.81
267.752	71.81
267.984	98.81
268.216	80.81
268.448	95.81
268.681	76.81
268.913	66.81
269.145	80.81
269.377	80.81
269.609	77.81
269.841	79.81
270.073	85.81
270.306	84.81
270.538	78.81
270.77	85.81
271.002	71.81
271.234	85.81
271.466	82.81
271.698	78.81
271.93	69.81
272.162	86.81
272.394	83.81
272.626	84.81
272.858	80.81
273.09	85.81
273.322	74.81
273.553	79.81
273.785	79.81
274.017	91.81
274.249	84.81
274.481	84.81
274.713	77.81
274.945	84.81
275.176	74.81
275.408	88.81
275.64	86.81
275.872	84.81
276.104	75.81
276.335	80.81
276.567	88.81
276.799	99.81
277.031	93.81
277.262	78.81
277.494	84.81
277.726	76.81
277.957	65.81
278.189	90.81
278.421	84.81
278.652	101.81
278.884	82.81
279.115	86.81
279.347	78.81
279.579	80.81
279.81	90.81
280.042	80.81
280.273	85.81
280.505	74.81
280.736	84.81
280.968	66.81
281.199	71.81
281.431	94.81
281.662	80.81
281.894	88.81
282.125	88.81
282.356	110.81
282.588	121.81
282.819	104.81
283.051	96.81
283.282	68.81
283.513	86.81
283.745	86.81
283.976	70.81
284.207	74.81
284.439	77.81
284.67	83.81
284.901	84.81
285.132	95.81
285.364	85.81
285.595	80.81
285.826	84.81
286.057	84.81
286.288	97.81
286.52	78.81
286.751	83.81
286.982	82.81
287.213	87.81
287.444	83.81
287.675	89.81
287.906	92.81
288.138	74.81
288.369	87.81
288.6	100.81
288.831	88.81
289.062	87.81
289.293	80.81
289.524	81.81
289.755	81.81
289.986	80.81
290.217	70.81
290.448	85.81
290.679	63.81
290.91	91.81
291.141	76.81
291.371	98.81
291.602	97.81
291.833	80.81
292.064	72.81
292.295	86.81
292.526	78.81
292.757	78.81
292.987	78.81
293.218	80.81
293.449	91.81
293.68	77.81
293.91	92.81
294.141	91.81
294.372	86.81
294.603	72.81
294.833	80.81
295.064	82.81
295.295	102.81
295.525	95.81
295.756	97.81
295.987	125.81
296.217	109.81
296.448	98.81
296.679	84.81
296.909	96.81
297.14	64.81
297.37	88.81
297.601	84.81
297.831	83.81
298.062	91.81
298.292	80.81
298.523	83.81
298.753	80.81
298.984	90.81
299.214	89.81
299.445	93.81
299.675	90.81
299.905	90.81
300.136	99.81
300.366	78.81
300.597	74.81
300.827	77.81
301.057	90.81
301.288	104.81
301.518	90.81
301.748	78.81
301.979	89.81
302.209	99.81
302.439	86.81
302.669	92.81
302.9	96.81
303.13	78.81
303.36	92.81
303.59	104.81
303.82	96.81
304.051	87.81
304.281	92.81
304.511	87.81
304.741	86.81
304.971	93.81
305.201	84.81
305.431	77.81
305.661	86.81
305.891	83.81
306.121	113.81
306.352	106.81
306.582	105.81
306.812	78.81
307.042	84.81
307.272	92.81
307.502	78.81
307.731	88.81
307.961	90.81
308.191	86.81
308.421	87.81
308.651	85.81
308.881	75.81
309.111	90.81
309.341	94.81
309.571	95.81
309.8	88.81
310.03	91.81
310.26	78.81
310.49	92.81
310.72	86.81
310.949	105.81
311.179	94.81
311.409	102.81
311.639	78.81
311.868	74.81
312.098	93.81
312.328	87.81
312.557	104.81
312.787	100.81
313.017	89.81
313.246	97.81
313.476	87.81
313.706	79.81
313.935	97.81
314.165	96.81
314.394	98.81
314.624	94.81
314.853	96.81
315.083	103.81
315.312	96.81
315.542	94.81
315.771	84.81
316.001	83.81
316.23	94.81
316.46	92.81
316.689	83.81
316.919	90.81
317.148	91.81
317.377	88.81
317.607	91.81
317.836	91.81
318.065	78.81
318.295	82.81
318.524	80.81
318.753	92.81
318.983	88.81
319.212	101.81
319.441	104.81
319.67	107.81
319.9	82.81
320.129	83.81
320.358	90.81
320.587	98.81
320.816	94.81
321.046	99.81
321.275	83.81
321.504	84.81
321.733	100.81
321.962	96.81
322.191	90.81
322.42	90.81
322.649	93.81
322.878	100.81
323.108	108.81
323.337	112.81
323.566	123.81
323.795	146.81
324.024	183.81
324.253	364.81
324.482	743.81
324.71	1507.81
324.939	2023.81
325.168	777.81
325.397	225.81
325.626	136.81
325.855	142.81
326.084	142.81
326.313	127.81
326.542	160.81
326.77	206.81
326.999	420.81
327.228	875.81
327.457	1609.81
327.686	1277.81
327.914	351.81
328.143	170.81
328.372	128.81
328.6	108.81
328.829	121.81
329.058	117.81
329.287	127.81
329.515	95.81
329.744	96.81
329.972	89.81
330.201	100.81
330.43	97.81
330.658	100.81
330.887	131.81
331.115	107.81
331.344	112.81
331.572	94.81
331.801	94.81
332.03	101.81
332.258	80.81
332.486	90.81
332.715	87.81
332.943	75.81
333.172	90.81
333.4	114.81
333.629	99.81
333.857	98.81
334.085	107.81
334.314	106.81
334.542	103.81
334.771	107.81
334.999	90.81
335.227	103.81
335.455	83.81
335.684	109.81
335.912	92.81
336.14	96.81
336.369	90.81
336.597	90.81
336.825	86.81
337.053	95.81
337.281	99.81
337.51	90.81
337.738	93.81
337.966	76.81
338.194	101.81
338.422	90.81
338.65	75.81
338.878	90.81
339.106	91.81
339.334	97.81
339.562	87.81
339.79	86.81
340.018	86.81
340.246	71.81
340.474	93.81
340.702	94.81
340.93	85.81
341.158	91.81
341.386	99.81
341.614	68.81
341.842	91.81
342.07	94.81
342.298	90.81
342.526	94.81
342.754	80.81
342.981	75.81
343.209	68.81
343.437	92.81
343.665	95.81
343.893	89.81
344.12	98.81
344.348	81.81
344.576	95.81
344.804	98.81
345.031	91.81
345.259	84.81
345.487	90.81
345.714	94.81
345.942	94.81
346.17	95.81
346.397	90.81
346.625	99.81
346.853	90.81
347.08	78.81
347.308	93.81
347.535	95.81
347.763	87.81
347.99	101.81
348.218	86.81
348.445	96.81
348.673	96.81
348.9	94.81
349.128	99.81
349.355	102.81
349.583	100.81
349.81	92.81
350.037	94.81
350.265	97.81
350.492	90.81
350.72	85.81
350.947	98.81
351.174	101.81
351.402	102.81
351.629	103.81
351.856	97.81
352.083	104.81
352.311	99.81
352.538	113.81
352.765	96.81
352.992	101.81
353.22	98.81
353.447	115.81
353.674	84.81
353.901	103.81
354.128	101.81
354.355	89.81
354.583	95.81
354.81	101.81
355.037	97.81
355.264	91.81
355.491	88.81
355.718	86.81
355.945	107.81
356.172	96.81
356.399	94.81
356.626	93.81
356.853	82.81
357.08	86.81
357.307	87.81
357.534	81.81
357.761	75.81
357.988	101.81
358.215	81.81
358.441	77.81
358.668	84.81
358.895	87.81
359.122	94.81
359.349	88.81
359.576	98.81
359.802	100.81
360.029	100.81
360.256	93.81
360.483	93.81
360.709	78.81
360.936	85.81
361.163	94.81
361.39	87.81
361.616	85.81
361.843	94.81
362.07	103.81
362.296	97.81
362.523	108.81
362.749	90.81
362.976	80.81
363.203	95.81
363.429	94.81
363.656	102.81
363.882	96.81
364.109	87.81
364.335	73.81
364.562	86.81
364.788	91.81
365.015	96.81
365.241	91.81
365.468	105.81
365.694	99.81
365.92	99.81
366.147	90.81
366.373	88.81
366.599	94.81
366.826	86.81
367.052	86.81
367.278	60.81
367.505	94.81
367.731	78.81
367.957	92.81
368.184	91.81
368.41	90.81
368.636	110.81
368.862	111.81
369.089	103.81
369.315	91.81
369.541	92.81
369.767	87.81
369.993	87.81
370.219	102.81
370.445	86.81
370.672	79.81
370.898	103.81
371.124	85.81
371.35	91.81
371.576	80.81
371.802	92.81
372.028	81.81
372.254	76.81
372.48	78.81
372.706	88.81
372.932	76.81
373.158	74.81
373.384	84.81
373.61	89.81
373.835	82.81
374.061	90.81
374.287	86.81
374.513	97.81
374.739	89.81
374.965	80.81
375.191	71.81
375.416	103.81
375.642	110.81
375.868	90.81
376.094	100.81
376.319	90.81
376.545	84.81
376.771	100.81
376.997	82.81
377.222	93.81
377.448	75.81
377.674	102.81
377.899	90.81
378.125	81.81
378.35	78.81
378.576	78.81
378.802	80.81
379.027	102.81
379.253	85.81
379.478	99.81
379.704	93.81
379.929	90.81
380.155	96.81
380.38	86.81
380.606	84.81
380.831	94.81
381.057	83.81
381.282	97.81
381.507	78.81
381.733	98.81
381.958	93.81
382.184	103.81
382.409	92.81
382.634	97.81
382.86	92.81
383.085	90.81
383.31	96.81
383.535	95.81
383.761	106.81
383.986	96.81
384.211	95.81
384.436	98.81
384.662	79.81
384.887	82.81
385.112	94.81
385.337	100.81
385.562	100.81
385.787	110.81
386.013	108.81
386.238	103.81
386.463	103.81
386.688	115.81
386.913	88.81
387.138	85.81
387.363	83.81
387.588	114.81
387.813	85.81
388.038	92.81
388.263	97.81
388.488	99.81
388.713	92.81
388.938	94.81
389.163	101.81
389.387	95.81
389.612	99.81
389.837	98.81
390.062	88.81
390.287	78.81
390.512	85.81
390.736	98.81
390.961	96.81
391.186	93.81
391.411	94.81
391.636	91.81
391.86	83.81
392.085	78.81
392.31	76.81
392.534	86.81
392.759	92.81
392.984	82.81
393.208	107.81
393.433	90.81
393.658	90.81
393.882	71.81
394.107	88.81
394.331	85.81
394.556	88.81
394.78	92.81
395.005	80.81
395.229	84.81
395.454	91.81
395.678	74.81
395.903	84.81
396.127	93.81
396.352	94.81
396.576	70.81
396.801	82.81
397.025	78.81
397.249	91.81
397.474	80.81
397.698	99.81
397.922	78.81
398.147	83.81
398.371	75.81
398.595	87.81
398.82	72.81
399.044	96.81
399.268	84.81
399.492	99.81
399.717	87.81
399.941	81.81
400.165	95.81
400.389	90.81
400.613	78.81
400.837	85.81
401.062	94.81
401.286	83.81
401.51	90.81
401.734	91.81
401.958	84.81
402.182	115.81
402.406	151.81
402.63	103.81
402.854	81.81
403.078	68.81
403.302	85.81
403.526	87.81
403.75	81.81
403.974	80.81
404.198	75.81
404.422	85.81
404.645	89.81
404.869	94.81
405.093	95.81
405.317	86.81
405.541	84.81
405.765	102.81
405.988	103.81
406.212	158.81
406.436	199.81
406.66	134.81
406.883	90.81
407.107	90.81
407.331	94.81
407.555	103.81
407.778	91.81
408.002	82.81
408.226	86.81
408.449	72.81
408.673	87.81
408.896	92.81
409.12	86.81
409.344	70.81
409.567	84.81
409.791	97.81
410.014	85.81
410.238	94.81
410.461	94.81
410.685	86.81
410.908	103.81
411.132	99.81
411.355	108.81
411.578	93.81
411.802	96.81
412.025	85.81
412.249	85.81
412.472	63.81
412.695	69.81
412.919	90.81
413.142	88.81
413.365	88.81
413.589	78.81
413.812	77.81
414.035	87.81
414.258	86.81
414.482	95.81
414.705	89.81
414.928	101.81
415.151	90.81
415.374	87.81
415.597	80.81
415.821	85.81
416.044	85.81
416.267	87.81
416.49	93.81
416.713	89.81
416.936	85.81
417.159	85.81
417.382	86.81
417.605	85.81
417.828	88.81
418.051	88.81
418.274	86.81
418.497	100.81
418.72	87.81
418.943	86.81
419.166	67.81
419.389	82.81
419.611	100.81
419.834	92.81
420.057	104.81
420.28	85.81
420.503	75.81
420.726	78.81
420.948	90.81
421.171	87.81
421.394	92.81
421.617	83.81
421.839	91.81
422.062	99.81
422.285	82.81
422.507	94.81
422.73	99.81
422.953	83.81
423.175	90.81
423.398	87.81
423.621	89.81
423.843	83.81
424.066	78.81
424.288	70.81
424.511	87.81
424.733	82.81
424.956	92.81
425.178	80.81
425.401	98.81
425.623	97.81
425.846	91.81
426.068	94.81
426.291	101.81
426.513	104.81
426.735	96.81
426.958	88.81
427.18	92.81
427.402	132.81
427.625	141.81
427.847	112.81
428.069	98.81
428.292	95.81
428.514	89.81
428.736	82.81
428.958	87.81
429.181	82.81
429.403	96.81
429.625	97.81
429.847	92.81
430.069	94.81
430.292	84.81
430.514	76.81
430.736	76.81
430.958	73.81
431.18	84.81
431.402	85.81
431.624	90.81
431.846	80.81
432.068	89.81
432.29	82.81
432.512	92.81
432.734	77.81
432.956	77.81
433.178	97.81
433.4	102.81
433.622	79.81
433.844	79.81
434.066	78.81
434.287	78.81
434.509	84.81
434.731	82.81
434.953	82.81
435.175	86.81
435.397	82.81
435.618	89.81
435.84	94.81
436.062	114.81
436.284	97.81
436.505	102.81
436.727	107.81
436.949	99.81
437.17	88.81
437.392	89.81
437.614	100.81
437.835	109.81
438.057	105.81
438.278	99.81
438.5	100.81
438.721	125.81
438.943	101.81
439.165	76.81
439.386	81.81
439.608	78.81
439.829	97.81
440.05	119.81
440.272	134.81
440.493	91.81
440.715	84.81
440.936	88.81
441.158	90.81
441.379	81.81
441.6	87.81
441.822	74.81
442.043	102.81
442.264	102.81
442.486	90.81
442.707	79.81
442.928	99.81
443.149	109.81
443.371	112.81
443.592	122.81
443.813	112.81
444.034	92.81
444.255	86.81
444.476	90.81
444.698	73.81
444.919	79.81
445.14	126.81
445.361	121.81
445.582	118.81
445.803	116.81
446.024	129.81
446.245	131.81
446.466	108.81
446.687	106.81
446.908	100.81
447.129	92.81
447.35	82.81
447.571	83.81
447.792	78.81
448.013	87.81
448.234	89.81
448.455	94.81
448.675	110.81
448.896	116.81
449.117	102.81
449.338	88.81
449.559	118.81
449.779	130.81
450	88.81
450.221	97.81
450.442	97.81
450.662	96.81
450.883	101.81
451.104	100.81
451.324	86.81
451.545	79.81
451.766	87.81
451.986	88.81
452.207	91.81
452.428	86.81
452.648	100.81
452.869	98.81
453.089	110.81
453.31	102.81
453.53	102.81
453.751	82.81
453.971	90.81
454.192	99.81
454.412	96.81
454.633	98.81
454.853	73.81
455.073	75.81
455.294	80.81
455.514	95.81
455.734	88.81
455.955	81.81
456.175	84.81
456.395	85.81
456.616	98.81
456.836	79.81
457.056	85.81
457.276	86.81
457.497	76.81
457.717	82.81
457.937	79.81
458.157	79.81
458.377	86.81
458.598	94.81
458.818	127.81
459.038	141.81
459.258	94.81
459.478	82.81
459.698	82.81
459.918	91.81
460.138	92.81
460.358	93.81
460.578	69.81
460.798	94.81
461.018	78.81
461.238	87.81
461.458	95.81
461.678	87.81
461.898	87.81
462.118	99.81
462.338	91.81
462.558	78.81
462.777	84.81
462.997	91.81
463.217	91.81
463.437	85.81
463.657	87.81
463.876	84.81
464.096	83.81
464.316	88.81
464.536	90.81
464.755	103.81
464.975	102.81
465.195	134.81
465.414	143.81
465.634	96.81
465.854	85.81
466.073	78.81
466.293	93.81
466.512	76.81
466.732	90.81
466.951	78.81
467.171	84.81
467.391	90.81
467.61	93.81
467.829	84.81
468.049	91.81
468.268	94.81
468.488	83.81
468.707	75.81
468.927	88.81
469.146	86.81
469.365	81.81
469.585	72.81
469.804	94.81
470.023	93.81
470.243	85.81
470.462	86.81
470.681	94.81
470.901	93.81
471.12	80.81
471.339	97.81
471.558	78.81
471.777	91.81
471.997	87.81
472.216	84.81
472.435	73.81
472.654	80.81
472.873	93.81
473.092	93.81
473.311	83.81
473.53	72.81
473.749	87.81
473.968	99.81
474.187	80.81
474.406	90.81
474.625	92.81
474.844	81.81
475.063	83.81
475.282	84.81
475.501	78.81
475.72	111.81
475.939	79.81
476.158	77.81
476.377	77.81
476.596	82.81
476.814	86.81
477.033	89.81
477.252	93.81
477.471	92.81
477.69	97.81
477.908	93.81
478.127	76.81
478.346	90.81
478.564	75.81
478.783	86.81
479.002	100.81
479.22	102.81
479.439	93.81
479.658	94.81
479.876	84.81
480.095	96.81
480.313	92.81
480.532	93.81
480.751	86.81
480.969	86.81
481.188	104.81
481.406	90.81
481.624	83.81
481.843	78.81
482.061	86.81
482.28	88.81
482.498	68.81
482.717	88.81
482.935	82.81
483.153	86.81
483.372	92.81
483.59	90.81
483.808	90.81
484.027	81.81
484.245	93.81
484.463	94.81
484.681	95.81
484.9	91.81
485.118	99.81
485.336	117.81
485.554	100.81
485.772	97.81
485.99	101.81
486.209	95.81
486.427	104.81
486.645	96.81
486.863	106.81
487.081	86.81
487.299	98.81
487.517	99.81
487.735	96.81
487.953	92.81
488.171	104.81
488.389	93.81
488.607	90.81
488.825	88.81
489.043	82.81
489.261	99.81
489.479	78.81
489.696	88.81
489.914	81.81
490.132	75.81
490.35	86.81
490.568	93.81
490.786	95.81
491.003	78.81
491.221	89.81
491.439	94.81
491.657	90.81
491.874	96.81
492.092	86.81
492.31	78.81
492.527	93.81
492.745	99.81
492.963	86.81
493.18	93.81
493.398	101.81
493.615	72.81
493.833	84.81
494.05	85.81
494.268	70.81
494.485	92.81
494.703	97.81
494.92	88.81
495.138	78.81
495.355	105.81
495.573	85.81
495.79	87.81
496.008	107.81
496.225	78.81
496.442	94.81
496.66	94.81
496.877	83.81
497.094	91.81
497.312	101.81
497.529	76.81
497.746	88.81
497.963	87.81
498.181	99.81
498.398	81.81
498.615	95.81
498.832	95.81
499.049	83.81
499.267	91.81
499.484	88.81
499.701	79.81
499.918	76.81
500.135	91.81
500.352	87.81
500.569	76.81
500.786	92.81
501.003	72.81
501.22	87.81
501.437	80.81
501.654	98.81
501.871	104.81
502.088	87.81
502.305	87.81
502.522	77.81
502.739	100.81
502.956	78.81
503.172	90.81
503.389	86.81
503.606	101.81
503.823	100.81
504.04	93.81
504.256	83.81
504.473	81.81
504.69	85.81
504.907	91.81
505.123	84.81
505.34	92.81
505.557	82.81
505.773	86.81
505.99	86.81
506.207	77.81
506.423	82.81
506.64	74.81
506.856	83.81
507.073	87.81
507.289	87.81
507.506	102.81
507.722	108.81
507.939	100.81
508.155	94.81
508.372	86.81
508.588	87.81
508.805	83.81
509.021	91.81
509.238	86.81
509.454	92.81
509.67	92.81
509.887	96.81
510.103	113.81
510.319	203.81
510.536	646.81
510.752	2011.81
510.968	574.81
511.184	150.81
511.401	111.81
511.617	94.81
511.833	89.81
512.049	90.81
512.265	80.81
512.481	78.81
512.698	80.81
512.914	94.81
513.13	90.81
513.346	92.81
513.562	82.81
513.778	98.81
513.994	91.81
514.21	96.81
514.426	94.81
514.642	95.81
514.858	103.81
515.074	142.81
515.29	389.81
515.506	1259.81
515.721	456.81
515.937	140.81
516.153	95.81
516.369	101.81
516.585	88.81
516.801	102.81
517.016	88.81
