Data from Uncirc_1987_H10_HRD10591_00003.txt Node
Date: Wed Jan 03 12:08:49 EST 2024
User: Yrep
Spectrometer: HR+D1059
Trigger mode: 1
Integration Time (sec): 1.000000E-1
Scans to average: 1
Electric dark correction enabled: true
Nonlinearity correction enabled: false
Boxcar width: 0
XAxis mode: Wavelengths
Number of Pixels in Spectrum: 2048
>>>>>Begin Spectral Data<<<<<
223.165	-15.19
223.4	-15.19
223.635	-15.19
223.869	-23.19
224.104	-24.19
224.338	-18.19
224.573	-3.19
224.808	-15.19
225.042	-16.19
225.277	-1.19
225.511	-8.19
225.746	2.81
225.98	20.81
226.215	5.81
226.449	20.81
226.683	19.81
226.918	29.81
227.152	24.81
227.387	41.81
227.621	46.81
227.856	41.81
228.09	49.81
228.324	43.81
228.559	53.81
228.793	50.81
229.027	60.81
229.262	70.81
229.496	65.81
229.73	62.81
229.964	71.81
230.199	74.81
230.433	85.81
230.667	79.81
230.901	65.81
231.136	84.81
231.37	78.81
231.604	89.81
231.838	82.81
232.072	81.81
232.306	80.81
232.541	78.81
232.775	69.81
233.009	86.81
233.243	73.81
233.477	96.81
233.711	84.81
233.945	90.81
234.179	74.81
234.413	88.81
234.647	77.81
234.881	88.81
235.115	80.81
235.349	85.81
235.583	83.81
235.817	82.81
236.051	73.81
236.285	78.81
236.519	66.81
236.753	64.81
236.987	72.81
237.221	70.81
237.455	90.81
237.689	81.81
237.922	86.81
238.156	82.81
238.39	71.81
238.624	64.81
238.858	80.81
239.091	74.81
239.325	76.81
239.559	80.81
239.793	74.81
240.027	80.81
240.26	85.81
240.494	80.81
240.728	81.81
240.961	76.81
241.195	76.81
241.429	81.81
241.662	55.81
241.896	80.81
242.13	73.81
242.363	81.81
242.597	93.81
242.83	83.81
243.064	78.81
243.298	81.81
243.531	80.81
243.765	72.81
243.998	58.81
244.232	86.81
244.465	80.81
244.699	72.81
244.932	78.81
245.166	79.81
245.399	98.81
245.633	74.81
245.866	80.81
246.099	76.81
246.333	66.81
246.566	79.81
246.8	85.81
247.033	80.81
247.266	88.81
247.5	77.81
247.733	81.81
247.966	95.81
248.2	82.81
248.433	80.81
248.666	71.81
248.899	83.81
249.133	88.81
249.366	79.81
249.599	91.81
249.832	87.81
250.066	94.81
250.299	92.81
250.532	73.81
250.765	72.81
250.998	74.81
251.231	84.81
251.465	76.81
251.698	81.81
251.931	72.81
252.164	78.81
252.397	78.81
252.63	81.81
252.863	71.81
253.096	71.81
253.329	61.81
253.562	105.81
253.795	91.81
254.028	85.81
254.261	80.81
254.494	85.81
254.727	89.81
254.96	83.81
255.193	73.81
255.426	74.81
255.659	68.81
255.892	78.81
256.124	76.81
256.357	76.81
256.59	75.81
256.823	77.81
257.056	79.81
257.289	76.81
257.521	69.81
257.754	82.81
257.987	88.81
258.22	74.81
258.452	71.81
258.685	78.81
258.918	84.81
259.151	73.81
259.383	96.81
259.616	85.81
259.849	85.81
260.081	72.81
260.314	80.81
260.547	94.81
260.779	83.81
261.012	77.81
261.244	89.81
261.477	70.81
261.71	76.81
261.942	111.81
262.175	95.81
262.407	86.81
262.64	67.81
262.872	93.81
263.105	88.81
263.337	78.81
263.57	77.81
263.802	82.81
264.035	70.81
264.267	89.81
264.499	85.81
264.732	81.81
264.964	88.81
265.197	85.81
265.429	81.81
265.661	82.81
265.894	95.81
266.126	83.81
266.358	80.81
266.591	82.81
266.823	80.81
267.055	90.81
267.287	92.81
267.52	86.81
267.752	92.81
267.984	85.81
268.216	81.81
268.448	81.81
268.681	75.81
268.913	81.81
269.145	86.81
269.377	69.81
269.609	84.81
269.841	99.81
270.073	88.81
270.306	83.81
270.538	92.81
270.77	83.81
271.002	82.81
271.234	80.81
271.466	97.81
271.698	82.81
271.93	88.81
272.162	84.81
272.394	94.81
272.626	88.81
272.858	94.81
273.09	78.81
273.322	86.81
273.553	86.81
273.785	82.81
274.017	89.81
274.249	84.81
274.481	84.81
274.713	81.81
274.945	84.81
275.176	76.81
275.408	73.81
275.64	73.81
275.872	88.81
276.104	96.81
276.335	92.81
276.567	79.81
276.799	110.81
277.031	90.81
277.262	78.81
277.494	91.81
277.726	75.81
277.957	82.81
278.189	78.81
278.421	90.81
278.652	90.81
278.884	89.81
279.115	95.81
279.347	77.81
279.579	81.81
279.81	92.81
280.042	72.81
280.273	81.81
280.505	72.81
280.736	80.81
280.968	80.81
281.199	89.81
281.431	89.81
281.662	102.81
281.894	88.81
282.125	96.81
282.356	115.81
282.588	121.81
282.819	104.81
283.051	82.81
283.282	81.81
283.513	88.81
283.745	94.81
283.976	100.81
284.207	86.81
284.439	91.81
284.67	87.81
284.901	80.81
285.132	82.81
285.364	93.81
285.595	87.81
285.826	84.81
286.057	72.81
286.288	80.81
286.52	74.81
286.751	90.81
286.982	89.81
287.213	78.81
287.444	89.81
287.675	86.81
287.906	88.81
288.138	91.81
288.369	89.81
288.6	94.81
288.831	82.81
289.062	86.81
289.293	86.81
289.524	99.81
289.755	84.81
289.986	87.81
290.217	87.81
290.448	88.81
290.679	86.81
290.91	81.81
291.141	80.81
291.371	89.81
291.602	87.81
291.833	81.81
292.064	91.81
292.295	84.81
292.526	82.81
292.757	76.81
292.987	87.81
293.218	84.81
293.449	85.81
293.68	94.81
293.91	89.81
294.141	83.81
294.372	90.81
294.603	83.81
294.833	84.81
295.064	77.81
295.295	81.81
295.525	94.81
295.756	97.81
295.987	95.81
296.217	108.81
296.448	120.81
296.679	83.81
296.909	91.81
297.14	90.81
297.37	98.81
297.601	90.81
297.831	100.81
298.062	88.81
298.292	84.81
298.523	88.81
298.753	97.81
298.984	81.81
299.214	101.81
299.445	101.81
299.675	86.81
299.905	100.81
300.136	90.81
300.366	80.81
300.597	92.81
300.827	93.81
301.057	105.81
301.288	92.81
301.518	69.81
301.748	83.81
301.979	101.81
302.209	96.81
302.439	100.81
302.669	88.81
302.9	92.81
303.13	81.81
303.36	97.81
303.59	89.81
303.82	110.81
304.051	96.81
304.281	83.81
304.511	84.81
304.741	82.81
304.971	76.81
305.201	92.81
305.431	84.81
305.661	89.81
305.891	88.81
306.121	92.81
306.352	96.81
306.582	92.81
306.812	94.81
307.042	88.81
307.272	96.81
307.502	96.81
307.731	96.81
307.961	85.81
308.191	90.81
308.421	84.81
308.651	84.81
308.881	94.81
309.111	95.81
309.341	91.81
309.571	79.81
309.8	89.81
310.03	88.81
310.26	95.81
310.49	101.81
310.72	82.81
310.949	96.81
311.179	99.81
311.409	93.81
311.639	87.81
311.868	88.81
312.098	79.81
312.328	84.81
312.557	104.81
312.787	98.81
313.017	96.81
313.246	99.81
313.476	107.81
313.706	92.81
313.935	98.81
314.165	94.81
314.394	86.81
314.624	83.81
314.853	93.81
315.083	98.81
315.312	106.81
315.542	88.81
315.771	86.81
316.001	76.81
316.23	92.81
316.46	89.81
316.689	101.81
316.919	80.81
317.148	68.81
317.377	90.81
317.607	82.81
317.836	91.81
318.065	92.81
318.295	91.81
318.524	79.81
318.753	82.81
318.983	90.81
319.212	97.81
319.441	104.81
319.67	108.81
319.9	86.81
320.129	97.81
320.358	98.81
320.587	97.81
320.816	98.81
321.046	106.81
321.275	105.81
321.504	90.81
321.733	85.81
321.962	92.81
322.191	94.81
322.42	92.81
322.649	101.81
322.878	93.81
323.108	115.81
323.337	119.81
323.566	122.81
323.795	148.81
324.024	190.81
324.253	354.81
324.482	702.81
324.71	1429.81
324.939	1934.81
325.168	690.81
325.397	206.81
325.626	124.81
325.855	129.81
326.084	117.81
326.313	122.81
326.542	127.81
326.77	196.81
326.999	387.81
327.228	836.81
327.457	1517.81
327.686	1206.81
327.914	328.81
328.143	165.81
328.372	134.81
328.6	114.81
328.829	101.81
329.058	116.81
329.287	118.81
329.515	96.81
329.744	102.81
329.972	94.81
330.201	95.81
330.43	103.81
330.658	93.81
330.887	117.81
331.115	109.81
331.344	111.81
331.572	94.81
331.801	97.81
332.03	97.81
332.258	79.81
332.486	98.81
332.715	97.81
332.943	90.81
333.172	84.81
333.4	92.81
333.629	104.81
333.857	116.81
334.085	93.81
334.314	100.81
334.542	89.81
334.771	101.81
334.999	82.81
335.227	91.81
335.455	95.81
335.684	101.81
335.912	104.81
336.14	102.81
336.369	97.81
336.597	97.81
336.825	74.81
337.053	94.81
337.281	101.81
337.51	100.81
337.738	98.81
337.966	106.81
338.194	111.81
338.422	102.81
338.65	84.81
338.878	103.81
339.106	88.81
339.334	85.81
339.562	73.81
339.79	97.81
340.018	98.81
340.246	93.81
340.474	95.81
340.702	80.81
340.93	99.81
341.158	80.81
341.386	80.81
341.614	89.81
341.842	98.81
342.07	101.81
342.298	80.81
342.526	82.81
342.754	93.81
342.981	100.81
343.209	82.81
343.437	100.81
343.665	78.81
343.893	89.81
344.12	87.81
344.348	91.81
344.576	80.81
344.804	96.81
345.031	84.81
345.259	90.81
345.487	92.81
345.714	93.81
345.942	92.81
346.17	86.81
346.397	90.81
346.625	105.81
346.853	110.81
347.08	84.81
347.308	81.81
347.535	104.81
347.763	91.81
347.99	97.81
348.218	101.81
348.445	109.81
348.673	103.81
348.9	98.81
349.128	103.81
349.355	73.81
349.583	90.81
349.81	90.81
350.037	94.81
350.265	104.81
350.492	97.81
350.72	100.81
350.947	106.81
351.174	108.81
351.402	105.81
351.629	98.81
351.856	103.81
352.083	101.81
352.311	104.81
352.538	112.81
352.765	107.81
352.992	104.81
353.22	111.81
353.447	94.81
353.674	89.81
353.901	99.81
354.128	100.81
354.355	92.81
354.583	80.81
354.81	98.81
355.037	98.81
355.264	86.81
355.491	81.81
355.718	73.81
355.945	88.81
356.172	107.81
356.399	109.81
356.626	102.81
356.853	102.81
357.08	96.81
357.307	98.81
357.534	88.81
357.761	95.81
357.988	102.81
358.215	82.81
358.441	81.81
358.668	78.81
358.895	82.81
359.122	91.81
359.349	88.81
359.576	90.81
359.802	105.81
360.029	102.81
360.256	99.81
360.483	99.81
360.709	84.81
360.936	90.81
361.163	96.81
361.39	92.81
361.616	112.81
361.843	83.81
362.07	102.81
362.296	90.81
362.523	93.81
362.749	87.81
362.976	87.81
363.203	85.81
363.429	88.81
363.656	92.81
363.882	92.81
364.109	86.81
364.335	85.81
364.562	89.81
364.788	81.81
365.015	85.81
365.241	97.81
365.468	98.81
365.694	84.81
365.92	92.81
366.147	89.81
366.373	95.81
366.599	80.81
366.826	73.81
367.052	90.81
367.278	86.81
367.505	91.81
367.731	95.81
367.957	95.81
368.184	79.81
368.41	86.81
368.636	94.81
368.862	114.81
369.089	77.81
369.315	100.81
369.541	93.81
369.767	94.81
369.993	89.81
370.219	82.81
370.445	99.81
370.672	80.81
370.898	96.81
371.124	89.81
371.35	80.81
371.576	94.81
371.802	95.81
372.028	81.81
372.254	77.81
372.48	89.81
372.706	98.81
372.932	88.81
373.158	86.81
373.384	89.81
373.61	92.81
373.835	71.81
374.061	94.81
374.287	104.81
374.513	83.81
374.739	86.81
374.965	101.81
375.191	85.81
375.416	86.81
375.642	101.81
375.868	80.81
376.094	90.81
376.319	83.81
376.545	86.81
376.771	89.81
376.997	97.81
377.222	100.81
377.448	88.81
377.674	92.81
377.899	84.81
378.125	94.81
378.35	106.81
378.576	95.81
378.802	89.81
379.027	103.81
379.253	83.81
379.478	87.81
379.704	81.81
379.929	98.81
380.155	95.81
380.38	98.81
380.606	84.81
380.831	92.81
381.057	81.81
381.282	89.81
381.507	100.81
381.733	88.81
381.958	93.81
382.184	102.81
382.409	104.81
382.634	103.81
382.86	101.81
383.085	104.81
383.31	100.81
383.535	117.81
383.761	102.81
383.986	99.81
384.211	94.81
384.436	107.81
384.662	96.81
384.887	110.81
385.112	103.81
385.337	101.81
385.562	119.81
385.787	103.81
386.013	98.81
386.238	112.81
386.463	101.81
386.688	108.81
386.913	106.81
387.138	110.81
387.363	91.81
387.588	95.81
387.813	120.81
388.038	96.81
388.263	104.81
388.488	106.81
388.713	96.81
388.938	96.81
389.163	95.81
389.387	97.81
389.612	115.81
389.837	94.81
390.062	77.81
390.287	105.81
390.512	89.81
390.736	78.81
390.961	91.81
391.186	92.81
391.411	105.81
391.636	81.81
391.86	89.81
392.085	94.81
392.31	89.81
392.534	88.81
392.759	92.81
392.984	93.81
393.208	96.81
393.433	101.81
393.658	90.81
393.882	78.81
394.107	86.81
394.331	89.81
394.556	76.81
394.78	90.81
395.005	77.81
395.229	95.81
395.454	89.81
395.678	87.81
395.903	82.81
396.127	85.81
396.352	86.81
396.576	86.81
396.801	96.81
397.025	76.81
397.249	87.81
397.474	97.81
397.698	82.81
397.922	82.81
398.147	88.81
398.371	83.81
398.595	87.81
398.82	76.81
399.044	93.81
399.268	92.81
399.492	78.81
399.717	99.81
399.941	98.81
400.165	82.81
400.389	96.81
400.613	76.81
400.837	85.81
401.062	101.81
401.286	90.81
401.51	89.81
401.734	86.81
401.958	92.81
402.182	117.81
402.406	118.81
402.63	99.81
402.854	90.81
403.078	88.81
403.302	84.81
403.526	93.81
403.75	71.81
403.974	95.81
404.198	85.81
404.422	81.81
404.645	78.81
404.869	91.81
405.093	90.81
405.317	92.81
405.541	98.81
405.765	99.81
405.988	98.81
406.212	154.81
406.436	178.81
406.66	121.81
406.883	103.81
407.107	94.81
407.331	93.81
407.555	96.81
407.778	100.81
408.002	98.81
408.226	99.81
408.449	76.81
408.673	86.81
408.896	88.81
409.12	93.81
409.344	98.81
409.567	100.81
409.791	96.81
410.014	86.81
410.238	86.81
410.461	97.81
410.685	90.81
410.908	89.81
411.132	111.81
411.355	90.81
411.578	86.81
411.802	92.81
412.025	94.81
412.249	83.81
412.472	97.81
412.695	72.81
412.919	84.81
413.142	76.81
413.365	87.81
413.589	84.81
413.812	88.81
414.035	90.81
414.258	88.81
414.482	88.81
414.705	74.81
414.928	89.81
415.151	96.81
415.374	76.81
415.597	76.81
415.821	81.81
416.044	66.81
416.267	82.81
416.49	90.81
416.713	80.81
416.936	89.81
417.159	82.81
417.382	74.81
417.605	89.81
417.828	90.81
418.051	96.81
418.274	96.81
418.497	90.81
418.72	82.81
418.943	93.81
419.166	87.81
419.389	82.81
419.611	78.81
419.834	80.81
420.057	94.81
420.28	100.81
420.503	80.81
420.726	84.81
420.948	88.81
421.171	97.81
421.394	103.81
421.617	85.81
421.839	97.81
422.062	81.81
422.285	87.81
422.507	96.81
422.73	99.81
422.953	86.81
423.175	83.81
423.398	82.81
423.621	86.81
423.843	85.81
424.066	85.81
424.288	88.81
424.511	82.81
424.733	94.81
424.956	102.81
425.178	104.81
425.401	98.81
425.623	94.81
425.846	88.81
426.068	97.81
426.291	89.81
426.513	93.81
426.735	72.81
426.958	80.81
427.18	118.81
427.402	119.81
427.625	140.81
427.847	115.81
428.069	104.81
428.292	80.81
428.514	82.81
428.736	78.81
428.958	88.81
429.181	93.81
429.403	88.81
429.625	85.81
429.847	93.81
430.069	99.81
430.292	93.81
430.514	86.81
430.736	76.81
430.958	89.81
431.18	72.81
431.402	92.81
431.624	82.81
431.846	83.81
432.068	78.81
432.29	80.81
432.512	88.81
432.734	95.81
432.956	94.81
433.178	90.81
433.4	102.81
433.622	93.81
433.844	99.81
434.066	112.81
434.287	76.81
434.509	93.81
434.731	94.81
434.953	76.81
435.175	99.81
435.397	98.81
435.618	93.81
435.84	89.81
436.062	106.81
436.284	95.81
436.505	96.81
436.727	104.81
436.949	93.81
437.17	84.81
437.392	81.81
437.614	80.81
437.835	96.81
438.057	107.81
438.278	106.81
438.5	104.81
438.721	113.81
438.943	97.81
439.165	97.81
439.386	86.81
439.608	97.81
439.829	88.81
440.05	106.81
440.272	124.81
440.493	90.81
440.715	99.81
440.936	90.81
441.158	94.81
441.379	83.81
441.6	79.81
441.822	100.81
442.043	93.81
442.264	106.81
442.486	77.81
442.707	80.81
442.928	99.81
443.149	116.81
443.371	126.81
443.592	95.81
443.813	95.81
444.034	96.81
444.255	97.81
444.476	86.81
444.698	85.81
444.919	83.81
445.14	120.81
445.361	113.81
445.582	101.81
445.803	119.81
446.024	108.81
446.245	122.81
446.466	107.81
446.687	93.81
446.908	84.81
447.129	88.81
447.35	80.81
447.571	94.81
447.792	88.81
448.013	92.81
448.234	89.81
448.455	104.81
448.675	110.81
448.896	116.81
449.117	94.81
449.338	92.81
449.559	117.81
449.779	130.81
450	94.81
450.221	94.81
450.442	95.81
450.662	85.81
450.883	99.81
451.104	83.81
451.324	86.81
451.545	78.81
451.766	80.81
451.986	82.81
452.207	95.81
452.428	77.81
452.648	104.81
452.869	106.81
453.089	100.81
453.31	102.81
453.53	87.81
453.751	97.81
453.971	100.81
454.192	105.81
454.412	101.81
454.633	92.81
454.853	95.81
455.073	67.81
455.294	85.81
455.514	90.81
455.734	92.81
455.955	71.81
456.175	96.81
456.395	100.81
456.616	76.81
456.836	86.81
457.056	76.81
457.276	89.81
457.497	87.81
457.717	76.81
457.937	86.81
458.157	87.81
458.377	74.81
458.598	93.81
458.818	122.81
459.038	126.81
459.258	109.81
459.478	82.81
459.698	88.81
459.918	86.81
460.138	88.81
460.358	88.81
460.578	88.81
460.798	77.81
461.018	79.81
461.238	84.81
461.458	78.81
461.678	77.81
461.898	90.81
462.118	88.81
462.338	104.81
462.558	100.81
462.777	85.81
462.997	85.81
463.217	76.81
463.437	78.81
463.657	73.81
463.876	99.81
464.096	99.81
464.316	90.81
464.536	80.81
464.755	97.81
464.975	95.81
465.195	130.81
465.414	126.81
465.634	81.81
465.854	87.81
466.073	101.81
466.293	91.81
466.512	95.81
466.732	85.81
466.951	80.81
467.171	94.81
467.391	86.81
467.61	93.81
467.829	89.81
468.049	97.81
468.268	73.81
468.488	80.81
468.707	93.81
468.927	85.81
469.146	94.81
469.365	89.81
469.585	89.81
469.804	85.81
470.023	88.81
470.243	71.81
470.462	87.81
470.681	103.81
470.901	78.81
471.12	88.81
471.339	86.81
471.558	89.81
471.777	86.81
471.997	85.81
472.216	96.81
472.435	66.81
472.654	87.81
472.873	77.81
473.092	69.81
473.311	83.81
473.53	85.81
473.749	80.81
473.968	96.81
474.187	96.81
474.406	89.81
474.625	83.81
474.844	90.81
475.063	91.81
475.282	79.81
475.501	88.81
475.72	94.81
475.939	85.81
476.158	79.81
476.377	77.81
476.596	88.81
476.814	85.81
477.033	88.81
477.252	92.81
477.471	89.81
477.69	90.81
477.908	84.81
478.127	92.81
478.346	88.81
478.564	97.81
478.783	96.81
479.002	93.81
479.22	99.81
479.439	95.81
479.658	101.81
479.876	80.81
480.095	80.81
480.313	79.81
480.532	88.81
480.751	96.81
480.969	89.81
481.188	95.81
481.406	98.81
481.624	76.81
481.843	86.81
482.061	88.81
482.28	83.81
482.498	86.81
482.717	78.81
482.935	92.81
483.153	90.81
483.372	83.81
483.59	80.81
483.808	88.81
484.027	89.81
484.245	95.81
484.463	77.81
484.681	91.81
484.9	107.81
485.118	101.81
485.336	95.81
485.554	84.81
485.772	101.81
485.99	111.81
486.209	101.81
486.427	86.81
486.645	96.81
486.863	113.81
487.081	103.81
487.299	111.81
487.517	90.81
487.735	99.81
487.953	87.81
488.171	106.81
488.389	95.81
488.607	101.81
488.825	80.81
489.043	87.81
489.261	98.81
489.479	81.81
489.696	83.81
489.914	83.81
490.132	101.81
490.35	87.81
490.568	87.81
490.786	86.81
491.003	101.81
491.221	93.81
491.439	98.81
491.657	81.81
491.874	103.81
492.092	90.81
492.31	83.81
492.527	80.81
492.745	86.81
492.963	78.81
493.18	88.81
493.398	81.81
493.615	86.81
493.833	102.81
494.05	91.81
494.268	92.81
494.485	81.81
494.703	86.81
494.92	94.81
495.138	95.81
495.355	90.81
495.573	88.81
495.79	91.81
496.008	90.81
496.225	91.81
496.442	85.81
496.66	84.81
496.877	86.81
497.094	101.81
497.312	92.81
497.529	84.81
497.746	100.81
497.963	89.81
498.181	89.81
498.398	82.81
498.615	94.81
498.832	98.81
499.049	86.81
499.267	98.81
499.484	95.81
499.701	80.81
499.918	83.81
500.135	111.81
500.352	96.81
500.569	74.81
500.786	80.81
501.003	93.81
501.22	86.81
501.437	93.81
501.654	85.81
501.871	94.81
502.088	80.81
502.305	94.81
502.522	90.81
502.739	95.81
502.956	93.81
503.172	94.81
503.389	94.81
503.606	104.81
503.823	94.81
504.04	78.81
504.256	88.81
504.473	96.81
504.69	87.81
504.907	87.81
505.123	79.81
505.34	101.81
505.557	71.81
505.773	105.81
505.99	86.81
506.207	97.81
506.423	86.81
506.64	98.81
506.856	85.81
507.073	94.81
507.289	98.81
507.506	94.81
507.722	102.81
507.939	100.81
508.155	93.81
508.372	97.81
508.588	86.81
508.805	87.81
509.021	102.81
509.238	98.81
509.454	93.81
509.67	108.81
509.887	105.81
510.103	122.81
510.319	185.81
510.536	617.81
510.752	1828.81
510.968	520.81
511.184	141.81
511.401	118.81
511.617	105.81
511.833	90.81
512.049	87.81
512.265	90.81
512.481	95.81
512.698	90.81
512.914	89.81
513.13	101.81
513.346	94.81
513.562	103.81
513.778	94.81
513.994	94.81
514.21	107.81
514.426	109.81
514.642	94.81
514.858	112.81
515.074	137.81
515.29	340.81
515.506	1125.81
515.721	402.81
515.937	130.81
516.153	110.81
516.369	94.81
516.585	77.81
