Data from Uncirc_1987_H10_HRD10591_00042.txt Node
Date: Wed Jan 03 12:08:56 EST 2024
User: Yrep
Spectrometer: HR+D1059
Trigger mode: 1
Integration Time (sec): 1.000000E-1
Scans to average: 1
Electric dark correction enabled: true
Nonlinearity correction enabled: false
Boxcar width: 0
XAxis mode: Wavelengths
Number of Pixels in Spectrum: 2048
>>>>>Begin Spectral Data<<<<<
223.165	-7.06
223.4	-7.06
223.635	-7.06
223.869	-23.06
224.104	-18.06
224.338	-25.06
224.573	-19.06
224.808	-14.06
225.042	-7.06
225.277	-11.06
225.511	-1.06
225.746	5.94
225.98	19.94
226.215	15.94
226.449	7.94
226.683	23.94
226.918	27.94
227.152	23.94
227.387	23.94
227.621	24.94
227.856	45.94
228.09	50.94
228.324	56.94
228.559	48.94
228.793	160.94
229.027	455.94
229.262	538.94
229.496	636.94
229.73	834.94
229.964	832.94
230.199	554.94
230.433	497.94
230.667	499.94
230.901	487.94
231.136	465.94
231.37	436.94
231.604	463.94
231.838	476.94
232.072	469.94
232.306	492.94
232.541	476.94
232.775	494.94
233.009	502.94
233.243	487.94
233.477	497.94
233.711	537.94
233.945	505.94
234.179	527.94
234.413	508.94
234.647	536.94
234.881	542.94
235.115	547.94
235.349	560.94
235.583	577.94
235.817	609.94
236.051	646.94
236.285	609.94
236.519	651.94
236.753	717.94
236.987	943.94
237.221	1401.94
237.455	1543.94
237.689	956.94
237.922	767.94
238.156	759.94
238.39	701.94
238.624	688.94
238.858	679.94
239.091	687.94
239.325	693.94
239.559	726.94
239.793	756.94
240.027	803.94
240.26	925.94
240.494	1004.94
240.728	970.94
240.961	963.94
241.195	868.94
241.429	823.94
241.662	800.94
241.896	806.94
242.13	799.94
242.363	829.94
242.597	820.94
242.83	848.94
243.064	861.94
243.298	893.94
243.531	867.94
243.765	870.94
243.998	863.94
244.232	892.94
244.465	933.94
244.699	941.94
244.932	949.94
245.166	968.94
245.399	951.94
245.633	950.94
245.866	983.94
246.099	974.94
246.333	994.94
246.566	1005.94
246.8	1025.94
247.033	1038.94
247.266	1065.94
247.5	1123.94
247.733	1199.94
247.966	1220.94
248.2	1201.94
248.433	1210.94
248.666	1288.94
248.899	1369.94
249.133	1471.94
249.366	1476.94
249.599	1385.94
249.832	1246.94
250.066	1278.94
250.299	1300.94
250.532	1376.94
250.765	1541.94
250.998	1732.94
251.231	1736.94
251.465	1573.94
251.698	1498.94
251.931	1481.94
252.164	1452.94
252.397	1536.94
252.63	1526.94
252.863	1583.94
253.096	1716.94
253.329	1819.94
253.562	1732.94
253.795	1647.94
254.028	1621.94
254.261	1668.94
254.494	1844.94
254.727	2177.94
254.96	2309.94
255.193	2028.94
255.426	1809.94
255.659	1715.94
255.892	1682.94
256.124	1655.94
256.357	1597.94
256.59	1561.94
256.823	1553.94
257.056	1574.94
257.289	1580.94
257.521	1614.94
257.754	1585.94
257.987	1607.94
258.22	1590.94
258.452	1611.94
258.685	1624.94
258.918	1627.94
259.151	1702.94
259.383	1767.94
259.616	1778.94
259.849	1808.94
260.081	1954.94
260.314	2131.94
260.547	2121.94
260.779	1965.94
261.012	1894.94
261.244	1827.94
261.477	1791.94
261.71	1816.94
261.942	1864.94
262.175	1854.94
262.407	1774.94
262.64	1736.94
262.872	1737.94
263.105	1703.94
263.337	1747.94
263.57	1748.94
263.802	1814.94
264.035	1759.94
264.267	1746.94
264.499	1739.94
264.732	1762.94
264.964	1781.94
265.197	1803.94
265.429	1758.94
265.661	1780.94
265.894	1816.94
266.126	1803.94
266.358	1795.94
266.591	1877.94
266.823	1982.94
267.055	1968.94
267.287	1960.94
267.52	1920.94
267.752	1943.94
267.984	1945.94
268.216	2004.94
268.448	2002.94
268.681	2079.94
268.913	2160.94
269.145	2364.94
269.377	2499.94
269.609	2385.94
269.841	2385.94
270.073	2480.94
270.306	2707.94
270.538	2867.94
270.77	2763.94
271.002	2613.94
271.234	2531.94
271.466	2681.94
271.698	2801.94
271.93	2807.94
272.162	2828.94
272.394	2773.94
272.626	2611.94
272.858	2462.94
273.09	2423.94
273.322	2365.94
273.553	2284.94
273.785	2306.94
274.017	2352.94
274.249	2337.94
274.481	2348.94
274.713	2333.94
274.945	2392.94
275.176	2363.94
275.408	2356.94
275.64	2317.94
275.872	2307.94
276.104	2355.94
276.335	2456.94
276.567	2501.94
276.799	2637.94
277.031	2807.94
277.262	2956.94
277.494	2830.94
277.726	2699.94
277.957	2595.94
278.189	2487.94
278.421	2457.94
278.652	2503.94
278.884	2488.94
279.115	2471.94
279.347	2500.94
279.579	2489.94
279.81	2434.94
280.042	2477.94
280.273	2491.94
280.505	2525.94
280.736	2500.94
280.968	2458.94
281.199	2511.94
281.431	2513.94
281.662	2537.94
281.894	2534.94
282.125	2645.94
282.356	2791.94
282.588	2943.94
282.819	2771.94
283.051	2628.94
283.282	2635.94
283.513	2649.94
283.745	2710.94
283.976	2744.94
284.207	2720.94
284.439	2754.94
284.67	2685.94
284.901	2724.94
285.132	2708.94
285.364	2734.94
285.595	2756.94
285.826	2770.94
286.057	2767.94
286.288	2742.94
286.52	2795.94
286.751	2751.94
286.982	2817.94
287.213	2842.94
287.444	2863.94
287.675	2871.94
287.906	2983.94
288.138	3009.94
288.369	3033.94
288.6	3043.94
288.831	2971.94
289.062	2902.94
289.293	2959.94
289.524	2847.94
289.755	2903.94
289.986	2918.94
290.217	2907.94
290.448	2906.94
290.679	2920.94
290.91	2863.94
291.141	2904.94
291.371	2925.94
291.602	2903.94
291.833	2897.94
292.064	2886.94
292.295	2911.94
292.526	2955.94
292.757	2931.94
292.987	2937.94
293.218	2920.94
293.449	2918.94
293.68	2939.94
293.91	2880.94
294.141	2980.94
294.372	2966.94
294.603	2978.94
294.833	2999.94
295.064	3007.94
295.295	2961.94
295.525	2950.94
295.756	3088.94
295.987	3147.94
296.217	3288.94
296.448	3207.94
296.679	3032.94
296.909	3044.94
297.14	3056.94
297.37	3131.94
297.601	3179.94
297.831	3200.94
298.062	3143.94
298.292	3163.94
298.523	3259.94
298.753	3250.94
298.984	3128.94
299.214	3161.94
299.445	3209.94
299.675	3203.94
299.905	3263.94
300.136	3234.94
300.366	3253.94
300.597	3272.94
300.827	3366.94
301.057	3417.94
301.288	3489.94
301.518	3474.94
301.748	3433.94
301.979	3529.94
302.209	3483.94
302.439	3475.94
302.669	3451.94
302.9	3450.94
303.13	3415.94
303.36	3413.94
303.59	3448.94
303.82	3473.94
304.051	3420.94
304.281	3439.94
304.511	3352.94
304.741	3405.94
304.971	3447.94
305.201	3405.94
305.431	3381.94
305.661	3378.94
305.891	3367.94
306.121	3410.94
306.352	3428.94
306.582	3469.94
306.812	3311.94
307.042	3371.94
307.272	3425.94
307.502	3320.94
307.731	3379.94
307.961	3353.94
308.191	3334.94
308.421	3391.94
308.651	3448.94
308.881	3402.94
309.111	3493.94
309.341	3441.94
309.571	3607.94
309.8	3627.94
310.03	3681.94
310.26	3669.94
310.49	3698.94
310.72	3809.94
310.949	3912.94
311.179	3796.94
311.409	3779.94
311.639	3771.94
311.868	3746.94
312.098	3803.94
312.328	3870.94
312.557	3966.94
312.787	4005.94
313.017	3929.94
313.246	3851.94
313.476	3848.94
313.706	3896.94
313.935	3932.94
314.165	4058.94
314.394	4097.94
314.624	4018.94
314.853	3898.94
315.083	3905.94
315.312	3894.94
315.542	3855.94
315.771	3771.94
316.001	3724.94
316.23	3778.94
316.46	3771.94
316.689	3889.94
316.919	3873.94
317.148	3872.94
317.377	3893.94
317.607	3896.94
317.836	3847.94
318.065	3751.94
318.295	3795.94
318.524	3740.94
318.753	3731.94
318.983	3752.94
319.212	3777.94
319.441	3861.94
319.67	3895.94
319.9	3737.94
320.129	3810.94
320.358	3854.94
320.587	3870.94
320.816	3931.94
321.046	3960.94
321.275	3921.94
321.504	3901.94
321.733	3921.94
321.962	4016.94
322.191	4095.94
322.42	4217.94
322.649	4282.94
322.878	4352.94
323.108	4440.94
323.337	4679.94
323.566	4840.94
323.795	5195.94
324.024	5713.94
324.253	7448.94
324.482	11320.94
324.71	15448.94
324.939	15625.94
325.168	13374.94
325.397	6840.94
325.626	5444.94
325.855	5009.94
326.084	4904.94
326.313	4909.94
326.542	5063.94
326.77	5673.94
326.999	7137.94
327.228	10656.94
327.457	14641.94
327.686	13938.94
327.914	7544.94
328.143	5973.94
328.372	5580.94
328.6	5379.94
328.829	5266.94
329.058	5496.94
329.287	5437.94
329.515	5074.94
329.744	4845.94
329.972	4837.94
330.201	4945.94
330.43	5159.94
330.658	5466.94
330.887	5811.94
331.115	5476.94
331.344	5064.94
331.572	4990.94
331.801	5088.94
332.03	5139.94
332.258	5057.94
332.486	5078.94
332.715	5112.94
332.943	5312.94
333.172	5418.94
333.4	5581.94
333.629	5691.94
333.857	5734.94
334.085	5651.94
334.314	5642.94
334.542	5551.94
334.771	5595.94
334.999	5409.94
335.227	5350.94
335.455	5232.94
335.684	5177.94
335.912	5118.94
336.14	5028.94
336.369	5076.94
336.597	5199.94
336.825	5053.94
337.053	5014.94
337.281	4884.94
337.51	4834.94
337.738	4887.94
337.966	4815.94
338.194	4819.94
338.422	4680.94
338.65	4667.94
338.878	4638.94
339.106	4597.94
339.334	4565.94
339.562	4672.94
339.79	4454.94
340.018	4511.94
340.246	4484.94
340.474	4509.94
340.702	4477.94
340.93	4483.94
341.158	4476.94
341.386	4520.94
341.614	4525.94
341.842	4493.94
342.07	4440.94
342.298	4389.94
342.526	4332.94
342.754	4419.94
342.981	4428.94
343.209	4513.94
343.437	4780.94
343.665	4990.94
343.893	5324.94
344.12	5271.94
344.348	5051.94
344.576	4875.94
344.804	4775.94
345.031	4717.94
345.259	4671.94
345.487	4566.94
345.714	4463.94
345.942	4369.94
346.17	4341.94
346.397	4275.94
346.625	4308.94
346.853	4310.94
347.08	4313.94
347.308	4362.94
347.535	4400.94
347.763	4448.94
347.99	4367.94
348.218	4419.94
348.445	4406.94
348.673	4360.94
348.9	4242.94
349.128	4222.94
349.355	4147.94
349.583	4125.94
349.81	4153.94
350.037	4132.94
350.265	4120.94
350.492	4153.94
350.72	4214.94
350.947	4210.94
351.174	4262.94
351.402	4380.94
351.629	4310.94
351.856	4310.94
352.083	4311.94
352.311	4346.94
352.538	4336.94
352.765	4243.94
352.992	4256.94
353.22	4147.94
353.447	4196.94
353.674	4078.94
353.901	4094.94
354.128	4081.94
354.355	4093.94
354.583	4081.94
354.81	4084.94
355.037	4069.94
355.264	4097.94
355.491	4038.94
355.718	4081.94
355.945	4045.94
356.172	4097.94
356.399	4068.94
356.626	4039.94
356.853	4056.94
357.08	4028.94
357.307	4080.94
357.534	4009.94
357.761	4099.94
357.988	4038.94
358.215	4031.94
358.441	4089.94
358.668	4087.94
358.895	4201.94
359.122	4140.94
359.349	4236.94
359.576	4319.94
359.802	4561.94
360.029	4699.94
360.256	4674.94
360.483	4512.94
360.709	4271.94
360.936	4305.94
361.163	4335.94
361.39	4319.94
361.616	4342.94
361.843	4267.94
362.07	4279.94
362.296	4324.94
362.523	4244.94
362.749	4272.94
362.976	4221.94
363.203	4123.94
363.429	4110.94
363.656	4155.94
363.882	4137.94
364.109	4147.94
364.335	4168.94
364.562	4132.94
364.788	4101.94
365.015	4133.94
365.241	4117.94
365.468	4129.94
365.694	4242.94
365.92	4171.94
366.147	4155.94
366.373	4144.94
366.599	4120.94
366.826	4107.94
367.052	4115.94
367.278	4156.94
367.505	4212.94
367.731	4190.94
367.957	4155.94
368.184	4229.94
368.41	4310.94
368.636	4415.94
368.862	4293.94
369.089	4235.94
369.315	4239.94
369.541	4254.94
369.767	4280.94
369.993	4288.94
370.219	4289.94
370.445	4277.94
370.672	4287.94
370.898	4343.94
371.124	4377.94
371.35	4396.94
371.576	4422.94
371.802	4435.94
372.028	4383.94
372.254	4406.94
372.48	4375.94
372.706	4564.94
372.932	4577.94
373.158	4510.94
373.384	4472.94
373.61	4417.94
373.835	4441.94
374.061	4435.94
374.287	4578.94
374.513	4595.94
374.739	4718.94
374.965	4784.94
375.191	4862.94
375.416	4760.94
375.642	4615.94
375.868	4593.94
376.094	4497.94
376.319	4471.94
376.545	4500.94
376.771	4424.94
376.997	4411.94
377.222	4380.94
377.448	4357.94
377.674	4391.94
377.899	4427.94
378.125	4407.94
378.35	4316.94
378.576	4342.94
378.802	4353.94
379.027	4358.94
379.253	4370.94
379.478	4368.94
379.704	4421.94
379.929	4374.94
380.155	4361.94
380.38	4458.94
380.606	4435.94
380.831	4432.94
381.057	4443.94
381.282	4439.94
381.507	4476.94
381.733	4529.94
381.958	4516.94
382.184	4546.94
382.409	4576.94
382.634	4737.94
382.86	4695.94
383.085	4691.94
383.31	4760.94
383.535	4880.94
383.761	4901.94
383.986	4957.94
384.211	5109.94
384.436	5091.94
384.662	5152.94
384.887	5233.94
385.112	5174.94
385.337	5327.94
385.562	5376.94
385.787	5303.94
386.013	5388.94
386.238	5404.94
386.463	5394.94
386.688	5361.94
386.913	5331.94
387.138	5236.94
387.363	5286.94
387.588	5209.94
387.813	5261.94
388.038	5198.94
388.263	5289.94
388.488	5233.94
388.713	5342.94
388.938	5269.94
389.163	5239.94
389.387	5235.94
389.612	5149.94
389.837	5206.94
390.062	5220.94
390.287	5190.94
390.512	5224.94
390.736	5215.94
390.961	5347.94
391.186	5360.94
391.411	5634.94
391.636	5659.94
391.86	5898.94
392.085	5932.94
392.31	5812.94
392.534	5756.94
392.759	5516.94
392.984	5512.94
393.208	5513.94
393.433	5496.94
393.658	5449.94
393.882	5474.94
394.107	5480.94
394.331	5542.94
394.556	5546.94
394.78	5531.94
395.005	5582.94
395.229	5673.94
395.454	5833.94
395.678	6000.94
395.903	5967.94
396.127	6007.94
396.352	5879.94
396.576	5608.94
396.801	5529.94
397.025	5723.94
397.249	5811.94
397.474	5933.94
397.698	5928.94
397.922	6083.94
398.147	6257.94
398.371	6308.94
398.595	6382.94
398.82	6744.94
399.044	7379.94
399.268	8060.94
399.492	9133.94
399.717	9859.94
399.941	9535.94
400.165	8918.94
400.389	8249.94
400.613	7389.94
400.837	6959.94
401.062	6748.94
401.286	6701.94
401.51	6700.94
401.734	6579.94
401.958	6775.94
402.182	6832.94
402.406	6972.94
402.63	7015.94
402.854	7091.94
403.078	7269.94
403.302	7379.94
403.526	7500.94
403.75	7509.94
403.974	7537.94
404.198	7500.94
404.422	7605.94
404.645	7624.94
404.869	7486.94
405.093	7591.94
405.317	7721.94
405.541	7725.94
405.765	7397.94
405.988	7413.94
406.212	7622.94
406.436	7718.94
406.66	7896.94
406.883	7895.94
407.107	8476.94
407.331	9145.94
407.555	9545.94
407.778	9128.94
408.002	8452.94
408.226	8051.94
408.449	7927.94
408.673	7767.94
408.896	7978.94
409.12	8108.94
409.344	7629.94
409.567	7390.94
409.791	7268.94
410.014	7216.94
410.238	7028.94
410.461	7117.94
410.685	7208.94
410.908	7283.94
411.132	7528.94
411.355	7453.94
411.578	7185.94
411.802	6873.94
412.025	6848.94
412.249	7014.94
412.472	6985.94
412.695	6853.94
412.919	6675.94
413.142	6604.94
413.365	6547.94
413.589	6578.94
413.812	6514.94
414.035	6316.94
414.258	6492.94
414.482	6557.94
414.705	6645.94
414.928	6568.94
415.151	6591.94
415.374	6603.94
415.597	6515.94
415.821	6315.94
416.044	6361.94
416.267	6405.94
416.49	6343.94
416.713	6417.94
416.936	6375.94
417.159	6452.94
417.382	6541.94
417.605	6451.94
417.828	6603.94
418.051	6856.94
418.274	6671.94
418.497	6575.94
418.72	6764.94
418.943	6614.94
419.166	7032.94
419.389	7398.94
419.611	7279.94
419.834	7119.94
420.057	6924.94
420.28	6765.94
420.503	6593.94
420.726	6620.94
420.948	6772.94
421.171	7193.94
421.394	7156.94
421.617	6694.94
421.839	6727.94
422.062	6775.94
422.285	6948.94
422.507	7473.94
422.73	8141.94
422.953	7535.94
423.175	7160.94
423.398	7233.94
423.621	7186.94
423.843	7431.94
424.066	7425.94
424.288	7278.94
424.511	7521.94
424.733	7960.94
424.956	8316.94
425.178	7924.94
425.401	8038.94
425.623	7933.94
425.846	6976.94
426.068	6793.94
426.291	6768.94
426.513	6642.94
426.735	6824.94
426.958	7253.94
427.18	8115.94
427.402	9152.94
427.625	9254.94
427.847	7756.94
428.069	6950.94
428.292	6544.94
428.514	6199.94
428.736	6160.94
428.958	6105.94
429.181	5901.94
429.403	5907.94
429.625	6105.94
429.847	6512.94
430.069	7091.94
430.292	6575.94
430.514	5990.94
430.736	5935.94
430.958	5839.94
431.18	5887.94
431.402	5767.94
431.624	5691.94
431.846	5819.94
432.068	5858.94
432.29	5906.94
432.512	5883.94
432.734	5905.94
432.956	5941.94
433.178	5953.94
433.4	5995.94
433.622	5924.94
433.844	5919.94
434.066	5921.94
434.287	6061.94
434.509	6256.94
434.731	6496.94
434.953	6607.94
435.175	6773.94
435.397	6943.94
435.618	6823.94
435.84	7215.94
436.062	8001.94
436.284	7833.94
436.505	6737.94
436.727	6387.94
436.949	6120.94
437.17	6060.94
437.392	5974.94
437.614	6149.94
437.835	6489.94
438.057	7509.94
438.278	8091.94
438.5	8120.94
438.721	8895.94
438.943	7748.94
439.165	6582.94
439.386	6309.94
439.608	6412.94
439.829	6507.94
440.05	6905.94
440.272	7221.94
440.493	6579.94
440.715	6366.94
440.936	6344.94
441.158	6323.94
441.379	6485.94
441.6	6758.94
441.822	7039.94
442.043	7403.94
442.264	8197.94
442.486	7862.94
442.707	7106.94
442.928	6940.94
443.149	7174.94
443.371	7379.94
443.592	7822.94
443.813	8931.94
444.034	8837.94
444.255	7692.94
444.476	7484.94
444.698	7723.94
444.919	7772.94
445.14	7592.94
445.361	7353.94
445.582	7569.94
445.803	8077.94
446.024	8780.94
446.245	8453.94
446.466	7557.94
446.687	6620.94
446.908	6248.94
447.129	5980.94
447.35	5874.94
447.571	5854.94
447.792	5747.94
448.013	5766.94
448.234	6036.94
448.455	6727.94
448.675	7833.94
448.896	8286.94
449.117	6911.94
449.338	7096.94
449.559	8444.94
449.779	8544.94
450	6559.94
450.221	5921.94
450.442	5767.94
450.662	5587.94
450.883	5634.94
451.104	5775.94
451.324	5588.94
451.545	5468.94
451.766	5413.94
451.986	5276.94
452.207	5154.94
452.428	5109.94
452.648	5202.94
452.869	5231.94
453.089	5315.94
453.31	5447.94
453.53	5281.94
453.751	5181.94
453.971	5118.94
454.192	5286.94
454.412	5108.94
454.633	5101.94
454.853	5013.94
455.073	5025.94
455.294	5415.94
455.514	6007.94
455.734	5493.94
455.955	4913.94
456.175	4827.94
456.395	4768.94
456.616	4761.94
456.836	4819.94
457.056	4769.94
457.276	4664.94
457.497	4866.94
457.717	4859.94
457.937	4948.94
458.157	5036.94
458.377	5130.94
458.598	5532.94
458.818	6124.94
459.038	6825.94
459.258	6883.94
459.478	6083.94
459.698	5957.94
459.918	5961.94
460.138	6272.94
460.358	6416.94
460.578	6512.94
460.798	6575.94
461.018	6502.94
461.238	6467.94
461.458	6428.94
461.678	6405.94
461.898	6514.94
462.118	6559.94
462.338	6837.94
462.558	6971.94
462.777	7245.94
462.997	7868.94
463.217	8294.94
463.437	8125.94
463.657	7466.94
463.876	7234.94
464.096	7297.94
464.316	7347.94
464.536	7345.94
464.755	7141.94
464.975	7053.94
465.195	7180.94
465.414	7181.94
465.634	6317.94
465.854	6038.94
466.073	5844.94
466.293	5652.94
466.512	5430.94
466.732	5354.94
466.951	5307.94
467.171	5302.94
467.391	5414.94
467.61	5423.94
467.829	5393.94
468.049	5328.94
468.268	5190.94
468.488	5090.94
468.707	5059.94
468.927	5073.94
469.146	5086.94
469.365	5086.94
469.585	5207.94
469.804	5453.94
470.023	5550.94
470.243	5559.94
470.462	5606.94
470.681	5772.94
470.901	5605.94
471.12	5555.94
471.339	5489.94
471.558	5355.94
471.777	5372.94
471.997	5190.94
472.216	5231.94
472.435	5189.94
472.654	5075.94
472.873	4998.94
473.092	4998.94
473.311	5039.94
473.53	5132.94
473.749	5210.94
473.968	5767.94
474.187	6704.94
474.406	6322.94
474.625	5422.94
474.844	5171.94
475.063	5192.94
475.282	5151.94
475.501	5176.94
475.72	5256.94
475.939	5206.94
476.158	5321.94
476.377	5291.94
476.596	5265.94
476.814	5449.94
477.033	5507.94
477.252	5558.94
477.471	5653.94
477.69	5750.94
477.908	5842.94
478.127	5996.94
478.346	6065.94
478.564	6254.94
478.783	6376.94
479.002	6513.94
479.22	6431.94
479.439	6480.94
479.658	6665.94
479.876	6751.94
480.095	6916.94
480.313	7329.94
480.532	7169.94
480.751	7120.94
480.969	6898.94
481.188	6869.94
481.406	6691.94
481.624	6349.94
481.843	6229.94
482.061	6084.94
482.28	6037.94
482.498	6000.94
482.717	5977.94
482.935	5998.94
483.153	5901.94
483.372	5957.94
483.59	6018.94
483.808	5970.94
484.027	6007.94
484.245	6087.94
484.463	6111.94
484.681	6155.94
484.9	6220.94
485.118	6290.94
485.336	6310.94
485.554	6339.94
485.772	6325.94
485.99	6403.94
486.209	6391.94
486.427	6485.94
486.645	6501.94
486.863	6651.94
487.081	6521.94
487.299	6501.94
487.517	6496.94
487.735	6382.94
