Data from Uncirc_1987_H10_HRD10591_00001.txt Node
Date: Wed Jan 03 12:08:48 EST 2024
User: Yrep
Spectrometer: HR+D1059
Trigger mode: 1
Integration Time (sec): 1.000000E-1
Scans to average: 1
Electric dark correction enabled: true
Nonlinearity correction enabled: false
Boxcar width: 0
XAxis mode: Wavelengths
Number of Pixels in Spectrum: 2048
>>>>>Begin Spectral Data<<<<<
223.165	-23.31
223.4	-23.31
223.635	-23.31
223.869	-22.31
224.104	-17.31
224.338	-20.31
224.573	-4.31
224.808	-11.31
225.042	-6.31
225.277	-3.31
225.511	3.69
225.746	-9.31
225.98	14.69
226.215	-0.31
226.449	23.69
226.683	24.69
226.918	32.69
227.152	18.69
227.387	41.69
227.621	31.69
227.856	41.69
228.09	45.69
228.324	44.69
228.559	51.69
228.793	54.69
229.027	60.69
229.262	62.69
229.496	75.69
229.73	79.69
229.964	78.69
230.199	78.69
230.433	74.69
230.667	69.69
230.901	78.69
231.136	64.69
231.37	68.69
231.604	80.69
231.838	79.69
232.072	75.69
232.306	82.69
232.541	66.69
232.775	83.69
233.009	95.69
233.243	90.69
233.477	70.69
233.711	84.69
233.945	78.69
234.179	87.69
234.413	65.69
234.647	80.69
234.881	78.69
235.115	72.69
235.349	76.69
235.583	73.69
235.817	75.69
236.051	76.69
236.285	80.69
236.519	81.69
236.753	75.69
236.987	68.69
237.221	78.69
237.455	85.69
237.689	73.69
237.922	94.69
238.156	71.69
238.39	70.69
238.624	80.69
238.858	71.69
239.091	81.69
239.325	80.69
239.559	75.69
239.793	78.69
240.027	87.69
240.26	81.69
240.494	89.69
240.728	80.69
240.961	82.69
241.195	68.69
241.429	79.69
241.662	71.69
241.896	65.69
242.13	78.69
242.363	75.69
242.597	81.69
242.83	83.69
243.064	74.69
243.298	78.69
243.531	84.69
243.765	73.69
243.998	82.69
244.232	74.69
244.465	90.69
244.699	75.69
244.932	62.69
245.166	76.69
245.399	82.69
245.633	78.69
245.866	104.69
246.099	68.69
246.333	71.69
246.566	81.69
246.8	80.69
247.033	76.69
247.266	76.69
247.5	74.69
247.733	84.69
247.966	76.69
248.2	89.69
248.433	72.69
248.666	80.69
248.899	70.69
249.133	75.69
249.366	84.69
249.599	100.69
249.832	76.69
250.066	79.69
250.299	80.69
250.532	94.69
250.765	92.69
250.998	95.69
251.231	88.69
251.465	57.69
251.698	65.69
251.931	88.69
252.164	83.69
252.397	81.69
252.63	80.69
252.863	88.69
253.096	82.69
253.329	82.69
253.562	87.69
253.795	86.69
254.028	97.69
254.261	75.69
254.494	81.69
254.727	81.69
254.96	82.69
255.193	81.69
255.426	87.69
255.659	84.69
255.892	85.69
256.124	81.69
256.357	83.69
256.59	84.69
256.823	75.69
257.056	84.69
257.289	82.69
257.521	84.69
257.754	82.69
257.987	73.69
258.22	86.69
258.452	97.69
258.685	82.69
258.918	63.69
259.151	96.69
259.383	80.69
259.616	71.69
259.849	77.69
260.081	65.69
260.314	87.69
260.547	96.69
260.779	78.69
261.012	74.69
261.244	98.69
261.477	82.69
261.71	83.69
261.942	115.69
262.175	102.69
262.407	84.69
262.64	88.69
262.872	88.69
263.105	75.69
263.337	75.69
263.57	75.69
263.802	91.69
264.035	82.69
264.267	71.69
264.499	91.69
264.732	91.69
264.964	84.69
265.197	81.69
265.429	86.69
265.661	79.69
265.894	108.69
266.126	91.69
266.358	68.69
266.591	86.69
266.823	89.69
267.055	99.69
267.287	88.69
267.52	80.69
267.752	93.69
267.984	90.69
268.216	96.69
268.448	88.69
268.681	88.69
268.913	98.69
269.145	79.69
269.377	86.69
269.609	84.69
269.841	87.69
270.073	82.69
270.306	87.69
270.538	78.69
270.77	76.69
271.002	94.69
271.234	88.69
271.466	97.69
271.698	84.69
271.93	84.69
272.162	84.69
272.394	79.69
272.626	81.69
272.858	92.69
273.09	91.69
273.322	82.69
273.553	80.69
273.785	75.69
274.017	72.69
274.249	91.69
274.481	82.69
274.713	78.69
274.945	85.69
275.176	97.69
275.408	86.69
275.64	80.69
275.872	86.69
276.104	86.69
276.335	92.69
276.567	114.69
276.799	94.69
277.031	94.69
277.262	92.69
277.494	78.69
277.726	84.69
277.957	89.69
278.189	97.69
278.421	97.69
278.652	92.69
278.884	94.69
279.115	86.69
279.347	99.69
279.579	73.69
279.81	97.69
280.042	79.69
280.273	93.69
280.505	90.69
280.736	95.69
280.968	100.69
281.199	91.69
281.431	88.69
281.662	97.69
281.894	88.69
282.125	84.69
282.356	111.69
282.588	112.69
282.819	111.69
283.051	82.69
283.282	82.69
283.513	77.69
283.745	87.69
283.976	98.69
284.207	84.69
284.439	84.69
284.67	77.69
284.901	87.69
285.132	90.69
285.364	83.69
285.595	83.69
285.826	90.69
286.057	101.69
286.288	89.69
286.52	87.69
286.751	90.69
286.982	91.69
287.213	86.69
287.444	100.69
287.675	88.69
287.906	97.69
288.138	100.69
288.369	86.69
288.6	85.69
288.831	96.69
289.062	107.69
289.293	105.69
289.524	94.69
289.755	82.69
289.986	84.69
290.217	101.69
290.448	90.69
290.679	81.69
290.91	91.69
291.141	90.69
291.371	86.69
291.602	105.69
291.833	104.69
292.064	86.69
292.295	90.69
292.526	82.69
292.757	93.69
292.987	94.69
293.218	87.69
293.449	95.69
293.68	86.69
293.91	92.69
294.141	95.69
294.372	101.69
294.603	90.69
294.833	94.69
295.064	96.69
295.295	87.69
295.525	106.69
295.756	108.69
295.987	106.69
296.217	122.69
296.448	115.69
296.679	83.69
296.909	86.69
297.14	85.69
297.37	97.69
297.601	94.69
297.831	91.69
298.062	82.69
298.292	82.69
298.523	91.69
298.753	93.69
298.984	82.69
299.214	90.69
299.445	99.69
299.675	97.69
299.905	96.69
300.136	92.69
300.366	70.69
300.597	88.69
300.827	86.69
301.057	96.69
301.288	105.69
301.518	104.69
301.748	91.69
301.979	106.69
302.209	84.69
302.439	101.69
302.669	81.69
302.9	96.69
303.13	93.69
303.36	85.69
303.59	101.69
303.82	103.69
304.051	109.69
304.281	92.69
304.511	94.69
304.741	94.69
304.971	92.69
305.201	95.69
305.431	94.69
305.661	82.69
305.891	84.69
306.121	104.69
306.352	103.69
306.582	102.69
306.812	81.69
307.042	88.69
307.272	104.69
307.502	102.69
307.731	90.69
307.961	89.69
308.191	98.69
308.421	87.69
308.651	88.69
308.881	98.69
309.111	95.69
309.341	90.69
309.571	95.69
309.8	88.69
310.03	99.69
310.26	110.69
310.49	90.69
310.72	88.69
310.949	91.69
311.179	97.69
311.409	95.69
311.639	83.69
311.868	91.69
312.098	95.69
312.328	95.69
312.557	103.69
312.787	104.69
313.017	100.69
313.246	83.69
313.476	78.69
313.706	102.69
313.935	82.69
314.165	88.69
314.394	100.69
314.624	103.69
314.853	100.69
315.083	100.69
315.312	92.69
315.542	96.69
315.771	96.69
316.001	108.69
316.23	98.69
316.46	100.69
316.689	95.69
316.919	90.69
317.148	105.69
317.377	95.69
317.607	95.69
317.836	99.69
318.065	102.69
318.295	82.69
318.524	72.69
318.753	91.69
318.983	92.69
319.212	95.69
319.441	100.69
319.67	114.69
319.9	94.69
320.129	85.69
320.358	92.69
320.587	100.69
320.816	86.69
321.046	98.69
321.275	91.69
321.504	104.69
321.733	95.69
321.962	84.69
322.191	112.69
322.42	111.69
322.649	107.69
322.878	117.69
323.108	115.69
323.337	125.69
323.566	137.69
323.795	138.69
324.024	194.69
324.253	347.69
324.482	701.69
324.71	1456.69
324.939	1886.69
325.168	674.69
325.397	219.69
325.626	148.69
325.855	124.69
326.084	118.69
326.313	134.69
326.542	143.69
326.77	208.69
326.999	386.69
327.228	830.69
327.457	1484.69
327.686	1183.69
327.914	320.69
328.143	199.69
328.372	150.69
328.6	127.69
328.829	112.69
329.058	110.69
329.287	115.69
329.515	102.69
329.744	110.69
329.972	114.69
330.201	106.69
330.43	95.69
330.658	106.69
330.887	117.69
331.115	111.69
331.344	92.69
331.572	107.69
331.801	100.69
332.03	99.69
332.258	99.69
332.486	88.69
332.715	89.69
332.943	86.69
333.172	90.69
333.4	96.69
333.629	112.69
333.857	104.69
334.085	98.69
334.314	100.69
334.542	99.69
334.771	90.69
334.999	97.69
335.227	82.69
335.455	98.69
335.684	102.69
335.912	112.69
336.14	90.69
336.369	111.69
336.597	81.69
336.825	90.69
337.053	85.69
337.281	103.69
337.51	110.69
337.738	106.69
337.966	99.69
338.194	90.69
338.422	102.69
338.65	91.69
338.878	89.69
339.106	104.69
339.334	85.69
339.562	98.69
339.79	94.69
340.018	99.69
340.246	88.69
340.474	91.69
340.702	92.69
340.93	84.69
341.158	91.69
341.386	98.69
341.614	109.69
341.842	95.69
342.07	94.69
342.298	97.69
342.526	89.69
342.754	85.69
342.981	100.69
343.209	106.69
343.437	98.69
343.665	85.69
343.893	91.69
344.12	92.69
344.348	99.69
344.576	101.69
344.804	97.69
345.031	99.69
345.259	100.69
345.487	90.69
345.714	92.69
345.942	100.69
346.17	83.69
346.397	96.69
346.625	101.69
346.853	93.69
347.08	82.69
347.308	115.69
347.535	110.69
347.763	99.69
347.99	96.69
348.218	91.69
348.445	103.69
348.673	111.69
348.9	92.69
349.128	107.69
349.355	92.69
349.583	100.69
349.81	97.69
350.037	97.69
350.265	96.69
350.492	83.69
350.72	82.69
350.947	89.69
351.174	104.69
351.402	107.69
351.629	106.69
351.856	92.69
352.083	94.69
352.311	102.69
352.538	104.69
352.765	111.69
352.992	118.69
353.22	103.69
353.447	110.69
353.674	114.69
353.901	94.69
354.128	99.69
354.355	101.69
354.583	95.69
354.81	98.69
355.037	90.69
355.264	107.69
355.491	94.69
355.718	83.69
355.945	89.69
356.172	102.69
356.399	101.69
356.626	104.69
356.853	99.69
357.08	92.69
357.307	84.69
357.534	90.69
357.761	82.69
357.988	102.69
358.215	107.69
358.441	96.69
358.668	99.69
358.895	87.69
359.122	101.69
359.349	87.69
359.576	103.69
359.802	92.69
360.029	97.69
360.256	102.69
360.483	97.69
360.709	82.69
360.936	93.69
361.163	102.69
361.39	102.69
361.616	95.69
361.843	86.69
362.07	113.69
362.296	93.69
362.523	99.69
362.749	111.69
362.976	88.69
363.203	87.69
363.429	84.69
363.656	81.69
363.882	103.69
364.109	93.69
364.335	92.69
364.562	109.69
364.788	81.69
365.015	100.69
365.241	110.69
365.468	101.69
365.694	96.69
365.92	92.69
366.147	95.69
366.373	90.69
366.599	86.69
366.826	88.69
367.052	90.69
367.278	82.69
367.505	92.69
367.731	100.69
367.957	95.69
368.184	87.69
368.41	91.69
368.636	109.69
368.862	102.69
369.089	98.69
369.315	93.69
369.541	87.69
369.767	94.69
369.993	82.69
370.219	86.69
370.445	83.69
370.672	107.69
370.898	96.69
371.124	94.69
371.35	90.69
371.576	90.69
371.802	89.69
372.028	82.69
372.254	81.69
372.48	92.69
372.706	86.69
372.932	84.69
373.158	97.69
373.384	84.69
373.61	104.69
373.835	85.69
374.061	91.69
374.287	104.69
374.513	92.69
374.739	95.69
374.965	87.69
375.191	106.69
375.416	91.69
375.642	85.69
375.868	100.69
376.094	118.69
376.319	88.69
376.545	90.69
376.771	85.69
376.997	82.69
377.222	98.69
377.448	101.69
377.674	107.69
377.899	91.69
378.125	99.69
378.35	98.69
378.576	85.69
378.802	86.69
379.027	102.69
379.253	103.69
379.478	79.69
379.704	104.69
379.929	100.69
380.155	90.69
380.38	93.69
380.606	86.69
380.831	97.69
381.057	93.69
381.282	102.69
381.507	101.69
381.733	115.69
381.958	96.69
382.184	100.69
382.409	112.69
382.634	104.69
382.86	102.69
383.085	101.69
383.31	99.69
383.535	95.69
383.761	106.69
383.986	113.69
384.211	95.69
384.436	112.69
384.662	88.69
384.887	105.69
385.112	95.69
385.337	113.69
385.562	101.69
385.787	111.69
386.013	110.69
386.238	111.69
386.463	99.69
386.688	112.69
386.913	105.69
387.138	105.69
387.363	95.69
387.588	103.69
387.813	94.69
388.038	90.69
388.263	112.69
388.488	105.69
388.713	94.69
388.938	102.69
389.163	90.69
389.387	96.69
389.612	88.69
389.837	99.69
390.062	75.69
390.287	94.69
390.512	88.69
390.736	86.69
390.961	83.69
391.186	95.69
391.411	84.69
391.636	93.69
391.86	97.69
392.085	85.69
392.31	75.69
392.534	92.69
392.759	81.69
392.984	108.69
393.208	95.69
393.433	101.69
393.658	95.69
393.882	87.69
394.107	79.69
394.331	72.69
394.556	95.69
394.78	83.69
395.005	89.69
395.229	95.69
395.454	96.69
395.678	95.69
395.903	95.69
396.127	92.69
396.352	88.69
396.576	81.69
396.801	92.69
397.025	82.69
397.249	79.69
397.474	95.69
397.698	92.69
397.922	84.69
398.147	102.69
398.371	80.69
398.595	90.69
398.82	80.69
399.044	101.69
399.268	98.69
399.492	87.69
399.717	78.69
399.941	90.69
400.165	94.69
400.389	79.69
400.613	92.69
400.837	83.69
401.062	92.69
401.286	87.69
401.51	82.69
401.734	78.69
401.958	94.69
402.182	114.69
402.406	132.69
402.63	107.69
402.854	100.69
403.078	98.69
403.302	78.69
403.526	82.69
403.75	104.69
403.974	84.69
404.198	90.69
404.422	72.69
404.645	85.69
404.869	89.69
405.093	96.69
405.317	102.69
405.541	93.69
405.765	96.69
405.988	115.69
406.212	160.69
406.436	199.69
406.66	124.69
406.883	95.69
407.107	88.69
407.331	96.69
407.555	104.69
407.778	92.69
408.002	79.69
408.226	78.69
408.449	94.69
408.673	96.69
408.896	95.69
409.12	96.69
409.344	102.69
409.567	91.69
409.791	90.69
410.014	90.69
410.238	97.69
410.461	102.69
410.685	94.69
410.908	105.69
411.132	109.69
411.355	102.69
411.578	84.69
411.802	86.69
412.025	92.69
412.249	94.69
412.472	81.69
412.695	86.69
412.919	91.69
413.142	87.69
413.365	83.69
413.589	90.69
413.812	96.69
414.035	87.69
414.258	93.69
414.482	89.69
414.705	93.69
414.928	90.69
415.151	100.69
415.374	100.69
415.597	98.69
415.821	88.69
416.044	94.69
416.267	87.69
416.49	89.69
416.713	82.69
416.936	105.69
417.159	89.69
417.382	86.69
417.605	102.69
417.828	94.69
418.051	90.69
418.274	94.69
418.497	82.69
418.72	90.69
418.943	78.69
419.166	81.69
419.389	82.69
419.611	93.69
419.834	79.69
420.057	75.69
420.28	95.69
420.503	82.69
420.726	90.69
420.948	97.69
421.171	98.69
421.394	111.69
421.617	106.69
421.839	94.69
422.062	89.69
422.285	80.69
422.507	103.69
422.73	98.69
422.953	97.69
423.175	84.69
423.398	100.69
423.621	86.69
423.843	75.69
424.066	82.69
424.288	89.69
424.511	91.69
424.733	96.69
424.956	115.69
425.178	96.69
425.401	88.69
425.623	96.69
425.846	89.69
426.068	86.69
426.291	94.69
426.513	84.69
426.735	88.69
426.958	93.69
427.18	99.69
427.402	121.69
427.625	135.69
427.847	103.69
428.069	99.69
428.292	86.69
428.514	90.69
428.736	93.69
428.958	89.69
429.181	67.69
429.403	84.69
429.625	85.69
429.847	95.69
430.069	99.69
430.292	91.69
430.514	80.69
430.736	87.69
430.958	92.69
431.18	80.69
431.402	83.69
431.624	89.69
431.846	78.69
432.068	85.69
432.29	81.69
432.512	112.69
432.734	90.69
432.956	87.69
433.178	102.69
433.4	103.69
433.622	94.69
433.844	90.69
434.066	83.69
434.287	84.69
434.509	105.69
434.731	90.69
434.953	74.69
435.175	67.69
435.397	82.69
435.618	75.69
435.84	89.69
436.062	108.69
436.284	98.69
436.505	87.69
436.727	104.69
436.949	101.69
437.17	104.69
437.392	83.69
437.614	84.69
437.835	98.69
438.057	112.69
438.278	104.69
438.5	94.69
438.721	112.69
438.943	103.69
439.165	107.69
439.386	91.69
439.608	82.69
439.829	102.69
440.05	129.69
440.272	121.69
440.493	106.69
440.715	74.69
440.936	88.69
441.158	80.69
441.379	97.69
441.6	90.69
441.822	82.69
442.043	104.69
442.264	106.69
442.486	100.69
442.707	104.69
442.928	105.69
443.149	116.69
443.371	116.69
443.592	103.69
443.813	103.69
444.034	111.69
444.255	97.69
444.476	99.69
444.698	92.69
444.919	88.69
445.14	122.69
445.361	119.69
445.582	116.69
445.803	120.69
446.024	127.69
446.245	124.69
446.466	107.69
446.687	95.69
446.908	81.69
447.129	86.69
447.35	90.69
447.571	90.69
447.792	98.69
448.013	110.69
448.234	97.69
448.455	104.69
448.675	111.69
448.896	109.69
449.117	88.69
449.338	104.69
449.559	127.69
449.779	111.69
450	97.69
450.221	96.69
450.442	86.69
450.662	86.69
450.883	97.69
451.104	86.69
451.324	84.69
451.545	88.69
451.766	89.69
451.986	95.69
452.207	98.69
452.428	97.69
452.648	93.69
452.869	108.69
453.089	113.69
453.31	111.69
453.53	98.69
453.751	76.69
453.971	102.69
454.192	101.69
454.412	96.69
454.633	104.69
454.853	83.69
455.073	82.69
455.294	84.69
455.514	94.69
455.734	94.69
455.955	85.69
456.175	101.69
456.395	87.69
456.616	86.69
456.836	87.69
457.056	89.69
457.276	79.69
457.497	83.69
457.717	81.69
457.937	75.69
458.157	91.69
458.377	82.69
458.598	94.69
458.818	126.69
459.038	148.69
459.258	105.69
459.478	97.69
459.698	95.69
459.918	88.69
460.138	92.69
460.358	81.69
460.578	74.69
460.798	91.69
461.018	82.69
461.238	81.69
461.458	76.69
461.678	87.69
461.898	79.69
462.118	84.69
462.338	88.69
462.558	78.69
462.777	105.69
462.997	84.69
463.217	91.69
463.437	91.69
463.657	95.69
463.876	90.69
464.096	82.69
464.316	93.69
464.536	97.69
464.755	100.69
464.975	106.69
465.195	141.69
465.414	131.69
465.634	87.69
465.854	82.69
466.073	87.69
466.293	101.69
466.512	101.69
466.732	91.69
466.951	103.69
467.171	82.69
467.391	88.69
467.61	103.69
467.829	94.69
468.049	90.69
468.268	91.69
468.488	73.69
468.707	91.69
468.927	75.69
469.146	94.69
469.365	89.69
469.585	96.69
469.804	94.69
470.023	94.69
470.243	98.69
470.462	96.69
470.681	109.69
470.901	86.69
471.12	79.69
471.339	83.69
471.558	78.69
471.777	82.69
471.997	86.69
472.216	99.69
472.435	97.69
472.654	83.69
472.873	82.69
473.092	80.69
473.311	88.69
473.53	80.69
473.749	85.69
473.968	89.69
474.187	97.69
474.406	82.69
474.625	94.69
474.844	103.69
475.063	86.69
475.282	78.69
475.501	96.69
475.72	86.69
475.939	84.69
476.158	94.69
476.377	89.69
476.596	94.69
476.814	81.69
477.033	87.69
477.252	93.69
477.471	81.69
477.69	89.69
477.908	69.69
478.127	87.69
478.346	90.69
478.564	89.69
478.783	86.69
479.002	82.69
479.22	101.69
479.439	101.69
479.658	99.69
479.876	95.69
480.095	83.69
480.313	88.69
480.532	94.69
480.751	98.69
480.969	94.69
481.188	98.69
481.406	96.69
481.624	78.69
481.843	74.69
482.061	96.69
482.28	84.69
482.498	96.69
482.717	80.69
482.935	91.69
483.153	93.69
483.372	93.69
483.59	99.69
483.808	87.69
484.027	96.69
484.245	96.69
484.463	80.69
484.681	90.69
484.9	94.69
485.118	98.69
485.336	96.69
485.554	88.69
485.772	81.69
485.99	94.69
486.209	102.69
486.427	109.69
486.645	105.69
486.863	102.69
487.081	100.69
487.299	94.69
487.517	98.69
487.735	94.69
487.953	97.69
488.171	105.69
488.389	96.69
488.607	96.69
488.825	101.69
489.043	99.69
489.261	101.69
489.479	92.69
489.696	86.69
489.914	74.69
490.132	100.69
490.35	96.69
490.568	97.69
490.786	94.69
491.003	103.69
491.221	103.69
491.439	79.69
491.657	90.69
491.874	97.69
492.092	94.69
492.31	80.69
492.527	100.69
492.745	94.69
492.963	90.69
493.18	95.69
493.398	92.69
493.615	93.69
493.833	94.69
494.05	76.69
494.268	90.69
494.485	90.69
494.703	91.69
494.92	85.69
495.138	102.69
495.355	105.69
495.573	82.69
495.79	91.69
496.008	101.69
496.225	101.69
496.442	97.69
496.66	98.69
496.877	71.69
497.094	82.69
497.312	92.69
497.529	97.69
497.746	91.69
497.963	91.69
498.181	94.69
498.398	96.69
498.615	115.69
498.832	100.69
499.049	87.69
499.267	97.69
499.484	88.69
499.701	112.69
499.918	95.69
500.135	95.69
500.352	108.69
500.569	97.69
500.786	90.69
501.003	80.69
501.22	90.69
501.437	88.69
501.654	93.69
501.871	111.69
502.088	94.69
502.305	101.69
502.522	96.69
502.739	94.69
502.956	70.69
503.172	87.69
503.389	90.69
503.606	87.69
503.823	98.69
504.04	92.69
504.256	89.69
504.473	76.69
504.69	82.69
504.907	94.69
505.123	90.69
505.34	89.69
505.557	82.69
505.773	88.69
505.99	102.69
506.207	100.69
506.423	97.69
506.64	94.69
506.856	83.69
507.073	83.69
507.289	89.69
507.506	101.69
507.722	113.69
507.939	100.69
508.155	91.69
508.372	86.69
508.588	100.69
508.805	106.69
509.021	91.69
509.238	96.69
509.454	96.69
509.67	102.69
509.887	100.69
510.103	131.69
510.319	201.69
510.536	666.69
510.752	1950.69
510.968	539.69
511.184	150.69
511.401	103.69
511.617	96.69
511.833	99.69
512.049	96.69
512.265	88.69
512.481	76.69
512.698	80.69
512.914	87.69
513.13	84.69
513.346	106.69
513.562	91.69
513.778	93.69
513.994	100.69
514.21	105.69
514.426	112.69
514.642	117.69
514.858	121.69
515.074	142.69
515.29	387.69
