Data from Uncirc_1987_H10_HRD10591_00030.txt Node
Date: Wed Jan 03 12:08:54 EST 2024
User: Yrep
Spectrometer: HR+D1059
Trigger mode: 1
Integration Time (sec): 1.000000E-1
Scans to average: 1
Electric dark correction enabled: true
Nonlinearity correction enabled: false
Boxcar width: 0
XAxis mode: Wavelengths
Number of Pixels in Spectrum: 2048
>>>>>Begin Spectral Data<<<<<
223.165	-10.81
223.4	-10.81
223.635	-10.81
223.869	-9.81
224.104	-25.81
224.338	-0.81
224.573	-20.81
224.808	-14.81
225.042	-3.81
225.277	-11.81
225.511	12.19
225.746	0.19
225.98	8.19
226.215	6.19
226.449	21.19
226.683	26.19
226.918	5.19
227.152	19.19
227.387	25.19
227.621	32.19
227.856	57.19
228.09	52.19
228.324	52.19
228.559	60.19
228.793	65.19
229.027	69.19
229.262	56.19
229.496	73.19
229.73	85.19
229.964	98.19
230.199	70.19
230.433	85.19
230.667	79.19
230.901	75.19
231.136	73.19
231.37	80.19
231.604	69.19
231.838	94.19
232.072	79.19
232.306	70.19
232.541	85.19
232.775	69.19
233.009	76.19
233.243	87.19
233.477	86.19
233.711	91.19
233.945	84.19
234.179	85.19
234.413	75.19
234.647	73.19
234.881	78.19
235.115	81.19
235.349	81.19
235.583	74.19
235.817	87.19
236.051	76.19
236.285	84.19
236.519	75.19
236.753	69.19
236.987	99.19
237.221	101.19
237.455	90.19
237.689	94.19
237.922	78.19
238.156	79.19
238.39	96.19
238.624	68.19
238.858	83.19
239.091	79.19
239.325	76.19
239.559	87.19
239.793	92.19
240.027	75.19
240.26	72.19
240.494	85.19
240.728	81.19
240.961	83.19
241.195	81.19
241.429	87.19
241.662	78.19
241.896	83.19
242.13	87.19
242.363	90.19
242.597	76.19
242.83	76.19
243.064	93.19
243.298	90.19
243.531	91.19
243.765	91.19
243.998	91.19
244.232	86.19
244.465	93.19
244.699	71.19
244.932	79.19
245.166	91.19
245.399	92.19
245.633	75.19
245.866	85.19
246.099	96.19
246.333	87.19
246.566	78.19
246.8	79.19
247.033	78.19
247.266	80.19
247.5	83.19
247.733	89.19
247.966	95.19
248.2	89.19
248.433	91.19
248.666	80.19
248.899	79.19
249.133	89.19
249.366	89.19
249.599	113.19
249.832	78.19
250.066	91.19
250.299	94.19
250.532	78.19
250.765	76.19
250.998	77.19
251.231	81.19
251.465	93.19
251.698	90.19
251.931	92.19
252.164	90.19
252.397	88.19
252.63	96.19
252.863	78.19
253.096	87.19
253.329	88.19
253.562	81.19
253.795	80.19
254.028	91.19
254.261	73.19
254.494	76.19
254.727	91.19
254.96	94.19
255.193	75.19
255.426	84.19
255.659	89.19
255.892	89.19
256.124	89.19
256.357	84.19
256.59	83.19
256.823	97.19
257.056	75.19
257.289	86.19
257.521	85.19
257.754	86.19
257.987	79.19
258.22	93.19
258.452	87.19
258.685	79.19
258.918	87.19
259.151	87.19
259.383	97.19
259.616	96.19
259.849	91.19
260.081	90.19
260.314	97.19
260.547	87.19
260.779	86.19
261.012	89.19
261.244	91.19
261.477	88.19
261.71	99.19
261.942	107.19
262.175	112.19
262.407	88.19
262.64	94.19
262.872	88.19
263.105	88.19
263.337	86.19
263.57	93.19
263.802	76.19
264.035	77.19
264.267	78.19
264.499	85.19
264.732	87.19
264.964	91.19
265.197	94.19
265.429	84.19
265.661	87.19
265.894	94.19
266.126	96.19
266.358	90.19
266.591	81.19
266.823	92.19
267.055	67.19
267.287	91.19
267.52	78.19
267.752	88.19
267.984	94.19
268.216	87.19
268.448	94.19
268.681	77.19
268.913	96.19
269.145	90.19
269.377	109.19
269.609	78.19
269.841	83.19
270.073	89.19
270.306	90.19
270.538	101.19
270.77	85.19
271.002	77.19
271.234	79.19
271.466	88.19
271.698	92.19
271.93	103.19
272.162	99.19
272.394	87.19
272.626	97.19
272.858	88.19
273.09	90.19
273.322	83.19
273.553	87.19
273.785	79.19
274.017	89.19
274.249	85.19
274.481	77.19
274.713	91.19
274.945	90.19
275.176	72.19
275.408	90.19
275.64	90.19
275.872	94.19
276.104	101.19
276.335	89.19
276.567	109.19
276.799	95.19
277.031	99.19
277.262	93.19
277.494	85.19
277.726	87.19
277.957	85.19
278.189	96.19
278.421	90.19
278.652	77.19
278.884	91.19
279.115	91.19
279.347	89.19
279.579	96.19
279.81	93.19
280.042	93.19
280.273	90.19
280.505	81.19
280.736	72.19
280.968	86.19
281.199	96.19
281.431	96.19
281.662	88.19
281.894	100.19
282.125	107.19
282.356	119.19
282.588	115.19
282.819	119.19
283.051	91.19
283.282	95.19
283.513	95.19
283.745	96.19
283.976	94.19
284.207	99.19
284.439	99.19
284.67	94.19
284.901	109.19
285.132	107.19
285.364	75.19
285.595	91.19
285.826	79.19
286.057	93.19
286.288	95.19
286.52	82.19
286.751	99.19
286.982	96.19
287.213	104.19
287.444	94.19
287.675	87.19
287.906	89.19
288.138	105.19
288.369	109.19
288.6	103.19
288.831	87.19
289.062	89.19
289.293	82.19
289.524	87.19
289.755	93.19
289.986	90.19
290.217	84.19
290.448	92.19
290.679	83.19
290.91	103.19
291.141	103.19
291.371	92.19
291.602	95.19
291.833	101.19
292.064	87.19
292.295	98.19
292.526	96.19
292.757	81.19
292.987	89.19
293.218	87.19
293.449	105.19
293.68	93.19
293.91	89.19
294.141	108.19
294.372	103.19
294.603	99.19
294.833	89.19
295.064	90.19
295.295	89.19
295.525	102.19
295.756	103.19
295.987	109.19
296.217	121.19
296.448	137.19
296.679	95.19
296.909	97.19
297.14	96.19
297.37	102.19
297.601	93.19
297.831	92.19
298.062	93.19
298.292	97.19
298.523	92.19
298.753	104.19
298.984	99.19
299.214	96.19
299.445	91.19
299.675	103.19
299.905	102.19
300.136	97.19
300.366	100.19
300.597	97.19
300.827	112.19
301.057	104.19
301.288	107.19
301.518	100.19
301.748	96.19
301.979	95.19
302.209	91.19
302.439	86.19
302.669	95.19
302.9	94.19
303.13	99.19
303.36	89.19
303.59	102.19
303.82	101.19
304.051	87.19
304.281	97.19
304.511	97.19
304.741	91.19
304.971	80.19
305.201	90.19
305.431	91.19
305.661	88.19
305.891	103.19
306.121	111.19
306.352	120.19
306.582	107.19
306.812	105.19
307.042	109.19
307.272	105.19
307.502	87.19
307.731	104.19
307.961	95.19
308.191	87.19
308.421	110.19
308.651	89.19
308.881	89.19
309.111	84.19
309.341	95.19
309.571	97.19
309.8	112.19
310.03	100.19
310.26	88.19
310.49	97.19
310.72	110.19
310.949	110.19
311.179	98.19
311.409	104.19
311.639	100.19
311.868	99.19
312.098	113.19
312.328	91.19
312.557	108.19
312.787	103.19
313.017	108.19
313.246	88.19
313.476	98.19
313.706	109.19
313.935	109.19
314.165	101.19
314.394	114.19
314.624	102.19
314.853	107.19
315.083	108.19
315.312	81.19
315.542	106.19
315.771	108.19
316.001	95.19
316.23	91.19
316.46	100.19
316.689	97.19
316.919	101.19
317.148	113.19
317.377	89.19
317.607	101.19
317.836	89.19
318.065	105.19
318.295	86.19
318.524	84.19
318.753	100.19
318.983	100.19
319.212	99.19
319.441	113.19
319.67	108.19
319.9	107.19
320.129	109.19
320.358	100.19
320.587	104.19
320.816	94.19
321.046	109.19
321.275	105.19
321.504	100.19
321.733	79.19
321.962	101.19
322.191	93.19
322.42	106.19
322.649	103.19
322.878	105.19
323.108	104.19
323.337	123.19
323.566	135.19
323.795	147.19
324.024	186.19
324.253	345.19
324.482	733.19
324.71	1487.19
324.939	1984.19
325.168	720.19
325.397	218.19
325.626	149.19
325.855	118.19
326.084	131.19
326.313	137.19
326.542	144.19
326.77	215.19
326.999	408.19
327.228	839.19
327.457	1540.19
327.686	1216.19
327.914	333.19
328.143	188.19
328.372	139.19
328.6	123.19
328.829	115.19
329.058	113.19
329.287	126.19
329.515	123.19
329.744	95.19
329.972	104.19
330.201	103.19
330.43	115.19
330.658	110.19
330.887	138.19
331.115	110.19
331.344	117.19
331.572	100.19
331.801	100.19
332.03	110.19
332.258	108.19
332.486	103.19
332.715	93.19
332.943	104.19
333.172	103.19
333.4	90.19
333.629	91.19
333.857	113.19
334.085	109.19
334.314	88.19
334.542	87.19
334.771	96.19
334.999	102.19
335.227	105.19
335.455	87.19
335.684	98.19
335.912	103.19
336.14	100.19
336.369	96.19
336.597	113.19
336.825	98.19
337.053	80.19
337.281	100.19
337.51	105.19
337.738	96.19
337.966	95.19
338.194	105.19
338.422	96.19
338.65	105.19
338.878	94.19
339.106	88.19
339.334	108.19
339.562	92.19
339.79	97.19
340.018	86.19
340.246	88.19
340.474	91.19
340.702	95.19
340.93	77.19
341.158	85.19
341.386	84.19
341.614	94.19
341.842	101.19
342.07	97.19
342.298	96.19
342.526	100.19
342.754	94.19
342.981	97.19
343.209	89.19
343.437	110.19
343.665	87.19
343.893	99.19
344.12	97.19
344.348	93.19
344.576	105.19
344.804	105.19
345.031	115.19
345.259	105.19
345.487	95.19
345.714	89.19
345.942	101.19
346.17	101.19
346.397	93.19
346.625	104.19
346.853	93.19
347.08	94.19
347.308	107.19
347.535	108.19
347.763	106.19
347.99	110.19
348.218	95.19
348.445	102.19
348.673	107.19
348.9	105.19
349.128	110.19
349.355	96.19
349.583	91.19
349.81	95.19
350.037	107.19
350.265	103.19
350.492	100.19
350.72	99.19
350.947	102.19
351.174	101.19
351.402	106.19
351.629	117.19
351.856	117.19
352.083	98.19
352.311	96.19
352.538	106.19
352.765	99.19
352.992	101.19
353.22	114.19
353.447	110.19
353.674	111.19
353.901	128.19
354.128	104.19
354.355	101.19
354.583	116.19
354.81	111.19
355.037	95.19
355.264	92.19
355.491	93.19
355.718	97.19
355.945	96.19
356.172	105.19
356.399	99.19
356.626	97.19
356.853	95.19
357.08	97.19
357.307	98.19
357.534	105.19
357.761	106.19
357.988	98.19
358.215	91.19
358.441	99.19
358.668	80.19
358.895	106.19
359.122	76.19
359.349	87.19
359.576	95.19
359.802	100.19
360.029	109.19
360.256	103.19
360.483	93.19
360.709	96.19
360.936	99.19
361.163	101.19
361.39	101.19
361.616	102.19
361.843	96.19
362.07	107.19
362.296	102.19
362.523	92.19
362.749	105.19
362.976	91.19
363.203	97.19
363.429	86.19
363.656	77.19
363.882	79.19
364.109	96.19
364.335	93.19
364.562	109.19
364.788	108.19
365.015	105.19
365.241	108.19
365.468	108.19
365.694	96.19
365.92	107.19
366.147	110.19
366.373	95.19
366.599	104.19
366.826	89.19
367.052	102.19
367.278	100.19
367.505	90.19
367.731	109.19
367.957	103.19
368.184	103.19
368.41	99.19
368.636	110.19
368.862	112.19
369.089	105.19
369.315	100.19
369.541	95.19
369.767	93.19
369.993	86.19
370.219	106.19
370.445	99.19
370.672	91.19
370.898	101.19
371.124	111.19
371.35	104.19
371.576	95.19
371.802	92.19
372.028	96.19
372.254	99.19
372.48	83.19
372.706	99.19
372.932	86.19
373.158	111.19
373.384	101.19
373.61	88.19
373.835	103.19
374.061	77.19
374.287	100.19
374.513	94.19
374.739	102.19
374.965	87.19
375.191	97.19
375.416	89.19
375.642	89.19
375.868	105.19
376.094	88.19
376.319	97.19
376.545	91.19
376.771	99.19
376.997	86.19
377.222	95.19
377.448	108.19
377.674	103.19
377.899	91.19
378.125	88.19
378.35	104.19
378.576	99.19
378.802	96.19
379.027	91.19
379.253	107.19
379.478	95.19
379.704	95.19
379.929	82.19
380.155	91.19
380.38	105.19
380.606	101.19
380.831	117.19
381.057	108.19
381.282	92.19
381.507	106.19
381.733	83.19
381.958	95.19
382.184	107.19
382.409	112.19
382.634	110.19
382.86	112.19
383.085	111.19
383.31	104.19
383.535	104.19
383.761	105.19
383.986	115.19
384.211	95.19
384.436	106.19
384.662	105.19
384.887	105.19
385.112	101.19
385.337	121.19
385.562	111.19
385.787	107.19
386.013	103.19
386.238	129.19
386.463	110.19
386.688	101.19
386.913	109.19
387.138	124.19
387.363	108.19
387.588	107.19
387.813	96.19
388.038	108.19
388.263	104.19
388.488	105.19
388.713	87.19
388.938	99.19
389.163	103.19
389.387	105.19
389.612	91.19
389.837	96.19
390.062	104.19
390.287	105.19
390.512	103.19
390.736	95.19
390.961	103.19
391.186	92.19
391.411	103.19
391.636	105.19
391.86	81.19
392.085	88.19
392.31	99.19
392.534	115.19
392.759	83.19
392.984	110.19
393.208	110.19
393.433	103.19
393.658	88.19
393.882	101.19
394.107	94.19
394.331	91.19
394.556	103.19
394.78	89.19
395.005	95.19
395.229	84.19
395.454	103.19
395.678	102.19
395.903	86.19
396.127	97.19
396.352	97.19
396.576	97.19
396.801	85.19
397.025	93.19
397.249	91.19
397.474	88.19
397.698	91.19
397.922	88.19
398.147	88.19
398.371	92.19
398.595	102.19
398.82	92.19
399.044	93.19
399.268	89.19
399.492	103.19
399.717	99.19
399.941	107.19
400.165	97.19
400.389	101.19
400.613	89.19
400.837	106.19
401.062	101.19
401.286	95.19
401.51	105.19
401.734	77.19
401.958	106.19
402.182	112.19
402.406	135.19
402.63	111.19
402.854	89.19
403.078	103.19
403.302	111.19
403.526	87.19
403.75	95.19
403.974	98.19
404.198	101.19
404.422	104.19
404.645	99.19
404.869	94.19
405.093	99.19
405.317	107.19
405.541	108.19
405.765	114.19
405.988	120.19
406.212	161.19
406.436	224.19
406.66	121.19
406.883	93.19
407.107	100.19
407.331	113.19
407.555	93.19
407.778	94.19
408.002	94.19
408.226	104.19
408.449	103.19
408.673	87.19
408.896	99.19
409.12	103.19
409.344	87.19
409.567	88.19
409.791	102.19
410.014	104.19
410.238	100.19
410.461	81.19
410.685	91.19
410.908	101.19
411.132	107.19
411.355	104.19
411.578	90.19
411.802	76.19
412.025	89.19
412.249	93.19
412.472	103.19
412.695	100.19
412.919	92.19
413.142	85.19
413.365	106.19
413.589	94.19
413.812	108.19
414.035	102.19
414.258	87.19
414.482	94.19
414.705	86.19
414.928	96.19
415.151	92.19
415.374	100.19
415.597	85.19
415.821	92.19
416.044	89.19
416.267	107.19
416.49	102.19
416.713	87.19
416.936	103.19
417.159	92.19
417.382	87.19
417.605	93.19
417.828	95.19
418.051	101.19
418.274	104.19
418.497	97.19
418.72	87.19
418.943	85.19
419.166	84.19
419.389	95.19
419.611	89.19
419.834	93.19
420.057	100.19
420.28	100.19
420.503	105.19
420.726	83.19
420.948	93.19
421.171	95.19
421.394	95.19
421.617	94.19
421.839	99.19
422.062	99.19
422.285	102.19
422.507	105.19
422.73	109.19
422.953	97.19
423.175	92.19
423.398	96.19
423.621	79.19
423.843	101.19
424.066	79.19
424.288	87.19
424.511	96.19
424.733	101.19
424.956	99.19
425.178	100.19
425.401	114.19
425.623	110.19
425.846	102.19
426.068	117.19
426.291	83.19
426.513	96.19
426.735	99.19
426.958	102.19
427.18	94.19
427.402	139.19
427.625	170.19
427.847	119.19
428.069	114.19
428.292	108.19
428.514	97.19
428.736	92.19
428.958	90.19
429.181	105.19
429.403	83.19
429.625	85.19
429.847	80.19
430.069	113.19
430.292	95.19
430.514	95.19
430.736	97.19
430.958	88.19
431.18	80.19
431.402	91.19
431.624	85.19
431.846	97.19
432.068	91.19
432.29	90.19
432.512	80.19
432.734	96.19
432.956	101.19
433.178	114.19
433.4	109.19
433.622	94.19
433.844	97.19
434.066	91.19
434.287	94.19
434.509	103.19
434.731	78.19
434.953	98.19
435.175	86.19
435.397	92.19
435.618	96.19
435.84	103.19
436.062	128.19
436.284	110.19
436.505	98.19
436.727	118.19
436.949	93.19
437.17	101.19
437.392	91.19
437.614	95.19
437.835	88.19
438.057	123.19
438.278	117.19
438.5	122.19
438.721	123.19
438.943	110.19
439.165	105.19
439.386	88.19
439.608	99.19
439.829	94.19
440.05	116.19
440.272	131.19
440.493	118.19
440.715	96.19
440.936	104.19
441.158	95.19
441.379	98.19
441.6	96.19
441.822	92.19
442.043	111.19
442.264	108.19
442.486	105.19
442.707	105.19
442.928	115.19
443.149	117.19
443.371	122.19
443.592	122.19
443.813	105.19
444.034	100.19
444.255	97.19
444.476	89.19
444.698	79.19
444.919	89.19
445.14	133.19
445.361	127.19
445.582	123.19
445.803	124.19
446.024	127.19
446.245	117.19
446.466	118.19
446.687	88.19
446.908	89.19
447.129	86.19
447.35	110.19
447.571	90.19
447.792	97.19
448.013	104.19
448.234	108.19
448.455	107.19
448.675	104.19
448.896	121.19
449.117	109.19
449.338	108.19
449.559	130.19
449.779	136.19
450	94.19
450.221	80.19
450.442	81.19
450.662	97.19
450.883	106.19
451.104	117.19
451.324	97.19
451.545	105.19
451.766	98.19
451.986	87.19
452.207	91.19
452.428	123.19
452.648	75.19
452.869	101.19
453.089	112.19
453.31	114.19
453.53	93.19
453.751	105.19
453.971	96.19
454.192	108.19
454.412	92.19
454.633	79.19
454.853	99.19
455.073	84.19
455.294	85.19
455.514	106.19
455.734	103.19
455.955	102.19
456.175	101.19
456.395	85.19
456.616	86.19
456.836	85.19
457.056	91.19
457.276	81.19
457.497	89.19
457.717	103.19
457.937	75.19
458.157	89.19
458.377	91.19
458.598	111.19
458.818	147.19
459.038	143.19
459.258	120.19
459.478	105.19
459.698	97.19
459.918	107.19
460.138	98.19
460.358	84.19
460.578	94.19
460.798	84.19
461.018	91.19
461.238	93.19
461.458	94.19
461.678	80.19
461.898	96.19
462.118	85.19
462.338	74.19
462.558	86.19
462.777	107.19
462.997	97.19
463.217	104.19
463.437	94.19
463.657	95.19
463.876	76.19
464.096	85.19
464.316	102.19
464.536	99.19
464.755	97.19
464.975	113.19
465.195	143.19
465.414	131.19
465.634	110.19
465.854	97.19
466.073	82.19
466.293	99.19
466.512	94.19
466.732	101.19
466.951	93.19
467.171	91.19
467.391	105.19
467.61	109.19
467.829	99.19
468.049	89.19
468.268	96.19
468.488	79.19
468.707	88.19
468.927	82.19
469.146	91.19
469.365	103.19
469.585	84.19
469.804	94.19
470.023	109.19
470.243	95.19
470.462	109.19
470.681	105.19
470.901	93.19
471.12	103.19
471.339	93.19
471.558	96.19
471.777	91.19
471.997	99.19
472.216	98.19
472.435	112.19
472.654	80.19
472.873	104.19
473.092	113.19
473.311	86.19
473.53	98.19
473.749	90.19
473.968	99.19
474.187	104.19
474.406	83.19
474.625	95.19
474.844	92.19
475.063	93.19
475.282	94.19
475.501	92.19
475.72	97.19
475.939	94.19
476.158	91.19
476.377	76.19
476.596	89.19
476.814	112.19
477.033	110.19
477.252	94.19
477.471	88.19
477.69	85.19
477.908	100.19
478.127	75.19
478.346	99.19
478.564	97.19
478.783	96.19
479.002	95.19
479.22	101.19
479.439	98.19
479.658	110.19
479.876	92.19
480.095	93.19
480.313	106.19
480.532	103.19
480.751	85.19
480.969	99.19
481.188	110.19
481.406	103.19
481.624	96.19
481.843	87.19
482.061	94.19
482.28	104.19
482.498	106.19
482.717	93.19
482.935	92.19
483.153	87.19
483.372	101.19
483.59	100.19
483.808	89.19
484.027	95.19
484.245	99.19
484.463	97.19
484.681	109.19
484.9	107.19
485.118	97.19
485.336	92.19
485.554	107.19
485.772	102.19
485.99	114.19
486.209	109.19
486.427	100.19
486.645	114.19
486.863	116.19
487.081	107.19
487.299	92.19
487.517	99.19
487.735	96.19
487.953	112.19
488.171	84.19
488.389	106.19
488.607	106.19
488.825	95.19
489.043	93.19
489.261	102.19
489.479	106.19
489.696	88.19
489.914	84.19
490.132	101.19
490.35	106.19
490.568	104.19
490.786	91.19
491.003	90.19
491.221	91.19
491.439	111.19
491.657	95.19
491.874	107.19
492.092	91.19
492.31	106.19
492.527	86.19
492.745	98.19
492.963	98.19
493.18	101.19
493.398	108.19
493.615	106.19
493.833	107.19
494.05	98.19
494.268	101.19
494.485	93.19
494.703	106.19
494.92	96.19
495.138	95.19
495.355	91.19
495.573	104.19
495.79	86.19
496.008	103.19
496.225	89.19
496.442	110.19
496.66	88.19
496.877	91.19
497.094	89.19
497.312	81.19
497.529	80.19
497.746	108.19
497.963	101.19
498.181	109.19
498.398	103.19
498.615	102.19
498.832	106.19
499.049	96.19
499.267	104.19
499.484	105.19
499.701	94.19
499.918	104.19
500.135	88.19
500.352	100.19
500.569	87.19
500.786	104.19
501.003	97.19
501.22	90.19
501.437	87.19
501.654	87.19
501.871	100.19
502.088	80.19
502.305	99.19
502.522	101.19
502.739	99.19
502.956	87.19
503.172	87.19
503.389	111.19
503.606	104.19
503.823	93.19
504.04	106.19
504.256	94.19
504.473	86.19
504.69	98.19
504.907	96.19
505.123	93.19
505.34	100.19
505.557	103.19
505.773	95.19
505.99	100.19
506.207	97.19
506.423	99.19
506.64	101.19
506.856	97.19
507.073	93.19
507.289	104.19
507.506	105.19
507.722	86.19
507.939	114.19
508.155	120.19
508.372	103.19
508.588	97.19
508.805	98.19
509.021	102.19
509.238	101.19
509.454	106.19
509.67	98.19
509.887	101.19
510.103	128.19
510.319	178.19
510.536	641.19
510.752	1909.19
510.968	531.19
511.184	134.19
511.401	104.19
511.617	112.19
511.833	96.19
512.049	104.19
512.265	96.19
512.481	109.19
512.698	99.19
512.914	84.19
