Data from Uncirc_1987_H10_HRD10591_00041.txt Node
Date: Wed Jan 03 12:08:56 EST 2024
User: Yrep
Spectrometer: HR+D1059
Trigger mode: 1
Integration Time (sec): 1.000000E-1
Scans to average: 1
Electric dark correction enabled: true
Nonlinearity correction enabled: false
Boxcar width: 0
XAxis mode: Wavelengths
Number of Pixels in Spectrum: 2048
>>>>>Begin Spectral Data<<<<<
223.165	-19.19
223.4	-19.19
223.635	-19.19
223.869	-24.19
224.104	-21.19
224.338	-7.19
224.573	-19.19
224.808	-15.19
225.042	-1.19
225.277	1.81
225.511	-1.19
225.746	1.81
225.98	4.81
226.215	-0.19
226.449	21.81
226.683	21.81
226.918	23.81
227.152	32.81
227.387	46.81
227.621	25.81
227.856	32.81
228.09	26.81
228.324	55.81
228.559	56.81
228.793	64.81
229.027	63.81
229.262	73.81
229.496	78.81
229.73	89.81
229.964	91.81
230.199	65.81
230.433	76.81
230.667	83.81
230.901	73.81
231.136	90.81
231.37	84.81
231.604	84.81
231.838	73.81
232.072	76.81
232.306	79.81
232.541	84.81
232.775	72.81
233.009	83.81
233.243	74.81
233.477	79.81
233.711	72.81
233.945	86.81
234.179	80.81
234.413	79.81
234.647	83.81
234.881	87.81
235.115	91.81
235.349	83.81
235.583	79.81
235.817	83.81
236.051	78.81
236.285	83.81
236.519	88.81
236.753	80.81
236.987	95.81
237.221	74.81
237.455	84.81
237.689	71.81
237.922	94.81
238.156	76.81
238.39	86.81
238.624	75.81
238.858	67.81
239.091	81.81
239.325	88.81
239.559	82.81
239.793	91.81
240.027	78.81
240.26	73.81
240.494	89.81
240.728	80.81
240.961	70.81
241.195	68.81
241.429	87.81
241.662	60.81
241.896	84.81
242.13	84.81
242.363	84.81
242.597	85.81
242.83	65.81
243.064	82.81
243.298	83.81
243.531	91.81
243.765	66.81
243.998	78.81
244.232	73.81
244.465	83.81
244.699	75.81
244.932	85.81
245.166	82.81
245.399	84.81
245.633	79.81
245.866	76.81
246.099	84.81
246.333	78.81
246.566	79.81
246.8	88.81
247.033	81.81
247.266	79.81
247.5	78.81
247.733	72.81
247.966	89.81
248.2	87.81
248.433	76.81
248.666	63.81
248.899	92.81
249.133	84.81
249.366	100.81
249.599	104.81
249.832	92.81
250.066	87.81
250.299	85.81
250.532	75.81
250.765	73.81
250.998	89.81
251.231	84.81
251.465	82.81
251.698	86.81
251.931	80.81
252.164	83.81
252.397	69.81
252.63	80.81
252.863	73.81
253.096	93.81
253.329	84.81
253.562	74.81
253.795	76.81
254.028	90.81
254.261	80.81
254.494	82.81
254.727	82.81
254.96	70.81
255.193	83.81
255.426	92.81
255.659	74.81
255.892	88.81
256.124	92.81
256.357	87.81
256.59	79.81
256.823	86.81
257.056	90.81
257.289	81.81
257.521	75.81
257.754	82.81
257.987	92.81
258.22	92.81
258.452	80.81
258.685	82.81
258.918	83.81
259.151	83.81
259.383	76.81
259.616	80.81
259.849	88.81
260.081	89.81
260.314	81.81
260.547	82.81
260.779	72.81
261.012	64.81
261.244	82.81
261.477	84.81
261.71	89.81
261.942	102.81
262.175	120.81
262.407	95.81
262.64	79.81
262.872	84.81
263.105	76.81
263.337	76.81
263.57	89.81
263.802	94.81
264.035	84.81
264.267	92.81
264.499	87.81
264.732	93.81
264.964	89.81
265.197	84.81
265.429	88.81
265.661	73.81
265.894	88.81
266.126	90.81
266.358	90.81
266.591	89.81
266.823	78.81
267.055	91.81
267.287	87.81
267.52	70.81
267.752	85.81
267.984	95.81
268.216	90.81
268.448	82.81
268.681	98.81
268.913	83.81
269.145	87.81
269.377	93.81
269.609	85.81
269.841	101.81
270.073	80.81
270.306	84.81
270.538	74.81
270.77	96.81
271.002	80.81
271.234	73.81
271.466	86.81
271.698	91.81
271.93	71.81
272.162	89.81
272.394	91.81
272.626	89.81
272.858	70.81
273.09	97.81
273.322	73.81
273.553	85.81
273.785	83.81
274.017	83.81
274.249	96.81
274.481	83.81
274.713	98.81
274.945	103.81
275.176	82.81
275.408	102.81
275.64	71.81
275.872	76.81
276.104	87.81
276.335	88.81
276.567	103.81
276.799	104.81
277.031	108.81
277.262	95.81
277.494	94.81
277.726	86.81
277.957	87.81
278.189	74.81
278.421	68.81
278.652	76.81
278.884	99.81
279.115	78.81
279.347	88.81
279.579	90.81
279.81	88.81
280.042	80.81
280.273	86.81
280.505	102.81
280.736	83.81
280.968	86.81
281.199	87.81
281.431	94.81
281.662	85.81
281.894	96.81
282.125	97.81
282.356	121.81
282.588	144.81
282.819	123.81
283.051	86.81
283.282	94.81
283.513	92.81
283.745	92.81
283.976	81.81
284.207	86.81
284.439	101.81
284.67	106.81
284.901	101.81
285.132	87.81
285.364	98.81
285.595	86.81
285.826	86.81
286.057	89.81
286.288	91.81
286.52	87.81
286.751	91.81
286.982	83.81
287.213	92.81
287.444	96.81
287.675	93.81
287.906	83.81
288.138	98.81
288.369	93.81
288.6	90.81
288.831	100.81
289.062	85.81
289.293	85.81
289.524	76.81
289.755	72.81
289.986	102.81
290.217	82.81
290.448	98.81
290.679	96.81
290.91	96.81
291.141	88.81
291.371	90.81
291.602	89.81
291.833	90.81
292.064	97.81
292.295	86.81
292.526	90.81
292.757	81.81
292.987	83.81
293.218	86.81
293.449	95.81
293.68	91.81
293.91	90.81
294.141	97.81
294.372	91.81
294.603	89.81
294.833	87.81
295.064	87.81
295.295	95.81
295.525	98.81
295.756	96.81
295.987	118.81
296.217	147.81
296.448	122.81
296.679	100.81
296.909	93.81
297.14	84.81
297.37	81.81
297.601	92.81
297.831	95.81
298.062	88.81
298.292	94.81
298.523	89.81
298.753	85.81
298.984	97.81
299.214	87.81
299.445	88.81
299.675	95.81
299.905	103.81
300.136	96.81
300.366	98.81
300.597	85.81
300.827	90.81
301.057	95.81
301.288	107.81
301.518	95.81
301.748	84.81
301.979	93.81
302.209	93.81
302.439	83.81
302.669	98.81
302.9	80.81
303.13	94.81
303.36	100.81
303.59	103.81
303.82	112.81
304.051	104.81
304.281	92.81
304.511	92.81
304.741	89.81
304.971	83.81
305.201	94.81
305.431	86.81
305.661	91.81
305.891	102.81
306.121	94.81
306.352	99.81
306.582	113.81
306.812	103.81
307.042	97.81
307.272	91.81
307.502	98.81
307.731	86.81
307.961	87.81
308.191	98.81
308.421	94.81
308.651	86.81
308.881	101.81
309.111	88.81
309.341	98.81
309.571	90.81
309.8	91.81
310.03	95.81
310.26	95.81
310.49	103.81
310.72	100.81
310.949	116.81
311.179	102.81
311.409	88.81
311.639	108.81
311.868	92.81
312.098	102.81
312.328	106.81
312.557	106.81
312.787	115.81
313.017	110.81
313.246	93.81
313.476	98.81
313.706	107.81
313.935	105.81
314.165	108.81
314.394	95.81
314.624	107.81
314.853	95.81
315.083	83.81
315.312	90.81
315.542	83.81
315.771	103.81
316.001	90.81
316.23	89.81
316.46	91.81
316.689	79.81
316.919	89.81
317.148	116.81
317.377	98.81
317.607	93.81
317.836	93.81
318.065	101.81
318.295	114.81
318.524	99.81
318.753	83.81
318.983	96.81
319.212	121.81
319.441	108.81
319.67	107.81
319.9	94.81
320.129	98.81
320.358	97.81
320.587	111.81
320.816	107.81
321.046	103.81
321.275	99.81
321.504	99.81
321.733	105.81
321.962	99.81
322.191	95.81
322.42	113.81
322.649	111.81
322.878	114.81
323.108	134.81
323.337	124.81
323.566	127.81
323.795	174.81
324.024	215.81
324.253	426.81
324.482	911.81
324.71	1963.81
324.939	2598.81
325.168	932.81
325.397	270.81
325.626	156.81
325.855	140.81
326.084	119.81
326.313	137.81
326.542	176.81
326.77	237.81
326.999	497.81
327.228	1038.81
327.457	1985.81
327.686	1550.81
327.914	403.81
328.143	219.81
328.372	151.81
328.6	132.81
328.829	119.81
329.058	129.81
329.287	144.81
329.515	125.81
329.744	109.81
329.972	89.81
330.201	96.81
330.43	101.81
330.658	122.81
330.887	156.81
331.115	123.81
331.344	92.81
331.572	114.81
331.801	106.81
332.03	101.81
332.258	99.81
332.486	85.81
332.715	112.81
332.943	105.81
333.172	97.81
333.4	101.81
333.629	122.81
333.857	105.81
334.085	96.81
334.314	102.81
334.542	113.81
334.771	108.81
334.999	100.81
335.227	103.81
335.455	98.81
335.684	105.81
335.912	91.81
336.14	90.81
336.369	89.81
336.597	113.81
336.825	96.81
337.053	84.81
337.281	87.81
337.51	97.81
337.738	94.81
337.966	99.81
338.194	98.81
338.422	99.81
338.65	93.81
338.878	100.81
339.106	103.81
339.334	95.81
339.562	84.81
339.79	90.81
340.018	80.81
340.246	79.81
340.474	89.81
340.702	93.81
340.93	108.81
341.158	109.81
341.386	98.81
341.614	96.81
341.842	87.81
342.07	79.81
342.298	98.81
342.526	95.81
342.754	106.81
342.981	92.81
343.209	91.81
343.437	102.81
343.665	90.81
343.893	90.81
344.12	89.81
344.348	94.81
344.576	95.81
344.804	102.81
345.031	105.81
345.259	108.81
345.487	110.81
345.714	104.81
345.942	88.81
346.17	82.81
346.397	99.81
346.625	83.81
346.853	98.81
347.08	103.81
347.308	100.81
347.535	103.81
347.763	104.81
347.99	99.81
348.218	112.81
348.445	115.81
348.673	103.81
348.9	86.81
349.128	97.81
349.355	90.81
349.583	97.81
349.81	101.81
350.037	99.81
350.265	97.81
350.492	96.81
350.72	90.81
350.947	114.81
351.174	113.81
351.402	108.81
351.629	99.81
351.856	100.81
352.083	95.81
352.311	111.81
352.538	110.81
352.765	122.81
352.992	122.81
353.22	117.81
353.447	107.81
353.674	116.81
353.901	93.81
354.128	82.81
354.355	97.81
354.583	95.81
354.81	108.81
355.037	108.81
355.264	87.81
355.491	102.81
355.718	98.81
355.945	105.81
356.172	102.81
356.399	89.81
356.626	95.81
356.853	99.81
357.08	92.81
357.307	91.81
357.534	86.81
357.761	90.81
357.988	87.81
358.215	96.81
358.441	84.81
358.668	95.81
358.895	82.81
359.122	95.81
359.349	99.81
359.576	92.81
359.802	91.81
360.029	127.81
360.256	108.81
360.483	92.81
360.709	94.81
360.936	92.81
361.163	99.81
361.39	101.81
361.616	95.81
361.843	98.81
362.07	111.81
362.296	112.81
362.523	96.81
362.749	100.81
362.976	97.81
363.203	101.81
363.429	90.81
363.656	94.81
363.882	92.81
364.109	99.81
364.335	94.81
364.562	104.81
364.788	120.81
365.015	101.81
365.241	105.81
365.468	116.81
365.694	101.81
365.92	98.81
366.147	91.81
366.373	81.81
366.599	91.81
366.826	100.81
367.052	92.81
367.278	86.81
367.505	107.81
367.731	93.81
367.957	94.81
368.184	100.81
368.41	111.81
368.636	106.81
368.862	127.81
369.089	108.81
369.315	109.81
369.541	108.81
369.767	89.81
369.993	88.81
370.219	100.81
370.445	91.81
370.672	103.81
370.898	92.81
371.124	92.81
371.35	105.81
371.576	90.81
371.802	101.81
372.028	89.81
372.254	90.81
372.48	95.81
372.706	80.81
372.932	90.81
373.158	94.81
373.384	87.81
373.61	94.81
373.835	90.81
374.061	78.81
374.287	95.81
374.513	92.81
374.739	92.81
374.965	80.81
375.191	98.81
375.416	90.81
375.642	82.81
375.868	94.81
376.094	91.81
376.319	82.81
376.545	89.81
376.771	90.81
376.997	90.81
377.222	93.81
377.448	95.81
377.674	92.81
377.899	88.81
378.125	95.81
378.35	102.81
378.576	95.81
378.802	84.81
379.027	92.81
379.253	74.81
379.478	89.81
379.704	90.81
379.929	90.81
380.155	103.81
380.38	110.81
380.606	97.81
380.831	80.81
381.057	103.81
381.282	100.81
381.507	86.81
381.733	95.81
381.958	99.81
382.184	107.81
382.409	106.81
382.634	121.81
382.86	106.81
383.085	104.81
383.31	108.81
383.535	100.81
383.761	99.81
383.986	97.81
384.211	103.81
384.436	94.81
384.662	103.81
384.887	107.81
385.112	101.81
385.337	97.81
385.562	92.81
385.787	95.81
386.013	109.81
386.238	108.81
386.463	101.81
386.688	104.81
386.913	100.81
387.138	96.81
387.363	103.81
387.588	118.81
387.813	103.81
388.038	99.81
388.263	104.81
388.488	108.81
388.713	99.81
388.938	99.81
389.163	94.81
389.387	121.81
389.612	99.81
389.837	98.81
390.062	100.81
390.287	82.81
390.512	88.81
390.736	89.81
390.961	79.81
391.186	105.81
391.411	105.81
391.636	107.81
391.86	76.81
392.085	89.81
392.31	87.81
392.534	91.81
392.759	107.81
392.984	84.81
393.208	83.81
393.433	106.81
393.658	97.81
393.882	82.81
394.107	88.81
394.331	94.81
394.556	91.81
394.78	76.81
395.005	91.81
395.229	89.81
395.454	91.81
395.678	88.81
395.903	100.81
396.127	89.81
396.352	86.81
396.576	74.81
396.801	82.81
397.025	91.81
397.249	85.81
397.474	96.81
397.698	82.81
397.922	87.81
398.147	78.81
398.371	98.81
398.595	69.81
398.82	96.81
399.044	89.81
399.268	73.81
399.492	91.81
399.717	92.81
399.941	87.81
400.165	97.81
400.389	92.81
400.613	96.81
400.837	85.81
401.062	104.81
401.286	86.81
401.51	94.81
401.734	109.81
401.958	112.81
402.182	130.81
402.406	169.81
402.63	126.81
402.854	95.81
403.078	104.81
403.302	94.81
403.526	95.81
403.75	104.81
403.974	80.81
404.198	85.81
404.422	102.81
404.645	96.81
404.869	92.81
405.093	99.81
405.317	105.81
405.541	94.81
405.765	88.81
405.988	123.81
406.212	167.81
406.436	249.81
406.66	165.81
406.883	115.81
407.107	99.81
407.331	98.81
407.555	93.81
407.778	111.81
408.002	99.81
408.226	99.81
408.449	99.81
408.673	103.81
408.896	98.81
409.12	106.81
409.344	104.81
409.567	80.81
409.791	99.81
410.014	99.81
410.238	111.81
410.461	89.81
410.685	90.81
410.908	106.81
411.132	104.81
411.355	95.81
411.578	83.81
411.802	99.81
412.025	91.81
412.249	97.81
412.472	100.81
412.695	98.81
412.919	97.81
413.142	92.81
413.365	92.81
413.589	97.81
413.812	92.81
414.035	98.81
414.258	100.81
414.482	106.81
414.705	103.81
414.928	87.81
415.151	93.81
415.374	90.81
415.597	86.81
415.821	87.81
416.044	73.81
416.267	73.81
416.49	87.81
416.713	79.81
416.936	86.81
417.159	82.81
417.382	98.81
417.605	92.81
417.828	91.81
418.051	91.81
418.274	83.81
418.497	94.81
418.72	98.81
418.943	100.81
419.166	89.81
419.389	96.81
419.611	83.81
419.834	92.81
420.057	79.81
420.28	86.81
420.503	101.81
420.726	97.81
420.948	97.81
421.171	107.81
421.394	87.81
421.617	88.81
421.839	96.81
422.062	99.81
422.285	102.81
422.507	123.81
422.73	113.81
422.953	85.81
423.175	102.81
423.398	88.81
423.621	73.81
423.843	87.81
424.066	82.81
424.288	98.81
424.511	86.81
424.733	87.81
424.956	102.81
425.178	101.81
425.401	105.81
425.623	104.81
425.846	95.81
426.068	98.81
426.291	93.81
426.513	99.81
426.735	91.81
426.958	86.81
427.18	97.81
427.402	140.81
427.625	163.81
427.847	123.81
428.069	114.81
428.292	87.81
428.514	82.81
428.736	77.81
428.958	94.81
429.181	80.81
429.403	94.81
429.625	87.81
429.847	115.81
430.069	102.81
430.292	81.81
430.514	81.81
430.736	90.81
430.958	96.81
431.18	82.81
431.402	78.81
431.624	67.81
431.846	97.81
432.068	79.81
432.29	88.81
432.512	101.81
432.734	80.81
432.956	86.81
433.178	101.81
433.4	100.81
433.622	83.81
433.844	90.81
434.066	102.81
434.287	94.81
434.509	91.81
434.731	92.81
434.953	84.81
435.175	96.81
435.397	94.81
435.618	101.81
435.84	113.81
436.062	134.81
436.284	122.81
436.505	82.81
436.727	98.81
436.949	94.81
437.17	90.81
437.392	93.81
437.614	100.81
437.835	112.81
438.057	127.81
438.278	115.81
438.5	110.81
438.721	130.81
438.943	106.81
439.165	89.81
439.386	90.81
439.608	101.81
439.829	114.81
440.05	134.81
440.272	161.81
440.493	111.81
440.715	85.81
440.936	96.81
441.158	101.81
441.379	87.81
441.6	89.81
441.822	100.81
442.043	96.81
442.264	113.81
442.486	103.81
442.707	114.81
442.928	114.81
443.149	127.81
443.371	136.81
443.592	129.81
443.813	133.81
444.034	110.81
444.255	107.81
444.476	100.81
444.698	98.81
444.919	96.81
445.14	130.81
445.361	136.81
445.582	135.81
445.803	137.81
446.024	155.81
446.245	143.81
446.466	125.81
446.687	99.81
446.908	97.81
447.129	91.81
447.35	75.81
447.571	94.81
447.792	110.81
448.013	96.81
448.234	105.81
448.455	99.81
448.675	114.81
448.896	139.81
449.117	105.81
449.338	94.81
449.559	137.81
449.779	137.81
450	86.81
450.221	100.81
450.442	84.81
450.662	93.81
450.883	108.81
451.104	121.81
451.324	103.81
451.545	71.81
451.766	91.81
451.986	86.81
452.207	103.81
452.428	98.81
452.648	104.81
452.869	106.81
453.089	103.81
453.31	122.81
453.53	104.81
453.751	100.81
453.971	96.81
454.192	110.81
454.412	97.81
454.633	97.81
454.853	99.81
455.073	89.81
455.294	88.81
455.514	109.81
455.734	87.81
455.955	83.81
456.175	95.81
456.395	86.81
456.616	81.81
456.836	90.81
457.056	95.81
457.276	91.81
457.497	81.81
457.717	92.81
457.937	92.81
458.157	107.81
458.377	96.81
458.598	109.81
458.818	171.81
459.038	182.81
459.258	116.81
459.478	92.81
459.698	89.81
459.918	84.81
460.138	83.81
460.358	86.81
460.578	84.81
460.798	106.81
461.018	97.81
461.238	83.81
461.458	82.81
461.678	78.81
461.898	82.81
462.118	97.81
462.338	94.81
462.558	87.81
462.777	92.81
462.997	89.81
463.217	89.81
463.437	97.81
463.657	97.81
463.876	88.81
464.096	92.81
464.316	101.81
464.536	97.81
464.755	94.81
464.975	117.81
465.195	178.81
465.414	179.81
465.634	94.81
465.854	88.81
466.073	90.81
466.293	95.81
466.512	100.81
466.732	91.81
466.951	88.81
467.171	95.81
467.391	98.81
467.61	100.81
467.829	95.81
468.049	88.81
468.268	97.81
468.488	99.81
468.707	91.81
468.927	86.81
469.146	91.81
469.365	94.81
469.585	82.81
469.804	93.81
470.023	90.81
470.243	98.81
470.462	100.81
470.681	108.81
470.901	103.81
471.12	81.81
471.339	100.81
471.558	75.81
471.777	102.81
471.997	87.81
472.216	91.81
472.435	107.81
472.654	97.81
472.873	80.81
473.092	103.81
473.311	72.81
473.53	91.81
473.749	92.81
473.968	87.81
474.187	89.81
474.406	119.81
474.625	82.81
474.844	83.81
475.063	104.81
475.282	82.81
475.501	78.81
475.72	106.81
475.939	88.81
476.158	77.81
476.377	74.81
476.596	90.81
476.814	104.81
477.033	97.81
477.252	85.81
477.471	87.81
477.69	91.81
477.908	93.81
478.127	98.81
478.346	97.81
478.564	99.81
478.783	91.81
479.002	99.81
479.22	86.81
479.439	98.81
479.658	106.81
479.876	87.81
480.095	90.81
480.313	96.81
480.532	88.81
480.751	82.81
480.969	102.81
481.188	113.81
481.406	109.81
481.624	89.81
481.843	98.81
482.061	89.81
482.28	90.81
482.498	90.81
482.717	89.81
482.935	102.81
483.153	82.81
483.372	74.81
483.59	82.81
483.808	96.81
484.027	107.81
484.245	99.81
484.463	90.81
484.681	99.81
484.9	84.81
485.118	101.81
485.336	92.81
485.554	113.81
485.772	96.81
485.99	103.81
486.209	99.81
486.427	112.81
486.645	111.81
486.863	115.81
487.081	110.81
487.299	82.81
487.517	95.81
487.735	91.81
487.953	94.81
488.171	95.81
488.389	102.81
488.607	95.81
488.825	115.81
489.043	83.81
489.261	84.81
489.479	90.81
489.696	94.81
489.914	90.81
490.132	91.81
490.35	88.81
490.568	97.81
490.786	89.81
491.003	84.81
491.221	96.81
491.439	90.81
491.657	101.81
491.874	95.81
492.092	113.81
492.31	91.81
492.527	99.81
492.745	94.81
492.963	98.81
493.18	96.81
493.398	99.81
493.615	100.81
493.833	103.81
494.05	82.81
494.268	94.81
494.485	96.81
494.703	79.81
494.92	99.81
495.138	82.81
495.355	90.81
495.573	79.81
495.79	93.81
496.008	98.81
496.225	111.81
496.442	79.81
496.66	96.81
496.877	85.81
497.094	99.81
497.312	88.81
497.529	81.81
497.746	85.81
497.963	94.81
498.181	93.81
498.398	116.81
498.615	119.81
498.832	91.81
499.049	94.81
499.267	78.81
499.484	94.81
499.701	92.81
499.918	91.81
500.135	94.81
500.352	91.81
500.569	86.81
500.786	91.81
501.003	113.81
501.22	91.81
501.437	87.81
501.654	86.81
501.871	110.81
502.088	96.81
502.305	91.81
502.522	90.81
502.739	101.81
502.956	96.81
503.172	92.81
503.389	93.81
503.606	103.81
503.823	115.81
504.04	94.81
504.256	91.81
504.473	82.81
504.69	89.81
504.907	85.81
505.123	92.81
505.34	89.81
505.557	95.81
505.773	90.81
505.99	91.81
506.207	98.81
506.423	95.81
506.64	84.81
506.856	88.81
507.073	81.81
507.289	94.81
507.506	112.81
507.722	118.81
507.939	119.81
508.155	96.81
508.372	94.81
508.588	89.81
508.805	97.81
509.021	95.81
509.238	105.81
509.454	90.81
509.67	105.81
509.887	119.81
510.103	134.81
510.319	225.81
510.536	796.81
510.752	2661.81
510.968	705.81
511.184	167.81
511.401	120.81
511.617	108.81
511.833	92.81
512.049	92.81
512.265	94.81
512.481	92.81
512.698	89.81
512.914	109.81
513.13	95.81
513.346	97.81
513.562	84.81
513.778	106.81
513.994	106.81
514.21	114.81
514.426	115.81
514.642	152.81
