Data from Uncirc_1987_H10_HRD10591_00073.txt Node
Date: Wed Jan 03 12:09:03 EST 2024
User: Yrep
Spectrometer: HR+D1059
Trigger mode: 1
Integration Time (sec): 1.000000E-1
Scans to average: 1
Electric dark correction enabled: true
Nonlinearity correction enabled: false
Boxcar width: 0
XAxis mode: Wavelengths
Number of Pixels in Spectrum: 2048
>>>>>Begin Spectral Data<<<<<
223.165	-31.56
223.4	-31.56
223.635	-31.56
223.869	-25.56
224.104	-20.56
224.338	-23.56
224.573	-13.56
224.808	-7.56
225.042	5.44
225.277	-3.56
225.511	-1.56
225.746	9.44
225.98	4.44
226.215	17.44
226.449	11.44
226.683	20.44
226.918	16.44
227.152	42.44
227.387	50.44
227.621	51.44
227.856	35.44
228.09	43.44
228.324	33.44
228.559	44.44
228.793	48.44
229.027	61.44
229.262	60.44
229.496	49.44
229.73	73.44
229.964	87.44
230.199	63.44
230.433	85.44
230.667	86.44
230.901	80.44
231.136	77.44
231.37	66.44
231.604	83.44
231.838	84.44
232.072	80.44
232.306	61.44
232.541	83.44
232.775	68.44
233.009	64.44
233.243	71.44
233.477	82.44
233.711	67.44
233.945	65.44
234.179	84.44
234.413	89.44
234.647	64.44
234.881	83.44
235.115	63.44
235.349	79.44
235.583	75.44
235.817	91.44
236.051	82.44
236.285	57.44
236.519	81.44
236.753	87.44
236.987	82.44
237.221	77.44
237.455	83.44
237.689	67.44
237.922	60.44
238.156	63.44
238.39	83.44
238.624	69.44
238.858	74.44
239.091	60.44
239.325	81.44
239.559	78.44
239.793	76.44
240.027	85.44
240.26	75.44
240.494	73.44
240.728	75.44
240.961	70.44
241.195	77.44
241.429	81.44
241.662	80.44
241.896	80.44
242.13	68.44
242.363	69.44
242.597	77.44
242.83	71.44
243.064	77.44
243.298	82.44
243.531	81.44
243.765	70.44
243.998	74.44
244.232	85.44
244.465	70.44
244.699	75.44
244.932	75.44
245.166	70.44
245.399	67.44
245.633	77.44
245.866	86.44
246.099	72.44
246.333	65.44
246.566	65.44
246.8	75.44
247.033	77.44
247.266	68.44
247.5	84.44
247.733	90.44
247.966	80.44
248.2	87.44
248.433	69.44
248.666	82.44
248.899	77.44
249.133	83.44
249.366	92.44
249.599	93.44
249.832	72.44
250.066	74.44
250.299	85.44
250.532	82.44
250.765	79.44
250.998	62.44
251.231	86.44
251.465	71.44
251.698	84.44
251.931	80.44
252.164	70.44
252.397	69.44
252.63	66.44
252.863	65.44
253.096	80.44
253.329	76.44
253.562	68.44
253.795	79.44
254.028	77.44
254.261	84.44
254.494	69.44
254.727	70.44
254.96	73.44
255.193	73.44
255.426	81.44
255.659	89.44
255.892	74.44
256.124	80.44
256.357	79.44
256.59	76.44
256.823	87.44
257.056	71.44
257.289	79.44
257.521	90.44
257.754	67.44
257.987	90.44
258.22	75.44
258.452	85.44
258.685	78.44
258.918	78.44
259.151	77.44
259.383	69.44
259.616	71.44
259.849	80.44
260.081	84.44
260.314	84.44
260.547	86.44
260.779	75.44
261.012	67.44
261.244	75.44
261.477	99.44
261.71	89.44
261.942	116.44
262.175	97.44
262.407	81.44
262.64	78.44
262.872	72.44
263.105	82.44
263.337	82.44
263.57	68.44
263.802	71.44
264.035	81.44
264.267	83.44
264.499	83.44
264.732	90.44
264.964	84.44
265.197	63.44
265.429	72.44
265.661	67.44
265.894	77.44
266.126	85.44
266.358	86.44
266.591	78.44
266.823	85.44
267.055	74.44
267.287	87.44
267.52	73.44
267.752	78.44
267.984	76.44
268.216	68.44
268.448	84.44
268.681	84.44
268.913	79.44
269.145	76.44
269.377	77.44
269.609	81.44
269.841	84.44
270.073	85.44
270.306	84.44
270.538	80.44
270.77	81.44
271.002	75.44
271.234	94.44
271.466	83.44
271.698	82.44
271.93	83.44
272.162	73.44
272.394	92.44
272.626	73.44
272.858	86.44
273.09	68.44
273.322	77.44
273.553	81.44
273.785	68.44
274.017	85.44
274.249	77.44
274.481	86.44
274.713	71.44
274.945	74.44
275.176	83.44
275.408	85.44
275.64	78.44
275.872	87.44
276.104	78.44
276.335	67.44
276.567	97.44
276.799	100.44
277.031	79.44
277.262	83.44
277.494	86.44
277.726	80.44
277.957	77.44
278.189	81.44
278.421	85.44
278.652	91.44
278.884	70.44
279.115	61.44
279.347	76.44
279.579	75.44
279.81	60.44
280.042	97.44
280.273	73.44
280.505	91.44
280.736	68.44
280.968	67.44
281.199	74.44
281.431	69.44
281.662	74.44
281.894	84.44
282.125	80.44
282.356	109.44
282.588	138.44
282.819	118.44
283.051	95.44
283.282	89.44
283.513	83.44
283.745	89.44
283.976	86.44
284.207	89.44
284.439	78.44
284.67	66.44
284.901	79.44
285.132	93.44
285.364	78.44
285.595	83.44
285.826	91.44
286.057	87.44
286.288	85.44
286.52	85.44
286.751	79.44
286.982	79.44
287.213	99.44
287.444	78.44
287.675	78.44
287.906	78.44
288.138	81.44
288.369	97.44
288.6	92.44
288.831	84.44
289.062	75.44
289.293	97.44
289.524	82.44
289.755	73.44
289.986	82.44
290.217	91.44
290.448	79.44
290.679	76.44
290.91	102.44
291.141	77.44
291.371	89.44
291.602	85.44
291.833	74.44
292.064	98.44
292.295	91.44
292.526	78.44
292.757	90.44
292.987	89.44
293.218	70.44
293.449	82.44
293.68	83.44
293.91	98.44
294.141	83.44
294.372	88.44
294.603	93.44
294.833	86.44
295.064	80.44
295.295	78.44
295.525	94.44
295.756	106.44
295.987	109.44
296.217	125.44
296.448	118.44
296.679	91.44
296.909	82.44
297.14	93.44
297.37	79.44
297.601	88.44
297.831	89.44
298.062	91.44
298.292	97.44
298.523	85.44
298.753	84.44
298.984	92.44
299.214	70.44
299.445	84.44
299.675	80.44
299.905	83.44
300.136	91.44
300.366	80.44
300.597	89.44
300.827	77.44
301.057	83.44
301.288	111.44
301.518	95.44
301.748	76.44
301.979	98.44
302.209	100.44
302.439	93.44
302.669	90.44
302.9	89.44
303.13	90.44
303.36	89.44
303.59	105.44
303.82	98.44
304.051	86.44
304.281	80.44
304.511	77.44
304.741	88.44
304.971	83.44
305.201	82.44
305.431	69.44
305.661	94.44
305.891	73.44
306.121	82.44
306.352	106.44
306.582	95.44
306.812	99.44
307.042	86.44
307.272	85.44
307.502	78.44
307.731	88.44
307.961	79.44
308.191	93.44
308.421	88.44
308.651	91.44
308.881	90.44
309.111	90.44
309.341	96.44
309.571	90.44
309.8	87.44
310.03	90.44
310.26	100.44
310.49	112.44
310.72	94.44
310.949	100.44
311.179	89.44
311.409	91.44
311.639	88.44
311.868	94.44
312.098	93.44
312.328	99.44
312.557	100.44
312.787	91.44
313.017	114.44
313.246	93.44
313.476	85.44
313.706	77.44
313.935	92.44
314.165	83.44
314.394	106.44
314.624	92.44
314.853	101.44
315.083	95.44
315.312	92.44
315.542	73.44
315.771	86.44
316.001	80.44
316.23	91.44
316.46	83.44
316.689	85.44
316.919	91.44
317.148	97.44
317.377	92.44
317.607	100.44
317.836	84.44
318.065	86.44
318.295	82.44
318.524	75.44
318.753	87.44
318.983	89.44
319.212	96.44
319.441	108.44
319.67	90.44
319.9	92.44
320.129	93.44
320.358	86.44
320.587	87.44
320.816	98.44
321.046	92.44
321.275	106.44
321.504	90.44
321.733	89.44
321.962	88.44
322.191	95.44
322.42	98.44
322.649	94.44
322.878	98.44
323.108	105.44
323.337	129.44
323.566	110.44
323.795	128.44
324.024	181.44
324.253	369.44
324.482	810.44
324.71	1689.44
324.939	2261.44
325.168	828.44
325.397	219.44
325.626	145.44
325.855	141.44
326.084	117.44
326.313	134.44
326.542	145.44
326.77	237.44
326.999	449.44
327.228	948.44
327.457	1740.44
327.686	1405.44
327.914	358.44
328.143	178.44
328.372	150.44
328.6	122.44
328.829	112.44
329.058	131.44
329.287	110.44
329.515	104.44
329.744	98.44
329.972	106.44
330.201	103.44
330.43	107.44
330.658	108.44
330.887	132.44
331.115	102.44
331.344	95.44
331.572	104.44
331.801	97.44
332.03	98.44
332.258	89.44
332.486	101.44
332.715	89.44
332.943	91.44
333.172	87.44
333.4	86.44
333.629	89.44
333.857	97.44
334.085	111.44
334.314	98.44
334.542	98.44
334.771	119.44
334.999	96.44
335.227	87.44
335.455	93.44
335.684	103.44
335.912	89.44
336.14	83.44
336.369	86.44
336.597	92.44
336.825	83.44
337.053	97.44
337.281	81.44
337.51	102.44
337.738	83.44
337.966	79.44
338.194	102.44
338.422	92.44
338.65	95.44
338.878	93.44
339.106	84.44
339.334	78.44
339.562	84.44
339.79	94.44
340.018	82.44
340.246	86.44
340.474	112.44
340.702	102.44
340.93	88.44
341.158	83.44
341.386	78.44
341.614	90.44
341.842	89.44
342.07	102.44
342.298	87.44
342.526	93.44
342.754	89.44
342.981	84.44
343.209	89.44
343.437	83.44
343.665	107.44
343.893	80.44
344.12	88.44
344.348	103.44
344.576	78.44
344.804	68.44
345.031	93.44
345.259	89.44
345.487	92.44
345.714	93.44
345.942	90.44
346.17	77.44
346.397	97.44
346.625	90.44
346.853	85.44
347.08	84.44
347.308	101.44
347.535	90.44
347.763	94.44
347.99	99.44
348.218	103.44
348.445	112.44
348.673	98.44
348.9	94.44
349.128	100.44
349.355	96.44
349.583	85.44
349.81	83.44
350.037	88.44
350.265	101.44
350.492	95.44
350.72	84.44
350.947	96.44
351.174	117.44
351.402	112.44
351.629	88.44
351.856	106.44
352.083	91.44
352.311	103.44
352.538	111.44
352.765	109.44
352.992	92.44
353.22	118.44
353.447	106.44
353.674	101.44
353.901	86.44
354.128	86.44
354.355	102.44
354.583	100.44
354.81	90.44
355.037	112.44
355.264	89.44
355.491	101.44
355.718	92.44
355.945	83.44
356.172	82.44
356.399	90.44
356.626	90.44
356.853	93.44
357.08	96.44
357.307	91.44
357.534	89.44
357.761	97.44
357.988	84.44
358.215	97.44
358.441	88.44
358.668	80.44
358.895	76.44
359.122	102.44
359.349	96.44
359.576	99.44
359.802	91.44
360.029	101.44
360.256	118.44
360.483	85.44
360.709	85.44
360.936	94.44
361.163	100.44
361.39	93.44
361.616	92.44
361.843	82.44
362.07	89.44
362.296	86.44
362.523	78.44
362.749	92.44
362.976	90.44
363.203	87.44
363.429	89.44
363.656	83.44
363.882	92.44
364.109	93.44
364.335	80.44
364.562	87.44
364.788	80.44
365.015	77.44
365.241	91.44
365.468	108.44
365.694	89.44
365.92	85.44
366.147	87.44
366.373	83.44
366.599	77.44
366.826	81.44
367.052	87.44
367.278	92.44
367.505	93.44
367.731	91.44
367.957	78.44
368.184	84.44
368.41	101.44
368.636	92.44
368.862	123.44
369.089	106.44
369.315	95.44
369.541	94.44
369.767	82.44
369.993	89.44
370.219	86.44
370.445	90.44
370.672	78.44
370.898	78.44
371.124	89.44
371.35	82.44
371.576	71.44
371.802	89.44
372.028	85.44
372.254	78.44
372.48	81.44
372.706	86.44
372.932	87.44
373.158	95.44
373.384	78.44
373.61	82.44
373.835	70.44
374.061	96.44
374.287	81.44
374.513	96.44
374.739	92.44
374.965	83.44
375.191	77.44
375.416	75.44
375.642	97.44
375.868	77.44
376.094	83.44
376.319	99.44
376.545	69.44
376.771	87.44
376.997	102.44
377.222	87.44
377.448	83.44
377.674	90.44
377.899	85.44
378.125	85.44
378.35	92.44
378.576	91.44
378.802	81.44
379.027	81.44
379.253	90.44
379.478	96.44
379.704	87.44
379.929	89.44
380.155	88.44
380.38	93.44
380.606	100.44
380.831	96.44
381.057	105.44
381.282	95.44
381.507	90.44
381.733	90.44
381.958	85.44
382.184	103.44
382.409	91.44
382.634	103.44
382.86	95.44
383.085	90.44
383.31	101.44
383.535	114.44
383.761	103.44
383.986	101.44
384.211	104.44
384.436	93.44
384.662	99.44
384.887	91.44
385.112	97.44
385.337	91.44
385.562	104.44
385.787	93.44
386.013	91.44
386.238	92.44
386.463	101.44
386.688	99.44
386.913	88.44
387.138	95.44
387.363	85.44
387.588	92.44
387.813	86.44
388.038	89.44
388.263	99.44
388.488	94.44
388.713	86.44
388.938	101.44
389.163	93.44
389.387	99.44
389.612	104.44
389.837	89.44
390.062	93.44
390.287	85.44
390.512	88.44
390.736	90.44
390.961	90.44
391.186	93.44
391.411	90.44
391.636	78.44
391.86	84.44
392.085	77.44
392.31	87.44
392.534	88.44
392.759	84.44
392.984	82.44
393.208	89.44
393.433	87.44
393.658	96.44
393.882	97.44
394.107	86.44
394.331	78.44
394.556	85.44
394.78	84.44
395.005	79.44
395.229	99.44
395.454	100.44
395.678	73.44
395.903	88.44
396.127	82.44
396.352	84.44
396.576	95.44
396.801	77.44
397.025	68.44
397.249	76.44
397.474	99.44
397.698	94.44
397.922	93.44
398.147	94.44
398.371	97.44
398.595	107.44
398.82	78.44
399.044	76.44
399.268	72.44
399.492	90.44
399.717	91.44
399.941	91.44
400.165	82.44
400.389	86.44
400.613	81.44
400.837	90.44
401.062	75.44
401.286	93.44
401.51	91.44
401.734	87.44
401.958	97.44
402.182	131.44
402.406	139.44
402.63	120.44
402.854	95.44
403.078	93.44
403.302	79.44
403.526	93.44
403.75	74.44
403.974	86.44
404.198	67.44
404.422	73.44
404.645	82.44
404.869	77.44
405.093	94.44
405.317	102.44
405.541	85.44
405.765	85.44
405.988	103.44
406.212	150.44
406.436	201.44
406.66	131.44
406.883	102.44
407.107	104.44
407.331	86.44
407.555	98.44
407.778	93.44
408.002	81.44
408.226	82.44
408.449	94.44
408.673	87.44
408.896	94.44
409.12	85.44
409.344	89.44
409.567	94.44
409.791	93.44
410.014	85.44
410.238	102.44
410.461	97.44
410.685	95.44
410.908	103.44
411.132	102.44
411.355	90.44
411.578	77.44
411.802	94.44
412.025	86.44
412.249	95.44
412.472	88.44
412.695	81.44
412.919	93.44
413.142	84.44
413.365	83.44
413.589	79.44
413.812	82.44
414.035	89.44
414.258	97.44
414.482	83.44
414.705	81.44
414.928	99.44
415.151	89.44
415.374	92.44
415.597	79.44
415.821	82.44
416.044	81.44
416.267	90.44
416.49	86.44
416.713	85.44
416.936	79.44
417.159	93.44
417.382	87.44
417.605	69.44
417.828	79.44
418.051	85.44
418.274	89.44
418.497	84.44
418.72	73.44
418.943	81.44
419.166	75.44
419.389	88.44
419.611	79.44
419.834	83.44
420.057	86.44
420.28	85.44
420.503	91.44
420.726	85.44
420.948	87.44
421.171	77.44
421.394	68.44
421.617	76.44
421.839	85.44
422.062	94.44
422.285	89.44
422.507	102.44
422.73	89.44
422.953	87.44
423.175	84.44
423.398	76.44
423.621	82.44
423.843	97.44
424.066	81.44
424.288	74.44
424.511	84.44
424.733	101.44
424.956	105.44
425.178	105.44
425.401	90.44
425.623	81.44
425.846	65.44
426.068	76.44
426.291	97.44
426.513	90.44
426.735	76.44
426.958	84.44
427.18	108.44
427.402	134.44
427.625	147.44
427.847	124.44
428.069	88.44
428.292	77.44
428.514	83.44
428.736	86.44
428.958	77.44
429.181	97.44
429.403	89.44
429.625	92.44
429.847	93.44
430.069	87.44
430.292	86.44
430.514	94.44
430.736	76.44
430.958	87.44
431.18	83.44
431.402	72.44
431.624	79.44
431.846	73.44
432.068	87.44
432.29	94.44
432.512	77.44
432.734	91.44
432.956	91.44
433.178	109.44
433.4	95.44
433.622	86.44
433.844	98.44
434.066	86.44
434.287	93.44
434.509	90.44
434.731	75.44
434.953	79.44
435.175	83.44
435.397	80.44
435.618	89.44
435.84	102.44
436.062	127.44
436.284	117.44
436.505	102.44
436.727	106.44
436.949	95.44
437.17	85.44
437.392	92.44
437.614	85.44
437.835	110.44
438.057	108.44
438.278	94.44
438.5	96.44
438.721	124.44
438.943	87.44
439.165	91.44
439.386	92.44
439.608	87.44
439.829	103.44
440.05	106.44
440.272	139.44
440.493	94.44
440.715	82.44
440.936	78.44
441.158	86.44
441.379	84.44
441.6	74.44
441.822	87.44
442.043	88.44
442.264	103.44
442.486	81.44
442.707	74.44
442.928	98.44
443.149	132.44
443.371	124.44
443.592	98.44
443.813	115.44
444.034	117.44
444.255	92.44
444.476	81.44
444.698	74.44
444.919	87.44
445.14	130.44
445.361	124.44
445.582	116.44
445.803	131.44
446.024	132.44
446.245	116.44
446.466	99.44
446.687	93.44
446.908	87.44
447.129	83.44
447.35	81.44
447.571	85.44
447.792	95.44
448.013	89.44
448.234	88.44
448.455	105.44
448.675	127.44
448.896	109.44
449.117	101.44
449.338	111.44
449.559	125.44
449.779	126.44
450	102.44
450.221	94.44
450.442	75.44
450.662	90.44
450.883	93.44
451.104	101.44
451.324	81.44
451.545	78.44
451.766	97.44
451.986	93.44
452.207	78.44
452.428	87.44
452.648	102.44
452.869	93.44
453.089	97.44
453.31	104.44
453.53	82.44
453.751	68.44
453.971	100.44
454.192	99.44
454.412	91.44
454.633	83.44
454.853	94.44
455.073	78.44
455.294	87.44
455.514	93.44
455.734	79.44
455.955	87.44
456.175	89.44
456.395	69.44
456.616	102.44
456.836	84.44
457.056	87.44
457.276	79.44
457.497	71.44
457.717	81.44
457.937	85.44
458.157	85.44
458.377	75.44
458.598	94.44
458.818	134.44
459.038	144.44
459.258	116.44
459.478	81.44
459.698	94.44
459.918	87.44
460.138	85.44
460.358	65.44
460.578	79.44
460.798	103.44
461.018	91.44
461.238	92.44
461.458	75.44
461.678	82.44
461.898	84.44
462.118	85.44
462.338	86.44
462.558	76.44
462.777	80.44
462.997	79.44
463.217	87.44
463.437	80.44
463.657	82.44
463.876	86.44
464.096	85.44
464.316	81.44
464.536	90.44
464.755	89.44
464.975	89.44
465.195	158.44
465.414	145.44
465.634	70.44
465.854	83.44
466.073	81.44
466.293	75.44
466.512	81.44
466.732	85.44
466.951	76.44
467.171	92.44
467.391	89.44
467.61	96.44
467.829	99.44
468.049	103.44
468.268	85.44
468.488	74.44
468.707	89.44
468.927	90.44
469.146	91.44
469.365	74.44
469.585	74.44
469.804	100.44
470.023	103.44
470.243	84.44
470.462	102.44
470.681	98.44
470.901	95.44
471.12	74.44
471.339	85.44
471.558	76.44
471.777	81.44
471.997	91.44
472.216	96.44
472.435	109.44
472.654	93.44
472.873	85.44
473.092	99.44
473.311	79.44
473.53	83.44
473.749	92.44
473.968	87.44
474.187	89.44
474.406	79.44
474.625	81.44
474.844	84.44
475.063	95.44
475.282	85.44
475.501	102.44
475.72	97.44
475.939	87.44
476.158	89.44
476.377	90.44
476.596	98.44
476.814	98.44
477.033	95.44
477.252	83.44
477.471	84.44
477.69	90.44
477.908	83.44
478.127	83.44
478.346	87.44
478.564	72.44
478.783	91.44
479.002	85.44
479.22	94.44
479.439	89.44
479.658	105.44
479.876	86.44
480.095	91.44
480.313	95.44
480.532	101.44
480.751	100.44
480.969	117.44
481.188	157.44
481.406	127.44
481.624	82.44
481.843	85.44
482.061	81.44
482.28	91.44
482.498	90.44
482.717	87.44
482.935	88.44
483.153	79.44
483.372	75.44
483.59	95.44
483.808	87.44
484.027	93.44
484.245	68.44
484.463	79.44
484.681	101.44
484.9	87.44
485.118	87.44
485.336	81.44
485.554	87.44
485.772	95.44
485.99	85.44
486.209	91.44
486.427	92.44
486.645	123.44
486.863	106.44
487.081	106.44
487.299	108.44
487.517	90.44
487.735	95.44
487.953	84.44
488.171	93.44
488.389	85.44
488.607	93.44
488.825	93.44
489.043	97.44
489.261	86.44
489.479	83.44
489.696	88.44
489.914	92.44
490.132	76.44
490.35	83.44
490.568	86.44
490.786	93.44
491.003	96.44
491.221	90.44
491.439	94.44
491.657	82.44
491.874	90.44
492.092	83.44
492.31	96.44
492.527	93.44
492.745	80.44
492.963	77.44
493.18	92.44
493.398	95.44
493.615	105.44
493.833	73.44
494.05	78.44
494.268	81.44
494.485	82.44
494.703	85.44
494.92	79.44
495.138	91.44
495.355	77.44
495.573	85.44
495.79	91.44
496.008	102.44
496.225	79.44
496.442	90.44
496.66	87.44
496.877	70.44
497.094	91.44
497.312	86.44
497.529	89.44
497.746	73.44
497.963	93.44
498.181	88.44
498.398	96.44
498.615	104.44
498.832	91.44
499.049	87.44
499.267	75.44
499.484	85.44
499.701	90.44
499.918	94.44
500.135	90.44
500.352	98.44
500.569	81.44
500.786	76.44
501.003	93.44
501.22	81.44
501.437	92.44
501.654	86.44
501.871	114.44
502.088	87.44
502.305	78.44
502.522	74.44
502.739	90.44
502.956	101.44
503.172	86.44
503.389	100.44
503.606	102.44
503.823	90.44
504.04	98.44
504.256	92.44
504.473	82.44
504.69	79.44
504.907	89.44
505.123	82.44
505.34	89.44
505.557	89.44
505.773	99.44
505.99	87.44
506.207	83.44
506.423	82.44
506.64	96.44
506.856	79.44
507.073	103.44
507.289	104.44
507.506	92.44
507.722	107.44
507.939	109.44
508.155	82.44
508.372	87.44
508.588	95.44
508.805	91.44
509.021	88.44
509.238	88.44
509.454	85.44
509.67	107.44
509.887	115.44
510.103	129.44
510.319	194.44
510.536	717.44
510.752	2325.44
510.968	632.44
511.184	161.44
511.401	98.44
511.617	91.44
511.833	90.44
512.049	91.44
512.265	89.44
512.481	93.44
512.698	86.44
512.914	96.44
513.13	101.44
513.346	94.44
513.562	96.44
513.778	86.44
513.994	99.44
514.21	88.44
514.426	109.44
514.642	138.44
514.858	113.44
515.074	161.44
515.29	409.44
515.506	1382.44
515.721	500.44
515.937	144.44
516.153	119.44
516.369	97.44
516.585	87.44
516.801	91.44
517.016	91.44
