Data from Uncirc_1987_H10_HRD10591_00070.txt Node
Date: Wed Jan 03 12:09:02 EST 2024
User: Yrep
Spectrometer: HR+D1059
Trigger mode: 1
Integration Time (sec): 1.000000E-1
Scans to average: 1
Electric dark correction enabled: true
Nonlinearity correction enabled: false
Boxcar width: 0
XAxis mode: Wavelengths
Number of Pixels in Spectrum: 2048
>>>>>Begin Spectral Data<<<<<
223.165	-26.19
223.4	-26.19
223.635	-26.19
223.869	-21.19
224.104	-20.19
224.338	-8.19
224.573	-7.19
224.808	-21.19
225.042	-29.19
225.277	-0.19
225.511	-4.19
225.746	7.81
225.98	25.81
226.215	18.81
226.449	27.81
226.683	15.81
226.918	16.81
227.152	24.81
227.387	26.81
227.621	29.81
227.856	49.81
228.09	42.81
228.324	62.81
228.559	73.81
228.793	62.81
229.027	63.81
229.262	61.81
229.496	57.81
229.73	94.81
229.964	90.81
230.199	68.81
230.433	82.81
230.667	80.81
230.901	62.81
231.136	81.81
231.37	66.81
231.604	68.81
231.838	85.81
232.072	90.81
232.306	73.81
232.541	80.81
232.775	80.81
233.009	77.81
233.243	74.81
233.477	89.81
233.711	90.81
233.945	75.81
234.179	82.81
234.413	83.81
234.647	88.81
234.881	81.81
235.115	77.81
235.349	86.81
235.583	85.81
235.817	74.81
236.051	88.81
236.285	74.81
236.519	77.81
236.753	87.81
236.987	66.81
237.221	85.81
237.455	90.81
237.689	87.81
237.922	78.81
238.156	76.81
238.39	70.81
238.624	80.81
238.858	84.81
239.091	78.81
239.325	77.81
239.559	73.81
239.793	83.81
240.027	66.81
240.26	72.81
240.494	85.81
240.728	67.81
240.961	80.81
241.195	76.81
241.429	86.81
241.662	81.81
241.896	78.81
242.13	79.81
242.363	68.81
242.597	76.81
242.83	78.81
243.064	83.81
243.298	84.81
243.531	81.81
243.765	74.81
243.998	80.81
244.232	93.81
244.465	82.81
244.699	86.81
244.932	96.81
245.166	85.81
245.399	87.81
245.633	85.81
245.866	73.81
246.099	80.81
246.333	85.81
246.566	61.81
246.8	82.81
247.033	75.81
247.266	92.81
247.5	73.81
247.733	73.81
247.966	78.81
248.2	53.81
248.433	73.81
248.666	78.81
248.899	91.81
249.133	87.81
249.366	94.81
249.599	104.81
249.832	78.81
250.066	78.81
250.299	93.81
250.532	89.81
250.765	83.81
250.998	78.81
251.231	60.81
251.465	69.81
251.698	83.81
251.931	68.81
252.164	80.81
252.397	80.81
252.63	94.81
252.863	84.81
253.096	93.81
253.329	88.81
253.562	78.81
253.795	88.81
254.028	81.81
254.261	82.81
254.494	85.81
254.727	88.81
254.96	83.81
255.193	83.81
255.426	88.81
255.659	87.81
255.892	87.81
256.124	90.81
256.357	84.81
256.59	93.81
256.823	84.81
257.056	97.81
257.289	79.81
257.521	80.81
257.754	86.81
257.987	76.81
258.22	88.81
258.452	90.81
258.685	77.81
258.918	89.81
259.151	72.81
259.383	90.81
259.616	80.81
259.849	64.81
260.081	76.81
260.314	82.81
260.547	67.81
260.779	80.81
261.012	89.81
261.244	80.81
261.477	82.81
261.71	99.81
261.942	100.81
262.175	92.81
262.407	92.81
262.64	85.81
262.872	81.81
263.105	86.81
263.337	82.81
263.57	79.81
263.802	85.81
264.035	83.81
264.267	88.81
264.499	77.81
264.732	88.81
264.964	89.81
265.197	84.81
265.429	89.81
265.661	84.81
265.894	86.81
266.126	87.81
266.358	77.81
266.591	80.81
266.823	87.81
267.055	82.81
267.287	80.81
267.52	68.81
267.752	78.81
267.984	87.81
268.216	68.81
268.448	85.81
268.681	89.81
268.913	68.81
269.145	88.81
269.377	87.81
269.609	82.81
269.841	72.81
270.073	81.81
270.306	82.81
270.538	86.81
270.77	72.81
271.002	81.81
271.234	98.81
271.466	87.81
271.698	83.81
271.93	88.81
272.162	68.81
272.394	75.81
272.626	86.81
272.858	74.81
273.09	79.81
273.322	78.81
273.553	88.81
273.785	81.81
274.017	81.81
274.249	84.81
274.481	82.81
274.713	79.81
274.945	87.81
275.176	86.81
275.408	95.81
275.64	76.81
275.872	97.81
276.104	99.81
276.335	102.81
276.567	95.81
276.799	98.81
277.031	102.81
277.262	84.81
277.494	87.81
277.726	99.81
277.957	67.81
278.189	82.81
278.421	89.81
278.652	94.81
278.884	68.81
279.115	78.81
279.347	90.81
279.579	82.81
279.81	87.81
280.042	95.81
280.273	88.81
280.505	88.81
280.736	71.81
280.968	79.81
281.199	79.81
281.431	89.81
281.662	86.81
281.894	96.81
282.125	77.81
282.356	114.81
282.588	138.81
282.819	92.81
283.051	83.81
283.282	79.81
283.513	88.81
283.745	91.81
283.976	90.81
284.207	84.81
284.439	87.81
284.67	81.81
284.901	73.81
285.132	85.81
285.364	102.81
285.595	105.81
285.826	80.81
286.057	95.81
286.288	80.81
286.52	86.81
286.751	98.81
286.982	87.81
287.213	95.81
287.444	98.81
287.675	82.81
287.906	91.81
288.138	89.81
288.369	88.81
288.6	98.81
288.831	100.81
289.062	95.81
289.293	100.81
289.524	86.81
289.755	90.81
289.986	78.81
290.217	80.81
290.448	97.81
290.679	73.81
290.91	91.81
291.141	80.81
291.371	90.81
291.602	89.81
291.833	84.81
292.064	78.81
292.295	92.81
292.526	88.81
292.757	91.81
292.987	78.81
293.218	80.81
293.449	84.81
293.68	89.81
293.91	89.81
294.141	104.81
294.372	84.81
294.603	83.81
294.833	94.81
295.064	85.81
295.295	82.81
295.525	84.81
295.756	105.81
295.987	103.81
296.217	124.81
296.448	112.81
296.679	98.81
296.909	97.81
297.14	80.81
297.37	86.81
297.601	95.81
297.831	85.81
298.062	94.81
298.292	100.81
298.523	87.81
298.753	108.81
298.984	90.81
299.214	75.81
299.445	106.81
299.675	100.81
299.905	88.81
300.136	83.81
300.366	92.81
300.597	88.81
300.827	101.81
301.057	86.81
301.288	95.81
301.518	102.81
301.748	84.81
301.979	77.81
302.209	86.81
302.439	93.81
302.669	100.81
302.9	92.81
303.13	85.81
303.36	87.81
303.59	95.81
303.82	86.81
304.051	100.81
304.281	90.81
304.511	116.81
304.741	90.81
304.971	94.81
305.201	89.81
305.431	92.81
305.661	102.81
305.891	94.81
306.121	97.81
306.352	118.81
306.582	100.81
306.812	94.81
307.042	89.81
307.272	80.81
307.502	91.81
307.731	93.81
307.961	103.81
308.191	86.81
308.421	95.81
308.651	100.81
308.881	71.81
309.111	98.81
309.341	102.81
309.571	96.81
309.8	95.81
310.03	86.81
310.26	87.81
310.49	95.81
310.72	100.81
310.949	99.81
311.179	106.81
311.409	78.81
311.639	86.81
311.868	81.81
312.098	79.81
312.328	97.81
312.557	102.81
312.787	101.81
313.017	87.81
313.246	90.81
313.476	87.81
313.706	98.81
313.935	95.81
314.165	86.81
314.394	95.81
314.624	73.81
314.853	101.81
315.083	93.81
315.312	83.81
315.542	95.81
315.771	96.81
316.001	107.81
316.23	108.81
316.46	87.81
316.689	92.81
316.919	92.81
317.148	102.81
317.377	98.81
317.607	96.81
317.836	95.81
318.065	88.81
318.295	111.81
318.524	93.81
318.753	92.81
318.983	100.81
319.212	101.81
319.441	97.81
319.67	98.81
319.9	95.81
320.129	92.81
320.358	92.81
320.587	96.81
320.816	97.81
321.046	93.81
321.275	90.81
321.504	86.81
321.733	102.81
321.962	106.81
322.191	97.81
322.42	104.81
322.649	98.81
322.878	120.81
323.108	111.81
323.337	111.81
323.566	119.81
323.795	143.81
324.024	193.81
324.253	370.81
324.482	770.81
324.71	1584.81
324.939	2142.81
325.168	788.81
325.397	237.81
325.626	140.81
325.855	121.81
326.084	130.81
326.313	129.81
326.542	160.81
326.77	216.81
326.999	423.81
327.228	915.81
327.457	1679.81
327.686	1338.81
327.914	361.81
328.143	182.81
328.372	146.81
328.6	121.81
328.829	107.81
329.058	124.81
329.287	121.81
329.515	114.81
329.744	98.81
329.972	100.81
330.201	108.81
330.43	121.81
330.658	107.81
330.887	123.81
331.115	116.81
331.344	101.81
331.572	101.81
331.801	94.81
332.03	95.81
332.258	100.81
332.486	85.81
332.715	89.81
332.943	93.81
333.172	86.81
333.4	101.81
333.629	98.81
333.857	103.81
334.085	89.81
334.314	103.81
334.542	99.81
334.771	102.81
334.999	94.81
335.227	82.81
335.455	80.81
335.684	94.81
335.912	93.81
336.14	99.81
336.369	103.81
336.597	89.81
336.825	83.81
337.053	86.81
337.281	84.81
337.51	79.81
337.738	98.81
337.966	90.81
338.194	92.81
338.422	99.81
338.65	100.81
338.878	83.81
339.106	90.81
339.334	103.81
339.562	88.81
339.79	103.81
340.018	85.81
340.246	83.81
340.474	88.81
340.702	89.81
340.93	70.81
341.158	95.81
341.386	97.81
341.614	102.81
341.842	97.81
342.07	85.81
342.298	89.81
342.526	94.81
342.754	85.81
342.981	89.81
343.209	86.81
343.437	108.81
343.665	104.81
343.893	103.81
344.12	98.81
344.348	88.81
344.576	97.81
344.804	98.81
345.031	81.81
345.259	105.81
345.487	97.81
345.714	91.81
345.942	73.81
346.17	93.81
346.397	71.81
346.625	80.81
346.853	87.81
347.08	98.81
347.308	92.81
347.535	101.81
347.763	99.81
347.99	94.81
348.218	94.81
348.445	93.81
348.673	101.81
348.9	96.81
349.128	87.81
349.355	91.81
349.583	94.81
349.81	85.81
350.037	97.81
350.265	90.81
350.492	92.81
350.72	102.81
350.947	98.81
351.174	104.81
351.402	110.81
351.629	102.81
351.856	101.81
352.083	104.81
352.311	108.81
352.538	108.81
352.765	110.81
352.992	111.81
353.22	93.81
353.447	113.81
353.674	93.81
353.901	105.81
354.128	90.81
354.355	116.81
354.583	99.81
354.81	101.81
355.037	85.81
355.264	110.81
355.491	95.81
355.718	88.81
355.945	91.81
356.172	89.81
356.399	92.81
356.626	93.81
356.853	79.81
357.08	98.81
357.307	100.81
357.534	95.81
357.761	93.81
357.988	101.81
358.215	109.81
358.441	92.81
358.668	98.81
358.895	79.81
359.122	93.81
359.349	78.81
359.576	95.81
359.802	118.81
360.029	118.81
360.256	104.81
360.483	96.81
360.709	95.81
360.936	98.81
361.163	87.81
361.39	90.81
361.616	96.81
361.843	95.81
362.07	90.81
362.296	114.81
362.523	97.81
362.749	106.81
362.976	85.81
363.203	92.81
363.429	96.81
363.656	87.81
363.882	97.81
364.109	73.81
364.335	93.81
364.562	90.81
364.788	103.81
365.015	76.81
365.241	107.81
365.468	94.81
365.694	104.81
365.92	88.81
366.147	86.81
366.373	88.81
366.599	89.81
366.826	84.81
367.052	73.81
367.278	74.81
367.505	78.81
367.731	85.81
367.957	87.81
368.184	92.81
368.41	100.81
368.636	116.81
368.862	127.81
369.089	95.81
369.315	95.81
369.541	90.81
369.767	88.81
369.993	99.81
370.219	81.81
370.445	87.81
370.672	93.81
370.898	87.81
371.124	82.81
371.35	95.81
371.576	104.81
371.802	74.81
372.028	80.81
372.254	83.81
372.48	94.81
372.706	97.81
372.932	99.81
373.158	87.81
373.384	95.81
373.61	98.81
373.835	89.81
374.061	92.81
374.287	99.81
374.513	84.81
374.739	76.81
374.965	85.81
375.191	87.81
375.416	107.81
375.642	86.81
375.868	90.81
376.094	100.81
376.319	81.81
376.545	100.81
376.771	101.81
376.997	86.81
377.222	92.81
377.448	81.81
377.674	95.81
377.899	87.81
378.125	82.81
378.35	94.81
378.576	95.81
378.802	87.81
379.027	103.81
379.253	88.81
379.478	94.81
379.704	103.81
379.929	83.81
380.155	100.81
380.38	82.81
380.606	85.81
380.831	102.81
381.057	87.81
381.282	82.81
381.507	99.81
381.733	105.81
381.958	88.81
382.184	90.81
382.409	105.81
382.634	109.81
382.86	93.81
383.085	116.81
383.31	95.81
383.535	90.81
383.761	96.81
383.986	82.81
384.211	95.81
384.436	94.81
384.662	98.81
384.887	80.81
385.112	98.81
385.337	90.81
385.562	97.81
385.787	94.81
386.013	97.81
386.238	99.81
386.463	96.81
386.688	95.81
386.913	101.81
387.138	97.81
387.363	90.81
387.588	102.81
387.813	85.81
388.038	89.81
388.263	103.81
388.488	100.81
388.713	103.81
388.938	88.81
389.163	89.81
389.387	100.81
389.612	84.81
389.837	97.81
390.062	98.81
390.287	83.81
390.512	103.81
390.736	92.81
390.961	100.81
391.186	95.81
391.411	95.81
391.636	98.81
391.86	96.81
392.085	99.81
392.31	101.81
392.534	85.81
392.759	93.81
392.984	93.81
393.208	80.81
393.433	82.81
393.658	98.81
393.882	85.81
394.107	88.81
394.331	97.81
394.556	82.81
394.78	84.81
395.005	88.81
395.229	85.81
395.454	100.81
395.678	84.81
395.903	73.81
396.127	96.81
396.352	94.81
396.576	78.81
396.801	88.81
397.025	81.81
397.249	96.81
397.474	93.81
397.698	73.81
397.922	84.81
398.147	92.81
398.371	73.81
398.595	85.81
398.82	94.81
399.044	84.81
399.268	73.81
399.492	86.81
399.717	82.81
399.941	86.81
400.165	97.81
400.389	76.81
400.613	85.81
400.837	103.81
401.062	97.81
401.286	80.81
401.51	81.81
401.734	92.81
401.958	93.81
402.182	113.81
402.406	134.81
402.63	106.81
402.854	96.81
403.078	79.81
403.302	88.81
403.526	90.81
403.75	100.81
403.974	90.81
404.198	72.81
404.422	95.81
404.645	97.81
404.869	100.81
405.093	96.81
405.317	90.81
405.541	94.81
405.765	91.81
405.988	118.81
406.212	134.81
406.436	208.81
406.66	137.81
406.883	96.81
407.107	85.81
407.331	104.81
407.555	107.81
407.778	101.81
408.002	83.81
408.226	94.81
408.449	96.81
408.673	95.81
408.896	105.81
409.12	95.81
409.344	73.81
409.567	78.81
409.791	78.81
410.014	102.81
410.238	101.81
410.461	101.81
410.685	98.81
410.908	90.81
411.132	110.81
411.355	97.81
411.578	89.81
411.802	81.81
412.025	90.81
412.249	74.81
412.472	86.81
412.695	85.81
412.919	91.81
413.142	82.81
413.365	84.81
413.589	94.81
413.812	92.81
414.035	73.81
414.258	88.81
414.482	92.81
414.705	87.81
414.928	80.81
415.151	102.81
415.374	89.81
415.597	83.81
415.821	93.81
416.044	84.81
416.267	81.81
416.49	94.81
416.713	74.81
416.936	105.81
417.159	80.81
417.382	90.81
417.605	101.81
417.828	98.81
418.051	96.81
418.274	96.81
418.497	101.81
418.72	89.81
418.943	84.81
419.166	76.81
419.389	85.81
419.611	88.81
419.834	86.81
420.057	96.81
420.28	83.81
420.503	87.81
420.726	89.81
420.948	85.81
421.171	85.81
421.394	77.81
421.617	82.81
421.839	86.81
422.062	89.81
422.285	104.81
422.507	85.81
422.73	96.81
422.953	89.81
423.175	78.81
423.398	90.81
423.621	76.81
423.843	72.81
424.066	90.81
424.288	91.81
424.511	92.81
424.733	103.81
424.956	111.81
425.178	94.81
425.401	98.81
425.623	105.81
425.846	93.81
426.068	79.81
426.291	98.81
426.513	81.81
426.735	100.81
426.958	88.81
427.18	105.81
427.402	134.81
427.625	154.81
427.847	132.81
428.069	116.81
428.292	87.81
428.514	79.81
428.736	98.81
428.958	84.81
429.181	80.81
429.403	86.81
429.625	91.81
429.847	95.81
430.069	94.81
430.292	100.81
430.514	84.81
430.736	89.81
430.958	79.81
431.18	84.81
431.402	84.81
431.624	86.81
431.846	92.81
432.068	86.81
432.29	95.81
432.512	86.81
432.734	82.81
432.956	84.81
433.178	105.81
433.4	79.81
433.622	87.81
433.844	82.81
434.066	101.81
434.287	87.81
434.509	90.81
434.731	91.81
434.953	96.81
435.175	91.81
435.397	92.81
435.618	92.81
435.84	103.81
436.062	124.81
436.284	128.81
436.505	94.81
436.727	92.81
436.949	90.81
437.17	89.81
437.392	85.81
437.614	81.81
437.835	93.81
438.057	105.81
438.278	93.81
438.5	101.81
438.721	98.81
438.943	85.81
439.165	92.81
439.386	81.81
439.608	81.81
439.829	95.81
440.05	126.81
440.272	129.81
440.493	92.81
440.715	86.81
440.936	85.81
441.158	106.81
441.379	88.81
441.6	90.81
441.822	104.81
442.043	90.81
442.264	105.81
442.486	94.81
442.707	81.81
442.928	98.81
443.149	109.81
443.371	128.81
443.592	101.81
443.813	117.81
444.034	107.81
444.255	97.81
444.476	91.81
444.698	87.81
444.919	77.81
445.14	121.81
445.361	104.81
445.582	101.81
445.803	130.81
446.024	123.81
446.245	116.81
446.466	100.81
446.687	82.81
446.908	88.81
447.129	92.81
447.35	90.81
447.571	99.81
447.792	85.81
448.013	92.81
448.234	112.81
448.455	113.81
448.675	96.81
448.896	114.81
449.117	94.81
449.338	101.81
449.559	112.81
449.779	126.81
450	98.81
450.221	82.81
450.442	90.81
450.662	110.81
450.883	109.81
451.104	117.81
451.324	89.81
451.545	102.81
451.766	86.81
451.986	83.81
452.207	76.81
452.428	89.81
452.648	94.81
452.869	110.81
453.089	102.81
453.31	100.81
453.53	94.81
453.751	79.81
453.971	118.81
454.192	109.81
454.412	93.81
454.633	81.81
454.853	118.81
455.073	71.81
455.294	72.81
455.514	95.81
455.734	98.81
455.955	88.81
456.175	70.81
456.395	89.81
456.616	83.81
456.836	100.81
457.056	82.81
457.276	94.81
457.497	84.81
457.717	87.81
457.937	94.81
458.157	83.81
458.377	86.81
458.598	106.81
458.818	134.81
459.038	136.81
459.258	110.81
459.478	98.81
459.698	71.81
459.918	76.81
460.138	88.81
460.358	93.81
460.578	85.81
460.798	92.81
461.018	105.81
461.238	79.81
461.458	81.81
461.678	89.81
461.898	81.81
462.118	75.81
462.338	88.81
462.558	84.81
462.777	78.81
462.997	94.81
463.217	81.81
463.437	87.81
463.657	80.81
463.876	95.81
464.096	76.81
464.316	81.81
464.536	72.81
464.755	96.81
464.975	97.81
465.195	156.81
465.414	141.81
465.634	103.81
465.854	80.81
466.073	66.81
466.293	101.81
466.512	89.81
466.732	74.81
466.951	102.81
467.171	86.81
467.391	87.81
467.61	90.81
467.829	87.81
468.049	102.81
468.268	97.81
468.488	90.81
468.707	78.81
468.927	89.81
469.146	84.81
469.365	91.81
469.585	81.81
469.804	94.81
470.023	98.81
470.243	99.81
470.462	89.81
470.681	92.81
470.901	81.81
471.12	84.81
471.339	82.81
471.558	103.81
471.777	95.81
471.997	80.81
472.216	111.81
472.435	105.81
472.654	85.81
472.873	86.81
473.092	88.81
473.311	87.81
473.53	76.81
473.749	78.81
473.968	87.81
474.187	95.81
474.406	96.81
474.625	80.81
474.844	93.81
475.063	84.81
475.282	99.81
475.501	81.81
475.72	92.81
475.939	91.81
476.158	86.81
476.377	91.81
476.596	73.81
476.814	99.81
477.033	91.81
477.252	90.81
477.471	89.81
477.69	95.81
477.908	97.81
478.127	92.81
478.346	90.81
478.564	81.81
478.783	89.81
479.002	80.81
479.22	110.81
479.439	101.81
479.658	92.81
479.876	88.81
480.095	84.81
480.313	96.81
480.532	83.81
480.751	101.81
480.969	103.81
481.188	132.81
481.406	124.81
481.624	100.81
481.843	87.81
482.061	93.81
482.28	78.81
482.498	81.81
482.717	79.81
482.935	81.81
483.153	98.81
483.372	82.81
483.59	92.81
483.808	86.81
484.027	89.81
484.245	94.81
484.463	97.81
484.681	104.81
484.9	95.81
485.118	102.81
485.336	98.81
485.554	104.81
485.772	101.81
485.99	99.81
486.209	99.81
486.427	101.81
486.645	98.81
486.863	107.81
487.081	98.81
487.299	89.81
487.517	82.81
487.735	97.81
487.953	89.81
488.171	96.81
488.389	105.81
488.607	104.81
488.825	100.81
489.043	87.81
489.261	106.81
489.479	79.81
489.696	87.81
489.914	77.81
490.132	107.81
490.35	98.81
490.568	86.81
490.786	78.81
491.003	81.81
491.221	86.81
491.439	92.81
491.657	97.81
491.874	89.81
492.092	94.81
492.31	86.81
492.527	71.81
492.745	93.81
492.963	96.81
493.18	90.81
493.398	89.81
493.615	96.81
493.833	96.81
494.05	89.81
494.268	75.81
494.485	88.81
494.703	98.81
494.92	84.81
495.138	78.81
495.355	93.81
495.573	84.81
495.79	80.81
496.008	90.81
496.225	89.81
496.442	98.81
496.66	90.81
496.877	86.81
497.094	107.81
497.312	93.81
497.529	89.81
497.746	85.81
497.963	86.81
498.181	88.81
498.398	91.81
498.615	104.81
498.832	99.81
499.049	96.81
499.267	81.81
499.484	83.81
499.701	80.81
499.918	89.81
500.135	104.81
500.352	108.81
500.569	83.81
500.786	96.81
501.003	76.81
501.22	88.81
501.437	84.81
501.654	94.81
501.871	96.81
502.088	81.81
502.305	97.81
502.522	97.81
502.739	103.81
502.956	91.81
503.172	84.81
503.389	97.81
503.606	80.81
503.823	90.81
504.04	97.81
504.256	105.81
504.473	86.81
504.69	87.81
504.907	78.81
505.123	87.81
505.34	90.81
505.557	88.81
505.773	90.81
505.99	83.81
506.207	99.81
506.423	77.81
506.64	92.81
506.856	85.81
507.073	82.81
507.289	103.81
507.506	90.81
507.722	106.81
507.939	107.81
508.155	78.81
508.372	86.81
508.588	97.81
508.805	109.81
509.021	96.81
509.238	103.81
509.454	103.81
509.67	105.81
509.887	105.81
510.103	130.81
510.319	198.81
510.536	677.81
510.752	2103.81
510.968	572.81
511.184	145.81
511.401	105.81
511.617	93.81
511.833	93.81
512.049	93.81
512.265	94.81
512.481	88.81
512.698	90.81
512.914	85.81
513.13	94.81
513.346	98.81
513.562	97.81
513.778	94.81
513.994	97.81
514.21	108.81
514.426	126.81
514.642	144.81
514.858	108.81
515.074	151.81
515.29	390.81
515.506	1310.81
515.721	490.81
515.937	152.81
