Data from Uncirc_1987_H10_HRD10591_00011.txt Node
Date: Wed Jan 03 12:08:50 EST 2024
User: Yrep
Spectrometer: HR+D1059
Trigger mode: 1
Integration Time (sec): 1.000000E-1
Scans to average: 1
Electric dark correction enabled: true
Nonlinearity correction enabled: false
Boxcar width: 0
XAxis mode: Wavelengths
Number of Pixels in Spectrum: 2048
>>>>>Begin Spectral Data<<<<<
223.165	-12.06
223.4	-12.06
223.635	-12.06
223.869	-15.06
224.104	-19.06
224.338	-16.06
224.573	-15.06
224.808	-13.06
225.042	-8.06
225.277	-15.06
225.511	3.94
225.746	12.94
225.98	14.94
226.215	3.94
226.449	-1.06
226.683	22.94
226.918	24.94
227.152	30.94
227.387	27.94
227.621	44.94
227.856	38.94
228.09	44.94
228.324	48.94
228.559	50.94
228.793	149.94
229.027	428.94
229.262	469.94
229.496	569.94
229.73	747.94
229.964	721.94
230.199	511.94
230.433	463.94
230.667	474.94
230.901	430.94
231.136	437.94
231.37	436.94
231.604	455.94
231.838	445.94
232.072	460.94
232.306	448.94
232.541	439.94
232.775	478.94
233.009	451.94
233.243	452.94
233.477	470.94
233.711	479.94
233.945	502.94
234.179	499.94
234.413	499.94
234.647	493.94
234.881	510.94
235.115	520.94
235.349	525.94
235.583	553.94
235.817	582.94
236.051	622.94
236.285	599.94
236.519	573.94
236.753	653.94
236.987	837.94
237.221	1253.94
237.455	1341.94
237.689	820.94
237.922	725.94
238.156	670.94
238.39	652.94
238.624	634.94
238.858	622.94
239.091	635.94
239.325	631.94
239.559	642.94
239.793	662.94
240.027	719.94
240.26	848.94
240.494	924.94
240.728	887.94
240.961	869.94
241.195	788.94
241.429	772.94
241.662	750.94
241.896	767.94
242.13	766.94
242.363	745.94
242.597	764.94
242.83	782.94
243.064	780.94
243.298	795.94
243.531	835.94
243.765	811.94
243.998	814.94
244.232	847.94
244.465	862.94
244.699	878.94
244.932	878.94
245.166	870.94
245.399	890.94
245.633	908.94
245.866	899.94
246.099	894.94
246.333	933.94
246.566	940.94
246.8	967.94
247.033	987.94
247.266	1050.94
247.5	1053.94
247.733	1115.94
247.966	1114.94
248.2	1093.94
248.433	1106.94
248.666	1184.94
248.899	1269.94
249.133	1372.94
249.366	1324.94
249.599	1274.94
249.832	1193.94
250.066	1185.94
250.299	1227.94
250.532	1279.94
250.765	1409.94
250.998	1589.94
251.231	1550.94
251.465	1437.94
251.698	1392.94
251.931	1372.94
252.164	1386.94
252.397	1349.94
252.63	1383.94
252.863	1455.94
253.096	1514.94
253.329	1635.94
253.562	1570.94
253.795	1500.94
254.028	1504.94
254.261	1559.94
254.494	1702.94
254.727	1940.94
254.96	2069.94
255.193	1830.94
255.426	1656.94
255.659	1570.94
255.892	1553.94
256.124	1525.94
256.357	1487.94
256.59	1498.94
256.823	1455.94
257.056	1471.94
257.289	1448.94
257.521	1509.94
257.754	1486.94
257.987	1494.94
258.22	1518.94
258.452	1474.94
258.685	1507.94
258.918	1517.94
259.151	1583.94
259.383	1628.94
259.616	1656.94
259.849	1647.94
260.081	1824.94
260.314	1926.94
260.547	1882.94
260.779	1807.94
261.012	1708.94
261.244	1679.94
261.477	1614.94
261.71	1602.94
261.942	1710.94
262.175	1696.94
262.407	1640.94
262.64	1562.94
262.872	1593.94
263.105	1577.94
263.337	1599.94
263.57	1611.94
263.802	1638.94
264.035	1610.94
264.267	1670.94
264.499	1629.94
264.732	1644.94
264.964	1632.94
265.197	1695.94
265.429	1690.94
265.661	1649.94
265.894	1692.94
266.126	1698.94
266.358	1669.94
266.591	1725.94
266.823	1782.94
267.055	1787.94
267.287	1821.94
267.52	1778.94
267.752	1797.94
267.984	1824.94
268.216	1799.94
268.448	1888.94
268.681	1910.94
268.913	2054.94
269.145	2204.94
269.377	2254.94
269.609	2122.94
269.841	2103.94
270.073	2264.94
270.306	2486.94
270.538	2648.94
270.77	2519.94
271.002	2366.94
271.234	2323.94
271.466	2445.94
271.698	2566.94
271.93	2558.94
272.162	2625.94
272.394	2541.94
272.626	2386.94
272.858	2266.94
273.09	2210.94
273.322	2227.94
273.553	2170.94
273.785	2110.94
274.017	2149.94
274.249	2156.94
274.481	2152.94
274.713	2177.94
274.945	2240.94
275.176	2178.94
275.408	2159.94
275.64	2209.94
275.872	2233.94
276.104	2164.94
276.335	2223.94
276.567	2307.94
276.799	2382.94
277.031	2598.94
277.262	2689.94
277.494	2570.94
277.726	2445.94
277.957	2416.94
278.189	2333.94
278.421	2319.94
278.652	2348.94
278.884	2291.94
279.115	2277.94
279.347	2326.94
279.579	2312.94
279.81	2329.94
280.042	2324.94
280.273	2300.94
280.505	2346.94
280.736	2297.94
280.968	2332.94
281.199	2364.94
281.431	2400.94
281.662	2370.94
281.894	2354.94
282.125	2396.94
282.356	2540.94
282.588	2704.94
282.819	2564.94
283.051	2484.94
283.282	2416.94
283.513	2528.94
283.745	2558.94
283.976	2557.94
284.207	2530.94
284.439	2580.94
284.67	2510.94
284.901	2525.94
285.132	2557.94
285.364	2502.94
285.595	2518.94
285.826	2578.94
286.057	2582.94
286.288	2554.94
286.52	2619.94
286.751	2606.94
286.982	2632.94
287.213	2636.94
287.444	2655.94
287.675	2670.94
287.906	2740.94
288.138	2840.94
288.369	2799.94
288.6	2764.94
288.831	2739.94
289.062	2687.94
289.293	2749.94
289.524	2730.94
289.755	2709.94
289.986	2667.94
290.217	2668.94
290.448	2682.94
290.679	2718.94
290.91	2742.94
291.141	2723.94
291.371	2719.94
291.602	2719.94
291.833	2684.94
292.064	2748.94
292.295	2704.94
292.526	2732.94
292.757	2744.94
292.987	2718.94
293.218	2690.94
293.449	2772.94
293.68	2731.94
293.91	2749.94
294.141	2771.94
294.372	2737.94
294.603	2705.94
294.833	2766.94
295.064	2778.94
295.295	2835.94
295.525	2785.94
295.756	2831.94
295.987	2894.94
296.217	3028.94
296.448	2978.94
296.679	2845.94
296.909	2840.94
297.14	2842.94
297.37	2918.94
297.601	2949.94
297.831	2968.94
298.062	2908.94
298.292	2961.94
298.523	3014.94
298.753	2973.94
298.984	3005.94
299.214	2992.94
299.445	2941.94
299.675	3032.94
299.905	3055.94
300.136	3051.94
300.366	3033.94
300.597	3049.94
300.827	3165.94
301.057	3219.94
301.288	3280.94
301.518	3215.94
301.748	3219.94
301.979	3266.94
302.209	3268.94
302.439	3259.94
302.669	3239.94
302.9	3195.94
303.13	3154.94
303.36	3255.94
303.59	3214.94
303.82	3280.94
304.051	3235.94
304.281	3200.94
304.511	3138.94
304.741	3169.94
304.971	3199.94
305.201	3146.94
305.431	3153.94
305.661	3184.94
305.891	3103.94
306.121	3194.94
306.352	3205.94
306.582	3171.94
306.812	3064.94
307.042	3137.94
307.272	3181.94
307.502	3138.94
307.731	3150.94
307.961	3123.94
308.191	3154.94
308.421	3155.94
308.651	3211.94
308.881	3152.94
309.111	3215.94
309.341	3181.94
309.571	3332.94
309.8	3320.94
310.03	3363.94
310.26	3384.94
310.49	3404.94
310.72	3473.94
310.949	3525.94
311.179	3460.94
311.409	3426.94
311.639	3426.94
311.868	3477.94
312.098	3478.94
312.328	3567.94
312.557	3639.94
312.787	3755.94
313.017	3660.94
313.246	3570.94
313.476	3500.94
313.706	3597.94
313.935	3648.94
314.165	3712.94
314.394	3704.94
314.624	3659.94
314.853	3631.94
315.083	3575.94
315.312	3618.94
315.542	3559.94
315.771	3485.94
316.001	3490.94
316.23	3478.94
316.46	3554.94
316.689	3564.94
316.919	3577.94
317.148	3604.94
317.377	3612.94
317.607	3535.94
317.836	3496.94
318.065	3503.94
318.295	3484.94
318.524	3526.94
318.753	3540.94
318.983	3501.94
319.212	3478.94
319.441	3534.94
319.67	3587.94
319.9	3489.94
320.129	3518.94
320.358	3523.94
320.587	3572.94
320.816	3643.94
321.046	3682.94
321.275	3634.94
321.504	3607.94
321.733	3686.94
321.962	3660.94
322.191	3704.94
322.42	3889.94
322.649	3907.94
322.878	3976.94
323.108	4022.94
323.337	4225.94
323.566	4321.94
323.795	4525.94
324.024	5050.94
324.253	6402.94
324.482	9490.94
324.71	14090.94
324.939	15624.94
325.168	10650.94
325.397	5914.94
325.626	4850.94
325.855	4549.94
326.084	4432.94
326.313	4428.94
326.542	4555.94
326.77	5064.94
326.999	6286.94
327.228	9065.94
327.457	13114.94
327.686	12293.94
327.914	6565.94
328.143	5237.94
328.372	4992.94
328.6	4781.94
328.829	4778.94
329.058	4883.94
329.287	4862.94
329.515	4588.94
329.744	4383.94
329.972	4388.94
330.201	4541.94
330.43	4706.94
330.658	4880.94
330.887	5142.94
331.115	4844.94
331.344	4613.94
331.572	4596.94
331.801	4682.94
332.03	4682.94
332.258	4641.94
332.486	4671.94
332.715	4737.94
332.943	4899.94
333.172	5068.94
333.4	5118.94
333.629	5249.94
333.857	5317.94
334.085	5290.94
334.314	5166.94
334.542	5100.94
334.771	5131.94
334.999	4954.94
335.227	4974.94
335.455	4879.94
335.684	4791.94
335.912	4813.94
336.14	4672.94
336.369	4650.94
336.597	4748.94
336.825	4678.94
337.053	4615.94
337.281	4578.94
337.51	4512.94
337.738	4518.94
337.966	4470.94
338.194	4501.94
338.422	4411.94
338.65	4313.94
338.878	4300.94
339.106	4302.94
339.334	4339.94
339.562	4247.94
339.79	4215.94
340.018	4194.94
340.246	4189.94
340.474	4221.94
340.702	4188.94
340.93	4146.94
341.158	4217.94
341.386	4177.94
341.614	4166.94
341.842	4134.94
342.07	4054.94
342.298	4061.94
342.526	4072.94
342.754	4050.94
342.981	4078.94
343.209	4258.94
343.437	4429.94
343.665	4689.94
343.893	4944.94
344.12	4926.94
344.348	4700.94
344.576	4629.94
344.804	4507.94
345.031	4374.94
345.259	4400.94
345.487	4250.94
345.714	4124.94
345.942	4043.94
346.17	3965.94
346.397	4093.94
346.625	4010.94
346.853	3927.94
347.08	3970.94
347.308	4060.94
347.535	4024.94
347.763	4113.94
347.99	4030.94
348.218	4074.94
348.445	4056.94
348.673	3968.94
348.9	3959.94
349.128	3894.94
349.355	3891.94
349.583	3907.94
349.81	3852.94
350.037	3855.94
350.265	3872.94
350.492	3846.94
350.72	3874.94
350.947	3948.94
351.174	3992.94
351.402	3982.94
351.629	3920.94
351.856	3927.94
352.083	4003.94
352.311	3998.94
352.538	3992.94
352.765	3929.94
352.992	3832.94
353.22	3891.94
353.447	3845.94
353.674	3856.94
353.901	3781.94
354.128	3778.94
354.355	3742.94
354.583	3761.94
354.81	3772.94
355.037	3823.94
355.264	3746.94
355.491	3730.94
355.718	3758.94
355.945	3780.94
356.172	3787.94
356.399	3847.94
356.626	3762.94
356.853	3736.94
357.08	3740.94
357.307	3764.94
357.534	3762.94
357.761	3807.94
357.988	3764.94
358.215	3825.94
358.441	3808.94
358.668	3839.94
358.895	3837.94
359.122	3835.94
359.349	3880.94
359.576	4064.94
359.802	4172.94
360.029	4326.94
360.256	4235.94
360.483	4132.94
360.709	3975.94
360.936	3952.94
361.163	3985.94
361.39	4029.94
361.616	3969.94
361.843	3975.94
362.07	3915.94
362.296	4001.94
362.523	3960.94
362.749	3966.94
362.976	3875.94
363.203	3799.94
363.429	3806.94
363.656	3852.94
363.882	3918.94
364.109	3770.94
364.335	3837.94
364.562	3814.94
364.788	3819.94
365.015	3850.94
365.241	3875.94
365.468	3864.94
365.694	3934.94
365.92	3863.94
366.147	3818.94
366.373	3837.94
366.599	3850.94
366.826	3856.94
367.052	3835.94
367.278	3847.94
367.505	3854.94
367.731	3898.94
367.957	3955.94
368.184	3894.94
368.41	3973.94
368.636	4024.94
368.862	4061.94
369.089	3976.94
369.315	3958.94
369.541	3906.94
369.767	3999.94
369.993	3971.94
370.219	3979.94
370.445	3994.94
370.672	4016.94
370.898	4048.94
371.124	4105.94
371.35	4159.94
371.576	4034.94
371.802	4096.94
372.028	4144.94
372.254	4112.94
372.48	4173.94
372.706	4255.94
372.932	4309.94
373.158	4235.94
373.384	4184.94
373.61	4119.94
373.835	4146.94
374.061	4223.94
374.287	4148.94
374.513	4375.94
374.739	4471.94
374.965	4507.94
375.191	4581.94
375.416	4510.94
375.642	4363.94
375.868	4315.94
376.094	4280.94
376.319	4219.94
376.545	4217.94
376.771	4191.94
376.997	4156.94
377.222	4128.94
377.448	4103.94
377.674	4128.94
377.899	4117.94
378.125	4087.94
378.35	4086.94
378.576	4115.94
378.802	4053.94
379.027	4079.94
379.253	4115.94
379.478	4091.94
379.704	4081.94
379.929	4102.94
380.155	4097.94
380.38	4131.94
380.606	4167.94
380.831	4075.94
381.057	4156.94
381.282	4175.94
381.507	4182.94
381.733	4185.94
381.958	4206.94
382.184	4314.94
382.409	4365.94
382.634	4398.94
382.86	4379.94
383.085	4410.94
383.31	4472.94
383.535	4588.94
383.761	4589.94
383.986	4673.94
384.211	4726.94
384.436	4832.94
384.662	4915.94
384.887	5015.94
385.112	4922.94
385.337	5003.94
385.562	4931.94
385.787	5005.94
386.013	5026.94
386.238	5128.94
386.463	5081.94
386.688	5076.94
386.913	4935.94
387.138	4954.94
387.363	4959.94
387.588	4917.94
387.813	5033.94
388.038	4939.94
388.263	4980.94
388.488	5004.94
388.713	4942.94
388.938	4915.94
389.163	4912.94
389.387	4870.94
389.612	4881.94
389.837	4912.94
390.062	4790.94
390.287	4912.94
390.512	4894.94
390.736	4915.94
390.961	5057.94
391.186	5094.94
391.411	5273.94
391.636	5393.94
391.86	5503.94
392.085	5593.94
392.31	5522.94
392.534	5338.94
392.759	5220.94
392.984	5203.94
393.208	5115.94
393.433	5140.94
393.658	5108.94
393.882	5126.94
394.107	5131.94
394.331	5236.94
394.556	5223.94
394.78	5298.94
395.005	5300.94
395.229	5300.94
395.454	5450.94
395.678	5560.94
395.903	5611.94
396.127	5633.94
396.352	5392.94
396.576	5305.94
396.801	5200.94
397.025	5341.94
397.249	5470.94
397.474	5603.94
397.698	5555.94
397.922	5658.94
398.147	5861.94
398.371	5900.94
398.595	5944.94
398.82	6318.94
399.044	6875.94
399.268	7642.94
399.492	8676.94
399.717	9222.94
399.941	8967.94
400.165	8358.94
400.389	7743.94
400.613	7055.94
400.837	6551.94
401.062	6359.94
401.286	6223.94
401.51	6216.94
401.734	6271.94
401.958	6314.94
402.182	6378.94
402.406	6561.94
402.63	6577.94
402.854	6729.94
403.078	6726.94
403.302	6969.94
403.526	7017.94
403.75	7070.94
403.974	7078.94
404.198	7141.94
404.422	7161.94
404.645	7083.94
404.869	7042.94
405.093	7182.94
405.317	7231.94
405.541	7150.94
405.765	6925.94
405.988	6876.94
406.212	7071.94
406.436	7242.94
406.66	7350.94
406.883	7394.94
407.107	7906.94
407.331	8492.94
407.555	8966.94
407.778	8646.94
408.002	7955.94
408.226	7545.94
408.449	7379.94
408.673	7304.94
408.896	7511.94
409.12	7635.94
409.344	7146.94
409.567	6884.94
409.791	6866.94
410.014	6775.94
410.238	6719.94
410.461	6659.94
410.685	6790.94
410.908	6847.94
411.132	6972.94
411.355	7062.94
411.578	6690.94
411.802	6521.94
412.025	6416.94
412.249	6525.94
412.472	6499.94
412.695	6449.94
412.919	6232.94
413.142	6235.94
413.365	6156.94
413.589	6139.94
413.812	6088.94
414.035	6049.94
414.258	6094.94
414.482	6002.94
414.705	6202.94
414.928	6169.94
415.151	6201.94
415.374	6161.94
415.597	5957.94
415.821	5958.94
416.044	6063.94
416.267	5954.94
416.49	5968.94
416.713	5956.94
416.936	5952.94
417.159	6020.94
417.382	6117.94
417.605	6066.94
417.828	6200.94
418.051	6326.94
418.274	6252.94
418.497	6187.94
418.72	6295.94
418.943	6195.94
419.166	6523.94
419.389	6935.94
419.611	6873.94
419.834	6646.94
420.057	6532.94
420.28	6288.94
420.503	6084.94
420.726	6147.94
420.948	6281.94
421.171	6695.94
421.394	6651.94
421.617	6195.94
421.839	6276.94
422.062	6371.94
422.285	6424.94
422.507	7053.94
422.73	7491.94
422.953	6958.94
423.175	6676.94
423.398	6694.94
423.621	6675.94
423.843	6950.94
424.066	6965.94
424.288	6740.94
424.511	7018.94
424.733	7492.94
424.956	7860.94
425.178	7398.94
425.401	7497.94
425.623	7388.94
425.846	6431.94
426.068	6391.94
426.291	6277.94
426.513	6252.94
426.735	6328.94
426.958	6760.94
427.18	7447.94
427.402	8483.94
427.625	8364.94
427.847	7098.94
428.069	6369.94
428.292	6113.94
428.514	5806.94
428.736	5782.94
428.958	5820.94
429.181	5520.94
429.403	5603.94
429.625	5739.94
429.847	6053.94
430.069	6510.94
430.292	6046.94
430.514	5552.94
430.736	5599.94
430.958	5478.94
431.18	5400.94
431.402	5443.94
431.624	5405.94
431.846	5506.94
432.068	5483.94
432.29	5621.94
432.512	5522.94
432.734	5626.94
432.956	5561.94
433.178	5525.94
433.4	5584.94
433.622	5584.94
433.844	5534.94
434.066	5544.94
434.287	5628.94
434.509	5867.94
434.731	6065.94
434.953	6195.94
435.175	6352.94
435.397	6379.94
435.618	6282.94
435.84	6659.94
436.062	7411.94
436.284	7401.94
436.505	6228.94
436.727	5972.94
436.949	5768.94
437.17	5679.94
437.392	5528.94
437.614	5772.94
437.835	6083.94
438.057	6851.94
438.278	7411.94
438.5	7440.94
438.721	8232.94
438.943	7151.94
439.165	6053.94
439.386	5977.94
439.608	5956.94
439.829	5969.94
440.05	6364.94
440.272	6560.94
440.493	6098.94
440.715	5909.94
440.936	5900.94
441.158	5835.94
441.379	6009.94
441.6	6255.94
441.822	6562.94
442.043	6930.94
442.264	7618.94
442.486	7286.94
442.707	6574.94
442.928	6441.94
443.149	6594.94
443.371	6762.94
443.592	7226.94
443.813	8281.94
444.034	8181.94
444.255	7111.94
444.476	6998.94
444.698	7203.94
444.919	7277.94
445.14	7114.94
445.361	6986.94
445.582	6978.94
445.803	7415.94
446.024	8092.94
446.245	7671.94
446.466	7069.94
446.687	6176.94
446.908	5889.94
447.129	5589.94
447.35	5370.94
447.571	5385.94
447.792	5304.94
448.013	5407.94
448.234	5521.94
448.455	6092.94
448.675	7242.94
448.896	7705.94
449.117	6382.94
449.338	6593.94
449.559	7742.94
449.779	7948.94
450	6176.94
450.221	5542.94
450.442	5318.94
450.662	5249.94
450.883	5283.94
451.104	5314.94
451.324	5141.94
451.545	5090.94
451.766	4965.94
451.986	4898.94
452.207	4845.94
452.428	4890.94
452.648	4914.94
452.869	4870.94
453.089	4922.94
453.31	5038.94
453.53	4855.94
453.751	4857.94
453.971	4816.94
454.192	4924.94
454.412	4730.94
454.633	4764.94
454.853	4668.94
455.073	4739.94
455.294	5061.94
455.514	5512.94
455.734	4999.94
455.955	4659.94
456.175	4524.94
456.395	4517.94
456.616	4477.94
456.836	4497.94
457.056	4489.94
457.276	4392.94
457.497	4520.94
457.717	4519.94
457.937	4607.94
458.157	4641.94
458.377	4710.94
458.598	5056.94
458.818	5545.94
459.038	6250.94
459.258	6247.94
459.478	5706.94
459.698	5548.94
459.918	5569.94
460.138	5767.94
460.358	5989.94
460.578	6023.94
460.798	6087.94
461.018	6156.94
461.238	5945.94
461.458	6037.94
461.678	5923.94
461.898	6087.94
462.118	6068.94
462.338	6419.94
462.558	6565.94
462.777	6924.94
462.997	7452.94
463.217	7859.94
463.437	7586.94
463.657	7035.94
463.876	6854.94
464.096	6880.94
464.316	6929.94
464.536	6908.94
464.755	6640.94
464.975	6556.94
465.195	6619.94
465.414	6479.94
465.634	5834.94
465.854	5577.94
466.073	5379.94
466.293	5241.94
466.512	5132.94
466.732	5055.94
466.951	5090.94
467.171	5010.94
467.391	5047.94
467.61	5079.94
467.829	5010.94
468.049	5003.94
468.268	4775.94
468.488	4758.94
468.707	4722.94
468.927	4764.94
469.146	4743.94
469.365	4826.94
469.585	4863.94
469.804	5078.94
470.023	5204.94
470.243	5137.94
470.462	5315.94
470.681	5313.94
470.901	5262.94
471.12	5157.94
471.339	5088.94
471.558	5075.94
471.777	5016.94
471.997	4892.94
472.216	4870.94
472.435	4877.94
472.654	4789.94
472.873	4768.94
473.092	4707.94
473.311	4791.94
473.53	4770.94
473.749	4886.94
473.968	5376.94
474.187	6290.94
474.406	5842.94
474.625	5043.94
474.844	4874.94
475.063	4811.94
475.282	4803.94
475.501	4909.94
475.72	4903.94
475.939	4942.94
476.158	4989.94
476.377	4969.94
476.596	4988.94
476.814	5093.94
477.033	5102.94
477.252	5195.94
477.471	5316.94
477.69	5436.94
477.908	5498.94
478.127	5615.94
478.346	5755.94
478.564	5801.94
478.783	5875.94
479.002	6018.94
479.22	6020.94
479.439	6040.94
479.658	6267.94
479.876	6252.94
480.095	6471.94
480.313	6830.94
480.532	6753.94
480.751	6570.94
480.969	6381.94
481.188	6353.94
481.406	6101.94
481.624	5928.94
481.843	5890.94
482.061	5660.94
482.28	5720.94
482.498	5627.94
482.717	5598.94
482.935	5609.94
483.153	5625.94
483.372	5631.94
483.59	5566.94
483.808	5564.94
484.027	5649.94
484.245	5748.94
484.463	5690.94
484.681	5809.94
484.9	5803.94
485.118	5841.94
485.336	5872.94
485.554	5989.94
485.772	5913.94
485.99	5958.94
486.209	6021.94
486.427	6021.94
486.645	6045.94
486.863	6186.94
487.081	6156.94
487.299	6091.94
487.517	5970.94
487.735	5956.94
487.953	5988.94
