Data from Uncirc_1987_H10_HRD10591_00049.txt Node
Date: Wed Jan 03 12:08:58 EST 2024
User: Yrep
Spectrometer: HR+D1059
Trigger mode: 1
Integration Time (sec): 1.000000E-1
Scans to average: 1
Electric dark correction enabled: true
Nonlinearity correction enabled: false
Boxcar width: 0
XAxis mode: Wavelengths
Number of Pixels in Spectrum: 2048
>>>>>Begin Spectral Data<<<<<
223.165	-9
223.4	-9
223.635	-9
223.869	-24
224.104	-3
224.338	-15
224.573	-23
224.808	-7
225.042	-3
225.277	-19
225.511	-22
225.746	-1
225.98	11
226.215	12
226.449	21
226.683	27
226.918	14
227.152	41
227.387	42
227.621	36
227.856	59
228.09	58
228.324	58
228.559	55
228.793	53
229.027	62
229.262	62
229.496	64
229.73	77
229.964	71
230.199	80
230.433	71
230.667	86
230.901	75
231.136	72
231.37	83
231.604	80
231.838	95
232.072	89
232.306	74
232.541	82
232.775	68
233.009	79
233.243	84
233.477	98
233.711	82
233.945	82
234.179	75
234.413	80
234.647	86
234.881	96
235.115	78
235.349	87
235.583	88
235.817	70
236.051	73
236.285	65
236.519	79
236.753	92
236.987	86
237.221	80
237.455	92
237.689	82
237.922	83
238.156	64
238.39	75
238.624	95
238.858	84
239.091	96
239.325	75
239.559	84
239.793	82
240.027	78
240.26	74
240.494	64
240.728	90
240.961	74
241.195	91
241.429	82
241.662	75
241.896	70
242.13	72
242.363	75
242.597	91
242.83	85
243.064	76
243.298	84
243.531	90
243.765	68
243.998	74
244.232	88
244.465	86
244.699	82
244.932	94
245.166	81
245.399	78
245.633	87
245.866	91
246.099	82
246.333	80
246.566	82
246.8	82
247.033	78
247.266	73
247.5	90
247.733	83
247.966	88
248.2	75
248.433	80
248.666	70
248.899	88
249.133	89
249.366	90
249.599	72
249.832	80
250.066	93
250.299	82
250.532	89
250.765	91
250.998	86
251.231	85
251.465	74
251.698	71
251.931	72
252.164	74
252.397	78
252.63	90
252.863	87
253.096	75
253.329	89
253.562	81
253.795	82
254.028	72
254.261	76
254.494	83
254.727	81
254.96	78
255.193	87
255.426	86
255.659	91
255.892	86
256.124	73
256.357	82
256.59	80
256.823	76
257.056	87
257.289	90
257.521	89
257.754	80
257.987	93
258.22	86
258.452	84
258.685	92
258.918	85
259.151	80
259.383	97
259.616	91
259.849	85
260.081	80
260.314	78
260.547	75
260.779	72
261.012	78
261.244	74
261.477	83
261.71	86
261.942	100
262.175	98
262.407	91
262.64	86
262.872	89
263.105	90
263.337	99
263.57	80
263.802	75
264.035	94
264.267	82
264.499	82
264.732	85
264.964	74
265.197	85
265.429	77
265.661	88
265.894	87
266.126	92
266.358	87
266.591	98
266.823	91
267.055	87
267.287	81
267.52	88
267.752	78
267.984	76
268.216	82
268.448	86
268.681	84
268.913	87
269.145	83
269.377	76
269.609	86
269.841	90
270.073	83
270.306	97
270.538	80
270.77	83
271.002	76
271.234	81
271.466	80
271.698	87
271.93	77
272.162	85
272.394	91
272.626	96
272.858	97
273.09	73
273.322	104
273.553	86
273.785	90
274.017	96
274.249	82
274.481	83
274.713	83
274.945	88
275.176	76
275.408	85
275.64	96
275.872	91
276.104	82
276.335	80
276.567	88
276.799	107
277.031	98
277.262	87
277.494	90
277.726	94
277.957	84
278.189	95
278.421	105
278.652	95
278.884	86
279.115	91
279.347	92
279.579	84
279.81	97
280.042	74
280.273	91
280.505	75
280.736	85
280.968	73
281.199	100
281.431	85
281.662	90
281.894	99
282.125	110
282.356	111
282.588	137
282.819	111
283.051	110
283.282	88
283.513	102
283.745	84
283.976	82
284.207	88
284.439	91
284.67	87
284.901	96
285.132	83
285.364	73
285.595	94
285.826	84
286.057	84
286.288	98
286.52	79
286.751	83
286.982	82
287.213	82
287.444	80
287.675	85
287.906	98
288.138	98
288.369	105
288.6	92
288.831	75
289.062	83
289.293	75
289.524	91
289.755	92
289.986	102
290.217	84
290.448	83
290.679	92
290.91	95
291.141	99
291.371	91
291.602	85
291.833	86
292.064	90
292.295	89
292.526	98
292.757	103
292.987	83
293.218	75
293.449	92
293.68	95
293.91	87
294.141	97
294.372	97
294.603	87
294.833	103
295.064	79
295.295	84
295.525	98
295.756	100
295.987	104
296.217	134
296.448	121
296.679	87
296.909	84
297.14	97
297.37	92
297.601	94
297.831	94
298.062	105
298.292	95
298.523	86
298.753	81
298.984	85
299.214	102
299.445	71
299.675	94
299.905	98
300.136	85
300.366	75
300.597	95
300.827	91
301.057	90
301.288	95
301.518	82
301.748	88
301.979	96
302.209	102
302.439	86
302.669	92
302.9	87
303.13	89
303.36	90
303.59	102
303.82	115
304.051	96
304.281	84
304.511	81
304.741	88
304.971	92
305.201	79
305.431	81
305.661	95
305.891	94
306.121	87
306.352	108
306.582	100
306.812	98
307.042	97
307.272	87
307.502	89
307.731	100
307.961	76
308.191	103
308.421	90
308.651	89
308.881	98
309.111	91
309.341	108
309.571	102
309.8	101
310.03	98
310.26	95
310.49	97
310.72	83
310.949	107
311.179	82
311.409	99
311.639	107
311.868	97
312.098	102
312.328	102
312.557	91
312.787	108
313.017	121
313.246	103
313.476	86
313.706	88
313.935	97
314.165	101
314.394	99
314.624	95
314.853	96
315.083	100
315.312	94
315.542	99
315.771	90
316.001	93
316.23	92
316.46	84
316.689	87
316.919	84
317.148	95
317.377	90
317.607	98
317.836	89
318.065	87
318.295	83
318.524	94
318.753	98
318.983	85
319.212	98
319.441	101
319.67	110
319.9	93
320.129	99
320.358	100
320.587	98
320.816	95
321.046	111
321.275	111
321.504	96
321.733	104
321.962	86
322.191	94
322.42	111
322.649	104
322.878	96
323.108	111
323.337	119
323.566	120
323.795	132
324.024	182
324.253	361
324.482	720
324.71	1446
324.939	1935
325.168	705
325.397	229
325.626	144
325.855	125
326.084	120
326.313	122
326.542	146
326.77	209
326.999	391
327.228	846
327.457	1514
327.686	1161
327.914	323
328.143	176
328.372	126
328.6	119
328.829	103
329.058	127
329.287	111
329.515	92
329.744	105
329.972	108
330.201	111
330.43	104
330.658	102
330.887	128
331.115	104
331.344	78
331.572	98
331.801	82
332.03	100
332.258	94
332.486	100
332.715	83
332.943	92
333.172	89
333.4	99
333.629	106
333.857	112
334.085	112
334.314	92
334.542	104
334.771	104
334.999	100
335.227	102
335.455	94
335.684	104
335.912	107
336.14	94
336.369	101
336.597	111
336.825	99
337.053	92
337.281	93
337.51	80
337.738	82
337.966	90
338.194	88
338.422	110
338.65	90
338.878	78
339.106	88
339.334	99
339.562	100
339.79	97
340.018	82
340.246	88
340.474	100
340.702	91
340.93	80
341.158	91
341.386	100
341.614	102
341.842	86
342.07	92
342.298	81
342.526	105
342.754	88
342.981	97
343.209	94
343.437	98
343.665	80
343.893	96
344.12	99
344.348	99
344.576	87
344.804	100
345.031	109
345.259	90
345.487	104
345.714	94
345.942	96
346.17	98
346.397	105
346.625	77
346.853	94
347.08	88
347.308	75
347.535	105
347.763	108
347.99	106
348.218	102
348.445	98
348.673	91
348.9	95
349.128	90
349.355	91
349.583	102
349.81	98
350.037	90
350.265	99
350.492	102
350.72	91
350.947	102
351.174	81
351.402	100
351.629	106
351.856	93
352.083	98
352.311	104
352.538	107
352.765	91
352.992	110
353.22	107
353.447	108
353.674	102
353.901	102
354.128	91
354.355	85
354.583	99
354.81	107
355.037	93
355.264	98
355.491	80
355.718	92
355.945	87
356.172	100
356.399	98
356.626	98
356.853	107
357.08	92
357.307	99
357.534	91
357.761	91
357.988	102
358.215	106
358.441	87
358.668	94
358.895	91
359.122	105
359.349	83
359.576	91
359.802	104
360.029	97
360.256	98
360.483	99
360.709	95
360.936	94
361.163	104
361.39	86
361.616	92
361.843	82
362.07	99
362.296	88
362.523	87
362.749	84
362.976	99
363.203	96
363.429	89
363.656	107
363.882	78
364.109	90
364.335	90
364.562	94
364.788	93
365.015	91
365.241	99
365.468	81
365.694	103
365.92	88
366.147	98
366.373	99
366.599	89
366.826	89
367.052	100
367.278	96
367.505	76
367.731	86
367.957	102
368.184	90
368.41	92
368.636	104
368.862	102
369.089	104
369.315	106
369.541	86
369.767	90
369.993	102
370.219	106
370.445	91
370.672	97
370.898	103
371.124	92
371.35	83
371.576	78
371.802	90
372.028	90
372.254	91
372.48	105
372.706	92
372.932	88
373.158	89
373.384	93
373.61	92
373.835	95
374.061	100
374.287	69
374.513	109
374.739	84
374.965	92
375.191	89
375.416	78
375.642	94
375.868	85
376.094	92
376.319	87
376.545	82
376.771	86
376.997	84
377.222	100
377.448	77
377.674	78
377.899	84
378.125	89
378.35	88
378.576	102
378.802	82
379.027	86
379.253	76
379.478	100
379.704	90
379.929	80
380.155	99
380.38	87
380.606	81
380.831	86
381.057	101
381.282	95
381.507	98
381.733	91
381.958	96
382.184	88
382.409	104
382.634	109
382.86	97
383.085	99
383.31	108
383.535	80
383.761	92
383.986	105
384.211	92
384.436	93
384.662	79
384.887	103
385.112	111
385.337	107
385.562	94
385.787	100
386.013	107
386.238	95
386.463	100
386.688	119
386.913	91
387.138	87
387.363	104
387.588	97
387.813	96
388.038	104
388.263	102
388.488	98
388.713	104
388.938	87
389.163	75
389.387	87
389.612	102
389.837	94
390.062	91
390.287	95
390.512	104
390.736	97
390.961	97
391.186	87
391.411	96
391.636	90
391.86	82
392.085	87
392.31	74
392.534	82
392.759	99
392.984	93
393.208	89
393.433	92
393.658	97
393.882	75
394.107	84
394.331	79
394.556	93
394.78	96
395.005	91
395.229	82
395.454	92
395.678	79
395.903	92
396.127	84
396.352	81
396.576	76
396.801	75
397.025	81
397.249	90
397.474	87
397.698	67
397.922	91
398.147	85
398.371	70
398.595	90
398.82	85
399.044	85
399.268	90
399.492	82
399.717	96
399.941	81
400.165	89
400.389	91
400.613	86
400.837	91
401.062	85
401.286	98
401.51	79
401.734	92
401.958	99
402.182	105
402.406	168
402.63	108
402.854	72
403.078	86
403.302	87
403.526	105
403.75	87
403.974	87
404.198	85
404.422	104
404.645	89
404.869	96
405.093	86
405.317	89
405.541	100
405.765	99
405.988	116
406.212	156
406.436	193
406.66	130
406.883	112
407.107	90
407.331	98
407.555	116
407.778	96
408.002	93
408.226	96
408.449	98
408.673	113
408.896	83
409.12	100
409.344	89
409.567	81
409.791	86
410.014	100
410.238	89
410.461	98
410.685	97
410.908	93
411.132	91
411.355	98
411.578	100
411.802	93
412.025	86
412.249	86
412.472	83
412.695	96
412.919	82
413.142	76
413.365	100
413.589	91
413.812	91
414.035	104
414.258	90
414.482	81
414.705	88
414.928	80
415.151	90
415.374	87
415.597	78
415.821	97
416.044	81
416.267	81
416.49	97
416.713	96
416.936	78
417.159	90
417.382	95
417.605	102
417.828	94
418.051	89
418.274	93
418.497	86
418.72	88
418.943	87
419.166	90
419.389	85
419.611	87
419.834	82
420.057	100
420.28	86
420.503	80
420.726	98
420.948	80
421.171	85
421.394	96
421.617	101
421.839	98
422.062	87
422.285	94
422.507	97
422.73	100
422.953	76
423.175	81
423.398	108
423.621	86
423.843	84
424.066	87
424.288	84
424.511	82
424.733	100
424.956	111
425.178	112
425.401	109
425.623	114
425.846	108
426.068	82
426.291	90
426.513	76
426.735	93
426.958	79
427.18	97
427.402	126
427.625	154
427.847	123
428.069	91
428.292	86
428.514	82
428.736	80
428.958	73
429.181	62
429.403	75
429.625	88
429.847	100
430.069	99
430.292	98
430.514	82
430.736	78
430.958	79
431.18	87
431.402	85
431.624	98
431.846	86
432.068	80
432.29	84
432.512	91
432.734	86
432.956	96
433.178	102
433.4	106
433.622	91
433.844	100
434.066	106
434.287	89
434.509	75
434.731	90
434.953	78
435.175	97
435.397	100
435.618	96
435.84	101
436.062	124
436.284	111
436.505	98
436.727	88
436.949	107
437.17	91
437.392	83
437.614	98
437.835	112
438.057	123
438.278	120
438.5	108
438.721	121
438.943	105
439.165	86
439.386	81
439.608	97
439.829	84
440.05	110
440.272	122
440.493	95
440.715	88
440.936	91
441.158	93
441.379	81
441.6	86
441.822	88
442.043	76
442.264	103
442.486	100
442.707	76
442.928	114
443.149	135
443.371	123
443.592	113
443.813	114
444.034	103
444.255	114
444.476	91
444.698	85
444.919	95
445.14	124
445.361	115
445.582	114
445.803	133
446.024	124
446.245	115
446.466	100
446.687	104
446.908	93
447.129	84
447.35	90
447.571	93
447.792	87
448.013	94
448.234	90
448.455	95
448.675	106
448.896	101
449.117	86
449.338	96
449.559	107
449.779	136
450	96
450.221	99
450.442	84
450.662	85
450.883	101
451.104	116
451.324	102
451.545	78
451.766	90
451.986	85
452.207	86
452.428	88
452.648	103
452.869	93
453.089	106
453.31	88
453.53	87
453.751	100
453.971	98
454.192	112
454.412	90
454.633	79
454.853	92
455.073	92
455.294	75
455.514	101
455.734	90
455.955	78
456.175	87
456.395	72
456.616	84
456.836	99
457.056	78
457.276	80
457.497	85
457.717	98
457.937	80
458.157	83
458.377	87
458.598	113
458.818	126
459.038	161
459.258	121
459.478	84
459.698	89
459.918	87
460.138	82
460.358	87
460.578	84
460.798	83
461.018	93
461.238	85
461.458	91
461.678	78
461.898	80
462.118	88
462.338	78
462.558	95
462.777	83
462.997	90
463.217	86
463.437	78
463.657	87
463.876	87
464.096	99
464.316	101
464.536	99
464.755	96
464.975	105
465.195	158
465.414	131
465.634	94
465.854	94
466.073	97
466.293	101
466.512	91
466.732	78
466.951	98
467.171	88
467.391	90
467.61	90
467.829	97
468.049	93
468.268	86
468.488	84
468.707	74
468.927	71
469.146	78
469.365	85
469.585	85
469.804	96
470.023	110
470.243	95
470.462	86
470.681	102
470.901	82
471.12	68
471.339	90
471.558	90
471.777	85
471.997	87
472.216	104
472.435	109
472.654	83
472.873	85
473.092	82
473.311	82
473.53	91
473.749	92
473.968	94
474.187	108
474.406	100
474.625	72
474.844	95
475.063	85
475.282	88
475.501	83
475.72	108
475.939	72
476.158	86
476.377	92
476.596	106
476.814	92
477.033	99
477.252	86
477.471	89
477.69	91
477.908	96
478.127	107
478.346	82
478.564	84
478.783	99
479.002	92
479.22	96
479.439	105
479.658	74
479.876	99
480.095	73
480.313	92
480.532	89
480.751	90
480.969	112
481.188	103
481.406	99
481.624	88
481.843	99
482.061	92
482.28	87
482.498	98
482.717	88
482.935	101
483.153	88
483.372	107
483.59	84
483.808	96
484.027	86
484.245	87
484.463	89
484.681	102
484.9	96
485.118	94
485.336	99
485.554	84
485.772	98
485.99	111
486.209	106
486.427	107
486.645	107
486.863	118
487.081	112
487.299	97
487.517	104
487.735	103
487.953	92
488.171	93
488.389	82
488.607	87
488.825	96
489.043	92
489.261	104
489.479	82
489.696	93
489.914	95
490.132	93
490.35	97
490.568	97
490.786	84
491.003	91
491.221	89
491.439	100
491.657	98
491.874	90
492.092	95
492.31	86
492.527	84
492.745	94
492.963	98
493.18	92
493.398	89
493.615	105
493.833	87
494.05	91
494.268	96
494.485	97
494.703	82
494.92	99
495.138	89
495.355	79
495.573	100
495.79	85
496.008	96
496.225	80
496.442	83
496.66	96
496.877	92
497.094	91
497.312	98
497.529	91
497.746	92
497.963	84
498.181	98
498.398	93
498.615	98
498.832	112
499.049	85
499.267	88
499.484	89
499.701	101
499.918	87
500.135	80
500.352	94
500.569	103
500.786	94
501.003	91
501.22	90
501.437	85
501.654	108
501.871	110
502.088	96
502.305	96
502.522	84
502.739	81
502.956	94
503.172	100
503.389	78
503.606	99
503.823	94
504.04	97
504.256	97
504.473	108
504.69	109
504.907	108
505.123	82
505.34	88
505.557	94
505.773	90
505.99	102
506.207	92
506.423	90
506.64	98
506.856	92
507.073	90
507.289	82
507.506	99
507.722	110
507.939	98
508.155	86
508.372	100
508.588	89
508.805	96
509.021	101
509.238	101
509.454	95
509.67	96
509.887	112
510.103	132
510.319	193
510.536	667
510.752	2074
510.968	578
511.184	161
511.401	120
511.617	102
511.833	91
512.049	104
512.265	92
512.481	84
512.698	100
512.914	90
513.13	97
513.346	88
513.562	101
513.778	90
513.994	89
514.21	102
514.426	108
514.642	127
514.858	126
515.074	150
515.29	398
515.506	1290
515.721	462
515.937	151
516.153	100
516.369	105
516.585	87
516.801	92
517.016	80
517.232	98
517.448	91
517.664	82
517.879	90
518.095	94
518.311	96
518.527	109
518.742	89
518.958	83
519.173	86
519.389	91
519.605	87
519.82	93
520.036	106
520.251	126
520.467	111
520.682	92
520.898	104
521.113	107
521.329	138
521.544	193
521.76	508
521.975	2066
522.19	1255
522.406	284
522.621	130
522.836	102
523.052	88
523.267	103
523.482	95
523.698	108
523.913	104
524.128	89
524.343	102
524.559	90
524.774	85
524.989	104
525.204	104
525.419	97
525.634	89
525.849	94
526.064	103
526.28	93
526.495	89
526.71	86
526.925	86
527.14	98
527.355	91
527.57	93
527.785	94
527.999	87
528.214	95
528.429	98
528.644	83
528.859	94
529.074	89
529.289	120
529.503	172
529.718	105
529.933	84
530.148	82
530.363	82
530.577	97
530.792	86
531.007	86
531.221	89
531.436	99
531.651	98
531.865	93
532.08	95
532.295	102
532.509	86
532.724	91
532.938	87
533.153	87
533.367	108
533.582	96
533.796	104
534.011	83
534.225	89
534.44	92
534.654	95
534.868	95
535.083	89
535.297	105
535.511	104
535.726	108
535.94	97
536.154	103
536.369	71
536.583	86
536.797	98
537.011	95
537.225	100
537.44	114
537.654	98
537.868	94
538.082	88
538.296	88
538.51	91
538.724	101
538.938	83
539.153	88
539.367	88
539.581	107
539.795	98
540.009	98
540.222	101
540.436	87
540.65	97
540.864	88
541.078	80
541.292	92
541.506	72
541.72	76
541.934	91
542.147	80
542.361	93
542.575	94
542.789	104
543.002	88
543.216	85
543.43	102
543.644	78
543.857	92
544.071	97
544.285	95
544.498	87
544.712	87
544.925	88
545.139	84
545.352	86
545.566	68
545.779	88
545.993	103
546.206	89
546.42	89
546.633	84
546.847	102
547.06	84
547.274	94
547.487	94
547.7	92
547.914	91
548.127	68
548.34	96
548.554	84
548.767	83
548.98	98
549.193	90
549.407	93
549.62	88
549.833	90
550.046	87
550.259	108
550.473	91
550.686	81
550.899	98
551.112	83
551.325	92
551.538	89
551.751	99
551.964	78
552.177	83
552.39	89
552.603	95
552.816	98
553.029	91
553.242	94
553.455	92
553.667	113
553.88	102
554.093	91
554.306	96
554.519	95
554.732	85
554.944	78
555.157	82
555.37	94
555.583	79
555.795	91
556.008	95
556.221	88
556.433	95
556.646	91
556.859	110
557.071	101
557.284	99
557.496	98
557.709	89
557.921	116
558.134	99
558.346	89
558.559	89
558.771	95
558.984	86
559.196	102
559.409	103
559.621	102
559.833	86
560.046	92
560.258	92
560.47	73
560.683	85
560.895	98
561.107	95
561.32	87
561.532	91
561.744	97
561.956	99
562.168	92
562.381	94
562.593	86
562.805	99
563.017	95
563.229	102
563.441	72
563.653	80
563.865	92
564.077	97
564.289	93
564.501	76
564.713	94
564.925	99
565.137	104
565.349	91
565.561	92
565.773	85
565.985	92
566.197	83
566.408	87
566.62	100
566.832	101
567.044	94
567.255	91
567.467	91
567.679	85
567.891	86
568.102	87
568.314	80
568.526	96
568.737	91
568.949	88
569.161	86
569.372	94
569.584	100
569.795	80
570.007	107
570.218	248
570.43	126
570.641	90
570.853	90
571.064	87
571.276	90
571.487	93
571.698	106
571.91	97
572.121	85
572.333	92
572.544	92
572.755	105
572.966	97
573.178	101
573.389	86
573.6	80
573.811	90
574.023	89
574.234	84
574.445	80
574.656	87
574.867	103
575.078	99
575.289	84
575.501	104
575.712	90
575.923	89
576.134	96
576.345	90
576.556	71
576.767	94
576.978	91
577.188	92
577.399	95
577.61	95
577.821	99
578.032	112
578.243	253
578.454	692
578.665	187
578.875	97
579.086	91
579.297	75
579.508	88
579.718	100
579.929	82
580.14	87
580.35	91
580.561	84
580.772	87
580.982	81
581.193	90
581.403	90
581.614	68
581.825	88
582.035	83
582.246	91
582.456	81
582.667	81
582.877	80
583.087	100
583.298	75
583.508	87
583.719	90
583.929	95
