Data from Uncirc_1987_H10_HRD10591_00063.txt Node
Date: Wed Jan 03 12:09:01 EST 2024
User: Yrep
Spectrometer: HR+D1059
Trigger mode: 1
Integration Time (sec): 1.000000E-1
Scans to average: 1
Electric dark correction enabled: true
Nonlinearity correction enabled: false
Boxcar width: 0
XAxis mode: Wavelengths
Number of Pixels in Spectrum: 2048
>>>>>Begin Spectral Data<<<<<
223.165	-16.81
223.4	-16.81
223.635	-16.81
223.869	-9.81
224.104	-17.81
224.338	-18.81
224.573	-12.81
224.808	-9.81
225.042	-5.81
225.277	-13.81
225.511	-5.81
225.746	-5.81
225.98	-0.81
226.215	8.19
226.449	17.19
226.683	26.19
226.918	31.19
227.152	35.19
227.387	29.19
227.621	48.19
227.856	43.19
228.09	40.19
228.324	56.19
228.559	35.19
228.793	48.19
229.027	58.19
229.262	63.19
229.496	67.19
229.73	88.19
229.964	58.19
230.199	84.19
230.433	68.19
230.667	67.19
230.901	61.19
231.136	74.19
231.37	77.19
231.604	69.19
231.838	78.19
232.072	86.19
232.306	82.19
232.541	78.19
232.775	69.19
233.009	76.19
233.243	65.19
233.477	77.19
233.711	81.19
233.945	64.19
234.179	85.19
234.413	77.19
234.647	82.19
234.881	70.19
235.115	69.19
235.349	78.19
235.583	63.19
235.817	78.19
236.051	84.19
236.285	80.19
236.519	69.19
236.753	95.19
236.987	88.19
237.221	63.19
237.455	78.19
237.689	78.19
237.922	79.19
238.156	85.19
238.39	88.19
238.624	62.19
238.858	66.19
239.091	60.19
239.325	73.19
239.559	65.19
239.793	76.19
240.027	84.19
240.26	67.19
240.494	77.19
240.728	60.19
240.961	61.19
241.195	78.19
241.429	73.19
241.662	69.19
241.896	69.19
242.13	66.19
242.363	68.19
242.597	83.19
242.83	63.19
243.064	80.19
243.298	76.19
243.531	67.19
243.765	82.19
243.998	86.19
244.232	78.19
244.465	95.19
244.699	73.19
244.932	69.19
245.166	82.19
245.399	72.19
245.633	80.19
245.866	77.19
246.099	72.19
246.333	72.19
246.566	75.19
246.8	84.19
247.033	83.19
247.266	68.19
247.5	79.19
247.733	68.19
247.966	61.19
248.2	76.19
248.433	64.19
248.666	53.19
248.899	78.19
249.133	72.19
249.366	97.19
249.599	85.19
249.832	67.19
250.066	92.19
250.299	64.19
250.532	77.19
250.765	76.19
250.998	80.19
251.231	70.19
251.465	92.19
251.698	85.19
251.931	68.19
252.164	74.19
252.397	86.19
252.63	90.19
252.863	80.19
253.096	82.19
253.329	76.19
253.562	69.19
253.795	76.19
254.028	78.19
254.261	73.19
254.494	83.19
254.727	76.19
254.96	86.19
255.193	84.19
255.426	75.19
255.659	78.19
255.892	87.19
256.124	86.19
256.357	92.19
256.59	88.19
256.823	84.19
257.056	75.19
257.289	80.19
257.521	78.19
257.754	68.19
257.987	89.19
258.22	82.19
258.452	61.19
258.685	80.19
258.918	77.19
259.151	88.19
259.383	88.19
259.616	83.19
259.849	76.19
260.081	84.19
260.314	79.19
260.547	81.19
260.779	83.19
261.012	88.19
261.244	76.19
261.477	80.19
261.71	90.19
261.942	99.19
262.175	105.19
262.407	87.19
262.64	89.19
262.872	65.19
263.105	94.19
263.337	79.19
263.57	55.19
263.802	86.19
264.035	61.19
264.267	78.19
264.499	77.19
264.732	81.19
264.964	105.19
265.197	96.19
265.429	79.19
265.661	87.19
265.894	89.19
266.126	105.19
266.358	82.19
266.591	70.19
266.823	70.19
267.055	78.19
267.287	82.19
267.52	84.19
267.752	84.19
267.984	85.19
268.216	69.19
268.448	84.19
268.681	97.19
268.913	82.19
269.145	70.19
269.377	76.19
269.609	85.19
269.841	80.19
270.073	74.19
270.306	76.19
270.538	89.19
270.77	91.19
271.002	88.19
271.234	64.19
271.466	101.19
271.698	81.19
271.93	79.19
272.162	77.19
272.394	70.19
272.626	80.19
272.858	84.19
273.09	82.19
273.322	88.19
273.553	85.19
273.785	72.19
274.017	68.19
274.249	84.19
274.481	80.19
274.713	71.19
274.945	74.19
275.176	75.19
275.408	68.19
275.64	87.19
275.872	83.19
276.104	80.19
276.335	89.19
276.567	91.19
276.799	100.19
277.031	99.19
277.262	82.19
277.494	80.19
277.726	64.19
277.957	76.19
278.189	78.19
278.421	79.19
278.652	80.19
278.884	78.19
279.115	88.19
279.347	100.19
279.579	89.19
279.81	85.19
280.042	96.19
280.273	88.19
280.505	86.19
280.736	95.19
280.968	85.19
281.199	82.19
281.431	91.19
281.662	85.19
281.894	92.19
282.125	93.19
282.356	101.19
282.588	121.19
282.819	106.19
283.051	72.19
283.282	81.19
283.513	106.19
283.745	91.19
283.976	82.19
284.207	92.19
284.439	94.19
284.67	84.19
284.901	86.19
285.132	81.19
285.364	80.19
285.595	76.19
285.826	75.19
286.057	92.19
286.288	92.19
286.52	76.19
286.751	88.19
286.982	77.19
287.213	67.19
287.444	104.19
287.675	81.19
287.906	84.19
288.138	72.19
288.369	81.19
288.6	76.19
288.831	94.19
289.062	82.19
289.293	89.19
289.524	90.19
289.755	91.19
289.986	82.19
290.217	90.19
290.448	86.19
290.679	91.19
290.91	95.19
291.141	86.19
291.371	89.19
291.602	78.19
291.833	81.19
292.064	78.19
292.295	69.19
292.526	82.19
292.757	82.19
292.987	85.19
293.218	95.19
293.449	84.19
293.68	88.19
293.91	74.19
294.141	75.19
294.372	76.19
294.603	76.19
294.833	97.19
295.064	84.19
295.295	74.19
295.525	89.19
295.756	98.19
295.987	108.19
296.217	126.19
296.448	106.19
296.679	82.19
296.909	92.19
297.14	88.19
297.37	81.19
297.601	86.19
297.831	77.19
298.062	88.19
298.292	79.19
298.523	82.19
298.753	82.19
298.984	83.19
299.214	75.19
299.445	78.19
299.675	88.19
299.905	83.19
300.136	74.19
300.366	96.19
300.597	86.19
300.827	106.19
301.057	86.19
301.288	117.19
301.518	84.19
301.748	90.19
301.979	94.19
302.209	93.19
302.439	92.19
302.669	85.19
302.9	93.19
303.13	85.19
303.36	99.19
303.59	99.19
303.82	104.19
304.051	88.19
304.281	86.19
304.511	96.19
304.741	87.19
304.971	84.19
305.201	82.19
305.431	88.19
305.661	90.19
305.891	83.19
306.121	93.19
306.352	91.19
306.582	89.19
306.812	90.19
307.042	101.19
307.272	82.19
307.502	94.19
307.731	92.19
307.961	91.19
308.191	75.19
308.421	92.19
308.651	80.19
308.881	91.19
309.111	83.19
309.341	87.19
309.571	100.19
309.8	88.19
310.03	90.19
310.26	78.19
310.49	70.19
310.72	96.19
310.949	88.19
311.179	89.19
311.409	88.19
311.639	87.19
311.868	98.19
312.098	90.19
312.328	83.19
312.557	99.19
312.787	97.19
313.017	100.19
313.246	100.19
313.476	88.19
313.706	77.19
313.935	81.19
314.165	90.19
314.394	98.19
314.624	91.19
314.853	86.19
315.083	104.19
315.312	83.19
315.542	66.19
315.771	89.19
316.001	89.19
316.23	92.19
316.46	88.19
316.689	85.19
316.919	94.19
317.148	68.19
317.377	81.19
317.607	90.19
317.836	84.19
318.065	82.19
318.295	86.19
318.524	91.19
318.753	86.19
318.983	82.19
319.212	77.19
319.441	104.19
319.67	91.19
319.9	92.19
320.129	94.19
320.358	107.19
320.587	76.19
320.816	81.19
321.046	93.19
321.275	101.19
321.504	83.19
321.733	98.19
321.962	104.19
322.191	102.19
322.42	97.19
322.649	99.19
322.878	106.19
323.108	99.19
323.337	106.19
323.566	128.19
323.795	129.19
324.024	191.19
324.253	344.19
324.482	687.19
324.71	1392.19
324.939	1847.19
325.168	705.19
325.397	224.19
325.626	124.19
325.855	114.19
326.084	122.19
326.313	123.19
326.542	128.19
326.77	199.19
326.999	408.19
327.228	784.19
327.457	1430.19
327.686	1176.19
327.914	331.19
328.143	182.19
328.372	142.19
328.6	108.19
328.829	116.19
329.058	114.19
329.287	118.19
329.515	102.19
329.744	82.19
329.972	92.19
330.201	100.19
330.43	102.19
330.658	105.19
330.887	118.19
331.115	93.19
331.344	86.19
331.572	93.19
331.801	111.19
332.03	95.19
332.258	89.19
332.486	81.19
332.715	81.19
332.943	92.19
333.172	78.19
333.4	90.19
333.629	114.19
333.857	104.19
334.085	89.19
334.314	81.19
334.542	101.19
334.771	100.19
334.999	87.19
335.227	94.19
335.455	99.19
335.684	86.19
335.912	95.19
336.14	106.19
336.369	96.19
336.597	100.19
336.825	84.19
337.053	93.19
337.281	94.19
337.51	82.19
337.738	85.19
337.966	92.19
338.194	92.19
338.422	87.19
338.65	91.19
338.878	82.19
339.106	73.19
339.334	85.19
339.562	81.19
339.79	82.19
340.018	84.19
340.246	81.19
340.474	90.19
340.702	92.19
340.93	82.19
341.158	78.19
341.386	98.19
341.614	100.19
341.842	94.19
342.07	99.19
342.298	91.19
342.526	86.19
342.754	82.19
342.981	80.19
343.209	84.19
343.437	105.19
343.665	73.19
343.893	69.19
344.12	84.19
344.348	93.19
344.576	82.19
344.804	89.19
345.031	78.19
345.259	77.19
345.487	86.19
345.714	86.19
345.942	89.19
346.17	98.19
346.397	93.19
346.625	84.19
346.853	102.19
347.08	87.19
347.308	84.19
347.535	84.19
347.763	89.19
347.99	94.19
348.218	100.19
348.445	95.19
348.673	87.19
348.9	94.19
349.128	95.19
349.355	80.19
349.583	74.19
349.81	69.19
350.037	81.19
350.265	83.19
350.492	84.19
350.72	97.19
350.947	108.19
351.174	101.19
351.402	104.19
351.629	105.19
351.856	102.19
352.083	96.19
352.311	96.19
352.538	107.19
352.765	99.19
352.992	105.19
353.22	93.19
353.447	87.19
353.674	96.19
353.901	103.19
354.128	107.19
354.355	84.19
354.583	84.19
354.81	95.19
355.037	97.19
355.264	89.19
355.491	93.19
355.718	84.19
355.945	95.19
356.172	92.19
356.399	80.19
356.626	84.19
356.853	97.19
357.08	86.19
357.307	95.19
357.534	90.19
357.761	91.19
357.988	87.19
358.215	92.19
358.441	91.19
358.668	89.19
358.895	78.19
359.122	80.19
359.349	91.19
359.576	85.19
359.802	92.19
360.029	101.19
360.256	88.19
360.483	84.19
360.709	83.19
360.936	81.19
361.163	98.19
361.39	80.19
361.616	75.19
361.843	88.19
362.07	92.19
362.296	79.19
362.523	77.19
362.749	97.19
362.976	74.19
363.203	88.19
363.429	83.19
363.656	82.19
363.882	68.19
364.109	86.19
364.335	88.19
364.562	100.19
364.788	97.19
365.015	81.19
365.241	87.19
365.468	88.19
365.694	84.19
365.92	89.19
366.147	77.19
366.373	88.19
366.599	89.19
366.826	79.19
367.052	81.19
367.278	84.19
367.505	76.19
367.731	84.19
367.957	80.19
368.184	84.19
368.41	93.19
368.636	97.19
368.862	117.19
369.089	99.19
369.315	91.19
369.541	80.19
369.767	89.19
369.993	87.19
370.219	77.19
370.445	88.19
370.672	89.19
370.898	69.19
371.124	79.19
371.35	94.19
371.576	87.19
371.802	91.19
372.028	83.19
372.254	89.19
372.48	80.19
372.706	86.19
372.932	92.19
373.158	77.19
373.384	92.19
373.61	84.19
373.835	95.19
374.061	91.19
374.287	80.19
374.513	88.19
374.739	81.19
374.965	89.19
375.191	69.19
375.416	80.19
375.642	76.19
375.868	90.19
376.094	75.19
376.319	88.19
376.545	101.19
376.771	72.19
376.997	77.19
377.222	84.19
377.448	76.19
377.674	92.19
377.899	90.19
378.125	84.19
378.35	93.19
378.576	74.19
378.802	86.19
379.027	96.19
379.253	86.19
379.478	97.19
379.704	79.19
379.929	83.19
380.155	79.19
380.38	85.19
380.606	97.19
380.831	92.19
381.057	90.19
381.282	75.19
381.507	88.19
381.733	84.19
381.958	86.19
382.184	86.19
382.409	79.19
382.634	94.19
382.86	97.19
383.085	82.19
383.31	86.19
383.535	96.19
383.761	84.19
383.986	92.19
384.211	99.19
384.436	93.19
384.662	86.19
384.887	86.19
385.112	93.19
385.337	93.19
385.562	85.19
385.787	88.19
386.013	92.19
386.238	102.19
386.463	100.19
386.688	108.19
386.913	72.19
387.138	103.19
387.363	95.19
387.588	99.19
387.813	95.19
388.038	90.19
388.263	92.19
388.488	96.19
388.713	106.19
388.938	91.19
389.163	97.19
389.387	96.19
389.612	98.19
389.837	77.19
390.062	88.19
390.287	85.19
390.512	93.19
390.736	97.19
390.961	83.19
391.186	66.19
391.411	82.19
391.636	76.19
391.86	87.19
392.085	92.19
392.31	89.19
392.534	84.19
392.759	94.19
392.984	94.19
393.208	84.19
393.433	89.19
393.658	87.19
393.882	81.19
394.107	86.19
394.331	92.19
394.556	82.19
394.78	83.19
395.005	80.19
395.229	79.19
395.454	76.19
395.678	94.19
395.903	81.19
396.127	80.19
396.352	79.19
396.576	84.19
396.801	83.19
397.025	76.19
397.249	81.19
397.474	74.19
397.698	80.19
397.922	83.19
398.147	62.19
398.371	89.19
398.595	62.19
398.82	89.19
399.044	82.19
399.268	84.19
399.492	89.19
399.717	97.19
399.941	85.19
400.165	90.19
400.389	80.19
400.613	81.19
400.837	84.19
401.062	88.19
401.286	66.19
401.51	82.19
401.734	89.19
401.958	105.19
402.182	109.19
402.406	141.19
402.63	104.19
402.854	81.19
403.078	93.19
403.302	90.19
403.526	89.19
403.75	79.19
403.974	84.19
404.198	91.19
404.422	82.19
404.645	83.19
404.869	80.19
405.093	92.19
405.317	90.19
405.541	100.19
405.765	81.19
405.988	108.19
406.212	154.19
406.436	197.19
406.66	117.19
406.883	94.19
407.107	76.19
407.331	87.19
407.555	100.19
407.778	82.19
408.002	79.19
408.226	73.19
408.449	75.19
408.673	88.19
408.896	103.19
409.12	90.19
409.344	93.19
409.567	88.19
409.791	84.19
410.014	102.19
410.238	80.19
410.461	90.19
410.685	86.19
410.908	83.19
411.132	98.19
411.355	89.19
411.578	82.19
411.802	80.19
412.025	76.19
412.249	87.19
412.472	97.19
412.695	88.19
412.919	89.19
413.142	88.19
413.365	82.19
413.589	76.19
413.812	80.19
414.035	79.19
414.258	85.19
414.482	89.19
414.705	86.19
414.928	94.19
415.151	85.19
415.374	92.19
415.597	88.19
415.821	69.19
416.044	75.19
416.267	78.19
416.49	78.19
416.713	85.19
416.936	79.19
417.159	88.19
417.382	78.19
417.605	88.19
417.828	95.19
418.051	84.19
418.274	80.19
418.497	83.19
418.72	73.19
418.943	91.19
419.166	77.19
419.389	70.19
419.611	77.19
419.834	88.19
420.057	90.19
420.28	84.19
420.503	71.19
420.726	70.19
420.948	78.19
421.171	97.19
421.394	94.19
421.617	91.19
421.839	79.19
422.062	78.19
422.285	86.19
422.507	86.19
422.73	91.19
422.953	84.19
423.175	74.19
423.398	76.19
423.621	69.19
423.843	80.19
424.066	74.19
424.288	97.19
424.511	76.19
424.733	101.19
424.956	80.19
425.178	76.19
425.401	74.19
425.623	102.19
425.846	76.19
426.068	80.19
426.291	90.19
426.513	79.19
426.735	91.19
426.958	93.19
427.18	99.19
427.402	113.19
427.625	141.19
427.847	122.19
428.069	109.19
428.292	84.19
428.514	73.19
428.736	82.19
428.958	83.19
429.181	79.19
429.403	83.19
429.625	78.19
429.847	89.19
430.069	88.19
430.292	84.19
430.514	80.19
430.736	80.19
430.958	83.19
431.18	75.19
431.402	84.19
431.624	85.19
431.846	73.19
432.068	83.19
432.29	90.19
432.512	73.19
432.734	80.19
432.956	88.19
433.178	83.19
433.4	92.19
433.622	87.19
433.844	88.19
434.066	80.19
434.287	79.19
434.509	97.19
434.731	80.19
434.953	96.19
435.175	82.19
435.397	78.19
435.618	79.19
435.84	101.19
436.062	90.19
436.284	102.19
436.505	115.19
436.727	95.19
436.949	78.19
437.17	82.19
437.392	88.19
437.614	85.19
437.835	84.19
438.057	118.19
438.278	88.19
438.5	84.19
438.721	110.19
438.943	88.19
439.165	75.19
439.386	86.19
439.608	88.19
439.829	98.19
440.05	103.19
440.272	113.19
440.493	104.19
440.715	72.19
440.936	75.19
441.158	86.19
441.379	82.19
441.6	86.19
441.822	81.19
442.043	81.19
442.264	101.19
442.486	89.19
442.707	92.19
442.928	92.19
443.149	109.19
443.371	118.19
443.592	102.19
443.813	104.19
444.034	112.19
444.255	89.19
444.476	75.19
444.698	92.19
444.919	80.19
445.14	138.19
445.361	106.19
445.582	106.19
445.803	127.19
446.024	125.19
446.245	124.19
446.466	101.19
446.687	81.19
446.908	82.19
447.129	81.19
447.35	80.19
447.571	88.19
447.792	88.19
448.013	102.19
448.234	92.19
448.455	88.19
448.675	94.19
448.896	117.19
449.117	93.19
449.338	98.19
449.559	112.19
449.779	117.19
450	97.19
450.221	97.19
450.442	90.19
450.662	96.19
450.883	86.19
451.104	97.19
451.324	72.19
451.545	74.19
451.766	83.19
451.986	86.19
452.207	86.19
452.428	90.19
452.648	101.19
452.869	107.19
453.089	106.19
453.31	93.19
453.53	100.19
453.751	86.19
453.971	87.19
454.192	85.19
454.412	100.19
454.633	91.19
454.853	89.19
455.073	85.19
455.294	65.19
455.514	88.19
455.734	81.19
455.955	83.19
456.175	74.19
456.395	72.19
456.616	87.19
456.836	65.19
457.056	78.19
457.276	67.19
457.497	88.19
457.717	72.19
457.937	76.19
458.157	79.19
458.377	98.19
458.598	99.19
458.818	121.19
459.038	124.19
459.258	101.19
459.478	96.19
459.698	95.19
459.918	82.19
460.138	92.19
460.358	90.19
460.578	90.19
460.798	100.19
461.018	71.19
461.238	85.19
461.458	90.19
461.678	88.19
461.898	86.19
462.118	81.19
462.338	71.19
462.558	74.19
462.777	79.19
462.997	83.19
463.217	96.19
463.437	82.19
463.657	76.19
463.876	75.19
464.096	83.19
464.316	84.19
464.536	86.19
464.755	91.19
464.975	102.19
465.195	152.19
465.414	119.19
465.634	88.19
465.854	97.19
466.073	95.19
466.293	78.19
466.512	80.19
466.732	78.19
466.951	69.19
467.171	82.19
467.391	99.19
467.61	101.19
467.829	97.19
468.049	85.19
468.268	81.19
468.488	83.19
468.707	68.19
468.927	64.19
469.146	80.19
469.365	94.19
469.585	82.19
469.804	97.19
470.023	97.19
470.243	89.19
470.462	92.19
470.681	91.19
470.901	93.19
471.12	84.19
471.339	92.19
471.558	94.19
471.777	85.19
471.997	80.19
472.216	86.19
472.435	97.19
472.654	81.19
472.873	89.19
473.092	80.19
473.311	74.19
473.53	73.19
473.749	86.19
473.968	80.19
474.187	79.19
474.406	94.19
474.625	82.19
474.844	72.19
475.063	82.19
475.282	84.19
475.501	73.19
475.72	84.19
475.939	82.19
476.158	100.19
476.377	80.19
476.596	90.19
476.814	75.19
477.033	78.19
477.252	85.19
477.471	87.19
477.69	79.19
477.908	84.19
478.127	77.19
478.346	79.19
478.564	84.19
478.783	89.19
479.002	68.19
479.22	86.19
479.439	84.19
479.658	97.19
479.876	83.19
480.095	78.19
480.313	86.19
480.532	76.19
480.751	98.19
480.969	99.19
481.188	123.19
481.406	113.19
481.624	90.19
481.843	72.19
482.061	92.19
482.28	90.19
482.498	73.19
482.717	70.19
482.935	83.19
483.153	92.19
483.372	78.19
483.59	97.19
483.808	88.19
484.027	76.19
484.245	83.19
484.463	82.19
484.681	86.19
484.9	94.19
485.118	89.19
485.336	98.19
485.554	93.19
485.772	93.19
485.99	93.19
486.209	89.19
486.427	108.19
486.645	116.19
486.863	113.19
487.081	101.19
487.299	97.19
487.517	83.19
487.735	95.19
487.953	87.19
488.171	97.19
488.389	101.19
488.607	92.19
488.825	90.19
489.043	84.19
489.261	85.19
489.479	77.19
489.696	70.19
489.914	79.19
490.132	94.19
490.35	97.19
490.568	92.19
490.786	99.19
491.003	76.19
491.221	76.19
491.439	77.19
491.657	95.19
491.874	81.19
492.092	87.19
492.31	93.19
492.527	76.19
492.745	88.19
492.963	73.19
493.18	84.19
493.398	101.19
493.615	103.19
493.833	87.19
494.05	84.19
494.268	95.19
494.485	91.19
494.703	77.19
494.92	84.19
495.138	69.19
495.355	76.19
495.573	94.19
495.79	88.19
496.008	88.19
496.225	93.19
496.442	97.19
496.66	82.19
496.877	95.19
497.094	81.19
497.312	89.19
497.529	92.19
497.746	80.19
497.963	69.19
498.181	99.19
498.398	83.19
498.615	101.19
498.832	81.19
499.049	67.19
499.267	80.19
499.484	82.19
499.701	81.19
499.918	90.19
500.135	75.19
500.352	72.19
500.569	80.19
500.786	91.19
501.003	84.19
501.22	79.19
501.437	91.19
501.654	96.19
501.871	91.19
502.088	78.19
502.305	81.19
502.522	80.19
502.739	75.19
502.956	79.19
503.172	82.19
503.389	94.19
503.606	89.19
503.823	101.19
504.04	93.19
504.256	78.19
504.473	77.19
504.69	89.19
504.907	102.19
505.123	75.19
505.34	107.19
505.557	88.19
505.773	96.19
505.99	81.19
506.207	81.19
506.423	85.19
506.64	65.19
506.856	73.19
507.073	75.19
507.289	84.19
507.506	81.19
507.722	114.19
507.939	87.19
508.155	84.19
508.372	89.19
508.588	92.19
508.805	78.19
509.021	87.19
509.238	91.19
509.454	96.19
509.67	83.19
509.887	115.19
510.103	121.19
510.319	189.19
510.536	646.19
510.752	1975.19
510.968	561.19
511.184	148.19
511.401	91.19
511.617	97.19
511.833	82.19
512.049	104.19
512.265	92.19
512.481	83.19
512.698	94.19
512.914	89.19
513.13	98.19
513.346	84.19
513.562	91.19
513.778	114.19
513.994	113.19
514.21	101.19
514.426	100.19
514.642	105.19
514.858	114.19
515.074	155.19
515.29	383.19
515.506	1212.19
515.721	444.19
515.937	165.19
516.153	92.19
516.369	87.19
516.585	94.19
516.801	84.19
517.016	84.19
517.232	88.19
517.448	87.19
