Data from Uncirc_1987_H10_HRD10591_00094.txt Node
Date: Wed Jan 03 12:09:07 EST 2024
User: Yrep
Spectrometer: HR+D1059
Trigger mode: 1
Integration Time (sec): 1.000000E-1
Scans to average: 1
Electric dark correction enabled: true
Nonlinearity correction enabled: false
Boxcar width: 0
XAxis mode: Wavelengths
Number of Pixels in Spectrum: 2048
>>>>>Begin Spectral Data<<<<<
223.165	-10.06
223.4	-10.06
223.635	-10.06
223.869	-32.06
224.104	-14.06
224.338	-17.06
224.573	-7.06
224.808	-4.06
225.042	-21.06
225.277	-5.06
225.511	-1.06
225.746	-6.06
225.98	7.94
226.215	18.94
226.449	6.94
226.683	15.94
226.918	37.94
227.152	29.94
227.387	48.94
227.621	41.94
227.856	47.94
228.09	37.94
228.324	57.94
228.559	58.94
228.793	56.94
229.027	46.94
229.262	62.94
229.496	76.94
229.73	90.94
229.964	74.94
230.199	73.94
230.433	83.94
230.667	73.94
230.901	82.94
231.136	73.94
231.37	87.94
231.604	71.94
231.838	87.94
232.072	82.94
232.306	73.94
232.541	83.94
232.775	81.94
233.009	82.94
233.243	73.94
233.477	89.94
233.711	88.94
233.945	69.94
234.179	72.94
234.413	80.94
234.647	72.94
234.881	87.94
235.115	88.94
235.349	81.94
235.583	81.94
235.817	82.94
236.051	71.94
236.285	64.94
236.519	69.94
236.753	79.94
236.987	94.94
237.221	84.94
237.455	86.94
237.689	90.94
237.922	67.94
238.156	98.94
238.39	68.94
238.624	70.94
238.858	73.94
239.091	81.94
239.325	81.94
239.559	85.94
239.793	80.94
240.027	74.94
240.26	66.94
240.494	67.94
240.728	66.94
240.961	69.94
241.195	81.94
241.429	79.94
241.662	70.94
241.896	69.94
242.13	84.94
242.363	76.94
242.597	85.94
242.83	67.94
243.064	79.94
243.298	62.94
243.531	82.94
243.765	87.94
243.998	80.94
244.232	61.94
244.465	81.94
244.699	78.94
244.932	81.94
245.166	73.94
245.399	83.94
245.633	80.94
245.866	83.94
246.099	70.94
246.333	64.94
246.566	75.94
246.8	85.94
247.033	88.94
247.266	79.94
247.5	99.94
247.733	81.94
247.966	72.94
248.2	85.94
248.433	64.94
248.666	78.94
248.899	76.94
249.133	75.94
249.366	107.94
249.599	105.94
249.832	77.94
250.066	91.94
250.299	85.94
250.532	96.94
250.765	83.94
250.998	74.94
251.231	81.94
251.465	77.94
251.698	82.94
251.931	97.94
252.164	86.94
252.397	70.94
252.63	81.94
252.863	80.94
253.096	88.94
253.329	97.94
253.562	69.94
253.795	79.94
254.028	91.94
254.261	82.94
254.494	81.94
254.727	86.94
254.96	87.94
255.193	88.94
255.426	68.94
255.659	87.94
255.892	90.94
256.124	90.94
256.357	86.94
256.59	83.94
256.823	90.94
257.056	89.94
257.289	78.94
257.521	88.94
257.754	77.94
257.987	72.94
258.22	93.94
258.452	77.94
258.685	70.94
258.918	67.94
259.151	84.94
259.383	81.94
259.616	85.94
259.849	80.94
260.081	92.94
260.314	92.94
260.547	85.94
260.779	72.94
261.012	79.94
261.244	87.94
261.477	81.94
261.71	97.94
261.942	107.94
262.175	109.94
262.407	90.94
262.64	98.94
262.872	78.94
263.105	87.94
263.337	77.94
263.57	77.94
263.802	85.94
264.035	95.94
264.267	87.94
264.499	83.94
264.732	93.94
264.964	85.94
265.197	79.94
265.429	86.94
265.661	80.94
265.894	89.94
266.126	83.94
266.358	79.94
266.591	85.94
266.823	80.94
267.055	81.94
267.287	88.94
267.52	86.94
267.752	94.94
267.984	94.94
268.216	84.94
268.448	84.94
268.681	89.94
268.913	97.94
269.145	85.94
269.377	79.94
269.609	79.94
269.841	97.94
270.073	78.94
270.306	81.94
270.538	70.94
270.77	70.94
271.002	77.94
271.234	87.94
271.466	78.94
271.698	93.94
271.93	83.94
272.162	89.94
272.394	81.94
272.626	75.94
272.858	97.94
273.09	83.94
273.322	89.94
273.553	83.94
273.785	90.94
274.017	91.94
274.249	94.94
274.481	89.94
274.713	86.94
274.945	91.94
275.176	91.94
275.408	82.94
275.64	95.94
275.872	95.94
276.104	80.94
276.335	83.94
276.567	101.94
276.799	107.94
277.031	102.94
277.262	94.94
277.494	83.94
277.726	83.94
277.957	99.94
278.189	92.94
278.421	96.94
278.652	89.94
278.884	93.94
279.115	74.94
279.347	77.94
279.579	75.94
279.81	81.94
280.042	81.94
280.273	87.94
280.505	85.94
280.736	81.94
280.968	93.94
281.199	92.94
281.431	85.94
281.662	103.94
281.894	102.94
282.125	93.94
282.356	116.94
282.588	136.94
282.819	88.94
283.051	84.94
283.282	92.94
283.513	97.94
283.745	74.94
283.976	76.94
284.207	94.94
284.439	85.94
284.67	88.94
284.901	84.94
285.132	87.94
285.364	94.94
285.595	79.94
285.826	102.94
286.057	91.94
286.288	87.94
286.52	90.94
286.751	91.94
286.982	103.94
287.213	107.94
287.444	97.94
287.675	95.94
287.906	74.94
288.138	85.94
288.369	97.94
288.6	94.94
288.831	80.94
289.062	90.94
289.293	89.94
289.524	80.94
289.755	79.94
289.986	95.94
290.217	91.94
290.448	81.94
290.679	85.94
290.91	96.94
291.141	91.94
291.371	94.94
291.602	83.94
291.833	77.94
292.064	94.94
292.295	96.94
292.526	90.94
292.757	88.94
292.987	103.94
293.218	89.94
293.449	93.94
293.68	73.94
293.91	83.94
294.141	91.94
294.372	84.94
294.603	85.94
294.833	95.94
295.064	91.94
295.295	82.94
295.525	90.94
295.756	86.94
295.987	95.94
296.217	142.94
296.448	134.94
296.679	100.94
296.909	104.94
297.14	99.94
297.37	82.94
297.601	84.94
297.831	89.94
298.062	95.94
298.292	103.94
298.523	110.94
298.753	79.94
298.984	94.94
299.214	86.94
299.445	82.94
299.675	90.94
299.905	95.94
300.136	99.94
300.366	89.94
300.597	87.94
300.827	101.94
301.057	88.94
301.288	106.94
301.518	77.94
301.748	70.94
301.979	105.94
302.209	93.94
302.439	78.94
302.669	91.94
302.9	88.94
303.13	83.94
303.36	104.94
303.59	103.94
303.82	111.94
304.051	89.94
304.281	91.94
304.511	77.94
304.741	87.94
304.971	103.94
305.201	92.94
305.431	88.94
305.661	88.94
305.891	78.94
306.121	79.94
306.352	122.94
306.582	103.94
306.812	100.94
307.042	87.94
307.272	105.94
307.502	105.94
307.731	96.94
307.961	88.94
308.191	78.94
308.421	97.94
308.651	105.94
308.881	97.94
309.111	99.94
309.341	98.94
309.571	106.94
309.8	90.94
310.03	99.94
310.26	89.94
310.49	93.94
310.72	93.94
310.949	106.94
311.179	84.94
311.409	90.94
311.639	97.94
311.868	87.94
312.098	102.94
312.328	102.94
312.557	89.94
312.787	103.94
313.017	118.94
313.246	97.94
313.476	84.94
313.706	87.94
313.935	103.94
314.165	91.94
314.394	100.94
314.624	94.94
314.853	110.94
315.083	92.94
315.312	112.94
315.542	84.94
315.771	90.94
316.001	88.94
316.23	89.94
316.46	96.94
316.689	85.94
316.919	104.94
317.148	96.94
317.377	108.94
317.607	101.94
317.836	89.94
318.065	98.94
318.295	81.94
318.524	98.94
318.753	86.94
318.983	97.94
319.212	95.94
319.441	106.94
319.67	83.94
319.9	80.94
320.129	82.94
320.358	101.94
320.587	99.94
320.816	97.94
321.046	115.94
321.275	102.94
321.504	98.94
321.733	86.94
321.962	102.94
322.191	94.94
322.42	98.94
322.649	106.94
322.878	105.94
323.108	130.94
323.337	111.94
323.566	134.94
323.795	139.94
324.024	190.94
324.253	373.94
324.482	798.94
324.71	1543.94
324.939	2103.94
325.168	758.94
325.397	227.94
325.626	139.94
325.855	115.94
326.084	127.94
326.313	133.94
326.542	152.94
326.77	223.94
326.999	439.94
327.228	882.94
327.457	1645.94
327.686	1300.94
327.914	353.94
328.143	199.94
328.372	153.94
328.6	112.94
328.829	115.94
329.058	129.94
329.287	113.94
329.515	113.94
329.744	111.94
329.972	104.94
330.201	115.94
330.43	125.94
330.658	117.94
330.887	134.94
331.115	122.94
331.344	103.94
331.572	95.94
331.801	104.94
332.03	107.94
332.258	109.94
332.486	97.94
332.715	104.94
332.943	93.94
333.172	97.94
333.4	100.94
333.629	110.94
333.857	106.94
334.085	114.94
334.314	107.94
334.542	128.94
334.771	119.94
334.999	92.94
335.227	103.94
335.455	82.94
335.684	95.94
335.912	82.94
336.14	96.94
336.369	90.94
336.597	102.94
336.825	104.94
337.053	97.94
337.281	96.94
337.51	82.94
337.738	85.94
337.966	90.94
338.194	97.94
338.422	77.94
338.65	98.94
338.878	78.94
339.106	99.94
339.334	100.94
339.562	90.94
339.79	94.94
340.018	70.94
340.246	102.94
340.474	90.94
340.702	94.94
340.93	97.94
341.158	100.94
341.386	110.94
341.614	85.94
341.842	98.94
342.07	85.94
342.298	93.94
342.526	94.94
342.754	104.94
342.981	95.94
343.209	91.94
343.437	95.94
343.665	95.94
343.893	96.94
344.12	87.94
344.348	81.94
344.576	85.94
344.804	96.94
345.031	92.94
345.259	97.94
345.487	100.94
345.714	102.94
345.942	98.94
346.17	106.94
346.397	88.94
346.625	105.94
346.853	97.94
347.08	94.94
347.308	94.94
347.535	94.94
347.763	88.94
347.99	108.94
348.218	93.94
348.445	101.94
348.673	116.94
348.9	98.94
349.128	113.94
349.355	94.94
349.583	100.94
349.81	97.94
350.037	103.94
350.265	104.94
350.492	96.94
350.72	96.94
350.947	107.94
351.174	112.94
351.402	102.94
351.629	96.94
351.856	94.94
352.083	100.94
352.311	101.94
352.538	111.94
352.765	105.94
352.992	110.94
353.22	111.94
353.447	103.94
353.674	83.94
353.901	97.94
354.128	97.94
354.355	106.94
354.583	107.94
354.81	95.94
355.037	115.94
355.264	96.94
355.491	107.94
355.718	89.94
355.945	100.94
356.172	94.94
356.399	98.94
356.626	102.94
356.853	101.94
357.08	108.94
357.307	86.94
357.534	85.94
357.761	101.94
357.988	82.94
358.215	81.94
358.441	94.94
358.668	100.94
358.895	88.94
359.122	93.94
359.349	90.94
359.576	73.94
359.802	69.94
360.029	112.94
360.256	101.94
360.483	103.94
360.709	94.94
360.936	88.94
361.163	84.94
361.39	74.94
361.616	89.94
361.843	82.94
362.07	97.94
362.296	109.94
362.523	90.94
362.749	92.94
362.976	91.94
363.203	95.94
363.429	78.94
363.656	93.94
363.882	89.94
364.109	104.94
364.335	103.94
364.562	104.94
364.788	86.94
365.015	89.94
365.241	100.94
365.468	99.94
365.694	99.94
365.92	105.94
366.147	101.94
366.373	94.94
366.599	100.94
366.826	89.94
367.052	94.94
367.278	96.94
367.505	81.94
367.731	87.94
367.957	94.94
368.184	101.94
368.41	112.94
368.636	120.94
368.862	116.94
369.089	107.94
369.315	97.94
369.541	74.94
369.767	87.94
369.993	109.94
370.219	96.94
370.445	92.94
370.672	97.94
370.898	96.94
371.124	85.94
371.35	88.94
371.576	77.94
371.802	95.94
372.028	101.94
372.254	91.94
372.48	101.94
372.706	98.94
372.932	100.94
373.158	97.94
373.384	89.94
373.61	89.94
373.835	94.94
374.061	78.94
374.287	80.94
374.513	94.94
374.739	84.94
374.965	83.94
375.191	93.94
375.416	97.94
375.642	101.94
375.868	97.94
376.094	105.94
376.319	80.94
376.545	89.94
376.771	94.94
376.997	87.94
377.222	91.94
377.448	105.94
377.674	86.94
377.899	107.94
378.125	85.94
378.35	98.94
378.576	77.94
378.802	91.94
379.027	88.94
379.253	99.94
379.478	90.94
379.704	78.94
379.929	86.94
380.155	77.94
380.38	101.94
380.606	98.94
380.831	115.94
381.057	107.94
381.282	90.94
381.507	81.94
381.733	84.94
381.958	88.94
382.184	104.94
382.409	98.94
382.634	100.94
382.86	100.94
383.085	103.94
383.31	88.94
383.535	111.94
383.761	106.94
383.986	94.94
384.211	96.94
384.436	99.94
384.662	108.94
384.887	81.94
385.112	103.94
385.337	83.94
385.562	104.94
385.787	106.94
386.013	98.94
386.238	112.94
386.463	102.94
386.688	96.94
386.913	99.94
387.138	96.94
387.363	87.94
387.588	116.94
387.813	92.94
388.038	94.94
388.263	92.94
388.488	99.94
388.713	89.94
388.938	87.94
389.163	95.94
389.387	107.94
389.612	86.94
389.837	101.94
390.062	87.94
390.287	100.94
390.512	100.94
390.736	77.94
390.961	86.94
391.186	84.94
391.411	98.94
391.636	86.94
391.86	86.94
392.085	72.94
392.31	76.94
392.534	92.94
392.759	94.94
392.984	88.94
393.208	96.94
393.433	82.94
393.658	104.94
393.882	100.94
394.107	88.94
394.331	83.94
394.556	73.94
394.78	87.94
395.005	89.94
395.229	82.94
395.454	78.94
395.678	90.94
395.903	84.94
396.127	95.94
396.352	102.94
396.576	91.94
396.801	78.94
397.025	79.94
397.249	90.94
397.474	95.94
397.698	90.94
397.922	81.94
398.147	79.94
398.371	65.94
398.595	82.94
398.82	79.94
399.044	88.94
399.268	85.94
399.492	77.94
399.717	95.94
399.941	90.94
400.165	103.94
400.389	75.94
400.613	85.94
400.837	87.94
401.062	82.94
401.286	94.94
401.51	92.94
401.734	85.94
401.958	113.94
402.182	115.94
402.406	134.94
402.63	118.94
402.854	95.94
403.078	82.94
403.302	92.94
403.526	89.94
403.75	100.94
403.974	91.94
404.198	88.94
404.422	79.94
404.645	85.94
404.869	97.94
405.093	95.94
405.317	106.94
405.541	106.94
405.765	103.94
405.988	124.94
406.212	161.94
406.436	227.94
406.66	126.94
406.883	103.94
407.107	79.94
407.331	86.94
407.555	102.94
407.778	97.94
408.002	86.94
408.226	89.94
408.449	89.94
408.673	90.94
408.896	103.94
409.12	95.94
409.344	85.94
409.567	83.94
409.791	95.94
410.014	104.94
410.238	94.94
410.461	100.94
410.685	97.94
410.908	99.94
411.132	113.94
411.355	103.94
411.578	99.94
411.802	74.94
412.025	94.94
412.249	95.94
412.472	103.94
412.695	103.94
412.919	89.94
413.142	78.94
413.365	90.94
413.589	92.94
413.812	92.94
414.035	97.94
414.258	80.94
414.482	88.94
414.705	75.94
414.928	89.94
415.151	87.94
415.374	97.94
415.597	93.94
415.821	86.94
416.044	89.94
416.267	96.94
416.49	91.94
416.713	81.94
416.936	83.94
417.159	88.94
417.382	88.94
417.605	102.94
417.828	83.94
418.051	93.94
418.274	96.94
418.497	82.94
418.72	83.94
418.943	90.94
419.166	93.94
419.389	76.94
419.611	98.94
419.834	99.94
420.057	94.94
420.28	89.94
420.503	77.94
420.726	70.94
420.948	90.94
421.171	86.94
421.394	103.94
421.617	93.94
421.839	85.94
422.062	90.94
422.285	86.94
422.507	89.94
422.73	107.94
422.953	101.94
423.175	90.94
423.398	89.94
423.621	89.94
423.843	86.94
424.066	78.94
424.288	82.94
424.511	89.94
424.733	108.94
424.956	107.94
425.178	98.94
425.401	109.94
425.623	81.94
425.846	83.94
426.068	83.94
426.291	99.94
426.513	82.94
426.735	86.94
426.958	85.94
427.18	103.94
427.402	137.94
427.625	159.94
427.847	130.94
428.069	115.94
428.292	87.94
428.514	89.94
428.736	87.94
428.958	84.94
429.181	80.94
429.403	83.94
429.625	100.94
429.847	93.94
430.069	102.94
430.292	90.94
430.514	74.94
430.736	80.94
430.958	91.94
431.18	76.94
431.402	87.94
431.624	95.94
431.846	85.94
432.068	89.94
432.29	102.94
432.512	98.94
432.734	84.94
432.956	81.94
433.178	102.94
433.4	96.94
433.622	93.94
433.844	83.94
434.066	91.94
434.287	94.94
434.509	89.94
434.731	93.94
434.953	89.94
435.175	88.94
435.397	88.94
435.618	86.94
435.84	96.94
436.062	120.94
436.284	105.94
436.505	91.94
436.727	95.94
436.949	77.94
437.17	97.94
437.392	84.94
437.614	84.94
437.835	100.94
438.057	121.94
438.278	93.94
438.5	102.94
438.721	94.94
438.943	97.94
439.165	84.94
439.386	81.94
439.608	90.94
439.829	101.94
440.05	116.94
440.272	129.94
440.493	89.94
440.715	85.94
440.936	89.94
441.158	105.94
441.379	85.94
441.6	92.94
441.822	98.94
442.043	108.94
442.264	99.94
442.486	113.94
442.707	89.94
442.928	104.94
443.149	116.94
443.371	117.94
443.592	104.94
443.813	107.94
444.034	95.94
444.255	98.94
444.476	79.94
444.698	79.94
444.919	83.94
445.14	125.94
445.361	118.94
445.582	118.94
445.803	124.94
446.024	136.94
446.245	115.94
446.466	106.94
446.687	91.94
446.908	94.94
447.129	95.94
447.35	82.94
447.571	91.94
447.792	84.94
448.013	92.94
448.234	111.94
448.455	101.94
448.675	113.94
448.896	123.94
449.117	106.94
449.338	120.94
449.559	122.94
449.779	129.94
450	87.94
450.221	98.94
450.442	94.94
450.662	78.94
450.883	95.94
451.104	113.94
451.324	97.94
451.545	92.94
451.766	92.94
451.986	94.94
452.207	74.94
452.428	94.94
452.648	114.94
452.869	112.94
453.089	100.94
453.31	113.94
453.53	94.94
453.751	79.94
453.971	99.94
454.192	111.94
454.412	90.94
454.633	90.94
454.853	87.94
455.073	80.94
455.294	90.94
455.514	103.94
455.734	90.94
455.955	93.94
456.175	85.94
456.395	98.94
456.616	89.94
456.836	98.94
457.056	95.94
457.276	81.94
457.497	92.94
457.717	81.94
457.937	81.94
458.157	75.94
458.377	91.94
458.598	104.94
458.818	157.94
459.038	135.94
459.258	122.94
459.478	97.94
459.698	83.94
459.918	106.94
460.138	75.94
460.358	90.94
460.578	79.94
460.798	83.94
461.018	102.94
461.238	82.94
461.458	83.94
461.678	71.94
461.898	72.94
462.118	79.94
462.338	81.94
462.558	86.94
462.777	90.94
462.997	96.94
463.217	91.94
463.437	97.94
463.657	97.94
463.876	85.94
464.096	81.94
464.316	78.94
464.536	94.94
464.755	95.94
464.975	105.94
465.195	164.94
465.414	166.94
465.634	100.94
465.854	79.94
466.073	85.94
466.293	85.94
466.512	93.94
466.732	94.94
466.951	91.94
467.171	86.94
467.391	109.94
467.61	115.94
467.829	102.94
468.049	89.94
468.268	99.94
468.488	97.94
468.707	94.94
468.927	88.94
469.146	89.94
469.365	83.94
469.585	79.94
469.804	89.94
470.023	94.94
470.243	93.94
470.462	118.94
470.681	100.94
470.901	87.94
471.12	97.94
471.339	80.94
471.558	75.94
471.777	85.94
471.997	83.94
472.216	93.94
472.435	115.94
472.654	95.94
472.873	77.94
473.092	100.94
473.311	99.94
473.53	81.94
473.749	82.94
473.968	86.94
474.187	90.94
474.406	74.94
474.625	81.94
474.844	95.94
475.063	98.94
475.282	87.94
475.501	85.94
475.72	89.94
475.939	84.94
476.158	92.94
476.377	86.94
476.596	82.94
476.814	100.94
477.033	100.94
477.252	93.94
477.471	77.94
477.69	83.94
477.908	87.94
478.127	86.94
478.346	94.94
478.564	97.94
478.783	99.94
479.002	89.94
479.22	85.94
479.439	96.94
479.658	115.94
479.876	98.94
480.095	74.94
480.313	97.94
480.532	82.94
480.751	76.94
480.969	90.94
481.188	174.94
481.406	133.94
481.624	100.94
481.843	104.94
482.061	85.94
482.28	93.94
482.498	90.94
482.717	74.94
482.935	81.94
483.153	101.94
483.372	89.94
483.59	81.94
483.808	96.94
484.027	93.94
484.245	83.94
484.463	93.94
484.681	88.94
484.9	101.94
485.118	85.94
485.336	96.94
485.554	93.94
485.772	93.94
485.99	97.94
486.209	92.94
486.427	99.94
486.645	106.94
486.863	105.94
487.081	106.94
487.299	89.94
487.517	93.94
487.735	98.94
487.953	109.94
488.171	81.94
488.389	98.94
488.607	95.94
488.825	79.94
489.043	73.94
489.261	93.94
489.479	87.94
489.696	103.94
489.914	94.94
490.132	77.94
490.35	84.94
490.568	74.94
490.786	83.94
491.003	77.94
491.221	87.94
491.439	88.94
491.657	93.94
491.874	90.94
492.092	89.94
492.31	92.94
492.527	91.94
492.745	89.94
492.963	105.94
493.18	99.94
493.398	80.94
493.615	98.94
493.833	110.94
494.05	95.94
494.268	84.94
494.485	81.94
494.703	95.94
494.92	96.94
495.138	80.94
495.355	88.94
495.573	95.94
495.79	86.94
496.008	104.94
496.225	93.94
496.442	95.94
496.66	113.94
496.877	94.94
497.094	86.94
497.312	90.94
497.529	80.94
497.746	101.94
497.963	90.94
498.181	81.94
498.398	91.94
498.615	103.94
498.832	116.94
499.049	95.94
499.267	96.94
499.484	117.94
499.701	85.94
499.918	91.94
500.135	85.94
500.352	89.94
500.569	95.94
500.786	101.94
501.003	102.94
501.22	89.94
501.437	79.94
501.654	98.94
501.871	106.94
502.088	80.94
502.305	89.94
502.522	79.94
502.739	87.94
502.956	88.94
503.172	85.94
503.389	90.94
503.606	111.94
503.823	77.94
504.04	90.94
504.256	83.94
504.473	90.94
504.69	95.94
504.907	97.94
505.123	86.94
505.34	81.94
505.557	91.94
505.773	82.94
505.99	102.94
506.207	85.94
506.423	95.94
506.64	88.94
506.856	95.94
507.073	85.94
507.289	88.94
507.506	96.94
507.722	107.94
507.939	91.94
508.155	102.94
508.372	99.94
508.588	93.94
508.805	102.94
509.021	106.94
509.238	92.94
509.454	88.94
509.67	102.94
509.887	104.94
510.103	127.94
510.319	207.94
510.536	721.94
510.752	2285.94
510.968	616.94
511.184	149.94
511.401	105.94
511.617	87.94
511.833	79.94
512.049	93.94
512.265	101.94
512.481	89.94
512.698	95.94
512.914	91.94
513.13	95.94
513.346	100.94
513.562	97.94
513.778	105.94
513.994	106.94
514.21	108.94
514.426	122.94
514.642	124.94
514.858	137.94
515.074	166.94
515.29	449.94
