Data from Uncirc_1987_H10_HRD10591_00074.txt Node
Date: Wed Jan 03 12:09:03 EST 2024
User: Yrep
Spectrometer: HR+D1059
Trigger mode: 1
Integration Time (sec): 1.000000E-1
Scans to average: 1
Electric dark correction enabled: true
Nonlinearity correction enabled: false
Boxcar width: 0
XAxis mode: Wavelengths
Number of Pixels in Spectrum: 2048
>>>>>Begin Spectral Data<<<<<
223.165	-18.38
223.4	-18.38
223.635	-18.38
223.869	-13.38
224.104	-17.38
224.338	-9.38
224.573	-20.38
224.808	-10.38
225.042	-11.38
225.277	-2.38
225.511	-4.38
225.746	3.62
225.98	5.62
226.215	12.62
226.449	28.62
226.683	17.62
226.918	20.62
227.152	18.62
227.387	32.62
227.621	39.62
227.856	33.62
228.09	34.62
228.324	55.62
228.559	47.62
228.793	44.62
229.027	58.62
229.262	56.62
229.496	62.62
229.73	86.62
229.964	61.62
230.199	65.62
230.433	71.62
230.667	84.62
230.901	77.62
231.136	73.62
231.37	82.62
231.604	69.62
231.838	78.62
232.072	77.62
232.306	76.62
232.541	82.62
232.775	93.62
233.009	87.62
233.243	85.62
233.477	84.62
233.711	63.62
233.945	86.62
234.179	86.62
234.413	79.62
234.647	84.62
234.881	72.62
235.115	81.62
235.349	81.62
235.583	73.62
235.817	97.62
236.051	75.62
236.285	81.62
236.519	67.62
236.753	72.62
236.987	81.62
237.221	70.62
237.455	90.62
237.689	79.62
237.922	71.62
238.156	66.62
238.39	78.62
238.624	67.62
238.858	71.62
239.091	93.62
239.325	73.62
239.559	73.62
239.793	80.62
240.027	74.62
240.26	81.62
240.494	69.62
240.728	88.62
240.961	90.62
241.195	69.62
241.429	80.62
241.662	68.62
241.896	76.62
242.13	76.62
242.363	81.62
242.597	72.62
242.83	82.62
243.064	78.62
243.298	76.62
243.531	79.62
243.765	94.62
243.998	66.62
244.232	71.62
244.465	76.62
244.699	77.62
244.932	69.62
245.166	81.62
245.399	92.62
245.633	78.62
245.866	63.62
246.099	73.62
246.333	80.62
246.566	82.62
246.8	72.62
247.033	72.62
247.266	65.62
247.5	76.62
247.733	61.62
247.966	62.62
248.2	86.62
248.433	90.62
248.666	80.62
248.899	93.62
249.133	90.62
249.366	82.62
249.599	93.62
249.832	97.62
250.066	80.62
250.299	76.62
250.532	70.62
250.765	80.62
250.998	71.62
251.231	87.62
251.465	76.62
251.698	76.62
251.931	70.62
252.164	86.62
252.397	74.62
252.63	75.62
252.863	96.62
253.096	73.62
253.329	70.62
253.562	78.62
253.795	78.62
254.028	77.62
254.261	86.62
254.494	76.62
254.727	68.62
254.96	85.62
255.193	82.62
255.426	83.62
255.659	76.62
255.892	89.62
256.124	83.62
256.357	82.62
256.59	83.62
256.823	78.62
257.056	76.62
257.289	90.62
257.521	77.62
257.754	89.62
257.987	81.62
258.22	98.62
258.452	65.62
258.685	80.62
258.918	92.62
259.151	86.62
259.383	72.62
259.616	80.62
259.849	80.62
260.081	73.62
260.314	84.62
260.547	88.62
260.779	73.62
261.012	97.62
261.244	88.62
261.477	87.62
261.71	85.62
261.942	104.62
262.175	121.62
262.407	85.62
262.64	73.62
262.872	74.62
263.105	82.62
263.337	80.62
263.57	74.62
263.802	76.62
264.035	87.62
264.267	87.62
264.499	85.62
264.732	82.62
264.964	69.62
265.197	76.62
265.429	80.62
265.661	64.62
265.894	83.62
266.126	87.62
266.358	79.62
266.591	84.62
266.823	71.62
267.055	80.62
267.287	72.62
267.52	94.62
267.752	95.62
267.984	78.62
268.216	85.62
268.448	78.62
268.681	92.62
268.913	71.62
269.145	80.62
269.377	92.62
269.609	92.62
269.841	74.62
270.073	63.62
270.306	79.62
270.538	90.62
270.77	82.62
271.002	67.62
271.234	106.62
271.466	84.62
271.698	81.62
271.93	80.62
272.162	70.62
272.394	88.62
272.626	80.62
272.858	81.62
273.09	78.62
273.322	89.62
273.553	80.62
273.785	76.62
274.017	76.62
274.249	94.62
274.481	78.62
274.713	89.62
274.945	89.62
275.176	93.62
275.408	83.62
275.64	97.62
275.872	92.62
276.104	80.62
276.335	97.62
276.567	101.62
276.799	88.62
277.031	101.62
277.262	85.62
277.494	82.62
277.726	81.62
277.957	89.62
278.189	94.62
278.421	75.62
278.652	80.62
278.884	90.62
279.115	92.62
279.347	78.62
279.579	87.62
279.81	85.62
280.042	78.62
280.273	86.62
280.505	74.62
280.736	82.62
280.968	71.62
281.199	82.62
281.431	83.62
281.662	87.62
281.894	97.62
282.125	98.62
282.356	118.62
282.588	121.62
282.819	119.62
283.051	106.62
283.282	92.62
283.513	96.62
283.745	85.62
283.976	97.62
284.207	90.62
284.439	73.62
284.67	87.62
284.901	99.62
285.132	93.62
285.364	90.62
285.595	93.62
285.826	84.62
286.057	90.62
286.288	82.62
286.52	86.62
286.751	94.62
286.982	77.62
287.213	90.62
287.444	89.62
287.675	93.62
287.906	89.62
288.138	89.62
288.369	84.62
288.6	81.62
288.831	78.62
289.062	73.62
289.293	80.62
289.524	88.62
289.755	88.62
289.986	88.62
290.217	87.62
290.448	78.62
290.679	80.62
290.91	86.62
291.141	89.62
291.371	93.62
291.602	95.62
291.833	74.62
292.064	90.62
292.295	93.62
292.526	90.62
292.757	81.62
292.987	79.62
293.218	81.62
293.449	80.62
293.68	93.62
293.91	79.62
294.141	62.62
294.372	87.62
294.603	90.62
294.833	98.62
295.064	84.62
295.295	81.62
295.525	94.62
295.756	102.62
295.987	114.62
296.217	127.62
296.448	109.62
296.679	105.62
296.909	92.62
297.14	101.62
297.37	90.62
297.601	88.62
297.831	88.62
298.062	93.62
298.292	85.62
298.523	94.62
298.753	79.62
298.984	92.62
299.214	86.62
299.445	105.62
299.675	102.62
299.905	84.62
300.136	89.62
300.366	80.62
300.597	84.62
300.827	78.62
301.057	105.62
301.288	108.62
301.518	101.62
301.748	93.62
301.979	105.62
302.209	78.62
302.439	91.62
302.669	94.62
302.9	86.62
303.13	86.62
303.36	97.62
303.59	91.62
303.82	104.62
304.051	96.62
304.281	99.62
304.511	104.62
304.741	86.62
304.971	93.62
305.201	92.62
305.431	73.62
305.661	88.62
305.891	84.62
306.121	85.62
306.352	93.62
306.582	109.62
306.812	85.62
307.042	95.62
307.272	96.62
307.502	89.62
307.731	83.62
307.961	93.62
308.191	85.62
308.421	94.62
308.651	96.62
308.881	102.62
309.111	102.62
309.341	102.62
309.571	99.62
309.8	97.62
310.03	88.62
310.26	92.62
310.49	87.62
310.72	105.62
310.949	95.62
311.179	96.62
311.409	86.62
311.639	95.62
311.868	88.62
312.098	96.62
312.328	97.62
312.557	94.62
312.787	111.62
313.017	106.62
313.246	99.62
313.476	94.62
313.706	90.62
313.935	102.62
314.165	97.62
314.394	93.62
314.624	88.62
314.853	90.62
315.083	83.62
315.312	94.62
315.542	94.62
315.771	85.62
316.001	84.62
316.23	80.62
316.46	79.62
316.689	83.62
316.919	86.62
317.148	97.62
317.377	107.62
317.607	80.62
317.836	85.62
318.065	101.62
318.295	93.62
318.524	83.62
318.753	90.62
318.983	86.62
319.212	96.62
319.441	96.62
319.67	104.62
319.9	98.62
320.129	104.62
320.358	105.62
320.587	95.62
320.816	83.62
321.046	104.62
321.275	90.62
321.504	92.62
321.733	101.62
321.962	90.62
322.191	102.62
322.42	111.62
322.649	117.62
322.878	102.62
323.108	103.62
323.337	116.62
323.566	121.62
323.795	135.62
324.024	205.62
324.253	352.62
324.482	686.62
324.71	1488.62
324.939	1993.62
325.168	713.62
325.397	227.62
325.626	140.62
325.855	123.62
326.084	124.62
326.313	111.62
326.542	146.62
326.77	212.62
326.999	394.62
327.228	819.62
327.457	1537.62
327.686	1206.62
327.914	339.62
328.143	185.62
328.372	135.62
328.6	121.62
328.829	114.62
329.058	113.62
329.287	119.62
329.515	101.62
329.744	99.62
329.972	100.62
330.201	109.62
330.43	110.62
330.658	105.62
330.887	124.62
331.115	119.62
331.344	87.62
331.572	107.62
331.801	101.62
332.03	99.62
332.258	88.62
332.486	102.62
332.715	74.62
332.943	82.62
333.172	99.62
333.4	88.62
333.629	107.62
333.857	109.62
334.085	97.62
334.314	103.62
334.542	122.62
334.771	117.62
334.999	101.62
335.227	86.62
335.455	89.62
335.684	97.62
335.912	106.62
336.14	94.62
336.369	90.62
336.597	92.62
336.825	94.62
337.053	88.62
337.281	78.62
337.51	79.62
337.738	88.62
337.966	105.62
338.194	92.62
338.422	86.62
338.65	81.62
338.878	96.62
339.106	85.62
339.334	99.62
339.562	80.62
339.79	63.62
340.018	98.62
340.246	92.62
340.474	75.62
340.702	92.62
340.93	82.62
341.158	102.62
341.386	92.62
341.614	112.62
341.842	85.62
342.07	83.62
342.298	85.62
342.526	84.62
342.754	86.62
342.981	85.62
343.209	96.62
343.437	113.62
343.665	81.62
343.893	88.62
344.12	99.62
344.348	86.62
344.576	85.62
344.804	80.62
345.031	94.62
345.259	93.62
345.487	96.62
345.714	93.62
345.942	92.62
346.17	90.62
346.397	84.62
346.625	86.62
346.853	113.62
347.08	97.62
347.308	97.62
347.535	97.62
347.763	97.62
347.99	95.62
348.218	96.62
348.445	81.62
348.673	88.62
348.9	105.62
349.128	104.62
349.355	95.62
349.583	99.62
349.81	106.62
350.037	87.62
350.265	83.62
350.492	102.62
350.72	80.62
350.947	88.62
351.174	105.62
351.402	98.62
351.629	102.62
351.856	90.62
352.083	92.62
352.311	96.62
352.538	95.62
352.765	110.62
352.992	121.62
353.22	113.62
353.447	97.62
353.674	99.62
353.901	98.62
354.128	96.62
354.355	87.62
354.583	92.62
354.81	97.62
355.037	99.62
355.264	109.62
355.491	89.62
355.718	100.62
355.945	97.62
356.172	87.62
356.399	84.62
356.626	93.62
356.853	92.62
357.08	91.62
357.307	94.62
357.534	83.62
357.761	101.62
357.988	95.62
358.215	91.62
358.441	106.62
358.668	92.62
358.895	106.62
359.122	89.62
359.349	90.62
359.576	86.62
359.802	93.62
360.029	109.62
360.256	109.62
360.483	102.62
360.709	95.62
360.936	82.62
361.163	93.62
361.39	91.62
361.616	107.62
361.843	97.62
362.07	86.62
362.296	99.62
362.523	86.62
362.749	87.62
362.976	103.62
363.203	102.62
363.429	78.62
363.656	97.62
363.882	91.62
364.109	96.62
364.335	103.62
364.562	83.62
364.788	75.62
365.015	90.62
365.241	95.62
365.468	99.62
365.694	117.62
365.92	90.62
366.147	96.62
366.373	86.62
366.599	86.62
366.826	79.62
367.052	94.62
367.278	98.62
367.505	93.62
367.731	78.62
367.957	88.62
368.184	84.62
368.41	85.62
368.636	108.62
368.862	118.62
369.089	102.62
369.315	89.62
369.541	89.62
369.767	85.62
369.993	95.62
370.219	88.62
370.445	88.62
370.672	99.62
370.898	90.62
371.124	85.62
371.35	86.62
371.576	89.62
371.802	87.62
372.028	82.62
372.254	94.62
372.48	89.62
372.706	74.62
372.932	81.62
373.158	82.62
373.384	94.62
373.61	87.62
373.835	84.62
374.061	84.62
374.287	87.62
374.513	99.62
374.739	90.62
374.965	99.62
375.191	95.62
375.416	80.62
375.642	89.62
375.868	87.62
376.094	81.62
376.319	90.62
376.545	101.62
376.771	84.62
376.997	90.62
377.222	81.62
377.448	91.62
377.674	78.62
377.899	96.62
378.125	71.62
378.35	102.62
378.576	90.62
378.802	86.62
379.027	80.62
379.253	89.62
379.478	96.62
379.704	88.62
379.929	96.62
380.155	95.62
380.38	92.62
380.606	78.62
380.831	89.62
381.057	105.62
381.282	102.62
381.507	96.62
381.733	92.62
381.958	80.62
382.184	95.62
382.409	99.62
382.634	80.62
382.86	97.62
383.085	97.62
383.31	100.62
383.535	89.62
383.761	94.62
383.986	94.62
384.211	96.62
384.436	89.62
384.662	106.62
384.887	90.62
385.112	100.62
385.337	122.62
385.562	112.62
385.787	113.62
386.013	100.62
386.238	102.62
386.463	80.62
386.688	111.62
386.913	90.62
387.138	81.62
387.363	100.62
387.588	86.62
387.813	85.62
388.038	105.62
388.263	111.62
388.488	94.62
388.713	104.62
388.938	101.62
389.163	99.62
389.387	102.62
389.612	103.62
389.837	96.62
390.062	99.62
390.287	97.62
390.512	78.62
390.736	82.62
390.961	95.62
391.186	98.62
391.411	91.62
391.636	105.62
391.86	89.62
392.085	92.62
392.31	83.62
392.534	87.62
392.759	90.62
392.984	100.62
393.208	86.62
393.433	84.62
393.658	98.62
393.882	88.62
394.107	97.62
394.331	94.62
394.556	77.62
394.78	81.62
395.005	87.62
395.229	83.62
395.454	82.62
395.678	95.62
395.903	88.62
396.127	90.62
396.352	81.62
396.576	89.62
396.801	81.62
397.025	77.62
397.249	89.62
397.474	90.62
397.698	94.62
397.922	87.62
398.147	88.62
398.371	84.62
398.595	85.62
398.82	92.62
399.044	74.62
399.268	86.62
399.492	84.62
399.717	84.62
399.941	67.62
400.165	84.62
400.389	97.62
400.613	91.62
400.837	79.62
401.062	88.62
401.286	89.62
401.51	78.62
401.734	88.62
401.958	95.62
402.182	110.62
402.406	135.62
402.63	95.62
402.854	87.62
403.078	86.62
403.302	85.62
403.526	90.62
403.75	98.62
403.974	87.62
404.198	80.62
404.422	91.62
404.645	91.62
404.869	88.62
405.093	74.62
405.317	81.62
405.541	92.62
405.765	109.62
405.988	96.62
406.212	149.62
406.436	188.62
406.66	135.62
406.883	92.62
407.107	95.62
407.331	91.62
407.555	112.62
407.778	103.62
408.002	85.62
408.226	64.62
408.449	83.62
408.673	81.62
408.896	86.62
409.12	90.62
409.344	83.62
409.567	82.62
409.791	78.62
410.014	82.62
410.238	100.62
410.461	103.62
410.685	93.62
410.908	97.62
411.132	90.62
411.355	95.62
411.578	82.62
411.802	89.62
412.025	89.62
412.249	70.62
412.472	82.62
412.695	84.62
412.919	98.62
413.142	92.62
413.365	88.62
413.589	98.62
413.812	105.62
414.035	98.62
414.258	92.62
414.482	81.62
414.705	89.62
414.928	85.62
415.151	81.62
415.374	101.62
415.597	83.62
415.821	85.62
416.044	93.62
416.267	92.62
416.49	89.62
416.713	98.62
416.936	92.62
417.159	90.62
417.382	92.62
417.605	94.62
417.828	92.62
418.051	87.62
418.274	79.62
418.497	78.62
418.72	97.62
418.943	86.62
419.166	87.62
419.389	87.62
419.611	97.62
419.834	85.62
420.057	96.62
420.28	86.62
420.503	95.62
420.726	94.62
420.948	82.62
421.171	93.62
421.394	88.62
421.617	88.62
421.839	97.62
422.062	81.62
422.285	90.62
422.507	102.62
422.73	115.62
422.953	93.62
423.175	82.62
423.398	86.62
423.621	84.62
423.843	92.62
424.066	95.62
424.288	86.62
424.511	77.62
424.733	90.62
424.956	101.62
425.178	94.62
425.401	111.62
425.623	85.62
425.846	77.62
426.068	89.62
426.291	88.62
426.513	86.62
426.735	100.62
426.958	84.62
427.18	96.62
427.402	135.62
427.625	150.62
427.847	120.62
428.069	97.62
428.292	81.62
428.514	89.62
428.736	81.62
428.958	78.62
429.181	85.62
429.403	84.62
429.625	86.62
429.847	76.62
430.069	99.62
430.292	90.62
430.514	78.62
430.736	78.62
430.958	66.62
431.18	84.62
431.402	70.62
431.624	79.62
431.846	85.62
432.068	92.62
432.29	91.62
432.512	81.62
432.734	81.62
432.956	79.62
433.178	97.62
433.4	88.62
433.622	94.62
433.844	80.62
434.066	92.62
434.287	90.62
434.509	92.62
434.731	81.62
434.953	80.62
435.175	96.62
435.397	78.62
435.618	79.62
435.84	99.62
436.062	109.62
436.284	112.62
436.505	100.62
436.727	91.62
436.949	101.62
437.17	85.62
437.392	90.62
437.614	93.62
437.835	104.62
438.057	104.62
438.278	113.62
438.5	110.62
438.721	117.62
438.943	101.62
439.165	80.62
439.386	90.62
439.608	83.62
439.829	81.62
440.05	121.62
440.272	120.62
440.493	89.62
440.715	80.62
440.936	57.62
441.158	90.62
441.379	80.62
441.6	93.62
441.822	90.62
442.043	94.62
442.264	96.62
442.486	100.62
442.707	82.62
442.928	88.62
443.149	124.62
443.371	130.62
443.592	110.62
443.813	108.62
444.034	106.62
444.255	105.62
444.476	101.62
444.698	94.62
444.919	93.62
445.14	131.62
445.361	126.62
445.582	112.62
445.803	109.62
446.024	111.62
446.245	124.62
446.466	114.62
446.687	85.62
446.908	82.62
447.129	94.62
447.35	69.62
447.571	88.62
447.792	106.62
448.013	96.62
448.234	121.62
448.455	102.62
448.675	102.62
448.896	119.62
449.117	104.62
449.338	97.62
449.559	132.62
449.779	121.62
450	96.62
450.221	84.62
450.442	76.62
450.662	80.62
450.883	104.62
451.104	110.62
451.324	94.62
451.545	91.62
451.766	101.62
451.986	80.62
452.207	94.62
452.428	98.62
452.648	97.62
452.869	106.62
453.089	102.62
453.31	102.62
453.53	85.62
453.751	88.62
453.971	97.62
454.192	110.62
454.412	96.62
454.633	104.62
454.853	85.62
455.073	91.62
455.294	82.62
455.514	104.62
455.734	85.62
455.955	100.62
456.175	80.62
456.395	82.62
456.616	82.62
456.836	82.62
457.056	87.62
457.276	87.62
457.497	92.62
457.717	94.62
457.937	85.62
458.157	83.62
458.377	94.62
458.598	91.62
458.818	129.62
459.038	132.62
459.258	105.62
459.478	89.62
459.698	88.62
459.918	87.62
460.138	94.62
460.358	84.62
460.578	91.62
460.798	91.62
461.018	87.62
461.238	80.62
461.458	93.62
461.678	98.62
461.898	96.62
462.118	81.62
462.338	86.62
462.558	85.62
462.777	80.62
462.997	89.62
463.217	78.62
463.437	86.62
463.657	81.62
463.876	89.62
464.096	91.62
464.316	86.62
464.536	81.62
464.755	63.62
464.975	93.62
465.195	128.62
465.414	132.62
465.634	82.62
465.854	83.62
466.073	85.62
466.293	89.62
466.512	97.62
466.732	83.62
466.951	97.62
467.171	96.62
467.391	105.62
467.61	122.62
467.829	91.62
468.049	103.62
468.268	90.62
468.488	92.62
468.707	80.62
468.927	79.62
469.146	83.62
469.365	89.62
469.585	85.62
469.804	83.62
470.023	97.62
470.243	89.62
470.462	83.62
470.681	97.62
470.901	93.62
471.12	89.62
471.339	81.62
471.558	98.62
471.777	86.62
471.997	72.62
472.216	96.62
472.435	115.62
472.654	84.62
472.873	79.62
473.092	80.62
473.311	95.62
473.53	95.62
473.749	90.62
473.968	95.62
474.187	101.62
474.406	91.62
474.625	100.62
474.844	79.62
475.063	88.62
475.282	81.62
475.501	72.62
475.72	106.62
475.939	76.62
476.158	88.62
476.377	89.62
476.596	88.62
476.814	95.62
477.033	88.62
477.252	88.62
477.471	89.62
477.69	88.62
477.908	92.62
478.127	85.62
478.346	90.62
478.564	101.62
478.783	91.62
479.002	97.62
479.22	93.62
479.439	101.62
479.658	93.62
479.876	94.62
480.095	80.62
480.313	96.62
480.532	94.62
480.751	86.62
480.969	103.62
481.188	142.62
481.406	125.62
481.624	95.62
481.843	87.62
482.061	81.62
482.28	87.62
482.498	87.62
482.717	84.62
482.935	94.62
483.153	86.62
483.372	83.62
483.59	104.62
483.808	91.62
484.027	110.62
484.245	106.62
484.463	84.62
484.681	85.62
484.9	86.62
485.118	85.62
485.336	91.62
485.554	76.62
485.772	93.62
485.99	84.62
486.209	100.62
486.427	103.62
486.645	112.62
486.863	102.62
487.081	108.62
487.299	89.62
487.517	86.62
487.735	96.62
487.953	98.62
488.171	102.62
488.389	97.62
488.607	101.62
488.825	84.62
489.043	100.62
489.261	95.62
489.479	79.62
489.696	80.62
489.914	84.62
490.132	96.62
490.35	82.62
490.568	72.62
490.786	83.62
491.003	92.62
491.221	84.62
491.439	87.62
491.657	101.62
491.874	94.62
492.092	85.62
492.31	87.62
492.527	79.62
492.745	87.62
492.963	91.62
493.18	83.62
493.398	85.62
493.615	94.62
493.833	81.62
494.05	97.62
494.268	100.62
494.485	92.62
494.703	113.62
494.92	84.62
495.138	82.62
495.355	76.62
495.573	77.62
495.79	73.62
496.008	93.62
496.225	90.62
496.442	89.62
496.66	93.62
496.877	93.62
497.094	90.62
497.312	76.62
497.529	79.62
497.746	113.62
497.963	87.62
498.181	102.62
498.398	86.62
498.615	117.62
498.832	113.62
499.049	91.62
499.267	82.62
499.484	79.62
499.701	85.62
499.918	94.62
500.135	88.62
500.352	97.62
500.569	81.62
500.786	85.62
501.003	92.62
501.22	89.62
501.437	90.62
501.654	91.62
501.871	98.62
502.088	90.62
502.305	86.62
502.522	97.62
502.739	93.62
502.956	86.62
503.172	89.62
503.389	84.62
503.606	86.62
503.823	93.62
504.04	78.62
504.256	73.62
504.473	93.62
504.69	97.62
504.907	84.62
505.123	95.62
505.34	100.62
505.557	91.62
505.773	107.62
505.99	89.62
506.207	100.62
506.423	100.62
506.64	80.62
506.856	98.62
507.073	81.62
507.289	100.62
507.506	102.62
507.722	108.62
507.939	95.62
508.155	97.62
508.372	84.62
508.588	99.62
508.805	96.62
509.021	77.62
509.238	99.62
509.454	94.62
509.67	99.62
509.887	106.62
510.103	125.62
510.319	183.62
510.536	665.62
510.752	2072.62
510.968	552.62
511.184	126.62
511.401	96.62
511.617	102.62
511.833	88.62
512.049	80.62
512.265	90.62
512.481	78.62
512.698	83.62
512.914	101.62
513.13	89.62
513.346	93.62
513.562	98.62
513.778	92.62
513.994	95.62
514.21	104.62
514.426	116.62
514.642	104.62
514.858	118.62
515.074	146.62
515.29	394.62
515.506	1258.62
515.721	483.62
515.937	152.62
516.153	106.62
516.369	101.62
