Data from Uncirc_1987_H10_HRD10591_00021.txt Node
Date: Wed Jan 03 12:08:52 EST 2024
User: Yrep
Spectrometer: HR+D1059
Trigger mode: 1
Integration Time (sec): 1.000000E-1
Scans to average: 1
Electric dark correction enabled: true
Nonlinearity correction enabled: false
Boxcar width: 0
XAxis mode: Wavelengths
Number of Pixels in Spectrum: 2048
>>>>>Begin Spectral Data<<<<<
223.165	-27.5
223.4	-27.5
223.635	-27.5
223.869	-20.5
224.104	-11.5
224.338	-6.5
224.573	-3.5
224.808	-14.5
225.042	-16.5
225.277	-5.5
225.511	-5.5
225.746	-15.5
225.98	5.5
226.215	21.5
226.449	12.5
226.683	34.5
226.918	27.5
227.152	25.5
227.387	49.5
227.621	34.5
227.856	39.5
228.09	40.5
228.324	61.5
228.559	42.5
228.793	61.5
229.027	60.5
229.262	86.5
229.496	81.5
229.73	73.5
229.964	84.5
230.199	75.5
230.433	91.5
230.667	85.5
230.901	89.5
231.136	82.5
231.37	92.5
231.604	78.5
231.838	94.5
232.072	85.5
232.306	85.5
232.541	74.5
232.775	79.5
233.009	79.5
233.243	72.5
233.477	77.5
233.711	85.5
233.945	93.5
234.179	80.5
234.413	75.5
234.647	97.5
234.881	77.5
235.115	85.5
235.349	88.5
235.583	79.5
235.817	69.5
236.051	81.5
236.285	83.5
236.519	83.5
236.753	89.5
236.987	83.5
237.221	79.5
237.455	87.5
237.689	75.5
237.922	83.5
238.156	69.5
238.39	65.5
238.624	82.5
238.858	70.5
239.091	84.5
239.325	79.5
239.559	69.5
239.793	76.5
240.027	85.5
240.26	78.5
240.494	83.5
240.728	84.5
240.961	69.5
241.195	90.5
241.429	79.5
241.662	67.5
241.896	65.5
242.13	96.5
242.363	65.5
242.597	74.5
242.83	79.5
243.064	90.5
243.298	83.5
243.531	86.5
243.765	90.5
243.998	64.5
244.232	77.5
244.465	82.5
244.699	86.5
244.932	83.5
245.166	90.5
245.399	74.5
245.633	80.5
245.866	67.5
246.099	66.5
246.333	77.5
246.566	79.5
246.8	82.5
247.033	82.5
247.266	78.5
247.5	73.5
247.733	67.5
247.966	82.5
248.2	71.5
248.433	67.5
248.666	89.5
248.899	71.5
249.133	79.5
249.366	90.5
249.599	84.5
249.832	82.5
250.066	89.5
250.299	74.5
250.532	82.5
250.765	80.5
250.998	73.5
251.231	89.5
251.465	81.5
251.698	86.5
251.931	69.5
252.164	77.5
252.397	85.5
252.63	78.5
252.863	87.5
253.096	86.5
253.329	83.5
253.562	70.5
253.795	71.5
254.028	63.5
254.261	87.5
254.494	82.5
254.727	95.5
254.96	74.5
255.193	87.5
255.426	72.5
255.659	81.5
255.892	94.5
256.124	86.5
256.357	78.5
256.59	74.5
256.823	71.5
257.056	92.5
257.289	89.5
257.521	79.5
257.754	64.5
257.987	77.5
258.22	83.5
258.452	80.5
258.685	76.5
258.918	86.5
259.151	101.5
259.383	90.5
259.616	90.5
259.849	93.5
260.081	81.5
260.314	89.5
260.547	88.5
260.779	87.5
261.012	79.5
261.244	86.5
261.477	86.5
261.71	104.5
261.942	104.5
262.175	111.5
262.407	85.5
262.64	77.5
262.872	81.5
263.105	81.5
263.337	82.5
263.57	96.5
263.802	85.5
264.035	77.5
264.267	78.5
264.499	92.5
264.732	83.5
264.964	85.5
265.197	93.5
265.429	85.5
265.661	64.5
265.894	87.5
266.126	68.5
266.358	85.5
266.591	70.5
266.823	84.5
267.055	77.5
267.287	81.5
267.52	88.5
267.752	88.5
267.984	87.5
268.216	85.5
268.448	84.5
268.681	101.5
268.913	98.5
269.145	87.5
269.377	79.5
269.609	78.5
269.841	91.5
270.073	84.5
270.306	96.5
270.538	94.5
270.77	94.5
271.002	83.5
271.234	85.5
271.466	66.5
271.698	80.5
271.93	100.5
272.162	88.5
272.394	76.5
272.626	70.5
272.858	89.5
273.09	91.5
273.322	86.5
273.553	94.5
273.785	87.5
274.017	82.5
274.249	78.5
274.481	77.5
274.713	101.5
274.945	74.5
275.176	91.5
275.408	83.5
275.64	87.5
275.872	94.5
276.104	98.5
276.335	85.5
276.567	89.5
276.799	98.5
277.031	98.5
277.262	83.5
277.494	85.5
277.726	88.5
277.957	81.5
278.189	103.5
278.421	87.5
278.652	93.5
278.884	89.5
279.115	85.5
279.347	97.5
279.579	91.5
279.81	86.5
280.042	96.5
280.273	89.5
280.505	73.5
280.736	73.5
280.968	85.5
281.199	88.5
281.431	97.5
281.662	90.5
281.894	95.5
282.125	92.5
282.356	101.5
282.588	131.5
282.819	100.5
283.051	87.5
283.282	82.5
283.513	93.5
283.745	90.5
283.976	76.5
284.207	83.5
284.439	78.5
284.67	82.5
284.901	57.5
285.132	89.5
285.364	81.5
285.595	98.5
285.826	100.5
286.057	98.5
286.288	79.5
286.52	92.5
286.751	77.5
286.982	90.5
287.213	90.5
287.444	96.5
287.675	88.5
287.906	74.5
288.138	87.5
288.369	88.5
288.6	102.5
288.831	84.5
289.062	91.5
289.293	93.5
289.524	90.5
289.755	93.5
289.986	89.5
290.217	84.5
290.448	87.5
290.679	90.5
290.91	84.5
291.141	81.5
291.371	95.5
291.602	87.5
291.833	85.5
292.064	74.5
292.295	97.5
292.526	83.5
292.757	75.5
292.987	93.5
293.218	84.5
293.449	86.5
293.68	98.5
293.91	77.5
294.141	76.5
294.372	98.5
294.603	63.5
294.833	89.5
295.064	98.5
295.295	93.5
295.525	95.5
295.756	106.5
295.987	113.5
296.217	120.5
296.448	114.5
296.679	107.5
296.909	88.5
297.14	91.5
297.37	88.5
297.601	95.5
297.831	98.5
298.062	75.5
298.292	84.5
298.523	90.5
298.753	88.5
298.984	86.5
299.214	95.5
299.445	91.5
299.675	82.5
299.905	82.5
300.136	89.5
300.366	76.5
300.597	95.5
300.827	97.5
301.057	95.5
301.288	95.5
301.518	99.5
301.748	87.5
301.979	93.5
302.209	80.5
302.439	87.5
302.669	81.5
302.9	79.5
303.13	94.5
303.36	102.5
303.59	97.5
303.82	98.5
304.051	95.5
304.281	87.5
304.511	89.5
304.741	97.5
304.971	103.5
305.201	100.5
305.431	85.5
305.661	95.5
305.891	95.5
306.121	94.5
306.352	96.5
306.582	106.5
306.812	101.5
307.042	82.5
307.272	92.5
307.502	93.5
307.731	96.5
307.961	79.5
308.191	91.5
308.421	88.5
308.651	103.5
308.881	100.5
309.111	92.5
309.341	111.5
309.571	82.5
309.8	102.5
310.03	91.5
310.26	97.5
310.49	112.5
310.72	102.5
310.949	96.5
311.179	102.5
311.409	90.5
311.639	88.5
311.868	111.5
312.098	98.5
312.328	97.5
312.557	112.5
312.787	82.5
313.017	99.5
313.246	94.5
313.476	88.5
313.706	80.5
313.935	81.5
314.165	90.5
314.394	87.5
314.624	82.5
314.853	85.5
315.083	93.5
315.312	102.5
315.542	90.5
315.771	80.5
316.001	99.5
316.23	91.5
316.46	97.5
316.689	98.5
316.919	86.5
317.148	87.5
317.377	95.5
317.607	89.5
317.836	98.5
318.065	96.5
318.295	78.5
318.524	75.5
318.753	84.5
318.983	84.5
319.212	85.5
319.441	108.5
319.67	98.5
319.9	101.5
320.129	96.5
320.358	94.5
320.587	97.5
320.816	104.5
321.046	93.5
321.275	80.5
321.504	85.5
321.733	82.5
321.962	99.5
322.191	94.5
322.42	107.5
322.649	96.5
322.878	109.5
323.108	109.5
323.337	110.5
323.566	117.5
323.795	144.5
324.024	182.5
324.253	333.5
324.482	717.5
324.71	1434.5
324.939	1941.5
325.168	713.5
325.397	227.5
325.626	136.5
325.855	127.5
326.084	119.5
326.313	125.5
326.542	139.5
326.77	210.5
326.999	417.5
327.228	820.5
327.457	1531.5
327.686	1173.5
327.914	339.5
328.143	170.5
328.372	143.5
328.6	120.5
328.829	111.5
329.058	118.5
329.287	111.5
329.515	110.5
329.744	110.5
329.972	95.5
330.201	98.5
330.43	113.5
330.658	115.5
330.887	129.5
331.115	115.5
331.344	82.5
331.572	88.5
331.801	98.5
332.03	99.5
332.258	94.5
332.486	88.5
332.715	89.5
332.943	94.5
333.172	105.5
333.4	88.5
333.629	95.5
333.857	93.5
334.085	79.5
334.314	87.5
334.542	96.5
334.771	109.5
334.999	88.5
335.227	86.5
335.455	103.5
335.684	104.5
335.912	105.5
336.14	91.5
336.369	101.5
336.597	93.5
336.825	94.5
337.053	93.5
337.281	94.5
337.51	81.5
337.738	91.5
337.966	118.5
338.194	92.5
338.422	104.5
338.65	94.5
338.878	85.5
339.106	90.5
339.334	92.5
339.562	90.5
339.79	87.5
340.018	81.5
340.246	98.5
340.474	100.5
340.702	83.5
340.93	77.5
341.158	86.5
341.386	79.5
341.614	90.5
341.842	96.5
342.07	93.5
342.298	89.5
342.526	102.5
342.754	91.5
342.981	88.5
343.209	81.5
343.437	95.5
343.665	83.5
343.893	90.5
344.12	88.5
344.348	94.5
344.576	89.5
344.804	85.5
345.031	84.5
345.259	92.5
345.487	96.5
345.714	81.5
345.942	98.5
346.17	82.5
346.397	91.5
346.625	92.5
346.853	107.5
347.08	77.5
347.308	89.5
347.535	89.5
347.763	112.5
347.99	101.5
348.218	88.5
348.445	94.5
348.673	87.5
348.9	85.5
349.128	100.5
349.355	101.5
349.583	91.5
349.81	95.5
350.037	82.5
350.265	85.5
350.492	102.5
350.72	81.5
350.947	106.5
351.174	103.5
351.402	97.5
351.629	81.5
351.856	97.5
352.083	97.5
352.311	101.5
352.538	102.5
352.765	101.5
352.992	106.5
353.22	101.5
353.447	97.5
353.674	93.5
353.901	99.5
354.128	92.5
354.355	103.5
354.583	78.5
354.81	98.5
355.037	103.5
355.264	95.5
355.491	91.5
355.718	81.5
355.945	99.5
356.172	91.5
356.399	85.5
356.626	102.5
356.853	85.5
357.08	83.5
357.307	108.5
357.534	91.5
357.761	95.5
357.988	85.5
358.215	96.5
358.441	89.5
358.668	82.5
358.895	83.5
359.122	81.5
359.349	91.5
359.576	85.5
359.802	91.5
360.029	107.5
360.256	97.5
360.483	104.5
360.709	87.5
360.936	98.5
361.163	98.5
361.39	95.5
361.616	96.5
361.843	89.5
362.07	89.5
362.296	95.5
362.523	93.5
362.749	91.5
362.976	92.5
363.203	101.5
363.429	90.5
363.656	83.5
363.882	82.5
364.109	102.5
364.335	88.5
364.562	81.5
364.788	82.5
365.015	99.5
365.241	100.5
365.468	100.5
365.694	86.5
365.92	101.5
366.147	78.5
366.373	84.5
366.599	87.5
366.826	82.5
367.052	82.5
367.278	82.5
367.505	88.5
367.731	92.5
367.957	95.5
368.184	86.5
368.41	106.5
368.636	101.5
368.862	109.5
369.089	98.5
369.315	87.5
369.541	91.5
369.767	104.5
369.993	101.5
370.219	94.5
370.445	86.5
370.672	99.5
370.898	90.5
371.124	86.5
371.35	90.5
371.576	91.5
371.802	87.5
372.028	97.5
372.254	78.5
372.48	91.5
372.706	85.5
372.932	82.5
373.158	88.5
373.384	90.5
373.61	104.5
373.835	79.5
374.061	84.5
374.287	89.5
374.513	94.5
374.739	93.5
374.965	98.5
375.191	83.5
375.416	85.5
375.642	82.5
375.868	94.5
376.094	101.5
376.319	96.5
376.545	90.5
376.771	93.5
376.997	103.5
377.222	93.5
377.448	89.5
377.674	82.5
377.899	99.5
378.125	98.5
378.35	91.5
378.576	102.5
378.802	90.5
379.027	91.5
379.253	87.5
379.478	81.5
379.704	88.5
379.929	76.5
380.155	77.5
380.38	91.5
380.606	91.5
380.831	92.5
381.057	105.5
381.282	97.5
381.507	89.5
381.733	94.5
381.958	87.5
382.184	93.5
382.409	114.5
382.634	91.5
382.86	108.5
383.085	87.5
383.31	86.5
383.535	86.5
383.761	110.5
383.986	92.5
384.211	104.5
384.436	105.5
384.662	90.5
384.887	98.5
385.112	116.5
385.337	100.5
385.562	120.5
385.787	97.5
386.013	118.5
386.238	99.5
386.463	89.5
386.688	107.5
386.913	104.5
387.138	114.5
387.363	95.5
387.588	104.5
387.813	113.5
388.038	98.5
388.263	98.5
388.488	103.5
388.713	101.5
388.938	89.5
389.163	91.5
389.387	100.5
389.612	90.5
389.837	89.5
390.062	79.5
390.287	87.5
390.512	78.5
390.736	96.5
390.961	88.5
391.186	103.5
391.411	103.5
391.636	89.5
391.86	90.5
392.085	85.5
392.31	94.5
392.534	96.5
392.759	87.5
392.984	80.5
393.208	96.5
393.433	94.5
393.658	91.5
393.882	84.5
394.107	86.5
394.331	84.5
394.556	81.5
394.78	89.5
395.005	95.5
395.229	87.5
395.454	74.5
395.678	77.5
395.903	103.5
396.127	96.5
396.352	86.5
396.576	97.5
396.801	93.5
397.025	82.5
397.249	84.5
397.474	82.5
397.698	95.5
397.922	78.5
398.147	97.5
398.371	94.5
398.595	84.5
398.82	85.5
399.044	81.5
399.268	77.5
399.492	89.5
399.717	89.5
399.941	101.5
400.165	83.5
400.389	94.5
400.613	74.5
400.837	79.5
401.062	67.5
401.286	91.5
401.51	82.5
401.734	87.5
401.958	88.5
402.182	122.5
402.406	127.5
402.63	114.5
402.854	91.5
403.078	86.5
403.302	89.5
403.526	91.5
403.75	89.5
403.974	79.5
404.198	86.5
404.422	84.5
404.645	88.5
404.869	91.5
405.093	93.5
405.317	89.5
405.541	86.5
405.765	84.5
405.988	101.5
406.212	141.5
406.436	185.5
406.66	114.5
406.883	81.5
407.107	110.5
407.331	88.5
407.555	87.5
407.778	109.5
408.002	95.5
408.226	85.5
408.449	107.5
408.673	85.5
408.896	89.5
409.12	93.5
409.344	98.5
409.567	91.5
409.791	81.5
410.014	94.5
410.238	99.5
410.461	91.5
410.685	85.5
410.908	94.5
411.132	106.5
411.355	95.5
411.578	98.5
411.802	90.5
412.025	63.5
412.249	93.5
412.472	90.5
412.695	104.5
412.919	79.5
413.142	85.5
413.365	80.5
413.589	82.5
413.812	89.5
414.035	81.5
414.258	93.5
414.482	85.5
414.705	92.5
414.928	77.5
415.151	111.5
415.374	91.5
415.597	94.5
415.821	85.5
416.044	96.5
416.267	93.5
416.49	91.5
416.713	90.5
416.936	90.5
417.159	93.5
417.382	91.5
417.605	86.5
417.828	87.5
418.051	94.5
418.274	107.5
418.497	90.5
418.72	81.5
418.943	100.5
419.166	85.5
419.389	85.5
419.611	95.5
419.834	104.5
420.057	89.5
420.28	81.5
420.503	95.5
420.726	79.5
420.948	89.5
421.171	99.5
421.394	94.5
421.617	103.5
421.839	83.5
422.062	97.5
422.285	99.5
422.507	103.5
422.73	106.5
422.953	91.5
423.175	91.5
423.398	83.5
423.621	82.5
423.843	89.5
424.066	90.5
424.288	87.5
424.511	92.5
424.733	82.5
424.956	99.5
425.178	95.5
425.401	95.5
425.623	107.5
425.846	92.5
426.068	93.5
426.291	99.5
426.513	96.5
426.735	84.5
426.958	79.5
427.18	110.5
427.402	114.5
427.625	147.5
427.847	118.5
428.069	109.5
428.292	90.5
428.514	93.5
428.736	72.5
428.958	86.5
429.181	88.5
429.403	74.5
429.625	67.5
429.847	85.5
430.069	109.5
430.292	98.5
430.514	86.5
430.736	83.5
430.958	98.5
431.18	86.5
431.402	83.5
431.624	75.5
431.846	92.5
432.068	90.5
432.29	87.5
432.512	91.5
432.734	97.5
432.956	94.5
433.178	112.5
433.4	100.5
433.622	85.5
433.844	100.5
434.066	90.5
434.287	83.5
434.509	97.5
434.731	97.5
434.953	87.5
435.175	83.5
435.397	100.5
435.618	98.5
435.84	102.5
436.062	99.5
436.284	106.5
436.505	109.5
436.727	103.5
436.949	90.5
437.17	85.5
437.392	90.5
437.614	80.5
437.835	102.5
438.057	116.5
438.278	106.5
438.5	112.5
438.721	125.5
438.943	92.5
439.165	99.5
439.386	102.5
439.608	91.5
439.829	97.5
440.05	118.5
440.272	130.5
440.493	102.5
440.715	87.5
440.936	101.5
441.158	77.5
441.379	99.5
441.6	95.5
441.822	101.5
442.043	98.5
442.264	93.5
442.486	98.5
442.707	93.5
442.928	98.5
443.149	115.5
443.371	116.5
443.592	121.5
443.813	107.5
444.034	90.5
444.255	97.5
444.476	89.5
444.698	88.5
444.919	101.5
445.14	146.5
445.361	115.5
445.582	118.5
445.803	117.5
446.024	139.5
446.245	129.5
446.466	99.5
446.687	106.5
446.908	95.5
447.129	81.5
447.35	94.5
447.571	93.5
447.792	94.5
448.013	90.5
448.234	99.5
448.455	103.5
448.675	117.5
448.896	122.5
449.117	95.5
449.338	101.5
449.559	118.5
449.779	130.5
450	107.5
450.221	89.5
450.442	92.5
450.662	89.5
450.883	95.5
451.104	99.5
451.324	86.5
451.545	99.5
451.766	86.5
451.986	81.5
452.207	92.5
452.428	97.5
452.648	103.5
452.869	103.5
453.089	113.5
453.31	109.5
453.53	87.5
453.751	77.5
453.971	95.5
454.192	104.5
454.412	93.5
454.633	74.5
454.853	73.5
455.073	83.5
455.294	90.5
455.514	103.5
455.734	93.5
455.955	94.5
456.175	99.5
456.395	82.5
456.616	86.5
456.836	96.5
457.056	87.5
457.276	74.5
457.497	85.5
457.717	65.5
457.937	85.5
458.157	83.5
458.377	87.5
458.598	120.5
458.818	125.5
459.038	123.5
459.258	109.5
459.478	102.5
459.698	85.5
459.918	94.5
460.138	91.5
460.358	76.5
460.578	85.5
460.798	87.5
461.018	82.5
461.238	91.5
461.458	96.5
461.678	85.5
461.898	81.5
462.118	78.5
462.338	74.5
462.558	84.5
462.777	90.5
462.997	77.5
463.217	70.5
463.437	95.5
463.657	74.5
463.876	96.5
464.096	82.5
464.316	91.5
464.536	94.5
464.755	104.5
464.975	98.5
465.195	144.5
465.414	143.5
465.634	97.5
465.854	83.5
466.073	92.5
466.293	95.5
466.512	83.5
466.732	91.5
466.951	92.5
467.171	89.5
467.391	86.5
467.61	89.5
467.829	89.5
468.049	88.5
468.268	88.5
468.488	81.5
468.707	96.5
468.927	83.5
469.146	80.5
469.365	89.5
469.585	94.5
469.804	104.5
470.023	93.5
470.243	91.5
470.462	102.5
470.681	102.5
470.901	90.5
471.12	82.5
471.339	92.5
471.558	90.5
471.777	77.5
471.997	93.5
472.216	93.5
472.435	91.5
472.654	85.5
472.873	90.5
473.092	74.5
473.311	89.5
473.53	93.5
473.749	84.5
473.968	83.5
474.187	102.5
474.406	78.5
474.625	89.5
474.844	84.5
475.063	65.5
475.282	90.5
475.501	101.5
475.72	97.5
475.939	85.5
476.158	93.5
476.377	84.5
476.596	89.5
476.814	78.5
477.033	100.5
477.252	96.5
477.471	93.5
477.69	84.5
477.908	98.5
478.127	89.5
478.346	96.5
478.564	72.5
478.783	94.5
479.002	85.5
479.22	89.5
479.439	94.5
479.658	97.5
479.876	91.5
480.095	89.5
480.313	81.5
480.532	97.5
480.751	100.5
480.969	104.5
481.188	89.5
481.406	103.5
481.624	88.5
481.843	83.5
482.061	86.5
482.28	93.5
482.498	86.5
482.717	95.5
482.935	79.5
483.153	75.5
483.372	101.5
483.59	89.5
483.808	72.5
484.027	94.5
484.245	92.5
484.463	72.5
484.681	101.5
484.9	80.5
485.118	82.5
485.336	93.5
485.554	98.5
485.772	105.5
485.99	96.5
486.209	100.5
486.427	104.5
486.645	118.5
486.863	106.5
487.081	104.5
487.299	89.5
487.517	98.5
487.735	96.5
487.953	96.5
488.171	95.5
488.389	94.5
488.607	105.5
488.825	82.5
489.043	89.5
489.261	95.5
489.479	103.5
489.696	92.5
489.914	91.5
490.132	95.5
490.35	97.5
490.568	105.5
490.786	86.5
491.003	91.5
491.221	94.5
491.439	91.5
491.657	95.5
491.874	99.5
492.092	93.5
492.31	82.5
492.527	81.5
492.745	90.5
492.963	85.5
493.18	85.5
493.398	95.5
493.615	102.5
493.833	98.5
494.05	87.5
494.268	91.5
494.485	86.5
494.703	89.5
494.92	81.5
495.138	89.5
495.355	93.5
495.573	90.5
495.79	84.5
496.008	91.5
496.225	80.5
496.442	85.5
496.66	82.5
496.877	87.5
497.094	98.5
497.312	105.5
497.529	99.5
497.746	78.5
497.963	89.5
498.181	86.5
498.398	107.5
498.615	101.5
498.832	120.5
499.049	95.5
499.267	97.5
499.484	81.5
499.701	89.5
499.918	88.5
500.135	93.5
500.352	88.5
500.569	82.5
500.786	86.5
501.003	98.5
501.22	97.5
501.437	91.5
501.654	110.5
501.871	97.5
502.088	98.5
502.305	90.5
502.522	105.5
502.739	83.5
502.956	83.5
503.172	96.5
503.389	87.5
503.606	117.5
503.823	96.5
504.04	95.5
504.256	92.5
504.473	93.5
504.69	91.5
504.907	102.5
505.123	86.5
505.34	94.5
505.557	96.5
505.773	94.5
505.99	87.5
506.207	120.5
506.423	95.5
506.64	88.5
506.856	88.5
507.073	90.5
507.289	109.5
507.506	95.5
507.722	109.5
507.939	99.5
508.155	99.5
508.372	99.5
508.588	87.5
508.805	94.5
509.021	93.5
509.238	95.5
509.454	99.5
509.67	107.5
509.887	103.5
510.103	128.5
510.319	191.5
510.536	628.5
510.752	1860.5
510.968	532.5
511.184	133.5
511.401	105.5
511.617	81.5
511.833	93.5
512.049	101.5
512.265	88.5
512.481	94.5
512.698	81.5
512.914	93.5
513.13	79.5
513.346	89.5
513.562	97.5
513.778	91.5
513.994	95.5
514.21	109.5
514.426	115.5
514.642	127.5
514.858	117.5
515.074	164.5
515.29	368.5
515.506	1119.5
515.721	445.5
515.937	148.5
516.153	96.5
516.369	103.5
516.585	85.5
516.801	98.5
517.016	95.5
517.232	91.5
517.448	94.5
517.664	95.5
517.879	90.5
518.095	95.5
518.311	95.5
518.527	93.5
518.742	93.5
518.958	98.5
519.173	91.5
519.389	85.5
519.605	101.5
519.82	91.5
520.036	100.5
520.251	118.5
520.467	103.5
520.682	108.5
520.898	105.5
521.113	116.5
521.329	128.5
521.544	165.5
521.76	435.5
521.975	1827.5
522.19	1107.5
522.406	262.5
522.621	114.5
522.836	102.5
523.052	75.5
523.267	97.5
523.482	91.5
523.698	107.5
523.913	109.5
524.128	97.5
524.343	102.5
524.559	105.5
524.774	85.5
524.989	91.5
525.204	99.5
525.419	107.5
525.634	82.5
525.849	86.5
526.064	93.5
526.28	84.5
526.495	89.5
526.71	95.5
526.925	81.5
527.14	91.5
527.355	102.5
527.57	85.5
527.785	90.5
527.999	94.5
528.214	88.5
528.429	102.5
528.644	106.5
528.859	103.5
529.074	96.5
529.289	115.5
529.503	157.5
529.718	103.5
529.933	89.5
530.148	86.5
530.363	93.5
530.577	87.5
530.792	70.5
531.007	90.5
531.221	88.5
531.436	107.5
531.651	98.5
531.865	103.5
532.08	71.5
532.295	89.5
532.509	85.5
532.724	83.5
532.938	101.5
533.153	95.5
533.367	93.5
533.582	89.5
533.796	91.5
534.011	81.5
534.225	85.5
534.44	85.5
534.654	93.5
534.868	88.5
535.083	94.5
535.297	96.5
535.511	97.5
535.726	103.5
535.94	98.5
