Data from Uncirc_1987_H10_HRD10591_00060.txt Node
Date: Wed Jan 03 12:09:00 EST 2024
User: Yrep
Spectrometer: HR+D1059
Trigger mode: 1
Integration Time (sec): 1.000000E-1
Scans to average: 1
Electric dark correction enabled: true
Nonlinearity correction enabled: false
Boxcar width: 0
XAxis mode: Wavelengths
Number of Pixels in Spectrum: 2048
>>>>>Begin Spectral Data<<<<<
223.165	-28.56
223.4	-28.56
223.635	-28.56
223.869	-15.56
224.104	-15.56
224.338	-17.56
224.573	-24.56
224.808	-17.56
225.042	-14.56
225.277	-3.56
225.511	7.44
225.746	1.44
225.98	1.44
226.215	19.44
226.449	19.44
226.683	29.44
226.918	29.44
227.152	29.44
227.387	38.44
227.621	31.44
227.856	51.44
228.09	38.44
228.324	55.44
228.559	54.44
228.793	51.44
229.027	62.44
229.262	57.44
229.496	80.44
229.73	63.44
229.964	73.44
230.199	56.44
230.433	69.44
230.667	77.44
230.901	72.44
231.136	71.44
231.37	77.44
231.604	86.44
231.838	84.44
232.072	85.44
232.306	73.44
232.541	72.44
232.775	75.44
233.009	69.44
233.243	83.44
233.477	85.44
233.711	84.44
233.945	80.44
234.179	79.44
234.413	79.44
234.647	87.44
234.881	81.44
235.115	75.44
235.349	82.44
235.583	89.44
235.817	75.44
236.051	66.44
236.285	76.44
236.519	85.44
236.753	75.44
236.987	76.44
237.221	83.44
237.455	77.44
237.689	75.44
237.922	66.44
238.156	66.44
238.39	90.44
238.624	70.44
238.858	80.44
239.091	65.44
239.325	87.44
239.559	83.44
239.793	71.44
240.027	77.44
240.26	69.44
240.494	97.44
240.728	65.44
240.961	76.44
241.195	75.44
241.429	68.44
241.662	79.44
241.896	67.44
242.13	68.44
242.363	79.44
242.597	67.44
242.83	68.44
243.064	75.44
243.298	72.44
243.531	85.44
243.765	73.44
243.998	70.44
244.232	77.44
244.465	75.44
244.699	77.44
244.932	85.44
245.166	79.44
245.399	85.44
245.633	83.44
245.866	83.44
246.099	76.44
246.333	87.44
246.566	71.44
246.8	82.44
247.033	79.44
247.266	70.44
247.5	83.44
247.733	62.44
247.966	77.44
248.2	71.44
248.433	62.44
248.666	59.44
248.899	70.44
249.133	89.44
249.366	86.44
249.599	94.44
249.832	66.44
250.066	86.44
250.299	63.44
250.532	85.44
250.765	67.44
250.998	52.44
251.231	68.44
251.465	78.44
251.698	66.44
251.931	73.44
252.164	67.44
252.397	85.44
252.63	71.44
252.863	70.44
253.096	70.44
253.329	83.44
253.562	83.44
253.795	76.44
254.028	83.44
254.261	71.44
254.494	89.44
254.727	53.44
254.96	76.44
255.193	89.44
255.426	63.44
255.659	76.44
255.892	89.44
256.124	69.44
256.357	66.44
256.59	76.44
256.823	68.44
257.056	77.44
257.289	81.44
257.521	74.44
257.754	89.44
257.987	69.44
258.22	64.44
258.452	74.44
258.685	82.44
258.918	70.44
259.151	83.44
259.383	92.44
259.616	85.44
259.849	82.44
260.081	65.44
260.314	90.44
260.547	77.44
260.779	65.44
261.012	89.44
261.244	81.44
261.477	69.44
261.71	88.44
261.942	103.44
262.175	111.44
262.407	79.44
262.64	86.44
262.872	68.44
263.105	85.44
263.337	77.44
263.57	76.44
263.802	61.44
264.035	87.44
264.267	80.44
264.499	73.44
264.732	85.44
264.964	77.44
265.197	67.44
265.429	65.44
265.661	86.44
265.894	81.44
266.126	77.44
266.358	82.44
266.591	81.44
266.823	74.44
267.055	83.44
267.287	85.44
267.52	93.44
267.752	82.44
267.984	77.44
268.216	77.44
268.448	89.44
268.681	81.44
268.913	68.44
269.145	69.44
269.377	89.44
269.609	76.44
269.841	84.44
270.073	85.44
270.306	86.44
270.538	73.44
270.77	93.44
271.002	66.44
271.234	76.44
271.466	86.44
271.698	64.44
271.93	75.44
272.162	85.44
272.394	71.44
272.626	95.44
272.858	84.44
273.09	64.44
273.322	68.44
273.553	71.44
273.785	82.44
274.017	84.44
274.249	85.44
274.481	80.44
274.713	91.44
274.945	92.44
275.176	79.44
275.408	79.44
275.64	74.44
275.872	80.44
276.104	99.44
276.335	85.44
276.567	89.44
276.799	97.44
277.031	86.44
277.262	83.44
277.494	76.44
277.726	77.44
277.957	91.44
278.189	78.44
278.421	97.44
278.652	81.44
278.884	78.44
279.115	89.44
279.347	77.44
279.579	80.44
279.81	84.44
280.042	94.44
280.273	89.44
280.505	85.44
280.736	75.44
280.968	77.44
281.199	81.44
281.431	85.44
281.662	93.44
281.894	82.44
282.125	98.44
282.356	112.44
282.588	123.44
282.819	109.44
283.051	97.44
283.282	83.44
283.513	92.44
283.745	78.44
283.976	83.44
284.207	77.44
284.439	84.44
284.67	63.44
284.901	83.44
285.132	91.44
285.364	77.44
285.595	86.44
285.826	84.44
286.057	107.44
286.288	94.44
286.52	92.44
286.751	78.44
286.982	68.44
287.213	79.44
287.444	89.44
287.675	94.44
287.906	75.44
288.138	82.44
288.369	84.44
288.6	83.44
288.831	79.44
289.062	88.44
289.293	89.44
289.524	71.44
289.755	76.44
289.986	82.44
290.217	81.44
290.448	78.44
290.679	89.44
290.91	75.44
291.141	90.44
291.371	78.44
291.602	68.44
291.833	85.44
292.064	74.44
292.295	74.44
292.526	73.44
292.757	79.44
292.987	81.44
293.218	80.44
293.449	87.44
293.68	87.44
293.91	91.44
294.141	92.44
294.372	75.44
294.603	78.44
294.833	83.44
295.064	83.44
295.295	94.44
295.525	79.44
295.756	94.44
295.987	115.44
296.217	111.44
296.448	119.44
296.679	97.44
296.909	86.44
297.14	73.44
297.37	88.44
297.601	81.44
297.831	94.44
298.062	87.44
298.292	83.44
298.523	88.44
298.753	99.44
298.984	89.44
299.214	78.44
299.445	69.44
299.675	93.44
299.905	90.44
300.136	90.44
300.366	75.44
300.597	93.44
300.827	87.44
301.057	87.44
301.288	94.44
301.518	76.44
301.748	86.44
301.979	94.44
302.209	87.44
302.439	88.44
302.669	86.44
302.9	81.44
303.13	79.44
303.36	83.44
303.59	91.44
303.82	98.44
304.051	100.44
304.281	91.44
304.511	70.44
304.741	77.44
304.971	86.44
305.201	89.44
305.431	92.44
305.661	99.44
305.891	90.44
306.121	78.44
306.352	86.44
306.582	102.44
306.812	92.44
307.042	78.44
307.272	86.44
307.502	85.44
307.731	86.44
307.961	77.44
308.191	87.44
308.421	79.44
308.651	73.44
308.881	74.44
309.111	84.44
309.341	83.44
309.571	94.44
309.8	105.44
310.03	94.44
310.26	93.44
310.49	101.44
310.72	105.44
310.949	90.44
311.179	101.44
311.409	85.44
311.639	84.44
311.868	89.44
312.098	93.44
312.328	101.44
312.557	81.44
312.787	99.44
313.017	99.44
313.246	97.44
313.476	87.44
313.706	103.44
313.935	98.44
314.165	87.44
314.394	95.44
314.624	81.44
314.853	102.44
315.083	92.44
315.312	100.44
315.542	86.44
315.771	90.44
316.001	88.44
316.23	81.44
316.46	82.44
316.689	84.44
316.919	80.44
317.148	76.44
317.377	86.44
317.607	85.44
317.836	90.44
318.065	91.44
318.295	85.44
318.524	90.44
318.753	103.44
318.983	86.44
319.212	101.44
319.441	101.44
319.67	103.44
319.9	75.44
320.129	81.44
320.358	87.44
320.587	85.44
320.816	101.44
321.046	110.44
321.275	86.44
321.504	107.44
321.733	86.44
321.962	95.44
322.191	99.44
322.42	100.44
322.649	101.44
322.878	114.44
323.108	109.44
323.337	104.44
323.566	118.44
323.795	134.44
324.024	190.44
324.253	337.44
324.482	723.44
324.71	1470.44
324.939	1925.44
325.168	711.44
325.397	209.44
325.626	140.44
325.855	126.44
326.084	125.44
326.313	118.44
326.542	142.44
326.77	200.44
326.999	393.44
327.228	825.44
327.457	1535.44
327.686	1249.44
327.914	339.44
328.143	161.44
328.372	149.44
328.6	141.44
328.829	105.44
329.058	111.44
329.287	122.44
329.515	93.44
329.744	96.44
329.972	108.44
330.201	110.44
330.43	106.44
330.658	117.44
330.887	128.44
331.115	111.44
331.344	91.44
331.572	103.44
331.801	97.44
332.03	88.44
332.258	82.44
332.486	76.44
332.715	84.44
332.943	99.44
333.172	81.44
333.4	82.44
333.629	97.44
333.857	98.44
334.085	103.44
334.314	104.44
334.542	103.44
334.771	95.44
334.999	90.44
335.227	92.44
335.455	99.44
335.684	83.44
335.912	83.44
336.14	95.44
336.369	92.44
336.597	102.44
336.825	96.44
337.053	96.44
337.281	89.44
337.51	85.44
337.738	73.44
337.966	94.44
338.194	93.44
338.422	78.44
338.65	100.44
338.878	99.44
339.106	88.44
339.334	81.44
339.562	92.44
339.79	94.44
340.018	75.44
340.246	92.44
340.474	92.44
340.702	85.44
340.93	82.44
341.158	87.44
341.386	81.44
341.614	87.44
341.842	83.44
342.07	72.44
342.298	80.44
342.526	100.44
342.754	86.44
342.981	93.44
343.209	90.44
343.437	61.44
343.665	89.44
343.893	83.44
344.12	85.44
344.348	74.44
344.576	93.44
344.804	90.44
345.031	79.44
345.259	98.44
345.487	94.44
345.714	89.44
345.942	75.44
346.17	76.44
346.397	86.44
346.625	102.44
346.853	103.44
347.08	82.44
347.308	88.44
347.535	79.44
347.763	90.44
347.99	93.44
348.218	95.44
348.445	95.44
348.673	112.44
348.9	102.44
349.128	85.44
349.355	98.44
349.583	87.44
349.81	78.44
350.037	98.44
350.265	81.44
350.492	89.44
350.72	83.44
350.947	94.44
351.174	101.44
351.402	98.44
351.629	95.44
351.856	85.44
352.083	96.44
352.311	97.44
352.538	93.44
352.765	96.44
352.992	98.44
353.22	100.44
353.447	87.44
353.674	96.44
353.901	82.44
354.128	91.44
354.355	100.44
354.583	101.44
354.81	91.44
355.037	96.44
355.264	79.44
355.491	87.44
355.718	89.44
355.945	105.44
356.172	90.44
356.399	89.44
356.626	91.44
356.853	80.44
357.08	91.44
357.307	97.44
357.534	92.44
357.761	99.44
357.988	85.44
358.215	91.44
358.441	95.44
358.668	73.44
358.895	105.44
359.122	80.44
359.349	90.44
359.576	83.44
359.802	96.44
360.029	91.44
360.256	89.44
360.483	98.44
360.709	77.44
360.936	93.44
361.163	97.44
361.39	83.44
361.616	97.44
361.843	87.44
362.07	81.44
362.296	83.44
362.523	89.44
362.749	85.44
362.976	93.44
363.203	99.44
363.429	82.44
363.656	78.44
363.882	67.44
364.109	83.44
364.335	85.44
364.562	69.44
364.788	94.44
365.015	97.44
365.241	102.44
365.468	89.44
365.694	96.44
365.92	92.44
366.147	82.44
366.373	98.44
366.599	86.44
366.826	84.44
367.052	77.44
367.278	91.44
367.505	81.44
367.731	98.44
367.957	90.44
368.184	81.44
368.41	90.44
368.636	102.44
368.862	120.44
369.089	84.44
369.315	94.44
369.541	84.44
369.767	81.44
369.993	88.44
370.219	89.44
370.445	87.44
370.672	72.44
370.898	85.44
371.124	78.44
371.35	97.44
371.576	90.44
371.802	88.44
372.028	84.44
372.254	90.44
372.48	89.44
372.706	79.44
372.932	100.44
373.158	87.44
373.384	85.44
373.61	75.44
373.835	74.44
374.061	82.44
374.287	88.44
374.513	93.44
374.739	89.44
374.965	80.44
375.191	73.44
375.416	82.44
375.642	93.44
375.868	83.44
376.094	76.44
376.319	78.44
376.545	78.44
376.771	91.44
376.997	101.44
377.222	89.44
377.448	79.44
377.674	76.44
377.899	70.44
378.125	95.44
378.35	92.44
378.576	85.44
378.802	75.44
379.027	86.44
379.253	95.44
379.478	95.44
379.704	73.44
379.929	88.44
380.155	102.44
380.38	87.44
380.606	79.44
380.831	87.44
381.057	82.44
381.282	91.44
381.507	85.44
381.733	93.44
381.958	88.44
382.184	87.44
382.409	93.44
382.634	92.44
382.86	93.44
383.085	95.44
383.31	95.44
383.535	108.44
383.761	90.44
383.986	101.44
384.211	87.44
384.436	96.44
384.662	105.44
384.887	99.44
385.112	105.44
385.337	91.44
385.562	99.44
385.787	93.44
386.013	86.44
386.238	104.44
386.463	102.44
386.688	102.44
386.913	99.44
387.138	101.44
387.363	109.44
387.588	90.44
387.813	104.44
388.038	93.44
388.263	94.44
388.488	103.44
388.713	94.44
388.938	86.44
389.163	81.44
389.387	88.44
389.612	79.44
389.837	87.44
390.062	86.44
390.287	68.44
390.512	91.44
390.736	89.44
390.961	96.44
391.186	84.44
391.411	88.44
391.636	96.44
391.86	82.44
392.085	74.44
392.31	82.44
392.534	94.44
392.759	81.44
392.984	81.44
393.208	97.44
393.433	81.44
393.658	86.44
393.882	86.44
394.107	80.44
394.331	93.44
394.556	85.44
394.78	88.44
395.005	93.44
395.229	75.44
395.454	73.44
395.678	87.44
395.903	84.44
396.127	83.44
396.352	85.44
396.576	85.44
396.801	68.44
397.025	89.44
397.249	81.44
397.474	87.44
397.698	100.44
397.922	81.44
398.147	70.44
398.371	89.44
398.595	75.44
398.82	82.44
399.044	102.44
399.268	84.44
399.492	83.44
399.717	89.44
399.941	90.44
400.165	103.44
400.389	94.44
400.613	90.44
400.837	80.44
401.062	80.44
401.286	88.44
401.51	95.44
401.734	85.44
401.958	81.44
402.182	120.44
402.406	142.44
402.63	112.44
402.854	93.44
403.078	91.44
403.302	94.44
403.526	86.44
403.75	86.44
403.974	81.44
404.198	85.44
404.422	90.44
404.645	79.44
404.869	83.44
405.093	81.44
405.317	106.44
405.541	91.44
405.765	102.44
405.988	116.44
406.212	139.44
406.436	192.44
406.66	116.44
406.883	91.44
407.107	77.44
407.331	90.44
407.555	99.44
407.778	81.44
408.002	83.44
408.226	85.44
408.449	91.44
408.673	95.44
408.896	88.44
409.12	93.44
409.344	84.44
409.567	94.44
409.791	90.44
410.014	89.44
410.238	96.44
410.461	90.44
410.685	88.44
410.908	84.44
411.132	103.44
411.355	91.44
411.578	94.44
411.802	73.44
412.025	85.44
412.249	90.44
412.472	80.44
412.695	104.44
412.919	73.44
413.142	78.44
413.365	78.44
413.589	84.44
413.812	84.44
414.035	82.44
414.258	90.44
414.482	80.44
414.705	81.44
414.928	95.44
415.151	91.44
415.374	99.44
415.597	97.44
415.821	92.44
416.044	83.44
416.267	90.44
416.49	90.44
416.713	99.44
416.936	87.44
417.159	90.44
417.382	87.44
417.605	81.44
417.828	91.44
418.051	78.44
418.274	94.44
418.497	91.44
418.72	84.44
418.943	95.44
419.166	97.44
419.389	76.44
419.611	79.44
419.834	79.44
420.057	82.44
420.28	90.44
420.503	91.44
420.726	82.44
420.948	76.44
421.171	89.44
421.394	85.44
421.617	88.44
421.839	79.44
422.062	77.44
422.285	91.44
422.507	79.44
422.73	82.44
422.953	81.44
423.175	89.44
423.398	85.44
423.621	105.44
423.843	84.44
424.066	78.44
424.288	87.44
424.511	90.44
424.733	81.44
424.956	103.44
425.178	99.44
425.401	105.44
425.623	83.44
425.846	81.44
426.068	90.44
426.291	79.44
426.513	71.44
426.735	93.44
426.958	85.44
427.18	102.44
427.402	127.44
427.625	149.44
427.847	111.44
428.069	110.44
428.292	77.44
428.514	89.44
428.736	68.44
428.958	71.44
429.181	76.44
429.403	78.44
429.625	78.44
429.847	90.44
430.069	89.44
430.292	77.44
430.514	82.44
430.736	79.44
430.958	92.44
431.18	98.44
431.402	80.44
431.624	91.44
431.846	67.44
432.068	79.44
432.29	83.44
432.512	89.44
432.734	99.44
432.956	92.44
433.178	97.44
433.4	93.44
433.622	78.44
433.844	93.44
434.066	77.44
434.287	82.44
434.509	85.44
434.731	96.44
434.953	94.44
435.175	83.44
435.397	92.44
435.618	94.44
435.84	107.44
436.062	110.44
436.284	97.44
436.505	95.44
436.727	94.44
436.949	94.44
437.17	77.44
437.392	80.44
437.614	79.44
437.835	97.44
438.057	99.44
438.278	106.44
438.5	90.44
438.721	102.44
438.943	90.44
439.165	94.44
439.386	98.44
439.608	85.44
439.829	93.44
440.05	105.44
440.272	118.44
440.493	84.44
440.715	75.44
440.936	94.44
441.158	91.44
441.379	90.44
441.6	87.44
441.822	89.44
442.043	94.44
442.264	91.44
442.486	96.44
442.707	96.44
442.928	90.44
443.149	111.44
443.371	123.44
443.592	115.44
443.813	110.44
444.034	89.44
444.255	88.44
444.476	90.44
444.698	83.44
444.919	87.44
445.14	133.44
445.361	115.44
445.582	122.44
445.803	124.44
446.024	126.44
446.245	122.44
446.466	97.44
446.687	80.44
446.908	85.44
447.129	75.44
447.35	89.44
447.571	89.44
447.792	87.44
448.013	77.44
448.234	87.44
448.455	92.44
448.675	101.44
448.896	119.44
449.117	103.44
449.338	98.44
449.559	111.44
449.779	113.44
450	89.44
450.221	94.44
450.442	81.44
450.662	91.44
450.883	89.44
451.104	94.44
451.324	82.44
451.545	65.44
451.766	79.44
451.986	87.44
452.207	91.44
452.428	99.44
452.648	104.44
452.869	109.44
453.089	114.44
453.31	114.44
453.53	85.44
453.751	75.44
453.971	82.44
454.192	106.44
454.412	83.44
454.633	81.44
454.853	94.44
455.073	87.44
455.294	76.44
455.514	93.44
455.734	78.44
455.955	81.44
456.175	94.44
456.395	86.44
456.616	80.44
456.836	96.44
457.056	85.44
457.276	93.44
457.497	90.44
457.717	71.44
457.937	76.44
458.157	77.44
458.377	81.44
458.598	94.44
458.818	158.44
459.038	141.44
459.258	90.44
459.478	89.44
459.698	80.44
459.918	78.44
460.138	76.44
460.358	73.44
460.578	75.44
460.798	87.44
461.018	89.44
461.238	74.44
461.458	90.44
461.678	83.44
461.898	77.44
462.118	85.44
462.338	82.44
462.558	93.44
462.777	63.44
462.997	70.44
463.217	80.44
463.437	86.44
463.657	79.44
463.876	99.44
464.096	80.44
464.316	86.44
464.536	90.44
464.755	112.44
464.975	100.44
465.195	137.44
465.414	142.44
465.634	89.44
465.854	102.44
466.073	89.44
466.293	84.44
466.512	87.44
466.732	70.44
466.951	86.44
467.171	73.44
467.391	80.44
467.61	103.44
467.829	81.44
468.049	86.44
468.268	97.44
468.488	85.44
468.707	87.44
468.927	90.44
469.146	84.44
469.365	83.44
469.585	88.44
469.804	89.44
470.023	88.44
470.243	88.44
470.462	94.44
470.681	101.44
470.901	93.44
471.12	78.44
471.339	88.44
471.558	82.44
471.777	89.44
471.997	84.44
472.216	93.44
472.435	119.44
472.654	91.44
472.873	92.44
473.092	83.44
473.311	79.44
473.53	74.44
473.749	87.44
473.968	86.44
474.187	94.44
474.406	92.44
474.625	93.44
474.844	93.44
475.063	85.44
475.282	81.44
475.501	78.44
475.72	86.44
475.939	87.44
476.158	96.44
476.377	79.44
476.596	88.44
476.814	101.44
477.033	96.44
477.252	95.44
477.471	77.44
477.69	75.44
477.908	80.44
478.127	87.44
478.346	89.44
478.564	91.44
478.783	91.44
479.002	77.44
479.22	93.44
479.439	109.44
479.658	86.44
479.876	107.44
480.095	70.44
480.313	94.44
480.532	81.44
480.751	82.44
480.969	90.44
481.188	131.44
481.406	105.44
481.624	98.44
481.843	89.44
482.061	90.44
482.28	85.44
482.498	75.44
482.717	81.44
482.935	87.44
483.153	79.44
483.372	81.44
483.59	73.44
483.808	74.44
484.027	102.44
484.245	80.44
484.463	90.44
484.681	91.44
484.9	88.44
485.118	92.44
485.336	90.44
485.554	99.44
485.772	85.44
485.99	86.44
486.209	98.44
486.427	100.44
486.645	105.44
486.863	89.44
487.081	93.44
487.299	85.44
487.517	79.44
487.735	90.44
487.953	81.44
488.171	93.44
488.389	98.44
488.607	95.44
488.825	85.44
489.043	87.44
489.261	88.44
489.479	85.44
489.696	84.44
489.914	94.44
490.132	85.44
490.35	84.44
490.568	94.44
490.786	89.44
491.003	96.44
491.221	79.44
491.439	83.44
491.657	99.44
491.874	84.44
492.092	85.44
492.31	81.44
492.527	86.44
492.745	81.44
492.963	77.44
493.18	86.44
493.398	89.44
493.615	103.44
493.833	86.44
494.05	89.44
494.268	89.44
494.485	83.44
494.703	80.44
494.92	87.44
495.138	81.44
495.355	89.44
495.573	78.44
495.79	91.44
496.008	81.44
496.225	65.44
496.442	77.44
496.66	82.44
496.877	94.44
497.094	93.44
497.312	90.44
497.529	77.44
497.746	86.44
497.963	82.44
498.181	79.44
498.398	76.44
498.615	103.44
498.832	86.44
499.049	101.44
499.267	93.44
499.484	82.44
499.701	82.44
499.918	87.44
500.135	88.44
500.352	89.44
500.569	85.44
500.786	86.44
501.003	78.44
501.22	80.44
501.437	87.44
501.654	95.44
501.871	108.44
502.088	83.44
502.305	72.44
502.522	84.44
502.739	89.44
502.956	93.44
503.172	92.44
503.389	89.44
503.606	98.44
503.823	94.44
504.04	87.44
504.256	81.44
504.473	99.44
504.69	93.44
504.907	101.44
505.123	84.44
505.34	81.44
505.557	94.44
505.773	79.44
505.99	89.44
506.207	97.44
506.423	82.44
506.64	92.44
506.856	77.44
507.073	77.44
507.289	90.44
507.506	93.44
507.722	109.44
507.939	97.44
508.155	94.44
508.372	82.44
508.588	73.44
508.805	91.44
509.021	97.44
509.238	81.44
509.454	93.44
509.67	92.44
509.887	90.44
510.103	115.44
510.319	187.44
510.536	639.44
510.752	2032.44
510.968	558.44
511.184	140.44
511.401	101.44
511.617	93.44
511.833	88.44
512.049	90.44
512.265	91.44
512.481	89.44
512.698	95.44
512.914	85.44
513.13	82.44
513.346	71.44
513.562	83.44
513.778	104.44
513.994	88.44
514.21	93.44
514.426	109.44
514.642	116.44
514.858	109.44
515.074	137.44
515.29	382.44
515.506	1251.44
515.721	441.44
515.937	151.44
516.153	91.44
516.369	80.44
516.585	89.44
516.801	85.44
517.016	83.44
517.232	97.44
517.448	81.44
