Data from Uncirc_1987_H10_HRD10591_00055.txt Node
Date: Wed Jan 03 12:08:59 EST 2024
User: Yrep
Spectrometer: HR+D1059
Trigger mode: 1
Integration Time (sec): 1.000000E-1
Scans to average: 1
Electric dark correction enabled: true
Nonlinearity correction enabled: false
Boxcar width: 0
XAxis mode: Wavelengths
Number of Pixels in Spectrum: 2048
>>>>>Begin Spectral Data<<<<<
223.165	-27.62
223.4	-27.62
223.635	-27.62
223.869	-32.62
224.104	-17.62
224.338	-19.62
224.573	-4.62
224.808	-10.62
225.042	-1.62
225.277	-0.62
225.511	-3.62
225.746	1.38
225.98	-2.62
226.215	16.38
226.449	9.38
226.683	24.38
226.918	33.38
227.152	36.38
227.387	32.38
227.621	31.38
227.856	33.38
228.09	41.38
228.324	51.38
228.559	61.38
228.793	76.38
229.027	65.38
229.262	65.38
229.496	71.38
229.73	70.38
229.964	76.38
230.199	85.38
230.433	71.38
230.667	72.38
230.901	77.38
231.136	77.38
231.37	71.38
231.604	70.38
231.838	89.38
232.072	93.38
232.306	86.38
232.541	79.38
232.775	80.38
233.009	87.38
233.243	75.38
233.477	73.38
233.711	71.38
233.945	72.38
234.179	76.38
234.413	96.38
234.647	79.38
234.881	77.38
235.115	80.38
235.349	78.38
235.583	84.38
235.817	76.38
236.051	78.38
236.285	75.38
236.519	68.38
236.753	83.38
236.987	96.38
237.221	65.38
237.455	86.38
237.689	80.38
237.922	72.38
238.156	63.38
238.39	82.38
238.624	79.38
238.858	96.38
239.091	88.38
239.325	73.38
239.559	92.38
239.793	76.38
240.027	66.38
240.26	66.38
240.494	68.38
240.728	92.38
240.961	74.38
241.195	76.38
241.429	82.38
241.662	65.38
241.896	71.38
242.13	73.38
242.363	70.38
242.597	84.38
242.83	80.38
243.064	94.38
243.298	80.38
243.531	69.38
243.765	73.38
243.998	74.38
244.232	74.38
244.465	76.38
244.699	78.38
244.932	70.38
245.166	84.38
245.399	67.38
245.633	71.38
245.866	81.38
246.099	81.38
246.333	81.38
246.566	75.38
246.8	65.38
247.033	75.38
247.266	80.38
247.5	72.38
247.733	66.38
247.966	82.38
248.2	76.38
248.433	87.38
248.666	79.38
248.899	73.38
249.133	77.38
249.366	84.38
249.599	89.38
249.832	82.38
250.066	77.38
250.299	93.38
250.532	89.38
250.765	87.38
250.998	78.38
251.231	79.38
251.465	87.38
251.698	82.38
251.931	72.38
252.164	74.38
252.397	73.38
252.63	78.38
252.863	85.38
253.096	85.38
253.329	82.38
253.562	88.38
253.795	74.38
254.028	100.38
254.261	78.38
254.494	95.38
254.727	79.38
254.96	69.38
255.193	79.38
255.426	87.38
255.659	84.38
255.892	78.38
256.124	68.38
256.357	68.38
256.59	85.38
256.823	87.38
257.056	85.38
257.289	85.38
257.521	77.38
257.754	83.38
257.987	87.38
258.22	80.38
258.452	78.38
258.685	83.38
258.918	88.38
259.151	94.38
259.383	93.38
259.616	81.38
259.849	67.38
260.081	78.38
260.314	83.38
260.547	95.38
260.779	73.38
261.012	79.38
261.244	71.38
261.477	84.38
261.71	80.38
261.942	102.38
262.175	99.38
262.407	90.38
262.64	82.38
262.872	91.38
263.105	73.38
263.337	86.38
263.57	88.38
263.802	86.38
264.035	90.38
264.267	80.38
264.499	87.38
264.732	83.38
264.964	84.38
265.197	89.38
265.429	80.38
265.661	95.38
265.894	93.38
266.126	93.38
266.358	87.38
266.591	79.38
266.823	84.38
267.055	86.38
267.287	89.38
267.52	76.38
267.752	78.38
267.984	85.38
268.216	82.38
268.448	85.38
268.681	90.38
268.913	78.38
269.145	88.38
269.377	86.38
269.609	88.38
269.841	89.38
270.073	84.38
270.306	84.38
270.538	82.38
270.77	78.38
271.002	82.38
271.234	63.38
271.466	92.38
271.698	76.38
271.93	96.38
272.162	86.38
272.394	95.38
272.626	89.38
272.858	87.38
273.09	83.38
273.322	79.38
273.553	88.38
273.785	85.38
274.017	90.38
274.249	90.38
274.481	74.38
274.713	99.38
274.945	69.38
275.176	100.38
275.408	86.38
275.64	96.38
275.872	91.38
276.104	84.38
276.335	88.38
276.567	82.38
276.799	91.38
277.031	86.38
277.262	98.38
277.494	79.38
277.726	86.38
277.957	84.38
278.189	85.38
278.421	77.38
278.652	70.38
278.884	82.38
279.115	78.38
279.347	83.38
279.579	110.38
279.81	80.38
280.042	65.38
280.273	81.38
280.505	91.38
280.736	85.38
280.968	101.38
281.199	96.38
281.431	81.38
281.662	81.38
281.894	92.38
282.125	99.38
282.356	119.38
282.588	121.38
282.819	112.38
283.051	93.38
283.282	82.38
283.513	69.38
283.745	82.38
283.976	86.38
284.207	79.38
284.439	69.38
284.67	95.38
284.901	84.38
285.132	81.38
285.364	80.38
285.595	82.38
285.826	98.38
286.057	89.38
286.288	76.38
286.52	89.38
286.751	88.38
286.982	77.38
287.213	80.38
287.444	74.38
287.675	97.38
287.906	87.38
288.138	95.38
288.369	92.38
288.6	81.38
288.831	86.38
289.062	88.38
289.293	85.38
289.524	80.38
289.755	92.38
289.986	77.38
290.217	97.38
290.448	71.38
290.679	82.38
290.91	82.38
291.141	91.38
291.371	95.38
291.602	83.38
291.833	83.38
292.064	92.38
292.295	90.38
292.526	82.38
292.757	97.38
292.987	84.38
293.218	76.38
293.449	77.38
293.68	92.38
293.91	81.38
294.141	86.38
294.372	73.38
294.603	92.38
294.833	88.38
295.064	90.38
295.295	85.38
295.525	77.38
295.756	96.38
295.987	104.38
296.217	121.38
296.448	102.38
296.679	101.38
296.909	86.38
297.14	77.38
297.37	82.38
297.601	93.38
297.831	91.38
298.062	86.38
298.292	98.38
298.523	99.38
298.753	90.38
298.984	96.38
299.214	105.38
299.445	78.38
299.675	84.38
299.905	88.38
300.136	81.38
300.366	89.38
300.597	82.38
300.827	88.38
301.057	87.38
301.288	86.38
301.518	78.38
301.748	97.38
301.979	100.38
302.209	104.38
302.439	81.38
302.669	100.38
302.9	82.38
303.13	89.38
303.36	90.38
303.59	105.38
303.82	98.38
304.051	79.38
304.281	94.38
304.511	94.38
304.741	87.38
304.971	81.38
305.201	101.38
305.431	94.38
305.661	86.38
305.891	84.38
306.121	87.38
306.352	100.38
306.582	96.38
306.812	93.38
307.042	85.38
307.272	94.38
307.502	86.38
307.731	94.38
307.961	99.38
308.191	96.38
308.421	100.38
308.651	94.38
308.881	84.38
309.111	83.38
309.341	106.38
309.571	97.38
309.8	90.38
310.03	98.38
310.26	103.38
310.49	92.38
310.72	102.38
310.949	91.38
311.179	88.38
311.409	88.38
311.639	106.38
311.868	94.38
312.098	86.38
312.328	78.38
312.557	91.38
312.787	95.38
313.017	90.38
313.246	105.38
313.476	94.38
313.706	106.38
313.935	92.38
314.165	89.38
314.394	94.38
314.624	92.38
314.853	77.38
315.083	80.38
315.312	80.38
315.542	73.38
315.771	87.38
316.001	100.38
316.23	97.38
316.46	85.38
316.689	83.38
316.919	85.38
317.148	92.38
317.377	80.38
317.607	103.38
317.836	79.38
318.065	91.38
318.295	100.38
318.524	97.38
318.753	94.38
318.983	87.38
319.212	88.38
319.441	90.38
319.67	105.38
319.9	100.38
320.129	91.38
320.358	89.38
320.587	82.38
320.816	91.38
321.046	84.38
321.275	100.38
321.504	96.38
321.733	100.38
321.962	103.38
322.191	83.38
322.42	93.38
322.649	101.38
322.878	114.38
323.108	104.38
323.337	117.38
323.566	129.38
323.795	145.38
324.024	192.38
324.253	359.38
324.482	731.38
324.71	1448.38
324.939	2026.38
325.168	738.38
325.397	219.38
325.626	128.38
325.855	116.38
326.084	113.38
326.313	116.38
326.542	157.38
326.77	212.38
326.999	407.38
327.228	852.38
327.457	1620.38
327.686	1265.38
327.914	334.38
328.143	185.38
328.372	143.38
328.6	106.38
328.829	105.38
329.058	112.38
329.287	127.38
329.515	81.38
329.744	87.38
329.972	96.38
330.201	95.38
330.43	98.38
330.658	114.38
330.887	129.38
331.115	111.38
331.344	101.38
331.572	92.38
331.801	89.38
332.03	99.38
332.258	97.38
332.486	86.38
332.715	102.38
332.943	82.38
333.172	91.38
333.4	86.38
333.629	91.38
333.857	84.38
334.085	89.38
334.314	101.38
334.542	109.38
334.771	114.38
334.999	103.38
335.227	93.38
335.455	109.38
335.684	102.38
335.912	86.38
336.14	87.38
336.369	96.38
336.597	94.38
336.825	112.38
337.053	96.38
337.281	95.38
337.51	99.38
337.738	96.38
337.966	89.38
338.194	88.38
338.422	94.38
338.65	102.38
338.878	104.38
339.106	78.38
339.334	86.38
339.562	94.38
339.79	82.38
340.018	99.38
340.246	96.38
340.474	91.38
340.702	85.38
340.93	99.38
341.158	83.38
341.386	106.38
341.614	100.38
341.842	91.38
342.07	95.38
342.298	97.38
342.526	86.38
342.754	104.38
342.981	89.38
343.209	91.38
343.437	99.38
343.665	97.38
343.893	98.38
344.12	88.38
344.348	76.38
344.576	95.38
344.804	98.38
345.031	83.38
345.259	99.38
345.487	82.38
345.714	92.38
345.942	102.38
346.17	97.38
346.397	80.38
346.625	88.38
346.853	98.38
347.08	73.38
347.308	90.38
347.535	89.38
347.763	92.38
347.99	95.38
348.218	96.38
348.445	89.38
348.673	80.38
348.9	84.38
349.128	100.38
349.355	81.38
349.583	87.38
349.81	89.38
350.037	106.38
350.265	97.38
350.492	93.38
350.72	99.38
350.947	101.38
351.174	109.38
351.402	104.38
351.629	92.38
351.856	116.38
352.083	89.38
352.311	110.38
352.538	88.38
352.765	118.38
352.992	115.38
353.22	97.38
353.447	93.38
353.674	111.38
353.901	96.38
354.128	102.38
354.355	101.38
354.583	89.38
354.81	112.38
355.037	87.38
355.264	84.38
355.491	91.38
355.718	76.38
355.945	99.38
356.172	96.38
356.399	104.38
356.626	91.38
356.853	92.38
357.08	83.38
357.307	96.38
357.534	94.38
357.761	88.38
357.988	101.38
358.215	102.38
358.441	93.38
358.668	90.38
358.895	84.38
359.122	82.38
359.349	78.38
359.576	90.38
359.802	100.38
360.029	105.38
360.256	109.38
360.483	90.38
360.709	86.38
360.936	99.38
361.163	83.38
361.39	88.38
361.616	99.38
361.843	87.38
362.07	89.38
362.296	89.38
362.523	103.38
362.749	88.38
362.976	80.38
363.203	98.38
363.429	85.38
363.656	90.38
363.882	90.38
364.109	96.38
364.335	84.38
364.562	92.38
364.788	78.38
365.015	80.38
365.241	104.38
365.468	105.38
365.694	98.38
365.92	94.38
366.147	89.38
366.373	75.38
366.599	72.38
366.826	91.38
367.052	89.38
367.278	97.38
367.505	88.38
367.731	80.38
367.957	92.38
368.184	79.38
368.41	105.38
368.636	100.38
368.862	115.38
369.089	105.38
369.315	93.38
369.541	98.38
369.767	95.38
369.993	86.38
370.219	94.38
370.445	87.38
370.672	107.38
370.898	78.38
371.124	94.38
371.35	90.38
371.576	91.38
371.802	90.38
372.028	79.38
372.254	90.38
372.48	86.38
372.706	80.38
372.932	100.38
373.158	73.38
373.384	96.38
373.61	82.38
373.835	92.38
374.061	85.38
374.287	90.38
374.513	78.38
374.739	86.38
374.965	92.38
375.191	90.38
375.416	91.38
375.642	96.38
375.868	106.38
376.094	92.38
376.319	89.38
376.545	94.38
376.771	96.38
376.997	87.38
377.222	84.38
377.448	95.38
377.674	87.38
377.899	81.38
378.125	90.38
378.35	89.38
378.576	97.38
378.802	85.38
379.027	87.38
379.253	91.38
379.478	92.38
379.704	89.38
379.929	102.38
380.155	89.38
380.38	101.38
380.606	88.38
380.831	92.38
381.057	96.38
381.282	90.38
381.507	96.38
381.733	108.38
381.958	84.38
382.184	86.38
382.409	100.38
382.634	90.38
382.86	87.38
383.085	85.38
383.31	95.38
383.535	98.38
383.761	91.38
383.986	97.38
384.211	86.38
384.436	97.38
384.662	88.38
384.887	89.38
385.112	96.38
385.337	101.38
385.562	98.38
385.787	104.38
386.013	102.38
386.238	101.38
386.463	90.38
386.688	113.38
386.913	94.38
387.138	103.38
387.363	94.38
387.588	88.38
387.813	81.38
388.038	103.38
388.263	100.38
388.488	105.38
388.713	118.38
388.938	90.38
389.163	107.38
389.387	92.38
389.612	100.38
389.837	100.38
390.062	77.38
390.287	101.38
390.512	98.38
390.736	85.38
390.961	72.38
391.186	87.38
391.411	82.38
391.636	98.38
391.86	78.38
392.085	90.38
392.31	92.38
392.534	93.38
392.759	89.38
392.984	94.38
393.208	88.38
393.433	86.38
393.658	82.38
393.882	81.38
394.107	82.38
394.331	93.38
394.556	85.38
394.78	91.38
395.005	89.38
395.229	86.38
395.454	84.38
395.678	88.38
395.903	79.38
396.127	93.38
396.352	84.38
396.576	85.38
396.801	94.38
397.025	86.38
397.249	86.38
397.474	91.38
397.698	76.38
397.922	69.38
398.147	78.38
398.371	92.38
398.595	85.38
398.82	87.38
399.044	88.38
399.268	91.38
399.492	90.38
399.717	87.38
399.941	87.38
400.165	87.38
400.389	91.38
400.613	74.38
400.837	96.38
401.062	81.38
401.286	83.38
401.51	92.38
401.734	98.38
401.958	98.38
402.182	115.38
402.406	140.38
402.63	117.38
402.854	84.38
403.078	103.38
403.302	88.38
403.526	100.38
403.75	86.38
403.974	79.38
404.198	99.38
404.422	93.38
404.645	81.38
404.869	96.38
405.093	88.38
405.317	94.38
405.541	90.38
405.765	94.38
405.988	106.38
406.212	162.38
406.436	205.38
406.66	124.38
406.883	96.38
407.107	89.38
407.331	80.38
407.555	93.38
407.778	94.38
408.002	94.38
408.226	97.38
408.449	100.38
408.673	91.38
408.896	99.38
409.12	99.38
409.344	95.38
409.567	98.38
409.791	92.38
410.014	85.38
410.238	108.38
410.461	85.38
410.685	85.38
410.908	110.38
411.132	98.38
411.355	98.38
411.578	98.38
411.802	79.38
412.025	90.38
412.249	83.38
412.472	84.38
412.695	87.38
412.919	93.38
413.142	80.38
413.365	78.38
413.589	106.38
413.812	106.38
414.035	98.38
414.258	97.38
414.482	94.38
414.705	87.38
414.928	103.38
415.151	100.38
415.374	84.38
415.597	84.38
415.821	70.38
416.044	94.38
416.267	87.38
416.49	84.38
416.713	85.38
416.936	90.38
417.159	74.38
417.382	85.38
417.605	103.38
417.828	94.38
418.051	81.38
418.274	80.38
418.497	98.38
418.72	85.38
418.943	97.38
419.166	92.38
419.389	105.38
419.611	81.38
419.834	88.38
420.057	88.38
420.28	85.38
420.503	82.38
420.726	85.38
420.948	107.38
421.171	74.38
421.394	101.38
421.617	104.38
421.839	97.38
422.062	84.38
422.285	86.38
422.507	92.38
422.73	86.38
422.953	88.38
423.175	93.38
423.398	97.38
423.621	93.38
423.843	96.38
424.066	88.38
424.288	87.38
424.511	90.38
424.733	87.38
424.956	103.38
425.178	102.38
425.401	93.38
425.623	92.38
425.846	88.38
426.068	82.38
426.291	77.38
426.513	104.38
426.735	89.38
426.958	92.38
427.18	101.38
427.402	150.38
427.625	142.38
427.847	113.38
428.069	112.38
428.292	97.38
428.514	76.38
428.736	82.38
428.958	80.38
429.181	91.38
429.403	86.38
429.625	80.38
429.847	87.38
430.069	96.38
430.292	92.38
430.514	100.38
430.736	83.38
430.958	86.38
431.18	90.38
431.402	79.38
431.624	94.38
431.846	99.38
432.068	84.38
432.29	86.38
432.512	88.38
432.734	90.38
432.956	101.38
433.178	107.38
433.4	96.38
433.622	93.38
433.844	85.38
434.066	95.38
434.287	77.38
434.509	86.38
434.731	90.38
434.953	98.38
435.175	95.38
435.397	92.38
435.618	80.38
435.84	106.38
436.062	124.38
436.284	101.38
436.505	100.38
436.727	111.38
436.949	100.38
437.17	86.38
437.392	83.38
437.614	87.38
437.835	104.38
438.057	106.38
438.278	108.38
438.5	102.38
438.721	105.38
438.943	93.38
439.165	85.38
439.386	83.38
439.608	86.38
439.829	106.38
440.05	121.38
440.272	136.38
440.493	84.38
440.715	77.38
440.936	87.38
441.158	94.38
441.379	90.38
441.6	97.38
441.822	98.38
442.043	101.38
442.264	89.38
442.486	101.38
442.707	102.38
442.928	100.38
443.149	128.38
443.371	113.38
443.592	98.38
443.813	110.38
444.034	106.38
444.255	93.38
444.476	81.38
444.698	83.38
444.919	94.38
445.14	116.38
445.361	110.38
445.582	105.38
445.803	129.38
446.024	108.38
446.245	130.38
446.466	104.38
446.687	98.38
446.908	88.38
447.129	88.38
447.35	82.38
447.571	88.38
447.792	100.38
448.013	98.38
448.234	94.38
448.455	103.38
448.675	102.38
448.896	122.38
449.117	100.38
449.338	105.38
449.559	117.38
449.779	128.38
450	89.38
450.221	93.38
450.442	92.38
450.662	99.38
450.883	103.38
451.104	105.38
451.324	102.38
451.545	86.38
451.766	77.38
451.986	73.38
452.207	86.38
452.428	95.38
452.648	93.38
452.869	92.38
453.089	121.38
453.31	109.38
453.53	85.38
453.751	80.38
453.971	100.38
454.192	110.38
454.412	88.38
454.633	80.38
454.853	79.38
455.073	97.38
455.294	86.38
455.514	109.38
455.734	89.38
455.955	92.38
456.175	93.38
456.395	77.38
456.616	77.38
456.836	86.38
457.056	78.38
457.276	82.38
457.497	90.38
457.717	78.38
457.937	69.38
458.157	84.38
458.377	82.38
458.598	104.38
458.818	121.38
459.038	144.38
459.258	112.38
459.478	112.38
459.698	82.38
459.918	96.38
460.138	84.38
460.358	86.38
460.578	92.38
460.798	90.38
461.018	85.38
461.238	91.38
461.458	82.38
461.678	88.38
461.898	82.38
462.118	92.38
462.338	82.38
462.558	98.38
462.777	79.38
462.997	92.38
463.217	88.38
463.437	84.38
463.657	86.38
463.876	85.38
464.096	102.38
464.316	91.38
464.536	91.38
464.755	92.38
464.975	99.38
465.195	160.38
465.414	134.38
465.634	84.38
465.854	89.38
466.073	86.38
466.293	88.38
466.512	74.38
466.732	76.38
466.951	84.38
467.171	96.38
467.391	97.38
467.61	89.38
467.829	85.38
468.049	97.38
468.268	90.38
468.488	79.38
468.707	89.38
468.927	74.38
469.146	65.38
469.365	93.38
469.585	82.38
469.804	94.38
470.023	94.38
470.243	81.38
470.462	94.38
470.681	91.38
470.901	71.38
471.12	100.38
471.339	80.38
471.558	80.38
471.777	71.38
471.997	88.38
472.216	90.38
472.435	103.38
472.654	87.38
472.873	79.38
473.092	96.38
473.311	86.38
473.53	94.38
473.749	70.38
473.968	99.38
474.187	120.38
474.406	82.38
474.625	102.38
474.844	87.38
475.063	84.38
475.282	84.38
475.501	92.38
475.72	92.38
475.939	90.38
476.158	82.38
476.377	93.38
476.596	90.38
476.814	88.38
477.033	76.38
477.252	101.38
477.471	82.38
477.69	84.38
477.908	78.38
478.127	93.38
478.346	77.38
478.564	81.38
478.783	88.38
479.002	95.38
479.22	86.38
479.439	98.38
479.658	102.38
479.876	92.38
480.095	87.38
480.313	93.38
480.532	80.38
480.751	100.38
480.969	97.38
481.188	111.38
481.406	96.38
481.624	87.38
481.843	98.38
482.061	92.38
482.28	83.38
482.498	73.38
482.717	97.38
482.935	85.38
483.153	96.38
483.372	76.38
483.59	96.38
483.808	93.38
484.027	85.38
484.245	84.38
484.463	96.38
484.681	102.38
484.9	89.38
485.118	86.38
485.336	101.38
485.554	103.38
485.772	97.38
485.99	94.38
486.209	103.38
486.427	88.38
486.645	112.38
486.863	111.38
487.081	109.38
487.299	94.38
487.517	88.38
487.735	90.38
487.953	87.38
488.171	91.38
488.389	98.38
488.607	101.38
488.825	80.38
489.043	94.38
489.261	96.38
489.479	108.38
489.696	94.38
489.914	92.38
490.132	87.38
490.35	86.38
490.568	83.38
490.786	86.38
491.003	90.38
491.221	101.38
491.439	85.38
491.657	95.38
491.874	102.38
492.092	105.38
492.31	94.38
492.527	85.38
492.745	95.38
492.963	104.38
493.18	87.38
493.398	84.38
493.615	86.38
493.833	80.38
494.05	88.38
494.268	86.38
494.485	90.38
494.703	89.38
494.92	96.38
495.138	78.38
495.355	84.38
495.573	100.38
495.79	99.38
496.008	82.38
496.225	79.38
496.442	91.38
496.66	97.38
496.877	89.38
497.094	89.38
497.312	106.38
497.529	99.38
497.746	92.38
497.963	89.38
498.181	82.38
498.398	103.38
498.615	112.38
498.832	88.38
499.049	92.38
499.267	86.38
499.484	81.38
499.701	93.38
499.918	79.38
500.135	84.38
500.352	80.38
500.569	92.38
500.786	99.38
501.003	92.38
501.22	89.38
501.437	96.38
501.654	94.38
501.871	109.38
502.088	98.38
502.305	108.38
502.522	103.38
502.739	85.38
502.956	84.38
503.172	90.38
503.389	95.38
503.606	98.38
503.823	88.38
504.04	88.38
504.256	85.38
504.473	103.38
504.69	84.38
504.907	111.38
505.123	71.38
505.34	84.38
505.557	82.38
505.773	87.38
505.99	87.38
506.207	96.38
506.423	93.38
506.64	84.38
506.856	88.38
507.073	95.38
507.289	92.38
507.506	92.38
507.722	96.38
507.939	106.38
508.155	92.38
508.372	96.38
508.588	96.38
508.805	96.38
509.021	94.38
509.238	114.38
509.454	84.38
509.67	104.38
509.887	106.38
510.103	129.38
510.319	193.38
510.536	636.38
510.752	1979.38
510.968	544.38
511.184	145.38
511.401	106.38
511.617	108.38
511.833	96.38
512.049	101.38
512.265	94.38
512.481	89.38
512.698	88.38
512.914	85.38
513.13	79.38
513.346	94.38
513.562	94.38
513.778	101.38
513.994	102.38
514.21	105.38
514.426	123.38
514.642	120.38
514.858	122.38
515.074	142.38
515.29	348.38
515.506	1168.38
515.721	432.38
515.937	132.38
516.153	106.38
