Data from Uncirc_1987_H10_HRD10591_00098.txt Node
Date: Wed Jan 03 12:09:08 EST 2024
User: Yrep
Spectrometer: HR+D1059
Trigger mode: 1
Integration Time (sec): 1.000000E-1
Scans to average: 1
Electric dark correction enabled: true
Nonlinearity correction enabled: false
Boxcar width: 0
XAxis mode: Wavelengths
Number of Pixels in Spectrum: 2048
>>>>>Begin Spectral Data<<<<<
223.165	-32.69
223.4	-32.69
223.635	-32.69
223.869	-14.69
224.104	-5.69
224.338	-15.69
224.573	-7.69
224.808	-19.69
225.042	-6.69
225.277	-19.69
225.511	14.31
225.746	10.31
225.98	0.31
226.215	2.31
226.449	-1.69
226.683	18.31
226.918	38.31
227.152	40.31
227.387	37.31
227.621	40.31
227.856	47.31
228.09	34.31
228.324	57.31
228.559	56.31
228.793	55.31
229.027	58.31
229.262	71.31
229.496	73.31
229.73	104.31
229.964	90.31
230.199	73.31
230.433	80.31
230.667	74.31
230.901	72.31
231.136	82.31
231.37	80.31
231.604	79.31
231.838	81.31
232.072	75.31
232.306	95.31
232.541	86.31
232.775	89.31
233.009	82.31
233.243	78.31
233.477	89.31
233.711	61.31
233.945	88.31
234.179	65.31
234.413	83.31
234.647	76.31
234.881	96.31
235.115	98.31
235.349	89.31
235.583	65.31
235.817	89.31
236.051	82.31
236.285	59.31
236.519	76.31
236.753	80.31
236.987	94.31
237.221	95.31
237.455	108.31
237.689	75.31
237.922	74.31
238.156	76.31
238.39	70.31
238.624	85.31
238.858	94.31
239.091	77.31
239.325	87.31
239.559	96.31
239.793	78.31
240.027	73.31
240.26	83.31
240.494	94.31
240.728	86.31
240.961	87.31
241.195	87.31
241.429	71.31
241.662	73.31
241.896	83.31
242.13	80.31
242.363	84.31
242.597	76.31
242.83	71.31
243.064	73.31
243.298	95.31
243.531	87.31
243.765	89.31
243.998	76.31
244.232	78.31
244.465	81.31
244.699	86.31
244.932	93.31
245.166	82.31
245.399	78.31
245.633	72.31
245.866	74.31
246.099	82.31
246.333	69.31
246.566	88.31
246.8	78.31
247.033	83.31
247.266	88.31
247.5	78.31
247.733	84.31
247.966	79.31
248.2	88.31
248.433	76.31
248.666	78.31
248.899	75.31
249.133	98.31
249.366	98.31
249.599	109.31
249.832	74.31
250.066	83.31
250.299	82.31
250.532	70.31
250.765	88.31
250.998	83.31
251.231	86.31
251.465	94.31
251.698	78.31
251.931	89.31
252.164	92.31
252.397	82.31
252.63	92.31
252.863	87.31
253.096	80.31
253.329	86.31
253.562	99.31
253.795	78.31
254.028	84.31
254.261	79.31
254.494	83.31
254.727	78.31
254.96	82.31
255.193	87.31
255.426	84.31
255.659	87.31
255.892	82.31
256.124	85.31
256.357	73.31
256.59	91.31
256.823	89.31
257.056	97.31
257.289	97.31
257.521	86.31
257.754	86.31
257.987	84.31
258.22	78.31
258.452	91.31
258.685	82.31
258.918	86.31
259.151	67.31
259.383	89.31
259.616	86.31
259.849	83.31
260.081	82.31
260.314	102.31
260.547	83.31
260.779	82.31
261.012	81.31
261.244	95.31
261.477	87.31
261.71	103.31
261.942	109.31
262.175	127.31
262.407	105.31
262.64	82.31
262.872	81.31
263.105	93.31
263.337	94.31
263.57	86.31
263.802	97.31
264.035	76.31
264.267	55.31
264.499	84.31
264.732	78.31
264.964	101.31
265.197	94.31
265.429	85.31
265.661	99.31
265.894	72.31
266.126	83.31
266.358	78.31
266.591	90.31
266.823	73.31
267.055	90.31
267.287	76.31
267.52	83.31
267.752	86.31
267.984	89.31
268.216	79.31
268.448	89.31
268.681	81.31
268.913	88.31
269.145	87.31
269.377	99.31
269.609	88.31
269.841	85.31
270.073	78.31
270.306	89.31
270.538	90.31
270.77	83.31
271.002	74.31
271.234	88.31
271.466	83.31
271.698	86.31
271.93	79.31
272.162	99.31
272.394	86.31
272.626	87.31
272.858	83.31
273.09	96.31
273.322	90.31
273.553	83.31
273.785	87.31
274.017	92.31
274.249	89.31
274.481	85.31
274.713	78.31
274.945	74.31
275.176	82.31
275.408	81.31
275.64	91.31
275.872	89.31
276.104	100.31
276.335	85.31
276.567	125.31
276.799	111.31
277.031	114.31
277.262	90.31
277.494	94.31
277.726	88.31
277.957	86.31
278.189	99.31
278.421	82.31
278.652	89.31
278.884	85.31
279.115	75.31
279.347	80.31
279.579	88.31
279.81	81.31
280.042	100.31
280.273	94.31
280.505	85.31
280.736	85.31
280.968	78.31
281.199	100.31
281.431	89.31
281.662	102.31
281.894	81.31
282.125	119.31
282.356	126.31
282.588	164.31
282.819	128.31
283.051	96.31
283.282	94.31
283.513	97.31
283.745	81.31
283.976	82.31
284.207	96.31
284.439	86.31
284.67	87.31
284.901	75.31
285.132	67.31
285.364	91.31
285.595	71.31
285.826	98.31
286.057	115.31
286.288	93.31
286.52	81.31
286.751	71.31
286.982	104.31
287.213	86.31
287.444	91.31
287.675	97.31
287.906	96.31
288.138	91.31
288.369	80.31
288.6	86.31
288.831	91.31
289.062	97.31
289.293	86.31
289.524	83.31
289.755	96.31
289.986	86.31
290.217	90.31
290.448	89.31
290.679	96.31
290.91	72.31
291.141	88.31
291.371	76.31
291.602	103.31
291.833	102.31
292.064	107.31
292.295	99.31
292.526	91.31
292.757	100.31
292.987	95.31
293.218	91.31
293.449	87.31
293.68	96.31
293.91	96.31
294.141	88.31
294.372	83.31
294.603	94.31
294.833	95.31
295.064	86.31
295.295	76.31
295.525	82.31
295.756	97.31
295.987	123.31
296.217	150.31
296.448	135.31
296.679	97.31
296.909	98.31
297.14	92.31
297.37	88.31
297.601	89.31
297.831	80.31
298.062	94.31
298.292	102.31
298.523	89.31
298.753	79.31
298.984	94.31
299.214	92.31
299.445	94.31
299.675	94.31
299.905	99.31
300.136	96.31
300.366	90.31
300.597	93.31
300.827	103.31
301.057	117.31
301.288	122.31
301.518	92.31
301.748	97.31
301.979	99.31
302.209	97.31
302.439	92.31
302.669	98.31
302.9	71.31
303.13	78.31
303.36	82.31
303.59	97.31
303.82	111.31
304.051	89.31
304.281	94.31
304.511	98.31
304.741	84.31
304.971	89.31
305.201	90.31
305.431	117.31
305.661	86.31
305.891	88.31
306.121	102.31
306.352	108.31
306.582	106.31
306.812	105.31
307.042	98.31
307.272	84.31
307.502	95.31
307.731	100.31
307.961	107.31
308.191	84.31
308.421	97.31
308.651	100.31
308.881	92.31
309.111	97.31
309.341	105.31
309.571	102.31
309.8	93.31
310.03	103.31
310.26	91.31
310.49	111.31
310.72	103.31
310.949	110.31
311.179	106.31
311.409	96.31
311.639	106.31
311.868	105.31
312.098	110.31
312.328	95.31
312.557	111.31
312.787	104.31
313.017	102.31
313.246	72.31
313.476	91.31
313.706	88.31
313.935	95.31
314.165	111.31
314.394	111.31
314.624	95.31
314.853	99.31
315.083	92.31
315.312	101.31
315.542	95.31
315.771	86.31
316.001	116.31
316.23	84.31
316.46	90.31
316.689	94.31
316.919	113.31
317.148	103.31
317.377	92.31
317.607	97.31
317.836	100.31
318.065	91.31
318.295	102.31
318.524	97.31
318.753	104.31
318.983	94.31
319.212	101.31
319.441	116.31
319.67	107.31
319.9	99.31
320.129	110.31
320.358	100.31
320.587	95.31
320.816	85.31
321.046	95.31
321.275	95.31
321.504	78.31
321.733	97.31
321.962	104.31
322.191	118.31
322.42	112.31
322.649	115.31
322.878	108.31
323.108	120.31
323.337	131.31
323.566	143.31
323.795	158.31
324.024	221.31
324.253	416.31
324.482	932.31
324.71	1969.31
324.939	2718.31
325.168	953.31
325.397	274.31
325.626	166.31
325.855	129.31
326.084	127.31
326.313	131.31
326.542	164.31
326.77	241.31
326.999	500.31
327.228	1073.31
327.457	1990.31
327.686	1602.31
327.914	422.31
328.143	227.31
328.372	176.31
328.6	126.31
328.829	111.31
329.058	132.31
329.287	136.31
329.515	100.31
329.744	99.31
329.972	113.31
330.201	123.31
330.43	135.31
330.658	138.31
330.887	161.31
331.115	136.31
331.344	107.31
331.572	106.31
331.801	108.31
332.03	107.31
332.258	97.31
332.486	87.31
332.715	97.31
332.943	83.31
333.172	105.31
333.4	94.31
333.629	102.31
333.857	109.31
334.085	98.31
334.314	116.31
334.542	114.31
334.771	124.31
334.999	94.31
335.227	98.31
335.455	84.31
335.684	90.31
335.912	101.31
336.14	90.31
336.369	94.31
336.597	103.31
336.825	96.31
337.053	102.31
337.281	97.31
337.51	89.31
337.738	96.31
337.966	110.31
338.194	102.31
338.422	100.31
338.65	87.31
338.878	102.31
339.106	100.31
339.334	92.31
339.562	114.31
339.79	102.31
340.018	97.31
340.246	91.31
340.474	90.31
340.702	83.31
340.93	99.31
341.158	104.31
341.386	111.31
341.614	100.31
341.842	106.31
342.07	106.31
342.298	89.31
342.526	96.31
342.754	88.31
342.981	104.31
343.209	91.31
343.437	90.31
343.665	83.31
343.893	79.31
344.12	84.31
344.348	74.31
344.576	86.31
344.804	97.31
345.031	91.31
345.259	95.31
345.487	106.31
345.714	88.31
345.942	97.31
346.17	110.31
346.397	103.31
346.625	102.31
346.853	101.31
347.08	93.31
347.308	81.31
347.535	87.31
347.763	101.31
347.99	112.31
348.218	120.31
348.445	106.31
348.673	93.31
348.9	92.31
349.128	103.31
349.355	86.31
349.583	93.31
349.81	94.31
350.037	93.31
350.265	104.31
350.492	96.31
350.72	96.31
350.947	116.31
351.174	110.31
351.402	108.31
351.629	108.31
351.856	105.31
352.083	90.31
352.311	98.31
352.538	115.31
352.765	120.31
352.992	135.31
353.22	106.31
353.447	113.31
353.674	108.31
353.901	96.31
354.128	94.31
354.355	105.31
354.583	91.31
354.81	88.31
355.037	90.31
355.264	92.31
355.491	83.31
355.718	89.31
355.945	90.31
356.172	75.31
356.399	97.31
356.626	92.31
356.853	98.31
357.08	104.31
357.307	88.31
357.534	87.31
357.761	92.31
357.988	84.31
358.215	94.31
358.441	86.31
358.668	106.31
358.895	77.31
359.122	99.31
359.349	113.31
359.576	95.31
359.802	111.31
360.029	122.31
360.256	114.31
360.483	102.31
360.709	100.31
360.936	98.31
361.163	76.31
361.39	80.31
361.616	80.31
361.843	93.31
362.07	100.31
362.296	112.31
362.523	93.31
362.749	111.31
362.976	98.31
363.203	80.31
363.429	101.31
363.656	98.31
363.882	86.31
364.109	91.31
364.335	97.31
364.562	93.31
364.788	99.31
365.015	104.31
365.241	96.31
365.468	104.31
365.694	114.31
365.92	98.31
366.147	91.31
366.373	87.31
366.599	101.31
366.826	91.31
367.052	100.31
367.278	95.31
367.505	94.31
367.731	89.31
367.957	98.31
368.184	93.31
368.41	103.31
368.636	126.31
368.862	127.31
369.089	118.31
369.315	93.31
369.541	87.31
369.767	90.31
369.993	99.31
370.219	92.31
370.445	91.31
370.672	90.31
370.898	107.31
371.124	98.31
371.35	98.31
371.576	77.31
371.802	87.31
372.028	90.31
372.254	84.31
372.48	74.31
372.706	90.31
372.932	71.31
373.158	88.31
373.384	97.31
373.61	87.31
373.835	93.31
374.061	83.31
374.287	99.31
374.513	84.31
374.739	87.31
374.965	84.31
375.191	86.31
375.416	71.31
375.642	82.31
375.868	98.31
376.094	97.31
376.319	94.31
376.545	97.31
376.771	80.31
376.997	80.31
377.222	93.31
377.448	105.31
377.674	98.31
377.899	87.31
378.125	90.31
378.35	100.31
378.576	95.31
378.802	92.31
379.027	92.31
379.253	100.31
379.478	81.31
379.704	88.31
379.929	79.31
380.155	100.31
380.38	101.31
380.606	92.31
380.831	82.31
381.057	88.31
381.282	96.31
381.507	87.31
381.733	82.31
381.958	105.31
382.184	100.31
382.409	92.31
382.634	107.31
382.86	96.31
383.085	88.31
383.31	100.31
383.535	93.31
383.761	102.31
383.986	103.31
384.211	89.31
384.436	98.31
384.662	86.31
384.887	103.31
385.112	104.31
385.337	96.31
385.562	92.31
385.787	107.31
386.013	113.31
386.238	114.31
386.463	98.31
386.688	103.31
386.913	91.31
387.138	106.31
387.363	111.31
387.588	110.31
387.813	97.31
388.038	94.31
388.263	94.31
388.488	115.31
388.713	93.31
388.938	86.31
389.163	70.31
389.387	99.31
389.612	89.31
389.837	96.31
390.062	102.31
390.287	83.31
390.512	98.31
390.736	98.31
390.961	102.31
391.186	90.31
391.411	92.31
391.636	95.31
391.86	78.31
392.085	86.31
392.31	74.31
392.534	75.31
392.759	102.31
392.984	93.31
393.208	91.31
393.433	85.31
393.658	86.31
393.882	84.31
394.107	90.31
394.331	99.31
394.556	91.31
394.78	98.31
395.005	95.31
395.229	88.31
395.454	97.31
395.678	91.31
395.903	81.31
396.127	85.31
396.352	89.31
396.576	98.31
396.801	97.31
397.025	88.31
397.249	75.31
397.474	96.31
397.698	87.31
397.922	82.31
398.147	86.31
398.371	80.31
398.595	87.31
398.82	73.31
399.044	83.31
399.268	89.31
399.492	90.31
399.717	81.31
399.941	103.31
400.165	113.31
400.389	90.31
400.613	94.31
400.837	97.31
401.062	85.31
401.286	100.31
401.51	91.31
401.734	95.31
401.958	99.31
402.182	130.31
402.406	165.31
402.63	121.31
402.854	103.31
403.078	85.31
403.302	97.31
403.526	95.31
403.75	90.31
403.974	81.31
404.198	86.31
404.422	94.31
404.645	88.31
404.869	82.31
405.093	104.31
405.317	98.31
405.541	91.31
405.765	112.31
405.988	123.31
406.212	171.31
406.436	263.31
406.66	153.31
406.883	113.31
407.107	97.31
407.331	99.31
407.555	100.31
407.778	104.31
408.002	90.31
408.226	110.31
408.449	83.31
408.673	100.31
408.896	100.31
409.12	98.31
409.344	75.31
409.567	96.31
409.791	100.31
410.014	89.31
410.238	96.31
410.461	94.31
410.685	106.31
410.908	98.31
411.132	91.31
411.355	97.31
411.578	96.31
411.802	95.31
412.025	71.31
412.249	86.31
412.472	94.31
412.695	107.31
412.919	89.31
413.142	97.31
413.365	83.31
413.589	92.31
413.812	117.31
414.035	96.31
414.258	90.31
414.482	86.31
414.705	89.31
414.928	87.31
415.151	92.31
415.374	97.31
415.597	92.31
415.821	99.31
416.044	97.31
416.267	92.31
416.49	91.31
416.713	88.31
416.936	96.31
417.159	94.31
417.382	95.31
417.605	90.31
417.828	78.31
418.051	89.31
418.274	103.31
418.497	89.31
418.72	87.31
418.943	83.31
419.166	88.31
419.389	88.31
419.611	88.31
419.834	87.31
420.057	92.31
420.28	96.31
420.503	99.31
420.726	94.31
420.948	100.31
421.171	94.31
421.394	95.31
421.617	81.31
421.839	91.31
422.062	91.31
422.285	90.31
422.507	91.31
422.73	103.31
422.953	95.31
423.175	95.31
423.398	79.31
423.621	88.31
423.843	86.31
424.066	86.31
424.288	89.31
424.511	104.31
424.733	99.31
424.956	106.31
425.178	96.31
425.401	111.31
425.623	97.31
425.846	95.31
426.068	108.31
426.291	95.31
426.513	100.31
426.735	95.31
426.958	102.31
427.18	91.31
427.402	148.31
427.625	207.31
427.847	152.31
428.069	121.31
428.292	78.31
428.514	98.31
428.736	83.31
428.958	86.31
429.181	90.31
429.403	101.31
429.625	93.31
429.847	83.31
430.069	100.31
430.292	87.31
430.514	88.31
430.736	104.31
430.958	89.31
431.18	78.31
431.402	90.31
431.624	96.31
431.846	80.31
432.068	82.31
432.29	80.31
432.512	74.31
432.734	99.31
432.956	89.31
433.178	101.31
433.4	105.31
433.622	96.31
433.844	86.31
434.066	97.31
434.287	98.31
434.509	92.31
434.731	94.31
434.953	96.31
435.175	89.31
435.397	95.31
435.618	86.31
435.84	114.31
436.062	123.31
436.284	132.31
436.505	102.31
436.727	94.31
436.949	99.31
437.17	89.31
437.392	96.31
437.614	98.31
437.835	108.31
438.057	137.31
438.278	107.31
438.5	125.31
438.721	120.31
438.943	111.31
439.165	110.31
439.386	101.31
439.608	98.31
439.829	94.31
440.05	132.31
440.272	159.31
440.493	89.31
440.715	88.31
440.936	86.31
441.158	102.31
441.379	81.31
441.6	104.31
441.822	94.31
442.043	96.31
442.264	112.31
442.486	96.31
442.707	100.31
442.928	96.31
443.149	130.31
443.371	146.31
443.592	116.31
443.813	120.31
444.034	114.31
444.255	94.31
444.476	81.31
444.698	94.31
444.919	98.31
445.14	133.31
445.361	139.31
445.582	121.31
445.803	162.31
446.024	157.31
446.245	137.31
446.466	126.31
446.687	93.31
446.908	91.31
447.129	104.31
447.35	99.31
447.571	96.31
447.792	101.31
448.013	99.31
448.234	120.31
448.455	106.31
448.675	125.31
448.896	127.31
449.117	102.31
449.338	111.31
449.559	146.31
449.779	154.31
450	94.31
450.221	82.31
450.442	84.31
450.662	82.31
450.883	109.31
451.104	119.31
451.324	103.31
451.545	81.31
451.766	90.31
451.986	79.31
452.207	86.31
452.428	90.31
452.648	99.31
452.869	122.31
453.089	106.31
453.31	131.31
453.53	95.31
453.751	94.31
453.971	97.31
454.192	105.31
454.412	98.31
454.633	106.31
454.853	73.31
455.073	90.31
455.294	96.31
455.514	102.31
455.734	95.31
455.955	82.31
456.175	88.31
456.395	93.31
456.616	62.31
456.836	82.31
457.056	96.31
457.276	94.31
457.497	90.31
457.717	82.31
457.937	92.31
458.157	80.31
458.377	96.31
458.598	119.31
458.818	168.31
459.038	194.31
459.258	128.31
459.478	101.31
459.698	89.31
459.918	85.31
460.138	98.31
460.358	82.31
460.578	80.31
460.798	82.31
461.018	88.31
461.238	86.31
461.458	85.31
461.678	91.31
461.898	82.31
462.118	87.31
462.338	88.31
462.558	100.31
462.777	90.31
462.997	73.31
463.217	82.31
463.437	98.31
463.657	90.31
463.876	89.31
464.096	88.31
464.316	89.31
464.536	90.31
464.755	110.31
464.975	123.31
465.195	181.31
465.414	182.31
465.634	100.31
465.854	94.31
466.073	83.31
466.293	90.31
466.512	87.31
466.732	78.31
466.951	89.31
467.171	87.31
467.391	103.31
467.61	107.31
467.829	96.31
468.049	98.31
468.268	105.31
468.488	90.31
468.707	86.31
468.927	92.31
469.146	83.31
469.365	96.31
469.585	102.31
469.804	87.31
470.023	99.31
470.243	95.31
470.462	112.31
470.681	131.31
470.901	100.31
471.12	76.31
471.339	85.31
471.558	92.31
471.777	83.31
471.997	92.31
472.216	131.31
472.435	152.31
472.654	100.31
472.873	88.31
473.092	74.31
473.311	86.31
473.53	82.31
473.749	91.31
473.968	90.31
474.187	110.31
474.406	113.31
474.625	95.31
474.844	88.31
475.063	81.31
475.282	85.31
475.501	95.31
475.72	92.31
475.939	97.31
476.158	83.31
476.377	100.31
476.596	83.31
476.814	100.31
477.033	83.31
477.252	84.31
477.471	98.31
477.69	89.31
477.908	88.31
478.127	97.31
478.346	91.31
478.564	91.31
478.783	90.31
479.002	99.31
479.22	93.31
479.439	110.31
479.658	114.31
479.876	95.31
480.095	85.31
480.313	76.31
480.532	96.31
480.751	101.31
480.969	110.31
481.188	196.31
481.406	135.31
481.624	87.31
481.843	80.31
482.061	88.31
482.28	102.31
482.498	83.31
482.717	84.31
482.935	86.31
483.153	78.31
483.372	91.31
483.59	88.31
483.808	81.31
484.027	100.31
484.245	101.31
484.463	91.31
484.681	104.31
484.9	92.31
485.118	99.31
485.336	93.31
485.554	85.31
485.772	95.31
485.99	94.31
486.209	98.31
486.427	113.31
486.645	106.31
486.863	119.31
487.081	109.31
487.299	97.31
487.517	97.31
487.735	89.31
487.953	94.31
488.171	93.31
488.389	99.31
488.607	94.31
488.825	91.31
489.043	89.31
489.261	91.31
489.479	87.31
489.696	99.31
489.914	86.31
490.132	84.31
490.35	99.31
490.568	88.31
490.786	83.31
491.003	86.31
491.221	92.31
491.439	88.31
491.657	89.31
491.874	88.31
492.092	103.31
492.31	87.31
492.527	80.31
492.745	85.31
492.963	83.31
493.18	85.31
493.398	93.31
493.615	80.31
493.833	110.31
494.05	90.31
494.268	85.31
494.485	87.31
494.703	92.31
494.92	86.31
495.138	85.31
495.355	75.31
495.573	84.31
495.79	99.31
496.008	90.31
496.225	84.31
496.442	72.31
496.66	101.31
496.877	94.31
497.094	84.31
497.312	82.31
497.529	84.31
497.746	99.31
497.963	90.31
498.181	103.31
498.398	102.31
498.615	119.31
498.832	110.31
499.049	99.31
499.267	101.31
499.484	101.31
499.701	104.31
499.918	87.31
500.135	93.31
500.352	78.31
500.569	89.31
500.786	97.31
501.003	98.31
501.22	89.31
501.437	91.31
501.654	111.31
501.871	92.31
502.088	99.31
502.305	87.31
502.522	102.31
502.739	96.31
502.956	81.31
503.172	88.31
503.389	92.31
503.606	117.31
503.823	118.31
504.04	104.31
504.256	86.31
504.473	96.31
504.69	92.31
504.907	89.31
505.123	95.31
505.34	98.31
505.557	86.31
505.773	96.31
505.99	99.31
506.207	90.31
506.423	93.31
506.64	94.31
506.856	93.31
507.073	99.31
507.289	92.31
507.506	121.31
507.722	129.31
507.939	112.31
508.155	94.31
508.372	87.31
508.588	99.31
508.805	106.31
509.021	112.31
509.238	116.31
509.454	106.31
509.67	105.31
509.887	106.31
510.103	142.31
510.319	245.31
510.536	847.31
510.752	2707.31
510.968	743.31
511.184	164.31
511.401	115.31
511.617	98.31
511.833	91.31
512.049	92.31
512.265	102.31
512.481	99.31
512.698	92.31
512.914	93.31
513.13	113.31
513.346	94.31
513.562	108.31
513.778	91.31
513.994	99.31
514.21	115.31
514.426	123.31
514.642	136.31
514.858	131.31
