Data from Uncirc_1987_H10_HRD10591_00056.txt Node
Date: Wed Jan 03 12:08:59 EST 2024
User: Yrep
Spectrometer: HR+D1059
Trigger mode: 1
Integration Time (sec): 1.000000E-1
Scans to average: 1
Electric dark correction enabled: true
Nonlinearity correction enabled: false
Boxcar width: 0
XAxis mode: Wavelengths
Number of Pixels in Spectrum: 2048
>>>>>Begin Spectral Data<<<<<
223.165	-14.12
223.4	-14.12
223.635	-14.12
223.869	-25.12
224.104	-32.12
224.338	-22.12
224.573	-4.12
224.808	-14.12
225.042	-0.12
225.277	-23.12
225.511	5.88
225.746	1.88
225.98	9.88
226.215	29.88
226.449	10.88
226.683	19.88
226.918	35.88
227.152	20.88
227.387	42.88
227.621	33.88
227.856	45.88
228.09	49.88
228.324	55.88
228.559	65.88
228.793	62.88
229.027	57.88
229.262	57.88
229.496	72.88
229.73	75.88
229.964	90.88
230.199	76.88
230.433	75.88
230.667	70.88
230.901	68.88
231.136	84.88
231.37	75.88
231.604	77.88
231.838	96.88
232.072	80.88
232.306	80.88
232.541	80.88
232.775	72.88
233.009	67.88
233.243	83.88
233.477	92.88
233.711	66.88
233.945	79.88
234.179	63.88
234.413	57.88
234.647	74.88
234.881	89.88
235.115	80.88
235.349	79.88
235.583	74.88
235.817	74.88
236.051	82.88
236.285	79.88
236.519	75.88
236.753	71.88
236.987	77.88
237.221	79.88
237.455	69.88
237.689	71.88
237.922	80.88
238.156	83.88
238.39	69.88
238.624	86.88
238.858	69.88
239.091	61.88
239.325	89.88
239.559	82.88
239.793	67.88
240.027	81.88
240.26	78.88
240.494	79.88
240.728	86.88
240.961	98.88
241.195	64.88
241.429	75.88
241.662	78.88
241.896	85.88
242.13	87.88
242.363	70.88
242.597	82.88
242.83	84.88
243.064	68.88
243.298	80.88
243.531	72.88
243.765	72.88
243.998	83.88
244.232	85.88
244.465	75.88
244.699	81.88
244.932	69.88
245.166	73.88
245.399	78.88
245.633	72.88
245.866	81.88
246.099	85.88
246.333	88.88
246.566	84.88
246.8	68.88
247.033	75.88
247.266	84.88
247.5	81.88
247.733	73.88
247.966	70.88
248.2	81.88
248.433	68.88
248.666	73.88
248.899	94.88
249.133	83.88
249.366	97.88
249.599	93.88
249.832	79.88
250.066	97.88
250.299	79.88
250.532	73.88
250.765	66.88
250.998	80.88
251.231	87.88
251.465	77.88
251.698	79.88
251.931	88.88
252.164	77.88
252.397	70.88
252.63	78.88
252.863	78.88
253.096	86.88
253.329	67.88
253.562	72.88
253.795	91.88
254.028	79.88
254.261	73.88
254.494	84.88
254.727	97.88
254.96	88.88
255.193	69.88
255.426	74.88
255.659	93.88
255.892	95.88
256.124	77.88
256.357	73.88
256.59	84.88
256.823	75.88
257.056	81.88
257.289	82.88
257.521	80.88
257.754	77.88
257.987	72.88
258.22	66.88
258.452	85.88
258.685	77.88
258.918	80.88
259.151	99.88
259.383	89.88
259.616	70.88
259.849	89.88
260.081	72.88
260.314	91.88
260.547	93.88
260.779	94.88
261.012	76.88
261.244	83.88
261.477	83.88
261.71	98.88
261.942	113.88
262.175	101.88
262.407	82.88
262.64	83.88
262.872	66.88
263.105	79.88
263.337	80.88
263.57	86.88
263.802	83.88
264.035	74.88
264.267	90.88
264.499	71.88
264.732	98.88
264.964	86.88
265.197	86.88
265.429	86.88
265.661	91.88
265.894	77.88
266.126	83.88
266.358	83.88
266.591	78.88
266.823	78.88
267.055	82.88
267.287	68.88
267.52	86.88
267.752	87.88
267.984	88.88
268.216	99.88
268.448	71.88
268.681	77.88
268.913	89.88
269.145	81.88
269.377	75.88
269.609	97.88
269.841	94.88
270.073	88.88
270.306	94.88
270.538	82.88
270.77	74.88
271.002	85.88
271.234	82.88
271.466	90.88
271.698	80.88
271.93	87.88
272.162	88.88
272.394	90.88
272.626	80.88
272.858	68.88
273.09	83.88
273.322	89.88
273.553	100.88
273.785	84.88
274.017	85.88
274.249	86.88
274.481	98.88
274.713	93.88
274.945	73.88
275.176	73.88
275.408	97.88
275.64	80.88
275.872	71.88
276.104	103.88
276.335	91.88
276.567	84.88
276.799	99.88
277.031	104.88
277.262	82.88
277.494	92.88
277.726	78.88
277.957	74.88
278.189	103.88
278.421	96.88
278.652	90.88
278.884	80.88
279.115	78.88
279.347	72.88
279.579	90.88
279.81	81.88
280.042	94.88
280.273	93.88
280.505	82.88
280.736	77.88
280.968	71.88
281.199	86.88
281.431	103.88
281.662	89.88
281.894	86.88
282.125	93.88
282.356	98.88
282.588	116.88
282.819	106.88
283.051	87.88
283.282	85.88
283.513	85.88
283.745	86.88
283.976	84.88
284.207	96.88
284.439	84.88
284.67	102.88
284.901	97.88
285.132	74.88
285.364	93.88
285.595	90.88
285.826	91.88
286.057	90.88
286.288	73.88
286.52	84.88
286.751	87.88
286.982	86.88
287.213	82.88
287.444	96.88
287.675	79.88
287.906	89.88
288.138	99.88
288.369	103.88
288.6	105.88
288.831	92.88
289.062	92.88
289.293	84.88
289.524	85.88
289.755	83.88
289.986	90.88
290.217	88.88
290.448	92.88
290.679	92.88
290.91	96.88
291.141	72.88
291.371	93.88
291.602	95.88
291.833	90.88
292.064	83.88
292.295	91.88
292.526	97.88
292.757	84.88
292.987	93.88
293.218	83.88
293.449	96.88
293.68	86.88
293.91	93.88
294.141	97.88
294.372	95.88
294.603	94.88
294.833	77.88
295.064	94.88
295.295	73.88
295.525	83.88
295.756	93.88
295.987	103.88
296.217	128.88
296.448	103.88
296.679	93.88
296.909	91.88
297.14	91.88
297.37	89.88
297.601	85.88
297.831	81.88
298.062	89.88
298.292	101.88
298.523	94.88
298.753	94.88
298.984	87.88
299.214	97.88
299.445	84.88
299.675	97.88
299.905	112.88
300.136	85.88
300.366	89.88
300.597	88.88
300.827	96.88
301.057	85.88
301.288	95.88
301.518	84.88
301.748	88.88
301.979	87.88
302.209	86.88
302.439	91.88
302.669	74.88
302.9	95.88
303.13	91.88
303.36	96.88
303.59	81.88
303.82	94.88
304.051	105.88
304.281	88.88
304.511	79.88
304.741	102.88
304.971	86.88
305.201	86.88
305.431	78.88
305.661	74.88
305.891	83.88
306.121	102.88
306.352	99.88
306.582	99.88
306.812	106.88
307.042	93.88
307.272	98.88
307.502	101.88
307.731	101.88
307.961	98.88
308.191	92.88
308.421	90.88
308.651	87.88
308.881	89.88
309.111	95.88
309.341	90.88
309.571	99.88
309.8	91.88
310.03	97.88
310.26	97.88
310.49	92.88
310.72	90.88
310.949	96.88
311.179	86.88
311.409	90.88
311.639	97.88
311.868	97.88
312.098	88.88
312.328	87.88
312.557	93.88
312.787	106.88
313.017	103.88
313.246	94.88
313.476	90.88
313.706	83.88
313.935	96.88
314.165	103.88
314.394	106.88
314.624	103.88
314.853	105.88
315.083	90.88
315.312	105.88
315.542	90.88
315.771	79.88
316.001	102.88
316.23	87.88
316.46	93.88
316.689	92.88
316.919	89.88
317.148	97.88
317.377	89.88
317.607	107.88
317.836	86.88
318.065	83.88
318.295	104.88
318.524	93.88
318.753	96.88
318.983	112.88
319.212	99.88
319.441	101.88
319.67	99.88
319.9	103.88
320.129	100.88
320.358	104.88
320.587	95.88
320.816	94.88
321.046	112.88
321.275	97.88
321.504	89.88
321.733	101.88
321.962	97.88
322.191	101.88
322.42	88.88
322.649	105.88
322.878	111.88
323.108	104.88
323.337	121.88
323.566	119.88
323.795	141.88
324.024	183.88
324.253	335.88
324.482	698.88
324.71	1453.88
324.939	1955.88
325.168	719.88
325.397	221.88
325.626	142.88
325.855	140.88
326.084	129.88
326.313	118.88
326.542	134.88
326.77	206.88
326.999	402.88
327.228	815.88
327.457	1528.88
327.686	1184.88
327.914	327.88
328.143	165.88
328.372	143.88
328.6	107.88
328.829	102.88
329.058	126.88
329.287	121.88
329.515	101.88
329.744	101.88
329.972	117.88
330.201	118.88
330.43	114.88
330.658	127.88
330.887	133.88
331.115	107.88
331.344	69.88
331.572	97.88
331.801	92.88
332.03	95.88
332.258	99.88
332.486	108.88
332.715	98.88
332.943	92.88
333.172	67.88
333.4	103.88
333.629	105.88
333.857	108.88
334.085	107.88
334.314	101.88
334.542	103.88
334.771	104.88
334.999	95.88
335.227	86.88
335.455	98.88
335.684	97.88
335.912	105.88
336.14	98.88
336.369	94.88
336.597	103.88
336.825	97.88
337.053	97.88
337.281	88.88
337.51	87.88
337.738	93.88
337.966	74.88
338.194	93.88
338.422	89.88
338.65	89.88
338.878	87.88
339.106	88.88
339.334	84.88
339.562	98.88
339.79	86.88
340.018	82.88
340.246	88.88
340.474	101.88
340.702	89.88
340.93	87.88
341.158	85.88
341.386	99.88
341.614	94.88
341.842	93.88
342.07	97.88
342.298	102.88
342.526	100.88
342.754	95.88
342.981	84.88
343.209	95.88
343.437	102.88
343.665	99.88
343.893	90.88
344.12	90.88
344.348	73.88
344.576	99.88
344.804	94.88
345.031	93.88
345.259	95.88
345.487	90.88
345.714	97.88
345.942	89.88
346.17	103.88
346.397	98.88
346.625	106.88
346.853	89.88
347.08	88.88
347.308	98.88
347.535	103.88
347.763	95.88
347.99	103.88
348.218	90.88
348.445	107.88
348.673	90.88
348.9	95.88
349.128	97.88
349.355	103.88
349.583	97.88
349.81	93.88
350.037	96.88
350.265	99.88
350.492	98.88
350.72	103.88
350.947	100.88
351.174	109.88
351.402	108.88
351.629	113.88
351.856	98.88
352.083	102.88
352.311	97.88
352.538	95.88
352.765	98.88
352.992	114.88
353.22	94.88
353.447	97.88
353.674	95.88
353.901	113.88
354.128	92.88
354.355	95.88
354.583	93.88
354.81	89.88
355.037	111.88
355.264	103.88
355.491	89.88
355.718	85.88
355.945	96.88
356.172	89.88
356.399	99.88
356.626	90.88
356.853	104.88
357.08	90.88
357.307	99.88
357.534	92.88
357.761	88.88
357.988	108.88
358.215	88.88
358.441	89.88
358.668	90.88
358.895	85.88
359.122	94.88
359.349	101.88
359.576	90.88
359.802	85.88
360.029	114.88
360.256	108.88
360.483	95.88
360.709	83.88
360.936	93.88
361.163	96.88
361.39	80.88
361.616	92.88
361.843	100.88
362.07	78.88
362.296	100.88
362.523	103.88
362.749	90.88
362.976	85.88
363.203	94.88
363.429	82.88
363.656	117.88
363.882	93.88
364.109	101.88
364.335	93.88
364.562	74.88
364.788	86.88
365.015	104.88
365.241	81.88
365.468	100.88
365.694	91.88
365.92	93.88
366.147	75.88
366.373	80.88
366.599	86.88
366.826	98.88
367.052	96.88
367.278	97.88
367.505	70.88
367.731	99.88
367.957	89.88
368.184	88.88
368.41	110.88
368.636	101.88
368.862	117.88
369.089	109.88
369.315	95.88
369.541	97.88
369.767	86.88
369.993	103.88
370.219	90.88
370.445	102.88
370.672	98.88
370.898	84.88
371.124	93.88
371.35	88.88
371.576	93.88
371.802	87.88
372.028	77.88
372.254	93.88
372.48	87.88
372.706	81.88
372.932	79.88
373.158	96.88
373.384	89.88
373.61	81.88
373.835	85.88
374.061	84.88
374.287	87.88
374.513	99.88
374.739	85.88
374.965	87.88
375.191	86.88
375.416	75.88
375.642	95.88
375.868	83.88
376.094	90.88
376.319	97.88
376.545	92.88
376.771	100.88
376.997	95.88
377.222	81.88
377.448	110.88
377.674	94.88
377.899	97.88
378.125	100.88
378.35	90.88
378.576	87.88
378.802	93.88
379.027	95.88
379.253	88.88
379.478	95.88
379.704	79.88
379.929	83.88
380.155	88.88
380.38	96.88
380.606	81.88
380.831	96.88
381.057	100.88
381.282	91.88
381.507	86.88
381.733	81.88
381.958	87.88
382.184	102.88
382.409	97.88
382.634	102.88
382.86	83.88
383.085	99.88
383.31	86.88
383.535	87.88
383.761	93.88
383.986	93.88
384.211	89.88
384.436	98.88
384.662	100.88
384.887	105.88
385.112	89.88
385.337	93.88
385.562	84.88
385.787	102.88
386.013	99.88
386.238	107.88
386.463	103.88
386.688	114.88
386.913	108.88
387.138	101.88
387.363	113.88
387.588	91.88
387.813	101.88
388.038	99.88
388.263	101.88
388.488	125.88
388.713	82.88
388.938	96.88
389.163	103.88
389.387	90.88
389.612	85.88
389.837	113.88
390.062	88.88
390.287	107.88
390.512	87.88
390.736	99.88
390.961	88.88
391.186	95.88
391.411	89.88
391.636	90.88
391.86	73.88
392.085	93.88
392.31	87.88
392.534	91.88
392.759	88.88
392.984	86.88
393.208	93.88
393.433	93.88
393.658	76.88
393.882	81.88
394.107	91.88
394.331	80.88
394.556	86.88
394.78	90.88
395.005	89.88
395.229	95.88
395.454	89.88
395.678	88.88
395.903	77.88
396.127	88.88
396.352	87.88
396.576	76.88
396.801	88.88
397.025	78.88
397.249	79.88
397.474	83.88
397.698	82.88
397.922	84.88
398.147	78.88
398.371	90.88
398.595	80.88
398.82	84.88
399.044	90.88
399.268	95.88
399.492	81.88
399.717	93.88
399.941	95.88
400.165	105.88
400.389	81.88
400.613	79.88
400.837	93.88
401.062	105.88
401.286	86.88
401.51	90.88
401.734	82.88
401.958	95.88
402.182	109.88
402.406	145.88
402.63	107.88
402.854	89.88
403.078	80.88
403.302	85.88
403.526	74.88
403.75	99.88
403.974	99.88
404.198	85.88
404.422	82.88
404.645	99.88
404.869	95.88
405.093	89.88
405.317	93.88
405.541	90.88
405.765	92.88
405.988	106.88
406.212	147.88
406.436	186.88
406.66	115.88
406.883	85.88
407.107	79.88
407.331	97.88
407.555	114.88
407.778	94.88
408.002	88.88
408.226	88.88
408.449	91.88
408.673	86.88
408.896	90.88
409.12	102.88
409.344	79.88
409.567	92.88
409.791	95.88
410.014	92.88
410.238	91.88
410.461	82.88
410.685	88.88
410.908	96.88
411.132	102.88
411.355	84.88
411.578	85.88
411.802	85.88
412.025	77.88
412.249	94.88
412.472	105.88
412.695	103.88
412.919	100.88
413.142	87.88
413.365	93.88
413.589	81.88
413.812	89.88
414.035	98.88
414.258	89.88
414.482	90.88
414.705	97.88
414.928	93.88
415.151	84.88
415.374	96.88
415.597	79.88
415.821	98.88
416.044	89.88
416.267	90.88
416.49	94.88
416.713	85.88
416.936	89.88
417.159	80.88
417.382	87.88
417.605	93.88
417.828	104.88
418.051	86.88
418.274	83.88
418.497	93.88
418.72	83.88
418.943	82.88
419.166	103.88
419.389	89.88
419.611	81.88
419.834	88.88
420.057	84.88
420.28	97.88
420.503	73.88
420.726	77.88
420.948	70.88
421.171	94.88
421.394	97.88
421.617	100.88
421.839	85.88
422.062	86.88
422.285	78.88
422.507	99.88
422.73	97.88
422.953	85.88
423.175	89.88
423.398	98.88
423.621	81.88
423.843	100.88
424.066	73.88
424.288	85.88
424.511	88.88
424.733	98.88
424.956	106.88
425.178	97.88
425.401	100.88
425.623	116.88
425.846	103.88
426.068	97.88
426.291	96.88
426.513	72.88
426.735	77.88
426.958	85.88
427.18	108.88
427.402	122.88
427.625	143.88
427.847	113.88
428.069	101.88
428.292	94.88
428.514	97.88
428.736	81.88
428.958	85.88
429.181	85.88
429.403	83.88
429.625	94.88
429.847	91.88
430.069	95.88
430.292	102.88
430.514	72.88
430.736	81.88
430.958	91.88
431.18	89.88
431.402	83.88
431.624	88.88
431.846	91.88
432.068	71.88
432.29	74.88
432.512	84.88
432.734	71.88
432.956	97.88
433.178	103.88
433.4	99.88
433.622	87.88
433.844	65.88
434.066	87.88
434.287	97.88
434.509	93.88
434.731	74.88
434.953	83.88
435.175	93.88
435.397	89.88
435.618	98.88
435.84	90.88
436.062	122.88
436.284	107.88
436.505	88.88
436.727	95.88
436.949	97.88
437.17	94.88
437.392	78.88
437.614	105.88
437.835	95.88
438.057	106.88
438.278	109.88
438.5	106.88
438.721	115.88
438.943	108.88
439.165	87.88
439.386	84.88
439.608	89.88
439.829	98.88
440.05	95.88
440.272	135.88
440.493	102.88
440.715	86.88
440.936	94.88
441.158	92.88
441.379	96.88
441.6	104.88
441.822	97.88
442.043	81.88
442.264	97.88
442.486	95.88
442.707	93.88
442.928	99.88
443.149	121.88
443.371	123.88
443.592	93.88
443.813	104.88
444.034	109.88
444.255	93.88
444.476	88.88
444.698	98.88
444.919	99.88
445.14	105.88
445.361	114.88
445.582	117.88
445.803	136.88
446.024	127.88
446.245	115.88
446.466	108.88
446.687	90.88
446.908	81.88
447.129	91.88
447.35	84.88
447.571	96.88
447.792	88.88
448.013	95.88
448.234	99.88
448.455	100.88
448.675	99.88
448.896	110.88
449.117	102.88
449.338	111.88
449.559	103.88
449.779	117.88
450	94.88
450.221	97.88
450.442	72.88
450.662	88.88
450.883	82.88
451.104	113.88
451.324	96.88
451.545	98.88
451.766	91.88
451.986	77.88
452.207	89.88
452.428	95.88
452.648	96.88
452.869	98.88
453.089	125.88
453.31	115.88
453.53	102.88
453.751	91.88
453.971	97.88
454.192	91.88
454.412	86.88
454.633	96.88
454.853	94.88
455.073	86.88
455.294	87.88
455.514	102.88
455.734	88.88
455.955	85.88
456.175	84.88
456.395	81.88
456.616	86.88
456.836	99.88
457.056	102.88
457.276	91.88
457.497	75.88
457.717	80.88
457.937	84.88
458.157	84.88
458.377	92.88
458.598	90.88
458.818	115.88
459.038	130.88
459.258	102.88
459.478	87.88
459.698	83.88
459.918	89.88
460.138	78.88
460.358	93.88
460.578	101.88
460.798	77.88
461.018	98.88
461.238	82.88
461.458	88.88
461.678	95.88
461.898	80.88
462.118	80.88
462.338	86.88
462.558	87.88
462.777	95.88
462.997	82.88
463.217	85.88
463.437	83.88
463.657	87.88
463.876	81.88
464.096	91.88
464.316	83.88
464.536	86.88
464.755	91.88
464.975	95.88
465.195	157.88
465.414	133.88
465.634	108.88
465.854	89.88
466.073	92.88
466.293	93.88
466.512	71.88
466.732	86.88
466.951	94.88
467.171	85.88
467.391	79.88
467.61	89.88
467.829	86.88
468.049	76.88
468.268	81.88
468.488	97.88
468.707	90.88
468.927	80.88
469.146	86.88
469.365	98.88
469.585	77.88
469.804	97.88
470.023	101.88
470.243	86.88
470.462	95.88
470.681	109.88
470.901	71.88
471.12	82.88
471.339	80.88
471.558	77.88
471.777	82.88
471.997	91.88
472.216	95.88
472.435	103.88
472.654	87.88
472.873	87.88
473.092	63.88
473.311	72.88
473.53	85.88
473.749	104.88
473.968	98.88
474.187	115.88
474.406	93.88
474.625	98.88
474.844	89.88
475.063	86.88
475.282	83.88
475.501	90.88
475.72	100.88
475.939	85.88
476.158	78.88
476.377	79.88
476.596	93.88
476.814	91.88
477.033	73.88
477.252	102.88
477.471	88.88
477.69	88.88
477.908	98.88
478.127	93.88
478.346	91.88
478.564	88.88
478.783	101.88
479.002	85.88
479.22	79.88
479.439	94.88
479.658	101.88
479.876	90.88
480.095	97.88
480.313	82.88
480.532	89.88
480.751	85.88
480.969	72.88
481.188	114.88
481.406	105.88
481.624	91.88
481.843	91.88
482.061	91.88
482.28	89.88
482.498	97.88
482.717	90.88
482.935	88.88
483.153	89.88
483.372	83.88
483.59	81.88
483.808	94.88
484.027	102.88
484.245	89.88
484.463	83.88
484.681	109.88
484.9	87.88
485.118	98.88
485.336	95.88
485.554	96.88
485.772	98.88
485.99	98.88
486.209	90.88
486.427	102.88
486.645	105.88
486.863	101.88
487.081	105.88
487.299	102.88
487.517	98.88
487.735	97.88
487.953	102.88
488.171	95.88
488.389	103.88
488.607	97.88
488.825	85.88
489.043	78.88
489.261	94.88
489.479	89.88
489.696	88.88
489.914	90.88
490.132	84.88
490.35	88.88
490.568	89.88
490.786	87.88
491.003	92.88
491.221	84.88
491.439	87.88
491.657	86.88
491.874	101.88
492.092	79.88
492.31	102.88
492.527	104.88
492.745	76.88
492.963	79.88
493.18	98.88
493.398	101.88
493.615	113.88
493.833	98.88
494.05	86.88
494.268	87.88
494.485	97.88
494.703	90.88
494.92	91.88
495.138	77.88
495.355	97.88
495.573	89.88
495.79	102.88
496.008	91.88
496.225	83.88
496.442	89.88
496.66	100.88
496.877	101.88
497.094	101.88
497.312	106.88
497.529	91.88
497.746	80.88
497.963	80.88
498.181	100.88
498.398	95.88
498.615	105.88
498.832	104.88
499.049	92.88
499.267	101.88
499.484	78.88
499.701	100.88
499.918	85.88
500.135	89.88
500.352	95.88
500.569	85.88
500.786	90.88
501.003	97.88
501.22	81.88
501.437	91.88
501.654	97.88
501.871	102.88
502.088	89.88
502.305	94.88
502.522	95.88
502.739	98.88
502.956	110.88
503.172	92.88
503.389	85.88
503.606	83.88
503.823	98.88
504.04	94.88
504.256	91.88
504.473	85.88
504.69	101.88
504.907	93.88
505.123	91.88
505.34	79.88
505.557	90.88
505.773	91.88
505.99	85.88
506.207	90.88
506.423	91.88
506.64	99.88
506.856	100.88
507.073	79.88
507.289	90.88
507.506	91.88
507.722	107.88
507.939	104.88
508.155	82.88
508.372	100.88
508.588	87.88
508.805	88.88
509.021	91.88
509.238	99.88
509.454	102.88
509.67	80.88
509.887	109.88
510.103	121.88
510.319	194.88
510.536	656.88
510.752	1974.88
510.968	534.88
511.184	126.88
511.401	98.88
511.617	109.88
511.833	99.88
512.049	97.88
512.265	93.88
512.481	105.88
512.698	94.88
512.914	96.88
513.13	96.88
513.346	84.88
513.562	99.88
513.778	95.88
513.994	109.88
514.21	97.88
514.426	112.88
514.642	129.88
514.858	129.88
515.074	146.88
515.29	366.88
515.506	1152.88
515.721	429.88
515.937	137.88
516.153	110.88
