Data from Uncirc_1987_H10_HRD10591_00046.txt Node
Date: Wed Jan 03 12:08:57 EST 2024
User: Yrep
Spectrometer: HR+D1059
Trigger mode: 1
Integration Time (sec): 1.000000E-1
Scans to average: 1
Electric dark correction enabled: true
Nonlinearity correction enabled: false
Boxcar width: 0
XAxis mode: Wavelengths
Number of Pixels in Spectrum: 2048
>>>>>Begin Spectral Data<<<<<
223.165	-19.25
223.4	-19.25
223.635	-19.25
223.869	-13.25
224.104	-10.25
224.338	-12.25
224.573	-23.25
224.808	-13.25
225.042	-10.25
225.277	-11.25
225.511	-5.25
225.746	0.75
225.98	12.75
226.215	14.75
226.449	7.75
226.683	23.75
226.918	30.75
227.152	27.75
227.387	28.75
227.621	34.75
227.856	43.75
228.09	53.75
228.324	46.75
228.559	48.75
228.793	55.75
229.027	62.75
229.262	62.75
229.496	81.75
229.73	90.75
229.964	74.75
230.199	74.75
230.433	62.75
230.667	70.75
230.901	72.75
231.136	68.75
231.37	72.75
231.604	87.75
231.838	73.75
232.072	71.75
232.306	81.75
232.541	87.75
232.775	75.75
233.009	76.75
233.243	67.75
233.477	83.75
233.711	68.75
233.945	83.75
234.179	77.75
234.413	94.75
234.647	80.75
234.881	84.75
235.115	80.75
235.349	79.75
235.583	81.75
235.817	77.75
236.051	71.75
236.285	71.75
236.519	76.75
236.753	74.75
236.987	71.75
237.221	68.75
237.455	68.75
237.689	61.75
237.922	85.75
238.156	66.75
238.39	60.75
238.624	84.75
238.858	82.75
239.091	72.75
239.325	80.75
239.559	84.75
239.793	85.75
240.027	77.75
240.26	79.75
240.494	69.75
240.728	79.75
240.961	69.75
241.195	69.75
241.429	76.75
241.662	69.75
241.896	82.75
242.13	76.75
242.363	88.75
242.597	65.75
242.83	67.75
243.064	63.75
243.298	89.75
243.531	88.75
243.765	79.75
243.998	77.75
244.232	77.75
244.465	86.75
244.699	60.75
244.932	80.75
245.166	78.75
245.399	85.75
245.633	91.75
245.866	85.75
246.099	71.75
246.333	83.75
246.566	86.75
246.8	93.75
247.033	68.75
247.266	63.75
247.5	64.75
247.733	70.75
247.966	85.75
248.2	79.75
248.433	85.75
248.666	72.75
248.899	58.75
249.133	75.75
249.366	95.75
249.599	90.75
249.832	93.75
250.066	93.75
250.299	81.75
250.532	83.75
250.765	77.75
250.998	60.75
251.231	83.75
251.465	82.75
251.698	75.75
251.931	78.75
252.164	94.75
252.397	80.75
252.63	82.75
252.863	74.75
253.096	74.75
253.329	88.75
253.562	75.75
253.795	85.75
254.028	79.75
254.261	66.75
254.494	82.75
254.727	77.75
254.96	77.75
255.193	84.75
255.426	74.75
255.659	90.75
255.892	80.75
256.124	78.75
256.357	64.75
256.59	77.75
256.823	74.75
257.056	74.75
257.289	71.75
257.521	81.75
257.754	68.75
257.987	91.75
258.22	79.75
258.452	71.75
258.685	65.75
258.918	74.75
259.151	74.75
259.383	75.75
259.616	78.75
259.849	73.75
260.081	90.75
260.314	83.75
260.547	86.75
260.779	80.75
261.012	98.75
261.244	68.75
261.477	80.75
261.71	74.75
261.942	104.75
262.175	106.75
262.407	91.75
262.64	93.75
262.872	86.75
263.105	74.75
263.337	79.75
263.57	90.75
263.802	87.75
264.035	78.75
264.267	82.75
264.499	85.75
264.732	82.75
264.964	94.75
265.197	77.75
265.429	88.75
265.661	85.75
265.894	80.75
266.126	80.75
266.358	79.75
266.591	79.75
266.823	78.75
267.055	68.75
267.287	79.75
267.52	85.75
267.752	88.75
267.984	77.75
268.216	78.75
268.448	88.75
268.681	87.75
268.913	76.75
269.145	84.75
269.377	82.75
269.609	79.75
269.841	84.75
270.073	78.75
270.306	87.75
270.538	88.75
270.77	68.75
271.002	84.75
271.234	96.75
271.466	75.75
271.698	95.75
271.93	93.75
272.162	71.75
272.394	88.75
272.626	81.75
272.858	86.75
273.09	88.75
273.322	87.75
273.553	71.75
273.785	83.75
274.017	79.75
274.249	79.75
274.481	83.75
274.713	84.75
274.945	76.75
275.176	84.75
275.408	91.75
275.64	76.75
275.872	75.75
276.104	90.75
276.335	79.75
276.567	98.75
276.799	87.75
277.031	90.75
277.262	82.75
277.494	85.75
277.726	86.75
277.957	80.75
278.189	86.75
278.421	80.75
278.652	84.75
278.884	88.75
279.115	87.75
279.347	76.75
279.579	84.75
279.81	79.75
280.042	81.75
280.273	97.75
280.505	90.75
280.736	88.75
280.968	86.75
281.199	84.75
281.431	81.75
281.662	83.75
281.894	87.75
282.125	97.75
282.356	107.75
282.588	126.75
282.819	112.75
283.051	91.75
283.282	84.75
283.513	82.75
283.745	98.75
283.976	90.75
284.207	86.75
284.439	101.75
284.67	87.75
284.901	72.75
285.132	80.75
285.364	86.75
285.595	74.75
285.826	83.75
286.057	77.75
286.288	79.75
286.52	89.75
286.751	80.75
286.982	90.75
287.213	98.75
287.444	85.75
287.675	89.75
287.906	90.75
288.138	84.75
288.369	96.75
288.6	89.75
288.831	88.75
289.062	82.75
289.293	86.75
289.524	76.75
289.755	75.75
289.986	85.75
290.217	83.75
290.448	85.75
290.679	85.75
290.91	112.75
291.141	74.75
291.371	86.75
291.602	86.75
291.833	88.75
292.064	79.75
292.295	89.75
292.526	84.75
292.757	93.75
292.987	82.75
293.218	82.75
293.449	84.75
293.68	84.75
293.91	91.75
294.141	88.75
294.372	72.75
294.603	80.75
294.833	81.75
295.064	88.75
295.295	81.75
295.525	90.75
295.756	94.75
295.987	103.75
296.217	115.75
296.448	99.75
296.679	99.75
296.909	78.75
297.14	97.75
297.37	83.75
297.601	82.75
297.831	102.75
298.062	89.75
298.292	91.75
298.523	100.75
298.753	88.75
298.984	76.75
299.214	71.75
299.445	90.75
299.675	72.75
299.905	81.75
300.136	90.75
300.366	95.75
300.597	98.75
300.827	95.75
301.057	96.75
301.288	100.75
301.518	83.75
301.748	85.75
301.979	95.75
302.209	84.75
302.439	90.75
302.669	84.75
302.9	90.75
303.13	89.75
303.36	98.75
303.59	95.75
303.82	91.75
304.051	85.75
304.281	85.75
304.511	91.75
304.741	88.75
304.971	90.75
305.201	88.75
305.431	81.75
305.661	96.75
305.891	90.75
306.121	82.75
306.352	99.75
306.582	106.75
306.812	98.75
307.042	90.75
307.272	86.75
307.502	81.75
307.731	87.75
307.961	104.75
308.191	85.75
308.421	96.75
308.651	90.75
308.881	94.75
309.111	109.75
309.341	100.75
309.571	92.75
309.8	101.75
310.03	93.75
310.26	83.75
310.49	98.75
310.72	97.75
310.949	91.75
311.179	90.75
311.409	91.75
311.639	99.75
311.868	90.75
312.098	101.75
312.328	93.75
312.557	87.75
312.787	105.75
313.017	94.75
313.246	92.75
313.476	86.75
313.706	90.75
313.935	90.75
314.165	90.75
314.394	97.75
314.624	106.75
314.853	88.75
315.083	96.75
315.312	92.75
315.542	100.75
315.771	86.75
316.001	91.75
316.23	79.75
316.46	83.75
316.689	87.75
316.919	90.75
317.148	98.75
317.377	96.75
317.607	84.75
317.836	76.75
318.065	86.75
318.295	86.75
318.524	93.75
318.753	82.75
318.983	80.75
319.212	84.75
319.441	100.75
319.67	102.75
319.9	84.75
320.129	88.75
320.358	91.75
320.587	78.75
320.816	92.75
321.046	91.75
321.275	91.75
321.504	88.75
321.733	102.75
321.962	78.75
322.191	106.75
322.42	90.75
322.649	110.75
322.878	100.75
323.108	90.75
323.337	115.75
323.566	131.75
323.795	136.75
324.024	188.75
324.253	343.75
324.482	705.75
324.71	1463.75
324.939	1959.75
325.168	726.75
325.397	215.75
325.626	150.75
325.855	120.75
326.084	103.75
326.313	129.75
326.542	146.75
326.77	209.75
326.999	406.75
327.228	832.75
327.457	1567.75
327.686	1228.75
327.914	332.75
328.143	173.75
328.372	128.75
328.6	114.75
328.829	103.75
329.058	118.75
329.287	127.75
329.515	92.75
329.744	93.75
329.972	108.75
330.201	100.75
330.43	112.75
330.658	110.75
330.887	116.75
331.115	118.75
331.344	96.75
331.572	87.75
331.801	82.75
332.03	83.75
332.258	87.75
332.486	109.75
332.715	78.75
332.943	87.75
333.172	101.75
333.4	113.75
333.629	110.75
333.857	107.75
334.085	98.75
334.314	114.75
334.542	104.75
334.771	93.75
334.999	95.75
335.227	84.75
335.455	88.75
335.684	83.75
335.912	94.75
336.14	80.75
336.369	81.75
336.597	92.75
336.825	95.75
337.053	85.75
337.281	101.75
337.51	87.75
337.738	104.75
337.966	85.75
338.194	95.75
338.422	75.75
338.65	95.75
338.878	82.75
339.106	98.75
339.334	83.75
339.562	84.75
339.79	92.75
340.018	80.75
340.246	86.75
340.474	85.75
340.702	94.75
340.93	93.75
341.158	82.75
341.386	84.75
341.614	93.75
341.842	89.75
342.07	82.75
342.298	104.75
342.526	94.75
342.754	99.75
342.981	97.75
343.209	89.75
343.437	98.75
343.665	91.75
343.893	79.75
344.12	83.75
344.348	96.75
344.576	95.75
344.804	89.75
345.031	94.75
345.259	87.75
345.487	94.75
345.714	88.75
345.942	94.75
346.17	93.75
346.397	75.75
346.625	81.75
346.853	84.75
347.08	80.75
347.308	100.75
347.535	91.75
347.763	88.75
347.99	91.75
348.218	100.75
348.445	95.75
348.673	91.75
348.9	105.75
349.128	89.75
349.355	88.75
349.583	94.75
349.81	84.75
350.037	94.75
350.265	84.75
350.492	90.75
350.72	89.75
350.947	102.75
351.174	93.75
351.402	115.75
351.629	84.75
351.856	86.75
352.083	93.75
352.311	100.75
352.538	97.75
352.765	105.75
352.992	104.75
353.22	123.75
353.447	101.75
353.674	100.75
353.901	99.75
354.128	103.75
354.355	86.75
354.583	98.75
354.81	107.75
355.037	83.75
355.264	110.75
355.491	102.75
355.718	106.75
355.945	95.75
356.172	76.75
356.399	90.75
356.626	82.75
356.853	83.75
357.08	110.75
357.307	87.75
357.534	85.75
357.761	106.75
357.988	82.75
358.215	87.75
358.441	78.75
358.668	88.75
358.895	99.75
359.122	90.75
359.349	85.75
359.576	93.75
359.802	96.75
360.029	113.75
360.256	109.75
360.483	87.75
360.709	81.75
360.936	101.75
361.163	106.75
361.39	102.75
361.616	67.75
361.843	94.75
362.07	70.75
362.296	83.75
362.523	82.75
362.749	95.75
362.976	88.75
363.203	101.75
363.429	90.75
363.656	106.75
363.882	92.75
364.109	98.75
364.335	92.75
364.562	71.75
364.788	80.75
365.015	95.75
365.241	105.75
365.468	103.75
365.694	106.75
365.92	84.75
366.147	74.75
366.373	75.75
366.599	83.75
366.826	81.75
367.052	97.75
367.278	92.75
367.505	85.75
367.731	103.75
367.957	88.75
368.184	102.75
368.41	96.75
368.636	109.75
368.862	97.75
369.089	94.75
369.315	95.75
369.541	93.75
369.767	95.75
369.993	95.75
370.219	90.75
370.445	94.75
370.672	98.75
370.898	96.75
371.124	93.75
371.35	81.75
371.576	87.75
371.802	86.75
372.028	80.75
372.254	80.75
372.48	95.75
372.706	99.75
372.932	82.75
373.158	82.75
373.384	95.75
373.61	85.75
373.835	83.75
374.061	76.75
374.287	83.75
374.513	83.75
374.739	86.75
374.965	89.75
375.191	83.75
375.416	98.75
375.642	85.75
375.868	102.75
376.094	84.75
376.319	93.75
376.545	95.75
376.771	80.75
376.997	83.75
377.222	78.75
377.448	86.75
377.674	93.75
377.899	79.75
378.125	90.75
378.35	82.75
378.576	90.75
378.802	90.75
379.027	86.75
379.253	100.75
379.478	70.75
379.704	88.75
379.929	85.75
380.155	82.75
380.38	91.75
380.606	82.75
380.831	96.75
381.057	100.75
381.282	91.75
381.507	94.75
381.733	87.75
381.958	96.75
382.184	100.75
382.409	103.75
382.634	92.75
382.86	97.75
383.085	99.75
383.31	89.75
383.535	100.75
383.761	81.75
383.986	77.75
384.211	94.75
384.436	98.75
384.662	94.75
384.887	92.75
385.112	90.75
385.337	82.75
385.562	93.75
385.787	92.75
386.013	110.75
386.238	113.75
386.463	106.75
386.688	109.75
386.913	78.75
387.138	107.75
387.363	93.75
387.588	93.75
387.813	93.75
388.038	106.75
388.263	95.75
388.488	95.75
388.713	88.75
388.938	84.75
389.163	93.75
389.387	97.75
389.612	87.75
389.837	91.75
390.062	98.75
390.287	89.75
390.512	78.75
390.736	90.75
390.961	91.75
391.186	96.75
391.411	90.75
391.636	93.75
391.86	86.75
392.085	75.75
392.31	89.75
392.534	72.75
392.759	86.75
392.984	95.75
393.208	102.75
393.433	94.75
393.658	88.75
393.882	94.75
394.107	79.75
394.331	88.75
394.556	96.75
394.78	86.75
395.005	81.75
395.229	97.75
395.454	94.75
395.678	69.75
395.903	99.75
396.127	78.75
396.352	101.75
396.576	89.75
396.801	91.75
397.025	86.75
397.249	90.75
397.474	90.75
397.698	80.75
397.922	75.75
398.147	77.75
398.371	68.75
398.595	85.75
398.82	89.75
399.044	106.75
399.268	83.75
399.492	76.75
399.717	78.75
399.941	90.75
400.165	91.75
400.389	89.75
400.613	90.75
400.837	88.75
401.062	95.75
401.286	82.75
401.51	94.75
401.734	62.75
401.958	86.75
402.182	115.75
402.406	136.75
402.63	111.75
402.854	85.75
403.078	86.75
403.302	77.75
403.526	68.75
403.75	76.75
403.974	75.75
404.198	85.75
404.422	85.75
404.645	71.75
404.869	76.75
405.093	81.75
405.317	84.75
405.541	101.75
405.765	87.75
405.988	109.75
406.212	156.75
406.436	202.75
406.66	119.75
406.883	92.75
407.107	93.75
407.331	91.75
407.555	91.75
407.778	83.75
408.002	104.75
408.226	96.75
408.449	72.75
408.673	83.75
408.896	105.75
409.12	103.75
409.344	77.75
409.567	88.75
409.791	78.75
410.014	98.75
410.238	79.75
410.461	84.75
410.685	93.75
410.908	103.75
411.132	94.75
411.355	86.75
411.578	72.75
411.802	84.75
412.025	82.75
412.249	85.75
412.472	83.75
412.695	87.75
412.919	80.75
413.142	90.75
413.365	92.75
413.589	80.75
413.812	87.75
414.035	91.75
414.258	98.75
414.482	96.75
414.705	76.75
414.928	90.75
415.151	84.75
415.374	91.75
415.597	88.75
415.821	84.75
416.044	84.75
416.267	87.75
416.49	89.75
416.713	87.75
416.936	86.75
417.159	72.75
417.382	100.75
417.605	86.75
417.828	90.75
418.051	87.75
418.274	98.75
418.497	94.75
418.72	72.75
418.943	88.75
419.166	86.75
419.389	82.75
419.611	85.75
419.834	81.75
420.057	89.75
420.28	91.75
420.503	64.75
420.726	83.75
420.948	92.75
421.171	87.75
421.394	86.75
421.617	93.75
421.839	76.75
422.062	85.75
422.285	71.75
422.507	86.75
422.73	96.75
422.953	87.75
423.175	78.75
423.398	79.75
423.621	86.75
423.843	89.75
424.066	92.75
424.288	79.75
424.511	75.75
424.733	96.75
424.956	97.75
425.178	84.75
425.401	94.75
425.623	86.75
425.846	79.75
426.068	72.75
426.291	88.75
426.513	84.75
426.735	86.75
426.958	79.75
427.18	98.75
427.402	127.75
427.625	136.75
427.847	110.75
428.069	99.75
428.292	86.75
428.514	86.75
428.736	76.75
428.958	94.75
429.181	83.75
429.403	96.75
429.625	85.75
429.847	80.75
430.069	92.75
430.292	94.75
430.514	79.75
430.736	72.75
430.958	78.75
431.18	74.75
431.402	92.75
431.624	72.75
431.846	87.75
432.068	78.75
432.29	86.75
432.512	82.75
432.734	94.75
432.956	83.75
433.178	72.75
433.4	97.75
433.622	96.75
433.844	95.75
434.066	83.75
434.287	100.75
434.509	98.75
434.731	104.75
434.953	92.75
435.175	88.75
435.397	85.75
435.618	75.75
435.84	97.75
436.062	102.75
436.284	111.75
436.505	82.75
436.727	85.75
436.949	87.75
437.17	79.75
437.392	86.75
437.614	103.75
437.835	95.75
438.057	102.75
438.278	111.75
438.5	99.75
438.721	103.75
438.943	85.75
439.165	99.75
439.386	79.75
439.608	82.75
439.829	82.75
440.05	115.75
440.272	140.75
440.493	85.75
440.715	83.75
440.936	87.75
441.158	91.75
441.379	86.75
441.6	91.75
441.822	86.75
442.043	93.75
442.264	96.75
442.486	104.75
442.707	94.75
442.928	93.75
443.149	114.75
443.371	123.75
443.592	125.75
443.813	105.75
444.034	102.75
444.255	82.75
444.476	87.75
444.698	83.75
444.919	87.75
445.14	125.75
445.361	116.75
445.582	104.75
445.803	132.75
446.024	127.75
446.245	119.75
446.466	97.75
446.687	87.75
446.908	65.75
447.129	88.75
447.35	86.75
447.571	83.75
447.792	86.75
448.013	97.75
448.234	102.75
448.455	99.75
448.675	96.75
448.896	112.75
449.117	103.75
449.338	101.75
449.559	133.75
449.779	127.75
450	99.75
450.221	76.75
450.442	78.75
450.662	78.75
450.883	109.75
451.104	95.75
451.324	97.75
451.545	86.75
451.766	73.75
451.986	76.75
452.207	89.75
452.428	80.75
452.648	94.75
452.869	99.75
453.089	90.75
453.31	113.75
453.53	89.75
453.751	90.75
453.971	103.75
454.192	95.75
454.412	86.75
454.633	91.75
454.853	78.75
455.073	83.75
455.294	64.75
455.514	92.75
455.734	92.75
455.955	93.75
456.175	91.75
456.395	83.75
456.616	87.75
456.836	91.75
457.056	74.75
457.276	83.75
457.497	84.75
457.717	72.75
457.937	81.75
458.157	84.75
458.377	89.75
458.598	95.75
458.818	130.75
459.038	138.75
459.258	98.75
459.478	87.75
459.698	85.75
459.918	86.75
460.138	71.75
460.358	81.75
460.578	79.75
460.798	85.75
461.018	81.75
461.238	86.75
461.458	71.75
461.678	90.75
461.898	75.75
462.118	87.75
462.338	79.75
462.558	84.75
462.777	80.75
462.997	83.75
463.217	87.75
463.437	91.75
463.657	83.75
463.876	87.75
464.096	111.75
464.316	87.75
464.536	67.75
464.755	93.75
464.975	106.75
465.195	136.75
465.414	156.75
465.634	87.75
465.854	90.75
466.073	82.75
466.293	71.75
466.512	80.75
466.732	80.75
466.951	88.75
467.171	72.75
467.391	92.75
467.61	94.75
467.829	97.75
468.049	87.75
468.268	95.75
468.488	91.75
468.707	88.75
468.927	81.75
469.146	87.75
469.365	82.75
469.585	76.75
469.804	93.75
470.023	84.75
470.243	86.75
470.462	93.75
470.681	118.75
470.901	87.75
471.12	78.75
471.339	85.75
471.558	78.75
471.777	90.75
471.997	96.75
472.216	98.75
472.435	92.75
472.654	69.75
472.873	72.75
473.092	78.75
473.311	86.75
473.53	77.75
473.749	89.75
473.968	84.75
474.187	86.75
474.406	102.75
474.625	79.75
474.844	83.75
475.063	85.75
475.282	69.75
475.501	88.75
475.72	77.75
475.939	85.75
476.158	85.75
476.377	82.75
476.596	88.75
476.814	86.75
477.033	99.75
477.252	91.75
477.471	71.75
477.69	89.75
477.908	92.75
478.127	80.75
478.346	95.75
478.564	84.75
478.783	94.75
479.002	87.75
479.22	98.75
479.439	100.75
479.658	100.75
479.876	94.75
480.095	83.75
480.313	82.75
480.532	101.75
480.751	114.75
480.969	90.75
481.188	112.75
481.406	110.75
481.624	92.75
481.843	101.75
482.061	76.75
482.28	79.75
482.498	95.75
482.717	86.75
482.935	87.75
483.153	74.75
483.372	87.75
483.59	78.75
483.808	82.75
484.027	87.75
484.245	101.75
484.463	94.75
484.681	102.75
484.9	90.75
485.118	91.75
485.336	86.75
485.554	99.75
485.772	96.75
485.99	96.75
486.209	88.75
486.427	100.75
486.645	114.75
486.863	111.75
487.081	101.75
487.299	87.75
487.517	92.75
487.735	102.75
487.953	101.75
488.171	101.75
488.389	93.75
488.607	95.75
488.825	100.75
489.043	85.75
489.261	105.75
489.479	89.75
489.696	99.75
489.914	93.75
490.132	78.75
490.35	94.75
490.568	91.75
490.786	76.75
491.003	87.75
491.221	87.75
491.439	92.75
491.657	92.75
491.874	98.75
492.092	100.75
492.31	92.75
492.527	85.75
492.745	100.75
492.963	98.75
493.18	83.75
493.398	86.75
493.615	97.75
493.833	75.75
494.05	97.75
494.268	90.75
494.485	88.75
494.703	95.75
494.92	97.75
495.138	85.75
495.355	84.75
495.573	85.75
495.79	85.75
496.008	95.75
496.225	85.75
496.442	81.75
496.66	99.75
496.877	85.75
497.094	89.75
497.312	86.75
497.529	98.75
497.746	94.75
497.963	83.75
498.181	88.75
498.398	93.75
498.615	98.75
498.832	86.75
499.049	87.75
499.267	80.75
499.484	82.75
499.701	92.75
499.918	84.75
500.135	88.75
500.352	95.75
500.569	82.75
500.786	90.75
501.003	82.75
501.22	92.75
501.437	95.75
501.654	85.75
501.871	95.75
502.088	92.75
502.305	92.75
502.522	83.75
502.739	88.75
502.956	81.75
503.172	78.75
503.389	87.75
503.606	95.75
503.823	96.75
504.04	85.75
504.256	92.75
504.473	90.75
504.69	88.75
504.907	103.75
505.123	86.75
505.34	91.75
505.557	96.75
505.773	83.75
505.99	86.75
506.207	85.75
506.423	87.75
506.64	95.75
506.856	89.75
507.073	79.75
507.289	87.75
507.506	110.75
507.722	102.75
507.939	104.75
508.155	103.75
508.372	87.75
508.588	87.75
508.805	91.75
509.021	95.75
509.238	88.75
509.454	93.75
509.67	86.75
509.887	89.75
510.103	101.75
510.319	164.75
510.536	630.75
510.752	1974.75
510.968	563.75
511.184	149.75
511.401	102.75
511.617	103.75
511.833	100.75
512.049	91.75
512.265	88.75
512.481	82.75
512.698	77.75
512.914	105.75
513.13	90.75
513.346	108.75
513.562	96.75
513.778	85.75
513.994	94.75
514.21	94.75
514.426	111.75
514.642	122.75
514.858	100.75
515.074	155.75
515.29	353.75
515.506	1216.75
515.721	432.75
515.937	138.75
516.153	100.75
516.369	95.75
516.585	93.75
516.801	104.75
517.016	98.75
