Data from Uncirc_1987_H10_HRD10591_00047.txt Node
Date: Wed Jan 03 12:08:57 EST 2024
User: Yrep
Spectrometer: HR+D1059
Trigger mode: 1
Integration Time (sec): 1.000000E-1
Scans to average: 1
Electric dark correction enabled: true
Nonlinearity correction enabled: false
Boxcar width: 0
XAxis mode: Wavelengths
Number of Pixels in Spectrum: 2048
>>>>>Begin Spectral Data<<<<<
223.165	-16.44
223.4	-16.44
223.635	-16.44
223.869	-10.44
224.104	-22.44
224.338	-18.44
224.573	-19.44
224.808	-12.44
225.042	-8.44
225.277	3.56
225.511	-3.44
225.746	1.56
225.98	8.56
226.215	6.56
226.449	26.56
226.683	12.56
226.918	22.56
227.152	29.56
227.387	31.56
227.621	29.56
227.856	53.56
228.09	47.56
228.324	55.56
228.559	48.56
228.793	61.56
229.027	71.56
229.262	60.56
229.496	82.56
229.73	81.56
229.964	77.56
230.199	83.56
230.433	66.56
230.667	71.56
230.901	82.56
231.136	77.56
231.37	87.56
231.604	67.56
231.838	77.56
232.072	79.56
232.306	91.56
232.541	83.56
232.775	82.56
233.009	83.56
233.243	73.56
233.477	77.56
233.711	79.56
233.945	80.56
234.179	70.56
234.413	65.56
234.647	90.56
234.881	72.56
235.115	75.56
235.349	99.56
235.583	73.56
235.817	62.56
236.051	69.56
236.285	85.56
236.519	65.56
236.753	57.56
236.987	73.56
237.221	81.56
237.455	65.56
237.689	66.56
237.922	79.56
238.156	87.56
238.39	83.56
238.624	75.56
238.858	79.56
239.091	83.56
239.325	79.56
239.559	71.56
239.793	84.56
240.027	75.56
240.26	75.56
240.494	84.56
240.728	61.56
240.961	65.56
241.195	79.56
241.429	79.56
241.662	62.56
241.896	88.56
242.13	61.56
242.363	74.56
242.597	75.56
242.83	82.56
243.064	89.56
243.298	76.56
243.531	69.56
243.765	79.56
243.998	92.56
244.232	75.56
244.465	72.56
244.699	87.56
244.932	87.56
245.166	69.56
245.399	73.56
245.633	81.56
245.866	71.56
246.099	67.56
246.333	75.56
246.566	105.56
246.8	79.56
247.033	88.56
247.266	83.56
247.5	71.56
247.733	90.56
247.966	79.56
248.2	71.56
248.433	72.56
248.666	73.56
248.899	68.56
249.133	73.56
249.366	79.56
249.599	75.56
249.832	73.56
250.066	75.56
250.299	82.56
250.532	79.56
250.765	89.56
250.998	83.56
251.231	81.56
251.465	77.56
251.698	88.56
251.931	80.56
252.164	60.56
252.397	82.56
252.63	81.56
252.863	90.56
253.096	88.56
253.329	99.56
253.562	83.56
253.795	70.56
254.028	81.56
254.261	95.56
254.494	94.56
254.727	86.56
254.96	83.56
255.193	68.56
255.426	77.56
255.659	86.56
255.892	66.56
256.124	80.56
256.357	77.56
256.59	93.56
256.823	86.56
257.056	82.56
257.289	85.56
257.521	94.56
257.754	83.56
257.987	75.56
258.22	85.56
258.452	88.56
258.685	86.56
258.918	84.56
259.151	95.56
259.383	80.56
259.616	77.56
259.849	83.56
260.081	69.56
260.314	79.56
260.547	75.56
260.779	81.56
261.012	71.56
261.244	82.56
261.477	88.56
261.71	85.56
261.942	104.56
262.175	104.56
262.407	79.56
262.64	84.56
262.872	75.56
263.105	84.56
263.337	76.56
263.57	88.56
263.802	71.56
264.035	71.56
264.267	96.56
264.499	67.56
264.732	87.56
264.964	92.56
265.197	82.56
265.429	80.56
265.661	83.56
265.894	82.56
266.126	76.56
266.358	84.56
266.591	64.56
266.823	72.56
267.055	80.56
267.287	78.56
267.52	75.56
267.752	81.56
267.984	70.56
268.216	83.56
268.448	75.56
268.681	95.56
268.913	84.56
269.145	79.56
269.377	71.56
269.609	83.56
269.841	85.56
270.073	68.56
270.306	88.56
270.538	77.56
270.77	62.56
271.002	72.56
271.234	77.56
271.466	73.56
271.698	88.56
271.93	91.56
272.162	89.56
272.394	83.56
272.626	79.56
272.858	86.56
273.09	71.56
273.322	87.56
273.553	79.56
273.785	85.56
274.017	76.56
274.249	79.56
274.481	89.56
274.713	87.56
274.945	96.56
275.176	82.56
275.408	84.56
275.64	80.56
275.872	79.56
276.104	82.56
276.335	85.56
276.567	99.56
276.799	104.56
277.031	95.56
277.262	87.56
277.494	89.56
277.726	88.56
277.957	84.56
278.189	73.56
278.421	78.56
278.652	89.56
278.884	109.56
279.115	81.56
279.347	91.56
279.579	85.56
279.81	91.56
280.042	99.56
280.273	94.56
280.505	92.56
280.736	71.56
280.968	83.56
281.199	85.56
281.431	105.56
281.662	70.56
281.894	95.56
282.125	97.56
282.356	103.56
282.588	132.56
282.819	93.56
283.051	93.56
283.282	82.56
283.513	84.56
283.745	91.56
283.976	77.56
284.207	81.56
284.439	79.56
284.67	96.56
284.901	80.56
285.132	89.56
285.364	91.56
285.595	84.56
285.826	83.56
286.057	91.56
286.288	75.56
286.52	84.56
286.751	71.56
286.982	79.56
287.213	80.56
287.444	84.56
287.675	89.56
287.906	96.56
288.138	68.56
288.369	86.56
288.6	83.56
288.831	90.56
289.062	103.56
289.293	102.56
289.524	92.56
289.755	89.56
289.986	85.56
290.217	84.56
290.448	79.56
290.679	78.56
290.91	86.56
291.141	101.56
291.371	71.56
291.602	90.56
291.833	79.56
292.064	81.56
292.295	84.56
292.526	71.56
292.757	87.56
292.987	92.56
293.218	87.56
293.449	88.56
293.68	96.56
293.91	96.56
294.141	85.56
294.372	71.56
294.603	87.56
294.833	86.56
295.064	88.56
295.295	83.56
295.525	89.56
295.756	107.56
295.987	115.56
296.217	128.56
296.448	108.56
296.679	98.56
296.909	85.56
297.14	85.56
297.37	86.56
297.601	95.56
297.831	79.56
298.062	95.56
298.292	88.56
298.523	94.56
298.753	97.56
298.984	82.56
299.214	99.56
299.445	81.56
299.675	87.56
299.905	87.56
300.136	81.56
300.366	78.56
300.597	99.56
300.827	99.56
301.057	94.56
301.288	81.56
301.518	99.56
301.748	82.56
301.979	103.56
302.209	87.56
302.439	76.56
302.669	83.56
302.9	88.56
303.13	87.56
303.36	102.56
303.59	111.56
303.82	95.56
304.051	96.56
304.281	85.56
304.511	77.56
304.741	83.56
304.971	77.56
305.201	91.56
305.431	86.56
305.661	92.56
305.891	80.56
306.121	93.56
306.352	87.56
306.582	86.56
306.812	73.56
307.042	94.56
307.272	88.56
307.502	79.56
307.731	82.56
307.961	78.56
308.191	78.56
308.421	92.56
308.651	89.56
308.881	77.56
309.111	86.56
309.341	95.56
309.571	93.56
309.8	81.56
310.03	102.56
310.26	95.56
310.49	95.56
310.72	94.56
310.949	101.56
311.179	98.56
311.409	103.56
311.639	84.56
311.868	91.56
312.098	86.56
312.328	84.56
312.557	103.56
312.787	83.56
313.017	83.56
313.246	100.56
313.476	97.56
313.706	97.56
313.935	94.56
314.165	88.56
314.394	106.56
314.624	78.56
314.853	106.56
315.083	85.56
315.312	79.56
315.542	75.56
315.771	95.56
316.001	94.56
316.23	93.56
316.46	87.56
316.689	72.56
316.919	93.56
317.148	87.56
317.377	73.56
317.607	94.56
317.836	99.56
318.065	95.56
318.295	98.56
318.524	99.56
318.753	85.56
318.983	93.56
319.212	102.56
319.441	102.56
319.67	79.56
319.9	79.56
320.129	84.56
320.358	87.56
320.587	96.56
320.816	101.56
321.046	83.56
321.275	105.56
321.504	98.56
321.733	91.56
321.962	87.56
322.191	96.56
322.42	91.56
322.649	92.56
322.878	97.56
323.108	109.56
323.337	104.56
323.566	121.56
323.795	138.56
324.024	177.56
324.253	334.56
324.482	721.56
324.71	1462.56
324.939	1988.56
325.168	723.56
325.397	225.56
325.626	139.56
325.855	111.56
326.084	112.56
326.313	118.56
326.542	140.56
326.77	209.56
326.999	388.56
327.228	833.56
327.457	1540.56
327.686	1217.56
327.914	333.56
328.143	164.56
328.372	132.56
328.6	120.56
328.829	112.56
329.058	117.56
329.287	101.56
329.515	110.56
329.744	98.56
329.972	101.56
330.201	92.56
330.43	104.56
330.658	109.56
330.887	119.56
331.115	126.56
331.344	94.56
331.572	85.56
331.801	107.56
332.03	99.56
332.258	91.56
332.486	79.56
332.715	96.56
332.943	87.56
333.172	80.56
333.4	96.56
333.629	92.56
333.857	104.56
334.085	101.56
334.314	93.56
334.542	110.56
334.771	98.56
334.999	91.56
335.227	99.56
335.455	91.56
335.684	91.56
335.912	98.56
336.14	110.56
336.369	101.56
336.597	97.56
336.825	108.56
337.053	83.56
337.281	98.56
337.51	86.56
337.738	83.56
337.966	66.56
338.194	111.56
338.422	93.56
338.65	94.56
338.878	96.56
339.106	95.56
339.334	92.56
339.562	78.56
339.79	107.56
340.018	90.56
340.246	91.56
340.474	88.56
340.702	94.56
340.93	93.56
341.158	81.56
341.386	97.56
341.614	100.56
341.842	96.56
342.07	87.56
342.298	93.56
342.526	82.56
342.754	95.56
342.981	83.56
343.209	93.56
343.437	88.56
343.665	79.56
343.893	86.56
344.12	91.56
344.348	87.56
344.576	78.56
344.804	83.56
345.031	89.56
345.259	92.56
345.487	100.56
345.714	103.56
345.942	87.56
346.17	75.56
346.397	98.56
346.625	90.56
346.853	86.56
347.08	89.56
347.308	94.56
347.535	85.56
347.763	87.56
347.99	89.56
348.218	92.56
348.445	99.56
348.673	87.56
348.9	86.56
349.128	89.56
349.355	84.56
349.583	95.56
349.81	85.56
350.037	96.56
350.265	96.56
350.492	86.56
350.72	89.56
350.947	92.56
351.174	103.56
351.402	98.56
351.629	101.56
351.856	99.56
352.083	109.56
352.311	98.56
352.538	97.56
352.765	99.56
352.992	111.56
353.22	102.56
353.447	97.56
353.674	102.56
353.901	83.56
354.128	102.56
354.355	77.56
354.583	87.56
354.81	79.56
355.037	87.56
355.264	91.56
355.491	92.56
355.718	94.56
355.945	96.56
356.172	92.56
356.399	88.56
356.626	82.56
356.853	102.56
357.08	92.56
357.307	94.56
357.534	86.56
357.761	106.56
357.988	93.56
358.215	96.56
358.441	101.56
358.668	83.56
358.895	86.56
359.122	87.56
359.349	83.56
359.576	102.56
359.802	95.56
360.029	102.56
360.256	95.56
360.483	101.56
360.709	81.56
360.936	84.56
361.163	89.56
361.39	84.56
361.616	80.56
361.843	89.56
362.07	96.56
362.296	96.56
362.523	89.56
362.749	93.56
362.976	100.56
363.203	90.56
363.429	86.56
363.656	91.56
363.882	79.56
364.109	92.56
364.335	92.56
364.562	80.56
364.788	89.56
365.015	98.56
365.241	96.56
365.468	92.56
365.694	103.56
365.92	96.56
366.147	93.56
366.373	91.56
366.599	91.56
366.826	76.56
367.052	87.56
367.278	84.56
367.505	72.56
367.731	97.56
367.957	77.56
368.184	96.56
368.41	91.56
368.636	98.56
368.862	113.56
369.089	99.56
369.315	106.56
369.541	86.56
369.767	79.56
369.993	96.56
370.219	89.56
370.445	84.56
370.672	87.56
370.898	93.56
371.124	96.56
371.35	90.56
371.576	80.56
371.802	97.56
372.028	77.56
372.254	99.56
372.48	87.56
372.706	95.56
372.932	87.56
373.158	83.56
373.384	88.56
373.61	83.56
373.835	81.56
374.061	101.56
374.287	93.56
374.513	84.56
374.739	99.56
374.965	84.56
375.191	78.56
375.416	89.56
375.642	93.56
375.868	100.56
376.094	92.56
376.319	88.56
376.545	83.56
376.771	91.56
376.997	83.56
377.222	107.56
377.448	94.56
377.674	83.56
377.899	92.56
378.125	96.56
378.35	99.56
378.576	89.56
378.802	73.56
379.027	95.56
379.253	93.56
379.478	72.56
379.704	82.56
379.929	101.56
380.155	98.56
380.38	86.56
380.606	89.56
380.831	102.56
381.057	80.56
381.282	87.56
381.507	95.56
381.733	106.56
381.958	87.56
382.184	91.56
382.409	88.56
382.634	92.56
382.86	88.56
383.085	97.56
383.31	107.56
383.535	110.56
383.761	91.56
383.986	94.56
384.211	94.56
384.436	100.56
384.662	81.56
384.887	77.56
385.112	98.56
385.337	103.56
385.562	96.56
385.787	94.56
386.013	103.56
386.238	96.56
386.463	95.56
386.688	117.56
386.913	101.56
387.138	97.56
387.363	101.56
387.588	103.56
387.813	92.56
388.038	93.56
388.263	113.56
388.488	101.56
388.713	88.56
388.938	85.56
389.163	97.56
389.387	103.56
389.612	92.56
389.837	84.56
390.062	93.56
390.287	99.56
390.512	101.56
390.736	91.56
390.961	85.56
391.186	101.56
391.411	78.56
391.636	98.56
391.86	70.56
392.085	80.56
392.31	93.56
392.534	93.56
392.759	79.56
392.984	94.56
393.208	93.56
393.433	90.56
393.658	80.56
393.882	84.56
394.107	81.56
394.331	76.56
394.556	76.56
394.78	84.56
395.005	89.56
395.229	73.56
395.454	75.56
395.678	83.56
395.903	102.56
396.127	77.56
396.352	80.56
396.576	78.56
396.801	88.56
397.025	82.56
397.249	84.56
397.474	84.56
397.698	92.56
397.922	83.56
398.147	92.56
398.371	83.56
398.595	91.56
398.82	79.56
399.044	77.56
399.268	89.56
399.492	80.56
399.717	90.56
399.941	90.56
400.165	88.56
400.389	101.56
400.613	79.56
400.837	92.56
401.062	87.56
401.286	91.56
401.51	92.56
401.734	75.56
401.958	104.56
402.182	118.56
402.406	142.56
402.63	111.56
402.854	84.56
403.078	87.56
403.302	99.56
403.526	95.56
403.75	85.56
403.974	77.56
404.198	93.56
404.422	95.56
404.645	88.56
404.869	75.56
405.093	91.56
405.317	88.56
405.541	102.56
405.765	108.56
405.988	111.56
406.212	137.56
406.436	176.56
406.66	144.56
406.883	98.56
407.107	88.56
407.331	86.56
407.555	100.56
407.778	87.56
408.002	93.56
408.226	90.56
408.449	107.56
408.673	81.56
408.896	98.56
409.12	101.56
409.344	86.56
409.567	96.56
409.791	99.56
410.014	110.56
410.238	104.56
410.461	91.56
410.685	97.56
410.908	89.56
411.132	94.56
411.355	99.56
411.578	90.56
411.802	78.56
412.025	99.56
412.249	80.56
412.472	88.56
412.695	85.56
412.919	86.56
413.142	86.56
413.365	98.56
413.589	81.56
413.812	86.56
414.035	98.56
414.258	86.56
414.482	86.56
414.705	87.56
414.928	81.56
415.151	96.56
415.374	87.56
415.597	94.56
415.821	76.56
416.044	77.56
416.267	86.56
416.49	77.56
416.713	95.56
416.936	91.56
417.159	79.56
417.382	95.56
417.605	85.56
417.828	95.56
418.051	87.56
418.274	96.56
418.497	85.56
418.72	71.56
418.943	92.56
419.166	99.56
419.389	92.56
419.611	83.56
419.834	102.56
420.057	84.56
420.28	83.56
420.503	87.56
420.726	92.56
420.948	91.56
421.171	83.56
421.394	85.56
421.617	96.56
421.839	84.56
422.062	87.56
422.285	89.56
422.507	86.56
422.73	101.56
422.953	93.56
423.175	100.56
423.398	95.56
423.621	90.56
423.843	80.56
424.066	76.56
424.288	91.56
424.511	78.56
424.733	91.56
424.956	99.56
425.178	94.56
425.401	94.56
425.623	99.56
425.846	82.56
426.068	85.56
426.291	85.56
426.513	79.56
426.735	78.56
426.958	85.56
427.18	108.56
427.402	126.56
427.625	155.56
427.847	111.56
428.069	92.56
428.292	97.56
428.514	86.56
428.736	79.56
428.958	93.56
429.181	91.56
429.403	92.56
429.625	86.56
429.847	81.56
430.069	97.56
430.292	95.56
430.514	87.56
430.736	91.56
430.958	77.56
431.18	99.56
431.402	88.56
431.624	78.56
431.846	83.56
432.068	81.56
432.29	72.56
432.512	87.56
432.734	87.56
432.956	89.56
433.178	87.56
433.4	92.56
433.622	96.56
433.844	96.56
434.066	93.56
434.287	77.56
434.509	88.56
434.731	91.56
434.953	83.56
435.175	87.56
435.397	88.56
435.618	83.56
435.84	102.56
436.062	118.56
436.284	111.56
436.505	96.56
436.727	104.56
436.949	99.56
437.17	89.56
437.392	86.56
437.614	84.56
437.835	97.56
438.057	103.56
438.278	79.56
438.5	103.56
438.721	115.56
438.943	76.56
439.165	89.56
439.386	88.56
439.608	90.56
439.829	102.56
440.05	119.56
440.272	128.56
440.493	91.56
440.715	85.56
440.936	97.56
441.158	83.56
441.379	93.56
441.6	88.56
441.822	92.56
442.043	85.56
442.264	101.56
442.486	84.56
442.707	87.56
442.928	116.56
443.149	116.56
443.371	118.56
443.592	108.56
443.813	90.56
444.034	99.56
444.255	96.56
444.476	95.56
444.698	77.56
444.919	75.56
445.14	120.56
445.361	104.56
445.582	92.56
445.803	126.56
446.024	118.56
446.245	124.56
446.466	112.56
446.687	89.56
446.908	89.56
447.129	99.56
447.35	71.56
447.571	88.56
447.792	80.56
448.013	103.56
448.234	91.56
448.455	104.56
448.675	119.56
448.896	116.56
449.117	104.56
449.338	110.56
449.559	123.56
449.779	103.56
450	87.56
450.221	80.56
450.442	95.56
450.662	88.56
450.883	91.56
451.104	105.56
451.324	81.56
451.545	102.56
451.766	88.56
451.986	86.56
452.207	78.56
452.428	91.56
452.648	99.56
452.869	109.56
453.089	101.56
453.31	98.56
453.53	71.56
453.751	92.56
453.971	96.56
454.192	93.56
454.412	81.56
454.633	85.56
454.853	91.56
455.073	95.56
455.294	96.56
455.514	94.56
455.734	95.56
455.955	89.56
456.175	95.56
456.395	90.56
456.616	92.56
456.836	91.56
457.056	77.56
457.276	85.56
457.497	75.56
457.717	73.56
457.937	89.56
458.157	88.56
458.377	91.56
458.598	103.56
458.818	131.56
459.038	135.56
459.258	104.56
459.478	83.56
459.698	86.56
459.918	87.56
460.138	80.56
460.358	83.56
460.578	66.56
460.798	96.56
461.018	76.56
461.238	100.56
461.458	84.56
461.678	87.56
461.898	84.56
462.118	89.56
462.338	80.56
462.558	82.56
462.777	77.56
462.997	83.56
463.217	83.56
463.437	80.56
463.657	85.56
463.876	92.56
464.096	92.56
464.316	81.56
464.536	97.56
464.755	79.56
464.975	100.56
465.195	135.56
465.414	141.56
465.634	86.56
465.854	92.56
466.073	87.56
466.293	78.56
466.512	72.56
466.732	88.56
466.951	90.56
467.171	92.56
467.391	96.56
467.61	83.56
467.829	94.56
468.049	77.56
468.268	87.56
468.488	82.56
468.707	70.56
468.927	81.56
469.146	91.56
469.365	83.56
469.585	78.56
469.804	92.56
470.023	101.56
470.243	89.56
470.462	94.56
470.681	95.56
470.901	86.56
471.12	96.56
471.339	83.56
471.558	90.56
471.777	84.56
471.997	69.56
472.216	108.56
472.435	98.56
472.654	79.56
472.873	94.56
473.092	72.56
473.311	78.56
473.53	80.56
473.749	84.56
473.968	94.56
474.187	106.56
474.406	84.56
474.625	91.56
474.844	84.56
475.063	64.56
475.282	67.56
475.501	93.56
475.72	89.56
475.939	83.56
476.158	77.56
476.377	84.56
476.596	88.56
476.814	80.56
477.033	88.56
477.252	95.56
477.471	89.56
477.69	82.56
477.908	98.56
478.127	78.56
478.346	79.56
478.564	95.56
478.783	89.56
479.002	86.56
479.22	89.56
479.439	92.56
479.658	94.56
479.876	85.56
480.095	93.56
480.313	81.56
480.532	87.56
480.751	80.56
480.969	99.56
481.188	118.56
481.406	104.56
481.624	80.56
481.843	99.56
482.061	94.56
482.28	91.56
482.498	80.56
482.717	93.56
482.935	83.56
483.153	83.56
483.372	98.56
483.59	95.56
483.808	88.56
484.027	86.56
484.245	88.56
484.463	89.56
484.681	96.56
484.9	93.56
485.118	95.56
485.336	89.56
485.554	95.56
485.772	100.56
485.99	97.56
486.209	95.56
486.427	95.56
486.645	109.56
486.863	103.56
487.081	92.56
487.299	96.56
487.517	85.56
487.735	101.56
487.953	109.56
488.171	92.56
488.389	81.56
488.607	96.56
488.825	81.56
489.043	83.56
489.261	83.56
489.479	85.56
489.696	100.56
489.914	94.56
490.132	86.56
490.35	87.56
490.568	89.56
490.786	87.56
491.003	75.56
491.221	91.56
491.439	84.56
491.657	86.56
491.874	101.56
492.092	81.56
492.31	86.56
492.527	83.56
492.745	73.56
492.963	85.56
493.18	84.56
493.398	79.56
493.615	88.56
493.833	101.56
494.05	86.56
494.268	95.56
494.485	92.56
494.703	89.56
494.92	87.56
495.138	73.56
495.355	93.56
495.573	85.56
495.79	96.56
496.008	79.56
496.225	83.56
496.442	83.56
496.66	83.56
496.877	80.56
497.094	100.56
497.312	94.56
497.529	81.56
497.746	85.56
497.963	96.56
498.181	89.56
498.398	98.56
498.615	86.56
498.832	87.56
499.049	91.56
499.267	92.56
499.484	102.56
499.701	102.56
499.918	96.56
500.135	85.56
500.352	83.56
500.569	100.56
500.786	77.56
501.003	88.56
501.22	74.56
501.437	87.56
501.654	96.56
501.871	104.56
502.088	90.56
502.305	80.56
502.522	100.56
502.739	87.56
502.956	102.56
503.172	86.56
503.389	98.56
503.606	96.56
503.823	68.56
504.04	89.56
504.256	97.56
504.473	92.56
504.69	101.56
504.907	77.56
505.123	92.56
505.34	73.56
505.557	89.56
505.773	84.56
505.99	82.56
506.207	92.56
506.423	81.56
506.64	85.56
506.856	77.56
507.073	88.56
507.289	82.56
507.506	89.56
507.722	108.56
507.939	120.56
508.155	91.56
508.372	90.56
508.588	99.56
508.805	92.56
509.021	89.56
509.238	99.56
509.454	90.56
509.67	101.56
509.887	103.56
510.103	115.56
510.319	186.56
510.536	616.56
510.752	1934.56
510.968	530.56
511.184	137.56
511.401	101.56
511.617	100.56
511.833	93.56
512.049	91.56
512.265	99.56
512.481	100.56
512.698	81.56
512.914	108.56
513.13	84.56
513.346	94.56
513.562	94.56
513.778	107.56
513.994	104.56
514.21	97.56
514.426	103.56
514.642	129.56
514.858	114.56
515.074	150.56
515.29	351.56
515.506	1181.56
515.721	432.56
515.937	128.56
516.153	105.56
516.369	108.56
516.585	92.56
516.801	95.56
