Data from Uncirc_1987_H10_HRD10591_00077.txt Node
Date: Wed Jan 03 12:09:03 EST 2024
User: Yrep
Spectrometer: HR+D1059
Trigger mode: 1
Integration Time (sec): 1.000000E-1
Scans to average: 1
Electric dark correction enabled: true
Nonlinearity correction enabled: false
Boxcar width: 0
XAxis mode: Wavelengths
Number of Pixels in Spectrum: 2048
>>>>>Begin Spectral Data<<<<<
223.165	-25.5
223.4	-25.5
223.635	-25.5
223.869	-7.5
224.104	-16.5
224.338	-12.5
224.573	-13.5
224.808	-6.5
225.042	-22.5
225.277	-6.5
225.511	3.5
225.746	-0.5
225.98	6.5
226.215	18.5
226.449	24.5
226.683	18.5
226.918	15.5
227.152	24.5
227.387	34.5
227.621	49.5
227.856	50.5
228.09	44.5
228.324	41.5
228.559	48.5
228.793	44.5
229.027	78.5
229.262	70.5
229.496	61.5
229.73	67.5
229.964	70.5
230.199	66.5
230.433	79.5
230.667	68.5
230.901	83.5
231.136	82.5
231.37	84.5
231.604	82.5
231.838	85.5
232.072	86.5
232.306	87.5
232.541	100.5
232.775	63.5
233.009	81.5
233.243	82.5
233.477	83.5
233.711	86.5
233.945	83.5
234.179	86.5
234.413	68.5
234.647	69.5
234.881	83.5
235.115	77.5
235.349	75.5
235.583	66.5
235.817	85.5
236.051	84.5
236.285	87.5
236.519	84.5
236.753	87.5
236.987	64.5
237.221	68.5
237.455	86.5
237.689	73.5
237.922	84.5
238.156	72.5
238.39	83.5
238.624	76.5
238.858	74.5
239.091	72.5
239.325	73.5
239.559	80.5
239.793	70.5
240.027	74.5
240.26	75.5
240.494	80.5
240.728	80.5
240.961	79.5
241.195	84.5
241.429	86.5
241.662	79.5
241.896	82.5
242.13	78.5
242.363	70.5
242.597	59.5
242.83	64.5
243.064	82.5
243.298	77.5
243.531	67.5
243.765	76.5
243.998	80.5
244.232	72.5
244.465	104.5
244.699	71.5
244.932	76.5
245.166	83.5
245.399	65.5
245.633	89.5
245.866	74.5
246.099	74.5
246.333	71.5
246.566	75.5
246.8	85.5
247.033	87.5
247.266	72.5
247.5	91.5
247.733	65.5
247.966	80.5
248.2	78.5
248.433	79.5
248.666	70.5
248.899	80.5
249.133	89.5
249.366	85.5
249.599	92.5
249.832	71.5
250.066	76.5
250.299	84.5
250.532	68.5
250.765	88.5
250.998	82.5
251.231	72.5
251.465	70.5
251.698	89.5
251.931	86.5
252.164	79.5
252.397	67.5
252.63	93.5
252.863	86.5
253.096	84.5
253.329	74.5
253.562	82.5
253.795	100.5
254.028	86.5
254.261	74.5
254.494	88.5
254.727	95.5
254.96	75.5
255.193	89.5
255.426	76.5
255.659	71.5
255.892	78.5
256.124	75.5
256.357	87.5
256.59	79.5
256.823	74.5
257.056	82.5
257.289	84.5
257.521	84.5
257.754	76.5
257.987	83.5
258.22	84.5
258.452	83.5
258.685	75.5
258.918	84.5
259.151	82.5
259.383	70.5
259.616	87.5
259.849	74.5
260.081	88.5
260.314	82.5
260.547	80.5
260.779	82.5
261.012	95.5
261.244	90.5
261.477	70.5
261.71	87.5
261.942	121.5
262.175	118.5
262.407	94.5
262.64	71.5
262.872	76.5
263.105	81.5
263.337	86.5
263.57	71.5
263.802	84.5
264.035	75.5
264.267	94.5
264.499	89.5
264.732	72.5
264.964	85.5
265.197	86.5
265.429	94.5
265.661	92.5
265.894	92.5
266.126	76.5
266.358	81.5
266.591	97.5
266.823	85.5
267.055	82.5
267.287	82.5
267.52	94.5
267.752	87.5
267.984	86.5
268.216	97.5
268.448	76.5
268.681	70.5
268.913	82.5
269.145	86.5
269.377	76.5
269.609	80.5
269.841	86.5
270.073	98.5
270.306	75.5
270.538	95.5
270.77	81.5
271.002	86.5
271.234	86.5
271.466	91.5
271.698	97.5
271.93	96.5
272.162	104.5
272.394	95.5
272.626	94.5
272.858	102.5
273.09	82.5
273.322	78.5
273.553	94.5
273.785	83.5
274.017	78.5
274.249	87.5
274.481	83.5
274.713	90.5
274.945	96.5
275.176	95.5
275.408	75.5
275.64	96.5
275.872	75.5
276.104	82.5
276.335	87.5
276.567	89.5
276.799	114.5
277.031	107.5
277.262	86.5
277.494	82.5
277.726	86.5
277.957	83.5
278.189	105.5
278.421	88.5
278.652	90.5
278.884	87.5
279.115	98.5
279.347	102.5
279.579	85.5
279.81	100.5
280.042	90.5
280.273	85.5
280.505	74.5
280.736	79.5
280.968	100.5
281.199	74.5
281.431	71.5
281.662	92.5
281.894	107.5
282.125	100.5
282.356	98.5
282.588	125.5
282.819	91.5
283.051	94.5
283.282	103.5
283.513	86.5
283.745	82.5
283.976	78.5
284.207	73.5
284.439	72.5
284.67	87.5
284.901	102.5
285.132	79.5
285.364	82.5
285.595	73.5
285.826	100.5
286.057	82.5
286.288	80.5
286.52	88.5
286.751	83.5
286.982	87.5
287.213	80.5
287.444	92.5
287.675	96.5
287.906	73.5
288.138	94.5
288.369	94.5
288.6	72.5
288.831	82.5
289.062	84.5
289.293	88.5
289.524	76.5
289.755	83.5
289.986	86.5
290.217	91.5
290.448	71.5
290.679	90.5
290.91	94.5
291.141	88.5
291.371	91.5
291.602	80.5
291.833	91.5
292.064	83.5
292.295	91.5
292.526	107.5
292.757	83.5
292.987	79.5
293.218	88.5
293.449	99.5
293.68	96.5
293.91	104.5
294.141	101.5
294.372	85.5
294.603	85.5
294.833	106.5
295.064	85.5
295.295	101.5
295.525	97.5
295.756	92.5
295.987	106.5
296.217	131.5
296.448	107.5
296.679	100.5
296.909	81.5
297.14	87.5
297.37	88.5
297.601	90.5
297.831	90.5
298.062	90.5
298.292	89.5
298.523	86.5
298.753	86.5
298.984	89.5
299.214	95.5
299.445	91.5
299.675	87.5
299.905	110.5
300.136	95.5
300.366	96.5
300.597	82.5
300.827	84.5
301.057	97.5
301.288	103.5
301.518	88.5
301.748	95.5
301.979	90.5
302.209	82.5
302.439	99.5
302.669	95.5
302.9	95.5
303.13	100.5
303.36	79.5
303.59	89.5
303.82	115.5
304.051	96.5
304.281	96.5
304.511	92.5
304.741	74.5
304.971	84.5
305.201	86.5
305.431	80.5
305.661	79.5
305.891	83.5
306.121	85.5
306.352	89.5
306.582	104.5
306.812	83.5
307.042	88.5
307.272	92.5
307.502	103.5
307.731	78.5
307.961	75.5
308.191	101.5
308.421	76.5
308.651	88.5
308.881	99.5
309.111	111.5
309.341	91.5
309.571	104.5
309.8	96.5
310.03	101.5
310.26	90.5
310.49	103.5
310.72	90.5
310.949	102.5
311.179	99.5
311.409	102.5
311.639	95.5
311.868	89.5
312.098	83.5
312.328	98.5
312.557	106.5
312.787	106.5
313.017	102.5
313.246	94.5
313.476	103.5
313.706	95.5
313.935	100.5
314.165	91.5
314.394	97.5
314.624	86.5
314.853	100.5
315.083	96.5
315.312	84.5
315.542	88.5
315.771	94.5
316.001	88.5
316.23	102.5
316.46	106.5
316.689	107.5
316.919	103.5
317.148	110.5
317.377	89.5
317.607	100.5
317.836	89.5
318.065	96.5
318.295	96.5
318.524	83.5
318.753	97.5
318.983	103.5
319.212	100.5
319.441	109.5
319.67	100.5
319.9	97.5
320.129	95.5
320.358	92.5
320.587	96.5
320.816	89.5
321.046	91.5
321.275	104.5
321.504	90.5
321.733	95.5
321.962	104.5
322.191	93.5
322.42	96.5
322.649	102.5
322.878	99.5
323.108	117.5
323.337	112.5
323.566	127.5
323.795	141.5
324.024	175.5
324.253	319.5
324.482	691.5
324.71	1439.5
324.939	1906.5
325.168	707.5
325.397	220.5
325.626	146.5
325.855	118.5
326.084	122.5
326.313	123.5
326.542	158.5
326.77	214.5
326.999	393.5
327.228	786.5
327.457	1449.5
327.686	1159.5
327.914	324.5
328.143	163.5
328.372	130.5
328.6	87.5
328.829	119.5
329.058	122.5
329.287	111.5
329.515	106.5
329.744	112.5
329.972	89.5
330.201	118.5
330.43	103.5
330.658	106.5
330.887	120.5
331.115	102.5
331.344	94.5
331.572	103.5
331.801	97.5
332.03	102.5
332.258	94.5
332.486	94.5
332.715	89.5
332.943	98.5
333.172	103.5
333.4	94.5
333.629	105.5
333.857	118.5
334.085	95.5
334.314	111.5
334.542	119.5
334.771	105.5
334.999	100.5
335.227	84.5
335.455	91.5
335.684	105.5
335.912	100.5
336.14	99.5
336.369	71.5
336.597	88.5
336.825	103.5
337.053	89.5
337.281	99.5
337.51	102.5
337.738	88.5
337.966	94.5
338.194	96.5
338.422	99.5
338.65	96.5
338.878	98.5
339.106	92.5
339.334	120.5
339.562	98.5
339.79	100.5
340.018	94.5
340.246	89.5
340.474	93.5
340.702	99.5
340.93	84.5
341.158	103.5
341.386	88.5
341.614	89.5
341.842	92.5
342.07	95.5
342.298	84.5
342.526	81.5
342.754	99.5
342.981	95.5
343.209	98.5
343.437	106.5
343.665	96.5
343.893	88.5
344.12	96.5
344.348	94.5
344.576	87.5
344.804	97.5
345.031	98.5
345.259	102.5
345.487	89.5
345.714	95.5
345.942	87.5
346.17	106.5
346.397	90.5
346.625	94.5
346.853	95.5
347.08	85.5
347.308	92.5
347.535	90.5
347.763	110.5
347.99	86.5
348.218	103.5
348.445	102.5
348.673	90.5
348.9	107.5
349.128	95.5
349.355	84.5
349.583	104.5
349.81	83.5
350.037	80.5
350.265	99.5
350.492	105.5
350.72	94.5
350.947	100.5
351.174	92.5
351.402	112.5
351.629	90.5
351.856	104.5
352.083	105.5
352.311	106.5
352.538	91.5
352.765	106.5
352.992	102.5
353.22	101.5
353.447	102.5
353.674	101.5
353.901	97.5
354.128	86.5
354.355	96.5
354.583	94.5
354.81	115.5
355.037	95.5
355.264	84.5
355.491	94.5
355.718	107.5
355.945	99.5
356.172	101.5
356.399	100.5
356.626	94.5
356.853	96.5
357.08	94.5
357.307	73.5
357.534	95.5
357.761	98.5
357.988	96.5
358.215	100.5
358.441	110.5
358.668	76.5
358.895	92.5
359.122	86.5
359.349	95.5
359.576	95.5
359.802	91.5
360.029	123.5
360.256	85.5
360.483	83.5
360.709	95.5
360.936	96.5
361.163	90.5
361.39	91.5
361.616	83.5
361.843	103.5
362.07	99.5
362.296	98.5
362.523	107.5
362.749	93.5
362.976	86.5
363.203	81.5
363.429	92.5
363.656	105.5
363.882	108.5
364.109	103.5
364.335	91.5
364.562	98.5
364.788	96.5
365.015	103.5
365.241	94.5
365.468	93.5
365.694	109.5
365.92	91.5
366.147	96.5
366.373	86.5
366.599	85.5
366.826	73.5
367.052	90.5
367.278	97.5
367.505	99.5
367.731	94.5
367.957	97.5
368.184	94.5
368.41	111.5
368.636	112.5
368.862	105.5
369.089	106.5
369.315	90.5
369.541	100.5
369.767	99.5
369.993	90.5
370.219	87.5
370.445	83.5
370.672	82.5
370.898	84.5
371.124	98.5
371.35	90.5
371.576	80.5
371.802	95.5
372.028	90.5
372.254	88.5
372.48	86.5
372.706	83.5
372.932	91.5
373.158	85.5
373.384	80.5
373.61	85.5
373.835	84.5
374.061	72.5
374.287	85.5
374.513	100.5
374.739	99.5
374.965	83.5
375.191	91.5
375.416	83.5
375.642	99.5
375.868	82.5
376.094	104.5
376.319	91.5
376.545	88.5
376.771	88.5
376.997	85.5
377.222	92.5
377.448	91.5
377.674	95.5
377.899	82.5
378.125	92.5
378.35	102.5
378.576	90.5
378.802	87.5
379.027	86.5
379.253	95.5
379.478	87.5
379.704	75.5
379.929	94.5
380.155	110.5
380.38	107.5
380.606	88.5
380.831	65.5
381.057	104.5
381.282	102.5
381.507	86.5
381.733	95.5
381.958	101.5
382.184	82.5
382.409	102.5
382.634	104.5
382.86	91.5
383.085	94.5
383.31	90.5
383.535	90.5
383.761	91.5
383.986	97.5
384.211	94.5
384.436	99.5
384.662	101.5
384.887	88.5
385.112	99.5
385.337	104.5
385.562	101.5
385.787	107.5
386.013	109.5
386.238	97.5
386.463	94.5
386.688	97.5
386.913	91.5
387.138	89.5
387.363	96.5
387.588	91.5
387.813	89.5
388.038	112.5
388.263	96.5
388.488	110.5
388.713	104.5
388.938	104.5
389.163	95.5
389.387	104.5
389.612	99.5
389.837	99.5
390.062	87.5
390.287	82.5
390.512	96.5
390.736	98.5
390.961	102.5
391.186	91.5
391.411	88.5
391.636	78.5
391.86	94.5
392.085	86.5
392.31	86.5
392.534	88.5
392.759	79.5
392.984	90.5
393.208	93.5
393.433	92.5
393.658	85.5
393.882	91.5
394.107	100.5
394.331	82.5
394.556	75.5
394.78	97.5
395.005	80.5
395.229	94.5
395.454	98.5
395.678	94.5
395.903	72.5
396.127	100.5
396.352	88.5
396.576	82.5
396.801	91.5
397.025	102.5
397.249	81.5
397.474	97.5
397.698	98.5
397.922	94.5
398.147	94.5
398.371	91.5
398.595	102.5
398.82	86.5
399.044	94.5
399.268	96.5
399.492	85.5
399.717	88.5
399.941	89.5
400.165	98.5
400.389	98.5
400.613	83.5
400.837	86.5
401.062	89.5
401.286	85.5
401.51	89.5
401.734	92.5
401.958	103.5
402.182	129.5
402.406	147.5
402.63	105.5
402.854	75.5
403.078	88.5
403.302	94.5
403.526	81.5
403.75	108.5
403.974	86.5
404.198	91.5
404.422	90.5
404.645	90.5
404.869	102.5
405.093	87.5
405.317	99.5
405.541	89.5
405.765	114.5
405.988	122.5
406.212	152.5
406.436	198.5
406.66	120.5
406.883	100.5
407.107	80.5
407.331	100.5
407.555	98.5
407.778	89.5
408.002	83.5
408.226	99.5
408.449	76.5
408.673	91.5
408.896	95.5
409.12	81.5
409.344	105.5
409.567	88.5
409.791	90.5
410.014	95.5
410.238	97.5
410.461	85.5
410.685	97.5
410.908	103.5
411.132	111.5
411.355	77.5
411.578	90.5
411.802	90.5
412.025	96.5
412.249	82.5
412.472	96.5
412.695	84.5
412.919	80.5
413.142	96.5
413.365	90.5
413.589	82.5
413.812	84.5
414.035	90.5
414.258	91.5
414.482	90.5
414.705	92.5
414.928	102.5
415.151	90.5
415.374	106.5
415.597	91.5
415.821	104.5
416.044	87.5
416.267	85.5
416.49	86.5
416.713	86.5
416.936	77.5
417.159	84.5
417.382	94.5
417.605	96.5
417.828	92.5
418.051	87.5
418.274	92.5
418.497	94.5
418.72	94.5
418.943	90.5
419.166	82.5
419.389	94.5
419.611	98.5
419.834	83.5
420.057	111.5
420.28	66.5
420.503	93.5
420.726	103.5
420.948	87.5
421.171	90.5
421.394	88.5
421.617	91.5
421.839	86.5
422.062	90.5
422.285	96.5
422.507	98.5
422.73	96.5
422.953	82.5
423.175	94.5
423.398	92.5
423.621	90.5
423.843	69.5
424.066	98.5
424.288	90.5
424.511	86.5
424.733	89.5
424.956	97.5
425.178	91.5
425.401	107.5
425.623	81.5
425.846	94.5
426.068	83.5
426.291	104.5
426.513	87.5
426.735	88.5
426.958	97.5
427.18	98.5
427.402	122.5
427.625	161.5
427.847	122.5
428.069	105.5
428.292	90.5
428.514	90.5
428.736	81.5
428.958	88.5
429.181	82.5
429.403	91.5
429.625	80.5
429.847	97.5
430.069	83.5
430.292	94.5
430.514	90.5
430.736	88.5
430.958	82.5
431.18	86.5
431.402	100.5
431.624	89.5
431.846	90.5
432.068	83.5
432.29	91.5
432.512	93.5
432.734	96.5
432.956	104.5
433.178	102.5
433.4	99.5
433.622	91.5
433.844	87.5
434.066	103.5
434.287	81.5
434.509	96.5
434.731	96.5
434.953	82.5
435.175	81.5
435.397	95.5
435.618	96.5
435.84	91.5
436.062	116.5
436.284	108.5
436.505	105.5
436.727	101.5
436.949	98.5
437.17	84.5
437.392	84.5
437.614	88.5
437.835	87.5
438.057	108.5
438.278	89.5
438.5	87.5
438.721	110.5
438.943	101.5
439.165	92.5
439.386	79.5
439.608	105.5
439.829	92.5
440.05	108.5
440.272	150.5
440.493	92.5
440.715	88.5
440.936	90.5
441.158	107.5
441.379	85.5
441.6	83.5
441.822	97.5
442.043	105.5
442.264	98.5
442.486	90.5
442.707	97.5
442.928	98.5
443.149	122.5
443.371	116.5
443.592	114.5
443.813	106.5
444.034	115.5
444.255	76.5
444.476	91.5
444.698	86.5
444.919	81.5
445.14	124.5
445.361	117.5
445.582	100.5
445.803	131.5
446.024	110.5
446.245	111.5
446.466	107.5
446.687	94.5
446.908	106.5
447.129	72.5
447.35	81.5
447.571	94.5
447.792	99.5
448.013	97.5
448.234	98.5
448.455	90.5
448.675	99.5
448.896	105.5
449.117	100.5
449.338	97.5
449.559	107.5
449.779	131.5
450	91.5
450.221	99.5
450.442	95.5
450.662	102.5
450.883	116.5
451.104	107.5
451.324	83.5
451.545	86.5
451.766	89.5
451.986	91.5
452.207	86.5
452.428	89.5
452.648	84.5
452.869	107.5
453.089	100.5
453.31	116.5
453.53	91.5
453.751	97.5
453.971	98.5
454.192	115.5
454.412	99.5
454.633	100.5
454.853	97.5
455.073	91.5
455.294	89.5
455.514	97.5
455.734	85.5
455.955	86.5
456.175	82.5
456.395	90.5
456.616	89.5
456.836	96.5
457.056	81.5
457.276	88.5
457.497	76.5
457.717	82.5
457.937	85.5
458.157	90.5
458.377	102.5
458.598	101.5
458.818	140.5
459.038	151.5
459.258	102.5
459.478	92.5
459.698	89.5
459.918	92.5
460.138	91.5
460.358	86.5
460.578	99.5
460.798	91.5
461.018	91.5
461.238	83.5
461.458	81.5
461.678	86.5
461.898	94.5
462.118	74.5
462.338	101.5
462.558	98.5
462.777	100.5
462.997	88.5
463.217	98.5
463.437	98.5
463.657	87.5
463.876	103.5
464.096	81.5
464.316	95.5
464.536	92.5
464.755	101.5
464.975	114.5
465.195	146.5
465.414	131.5
465.634	73.5
465.854	78.5
466.073	96.5
466.293	88.5
466.512	82.5
466.732	94.5
466.951	85.5
467.171	84.5
467.391	96.5
467.61	103.5
467.829	98.5
468.049	98.5
468.268	106.5
468.488	81.5
468.707	89.5
468.927	78.5
469.146	96.5
469.365	94.5
469.585	82.5
469.804	97.5
470.023	104.5
470.243	89.5
470.462	97.5
470.681	104.5
470.901	82.5
471.12	98.5
471.339	83.5
471.558	107.5
471.777	103.5
471.997	87.5
472.216	98.5
472.435	114.5
472.654	96.5
472.873	74.5
473.092	97.5
473.311	83.5
473.53	90.5
473.749	84.5
473.968	111.5
474.187	100.5
474.406	98.5
474.625	86.5
474.844	95.5
475.063	97.5
475.282	95.5
475.501	79.5
475.72	108.5
475.939	84.5
476.158	91.5
476.377	83.5
476.596	79.5
476.814	91.5
477.033	88.5
477.252	83.5
477.471	99.5
477.69	89.5
477.908	84.5
478.127	89.5
478.346	88.5
478.564	95.5
478.783	95.5
479.002	103.5
479.22	94.5
479.439	82.5
479.658	93.5
479.876	98.5
480.095	74.5
480.313	101.5
480.532	98.5
480.751	87.5
480.969	103.5
481.188	153.5
481.406	115.5
481.624	81.5
481.843	91.5
482.061	94.5
482.28	89.5
482.498	95.5
482.717	95.5
482.935	82.5
483.153	73.5
483.372	96.5
483.59	90.5
483.808	83.5
484.027	86.5
484.245	81.5
484.463	82.5
484.681	96.5
484.9	79.5
485.118	101.5
485.336	83.5
485.554	107.5
485.772	90.5
485.99	101.5
486.209	90.5
486.427	96.5
486.645	117.5
486.863	116.5
487.081	106.5
487.299	86.5
487.517	110.5
487.735	105.5
487.953	85.5
488.171	90.5
488.389	96.5
488.607	92.5
488.825	97.5
489.043	93.5
489.261	90.5
489.479	84.5
489.696	89.5
489.914	82.5
490.132	88.5
490.35	95.5
490.568	78.5
490.786	96.5
491.003	89.5
491.221	87.5
491.439	103.5
491.657	105.5
491.874	107.5
492.092	86.5
492.31	80.5
492.527	91.5
492.745	95.5
492.963	94.5
493.18	95.5
493.398	82.5
493.615	80.5
493.833	98.5
494.05	87.5
494.268	86.5
494.485	78.5
494.703	98.5
494.92	94.5
495.138	96.5
495.355	78.5
495.573	95.5
495.79	89.5
496.008	84.5
496.225	83.5
496.442	89.5
496.66	95.5
496.877	84.5
497.094	87.5
497.312	78.5
497.529	86.5
497.746	89.5
497.963	97.5
498.181	83.5
498.398	98.5
498.615	106.5
498.832	105.5
499.049	99.5
499.267	100.5
499.484	99.5
499.701	97.5
499.918	82.5
500.135	87.5
500.352	103.5
500.569	94.5
500.786	87.5
501.003	87.5
501.22	103.5
501.437	89.5
501.654	90.5
501.871	100.5
502.088	95.5
502.305	92.5
502.522	89.5
502.739	94.5
502.956	89.5
503.172	97.5
503.389	108.5
503.606	106.5
503.823	86.5
504.04	89.5
504.256	84.5
504.473	89.5
504.69	102.5
504.907	90.5
505.123	95.5
505.34	93.5
505.557	81.5
505.773	95.5
505.99	72.5
506.207	95.5
506.423	92.5
506.64	87.5
506.856	83.5
507.073	92.5
507.289	97.5
507.506	92.5
507.722	104.5
507.939	108.5
508.155	97.5
508.372	104.5
508.588	96.5
508.805	100.5
509.021	89.5
509.238	91.5
509.454	111.5
509.67	92.5
509.887	103.5
510.103	133.5
510.319	190.5
510.536	647.5
510.752	1992.5
510.968	562.5
511.184	145.5
511.401	93.5
511.617	97.5
511.833	96.5
512.049	85.5
512.265	91.5
512.481	88.5
512.698	95.5
512.914	89.5
513.13	94.5
513.346	99.5
513.562	94.5
513.778	84.5
513.994	94.5
514.21	95.5
514.426	110.5
514.642	129.5
514.858	112.5
515.074	141.5
515.29	361.5
515.506	1221.5
515.721	462.5
515.937	138.5
516.153	107.5
516.369	87.5
516.585	96.5
516.801	91.5
517.016	92.5
517.232	88.5
517.448	100.5
517.664	91.5
517.879	91.5
518.095	90.5
518.311	104.5
518.527	100.5
518.742	105.5
518.958	99.5
519.173	92.5
519.389	96.5
519.605	97.5
519.82	116.5
520.036	101.5
520.251	109.5
520.467	107.5
520.682	105.5
520.898	105.5
521.113	107.5
521.329	135.5
521.544	198.5
521.76	475.5
521.975	2027.5
522.19	1212.5
522.406	261.5
522.621	136.5
522.836	99.5
523.052	96.5
523.267	101.5
523.482	90.5
523.698	101.5
523.913	111.5
524.128	102.5
524.343	91.5
524.559	96.5
524.774	80.5
524.989	100.5
525.204	108.5
525.419	75.5
525.634	94.5
525.849	78.5
526.064	81.5
526.28	90.5
526.495	82.5
526.71	97.5
526.925	91.5
527.14	83.5
527.355	85.5
527.57	92.5
527.785	95.5
527.999	85.5
528.214	82.5
528.429	86.5
528.644	95.5
528.859	78.5
529.074	107.5
529.289	120.5
529.503	146.5
529.718	100.5
529.933	76.5
530.148	90.5
530.363	93.5
530.577	81.5
530.792	103.5
531.007	86.5
531.221	75.5
531.436	88.5
531.651	85.5
531.865	79.5
532.08	87.5
532.295	93.5
532.509	97.5
532.724	100.5
532.938	93.5
533.153	102.5
533.367	102.5
533.582	89.5
533.796	78.5
534.011	97.5
534.225	90.5
534.44	90.5
534.654	91.5
534.868	85.5
535.083	87.5
535.297	85.5
