Data from Uncirc_1987_H10_HRD10591_00064.txt Node
Date: Wed Jan 03 12:09:01 EST 2024
User: Yrep
Spectrometer: HR+D1059
Trigger mode: 1
Integration Time (sec): 1.000000E-1
Scans to average: 1
Electric dark correction enabled: true
Nonlinearity correction enabled: false
Boxcar width: 0
XAxis mode: Wavelengths
Number of Pixels in Spectrum: 2048
>>>>>Begin Spectral Data<<<<<
223.165	-11.75
223.4	-11.75
223.635	-11.75
223.869	-13.75
224.104	-12.75
224.338	-17.75
224.573	-11.75
224.808	-10.75
225.042	-14.75
225.277	-0.75
225.511	-9.75
225.746	0.25
225.98	12.25
226.215	10.25
226.449	14.25
226.683	11.25
226.918	24.25
227.152	31.25
227.387	36.25
227.621	53.25
227.856	45.25
228.09	44.25
228.324	38.25
228.559	57.25
228.793	51.25
229.027	60.25
229.262	65.25
229.496	73.25
229.73	75.25
229.964	77.25
230.199	60.25
230.433	75.25
230.667	73.25
230.901	75.25
231.136	83.25
231.37	76.25
231.604	77.25
231.838	68.25
232.072	85.25
232.306	89.25
232.541	79.25
232.775	62.25
233.009	85.25
233.243	73.25
233.477	88.25
233.711	76.25
233.945	88.25
234.179	87.25
234.413	81.25
234.647	78.25
234.881	75.25
235.115	73.25
235.349	81.25
235.583	83.25
235.817	88.25
236.051	76.25
236.285	82.25
236.519	67.25
236.753	73.25
236.987	75.25
237.221	66.25
237.455	80.25
237.689	86.25
237.922	71.25
238.156	86.25
238.39	76.25
238.624	81.25
238.858	72.25
239.091	79.25
239.325	83.25
239.559	70.25
239.793	83.25
240.027	79.25
240.26	68.25
240.494	96.25
240.728	71.25
240.961	80.25
241.195	75.25
241.429	79.25
241.662	70.25
241.896	63.25
242.13	78.25
242.363	77.25
242.597	84.25
242.83	71.25
243.064	72.25
243.298	75.25
243.531	77.25
243.765	93.25
243.998	76.25
244.232	79.25
244.465	89.25
244.699	88.25
244.932	79.25
245.166	77.25
245.399	69.25
245.633	81.25
245.866	82.25
246.099	77.25
246.333	80.25
246.566	78.25
246.8	87.25
247.033	78.25
247.266	71.25
247.5	80.25
247.733	75.25
247.966	81.25
248.2	75.25
248.433	82.25
248.666	80.25
248.899	87.25
249.133	71.25
249.366	81.25
249.599	88.25
249.832	79.25
250.066	87.25
250.299	84.25
250.532	81.25
250.765	85.25
250.998	60.25
251.231	77.25
251.465	84.25
251.698	88.25
251.931	76.25
252.164	80.25
252.397	73.25
252.63	77.25
252.863	76.25
253.096	79.25
253.329	90.25
253.562	87.25
253.795	82.25
254.028	85.25
254.261	94.25
254.494	84.25
254.727	79.25
254.96	85.25
255.193	80.25
255.426	77.25
255.659	79.25
255.892	70.25
256.124	83.25
256.357	87.25
256.59	80.25
256.823	69.25
257.056	90.25
257.289	87.25
257.521	80.25
257.754	68.25
257.987	69.25
258.22	84.25
258.452	81.25
258.685	85.25
258.918	81.25
259.151	88.25
259.383	73.25
259.616	86.25
259.849	69.25
260.081	92.25
260.314	81.25
260.547	83.25
260.779	77.25
261.012	76.25
261.244	84.25
261.477	98.25
261.71	99.25
261.942	96.25
262.175	112.25
262.407	91.25
262.64	91.25
262.872	86.25
263.105	77.25
263.337	71.25
263.57	75.25
263.802	85.25
264.035	80.25
264.267	95.25
264.499	85.25
264.732	78.25
264.964	69.25
265.197	86.25
265.429	83.25
265.661	87.25
265.894	76.25
266.126	83.25
266.358	79.25
266.591	73.25
266.823	77.25
267.055	88.25
267.287	91.25
267.52	81.25
267.752	69.25
267.984	77.25
268.216	81.25
268.448	93.25
268.681	97.25
268.913	83.25
269.145	81.25
269.377	89.25
269.609	94.25
269.841	81.25
270.073	81.25
270.306	92.25
270.538	88.25
270.77	88.25
271.002	89.25
271.234	84.25
271.466	82.25
271.698	88.25
271.93	93.25
272.162	73.25
272.394	77.25
272.626	93.25
272.858	86.25
273.09	80.25
273.322	83.25
273.553	86.25
273.785	81.25
274.017	86.25
274.249	75.25
274.481	79.25
274.713	76.25
274.945	95.25
275.176	86.25
275.408	87.25
275.64	87.25
275.872	76.25
276.104	86.25
276.335	100.25
276.567	105.25
276.799	100.25
277.031	101.25
277.262	87.25
277.494	81.25
277.726	84.25
277.957	69.25
278.189	87.25
278.421	82.25
278.652	83.25
278.884	96.25
279.115	88.25
279.347	83.25
279.579	88.25
279.81	77.25
280.042	92.25
280.273	88.25
280.505	90.25
280.736	99.25
280.968	83.25
281.199	88.25
281.431	79.25
281.662	82.25
281.894	100.25
282.125	88.25
282.356	95.25
282.588	134.25
282.819	115.25
283.051	89.25
283.282	90.25
283.513	83.25
283.745	80.25
283.976	87.25
284.207	81.25
284.439	96.25
284.67	94.25
284.901	77.25
285.132	88.25
285.364	79.25
285.595	83.25
285.826	89.25
286.057	88.25
286.288	84.25
286.52	77.25
286.751	95.25
286.982	99.25
287.213	83.25
287.444	88.25
287.675	78.25
287.906	80.25
288.138	87.25
288.369	91.25
288.6	81.25
288.831	81.25
289.062	93.25
289.293	92.25
289.524	86.25
289.755	72.25
289.986	92.25
290.217	80.25
290.448	80.25
290.679	95.25
290.91	94.25
291.141	104.25
291.371	100.25
291.602	83.25
291.833	92.25
292.064	97.25
292.295	84.25
292.526	71.25
292.757	81.25
292.987	92.25
293.218	85.25
293.449	78.25
293.68	100.25
293.91	83.25
294.141	88.25
294.372	83.25
294.603	79.25
294.833	91.25
295.064	88.25
295.295	92.25
295.525	76.25
295.756	95.25
295.987	96.25
296.217	122.25
296.448	109.25
296.679	95.25
296.909	93.25
297.14	90.25
297.37	96.25
297.601	89.25
297.831	93.25
298.062	94.25
298.292	85.25
298.523	95.25
298.753	89.25
298.984	80.25
299.214	93.25
299.445	88.25
299.675	104.25
299.905	92.25
300.136	91.25
300.366	77.25
300.597	89.25
300.827	97.25
301.057	94.25
301.288	102.25
301.518	99.25
301.748	77.25
301.979	95.25
302.209	91.25
302.439	78.25
302.669	95.25
302.9	90.25
303.13	79.25
303.36	99.25
303.59	100.25
303.82	95.25
304.051	84.25
304.281	100.25
304.511	81.25
304.741	100.25
304.971	81.25
305.201	87.25
305.431	83.25
305.661	88.25
305.891	91.25
306.121	89.25
306.352	97.25
306.582	103.25
306.812	81.25
307.042	87.25
307.272	80.25
307.502	89.25
307.731	93.25
307.961	78.25
308.191	84.25
308.421	82.25
308.651	86.25
308.881	96.25
309.111	89.25
309.341	80.25
309.571	98.25
309.8	93.25
310.03	91.25
310.26	86.25
310.49	77.25
310.72	83.25
310.949	99.25
311.179	89.25
311.409	75.25
311.639	76.25
311.868	86.25
312.098	86.25
312.328	104.25
312.557	85.25
312.787	94.25
313.017	101.25
313.246	87.25
313.476	100.25
313.706	91.25
313.935	92.25
314.165	100.25
314.394	87.25
314.624	93.25
314.853	94.25
315.083	89.25
315.312	85.25
315.542	99.25
315.771	92.25
316.001	101.25
316.23	83.25
316.46	86.25
316.689	76.25
316.919	95.25
317.148	84.25
317.377	97.25
317.607	99.25
317.836	100.25
318.065	87.25
318.295	81.25
318.524	87.25
318.753	83.25
318.983	86.25
319.212	97.25
319.441	106.25
319.67	101.25
319.9	91.25
320.129	91.25
320.358	83.25
320.587	82.25
320.816	100.25
321.046	99.25
321.275	90.25
321.504	83.25
321.733	101.25
321.962	93.25
322.191	89.25
322.42	103.25
322.649	106.25
322.878	96.25
323.108	114.25
323.337	127.25
323.566	137.25
323.795	149.25
324.024	157.25
324.253	351.25
324.482	706.25
324.71	1437.25
324.939	1911.25
325.168	707.25
325.397	219.25
325.626	139.25
325.855	123.25
326.084	123.25
326.313	123.25
326.542	137.25
326.77	206.25
326.999	404.25
327.228	815.25
327.457	1519.25
327.686	1194.25
327.914	338.25
328.143	177.25
328.372	129.25
328.6	133.25
328.829	111.25
329.058	114.25
329.287	129.25
329.515	97.25
329.744	85.25
329.972	110.25
330.201	105.25
330.43	107.25
330.658	105.25
330.887	132.25
331.115	110.25
331.344	99.25
331.572	101.25
331.801	104.25
332.03	105.25
332.258	83.25
332.486	87.25
332.715	100.25
332.943	85.25
333.172	89.25
333.4	91.25
333.629	100.25
333.857	91.25
334.085	96.25
334.314	94.25
334.542	111.25
334.771	107.25
334.999	93.25
335.227	87.25
335.455	111.25
335.684	101.25
335.912	93.25
336.14	81.25
336.369	81.25
336.597	97.25
336.825	102.25
337.053	90.25
337.281	88.25
337.51	73.25
337.738	88.25
337.966	101.25
338.194	94.25
338.422	88.25
338.65	97.25
338.878	91.25
339.106	96.25
339.334	88.25
339.562	93.25
339.79	99.25
340.018	87.25
340.246	85.25
340.474	86.25
340.702	77.25
340.93	79.25
341.158	89.25
341.386	93.25
341.614	98.25
341.842	107.25
342.07	85.25
342.298	86.25
342.526	93.25
342.754	85.25
342.981	98.25
343.209	98.25
343.437	92.25
343.665	76.25
343.893	101.25
344.12	87.25
344.348	100.25
344.576	93.25
344.804	83.25
345.031	81.25
345.259	97.25
345.487	78.25
345.714	85.25
345.942	79.25
346.17	91.25
346.397	84.25
346.625	93.25
346.853	86.25
347.08	88.25
347.308	89.25
347.535	85.25
347.763	89.25
347.99	91.25
348.218	107.25
348.445	104.25
348.673	96.25
348.9	82.25
349.128	86.25
349.355	88.25
349.583	92.25
349.81	83.25
350.037	91.25
350.265	95.25
350.492	100.25
350.72	102.25
350.947	99.25
351.174	107.25
351.402	121.25
351.629	97.25
351.856	92.25
352.083	87.25
352.311	87.25
352.538	115.25
352.765	92.25
352.992	102.25
353.22	106.25
353.447	103.25
353.674	101.25
353.901	89.25
354.128	95.25
354.355	72.25
354.583	98.25
354.81	100.25
355.037	94.25
355.264	94.25
355.491	101.25
355.718	83.25
355.945	90.25
356.172	96.25
356.399	93.25
356.626	115.25
356.853	99.25
357.08	100.25
357.307	77.25
357.534	75.25
357.761	100.25
357.988	113.25
358.215	96.25
358.441	91.25
358.668	99.25
358.895	96.25
359.122	81.25
359.349	90.25
359.576	100.25
359.802	106.25
360.029	105.25
360.256	103.25
360.483	89.25
360.709	78.25
360.936	100.25
361.163	79.25
361.39	94.25
361.616	87.25
361.843	91.25
362.07	92.25
362.296	94.25
362.523	92.25
362.749	87.25
362.976	81.25
363.203	85.25
363.429	89.25
363.656	91.25
363.882	92.25
364.109	79.25
364.335	91.25
364.562	77.25
364.788	90.25
365.015	95.25
365.241	81.25
365.468	102.25
365.694	85.25
365.92	91.25
366.147	92.25
366.373	86.25
366.599	88.25
366.826	82.25
367.052	98.25
367.278	92.25
367.505	95.25
367.731	97.25
367.957	101.25
368.184	103.25
368.41	104.25
368.636	111.25
368.862	100.25
369.089	104.25
369.315	75.25
369.541	83.25
369.767	88.25
369.993	91.25
370.219	87.25
370.445	79.25
370.672	83.25
370.898	85.25
371.124	95.25
371.35	81.25
371.576	80.25
371.802	90.25
372.028	85.25
372.254	91.25
372.48	96.25
372.706	81.25
372.932	78.25
373.158	101.25
373.384	99.25
373.61	88.25
373.835	91.25
374.061	99.25
374.287	93.25
374.513	80.25
374.739	91.25
374.965	68.25
375.191	92.25
375.416	87.25
375.642	68.25
375.868	104.25
376.094	76.25
376.319	83.25
376.545	69.25
376.771	86.25
376.997	94.25
377.222	68.25
377.448	83.25
377.674	87.25
377.899	106.25
378.125	85.25
378.35	93.25
378.576	94.25
378.802	94.25
379.027	97.25
379.253	87.25
379.478	89.25
379.704	87.25
379.929	103.25
380.155	99.25
380.38	106.25
380.606	83.25
380.831	89.25
381.057	81.25
381.282	102.25
381.507	94.25
381.733	97.25
381.958	93.25
382.184	96.25
382.409	94.25
382.634	93.25
382.86	85.25
383.085	91.25
383.31	93.25
383.535	102.25
383.761	94.25
383.986	95.25
384.211	88.25
384.436	96.25
384.662	110.25
384.887	85.25
385.112	101.25
385.337	95.25
385.562	88.25
385.787	106.25
386.013	112.25
386.238	107.25
386.463	97.25
386.688	112.25
386.913	105.25
387.138	89.25
387.363	91.25
387.588	94.25
387.813	92.25
388.038	104.25
388.263	105.25
388.488	101.25
388.713	92.25
388.938	105.25
389.163	107.25
389.387	100.25
389.612	107.25
389.837	93.25
390.062	87.25
390.287	79.25
390.512	98.25
390.736	83.25
390.961	105.25
391.186	99.25
391.411	100.25
391.636	93.25
391.86	94.25
392.085	85.25
392.31	74.25
392.534	89.25
392.759	93.25
392.984	92.25
393.208	98.25
393.433	94.25
393.658	80.25
393.882	86.25
394.107	93.25
394.331	87.25
394.556	75.25
394.78	85.25
395.005	71.25
395.229	77.25
395.454	79.25
395.678	89.25
395.903	81.25
396.127	103.25
396.352	95.25
396.576	91.25
396.801	95.25
397.025	92.25
397.249	95.25
397.474	87.25
397.698	101.25
397.922	100.25
398.147	86.25
398.371	73.25
398.595	89.25
398.82	89.25
399.044	102.25
399.268	75.25
399.492	100.25
399.717	69.25
399.941	87.25
400.165	89.25
400.389	81.25
400.613	88.25
400.837	81.25
401.062	93.25
401.286	90.25
401.51	71.25
401.734	83.25
401.958	97.25
402.182	107.25
402.406	120.25
402.63	110.25
402.854	89.25
403.078	88.25
403.302	80.25
403.526	100.25
403.75	86.25
403.974	88.25
404.198	92.25
404.422	77.25
404.645	73.25
404.869	98.25
405.093	101.25
405.317	102.25
405.541	94.25
405.765	89.25
405.988	100.25
406.212	167.25
406.436	207.25
406.66	130.25
406.883	109.25
407.107	91.25
407.331	97.25
407.555	87.25
407.778	91.25
408.002	98.25
408.226	78.25
408.449	91.25
408.673	89.25
408.896	93.25
409.12	99.25
409.344	86.25
409.567	87.25
409.791	93.25
410.014	88.25
410.238	76.25
410.461	91.25
410.685	98.25
410.908	95.25
411.132	92.25
411.355	95.25
411.578	85.25
411.802	81.25
412.025	76.25
412.249	78.25
412.472	94.25
412.695	95.25
412.919	94.25
413.142	96.25
413.365	78.25
413.589	76.25
413.812	93.25
414.035	84.25
414.258	87.25
414.482	80.25
414.705	83.25
414.928	104.25
415.151	101.25
415.374	87.25
415.597	92.25
415.821	79.25
416.044	77.25
416.267	82.25
416.49	81.25
416.713	81.25
416.936	84.25
417.159	80.25
417.382	92.25
417.605	97.25
417.828	87.25
418.051	100.25
418.274	79.25
418.497	103.25
418.72	100.25
418.943	97.25
419.166	90.25
419.389	87.25
419.611	90.25
419.834	93.25
420.057	81.25
420.28	82.25
420.503	84.25
420.726	88.25
420.948	102.25
421.171	92.25
421.394	77.25
421.617	78.25
421.839	83.25
422.062	92.25
422.285	87.25
422.507	86.25
422.73	102.25
422.953	81.25
423.175	100.25
423.398	91.25
423.621	109.25
423.843	89.25
424.066	93.25
424.288	82.25
424.511	76.25
424.733	91.25
424.956	95.25
425.178	92.25
425.401	93.25
425.623	97.25
425.846	91.25
426.068	93.25
426.291	92.25
426.513	96.25
426.735	95.25
426.958	98.25
427.18	98.25
427.402	120.25
427.625	139.25
427.847	107.25
428.069	96.25
428.292	87.25
428.514	64.25
428.736	84.25
428.958	85.25
429.181	80.25
429.403	91.25
429.625	109.25
429.847	89.25
430.069	104.25
430.292	76.25
430.514	84.25
430.736	89.25
430.958	94.25
431.18	95.25
431.402	94.25
431.624	79.25
431.846	86.25
432.068	85.25
432.29	85.25
432.512	93.25
432.734	101.25
432.956	96.25
433.178	96.25
433.4	82.25
433.622	86.25
433.844	85.25
434.066	88.25
434.287	85.25
434.509	86.25
434.731	91.25
434.953	86.25
435.175	100.25
435.397	99.25
435.618	89.25
435.84	102.25
436.062	122.25
436.284	103.25
436.505	97.25
436.727	90.25
436.949	86.25
437.17	84.25
437.392	86.25
437.614	87.25
437.835	88.25
438.057	106.25
438.278	105.25
438.5	96.25
438.721	118.25
438.943	88.25
439.165	80.25
439.386	76.25
439.608	93.25
439.829	87.25
440.05	111.25
440.272	116.25
440.493	103.25
440.715	88.25
440.936	90.25
441.158	84.25
441.379	81.25
441.6	88.25
441.822	84.25
442.043	95.25
442.264	91.25
442.486	94.25
442.707	87.25
442.928	109.25
443.149	115.25
443.371	114.25
443.592	90.25
443.813	113.25
444.034	93.25
444.255	93.25
444.476	89.25
444.698	83.25
444.919	84.25
445.14	127.25
445.361	122.25
445.582	98.25
445.803	105.25
446.024	117.25
446.245	129.25
446.466	119.25
446.687	91.25
446.908	79.25
447.129	83.25
447.35	73.25
447.571	79.25
447.792	94.25
448.013	91.25
448.234	93.25
448.455	102.25
448.675	117.25
448.896	113.25
449.117	94.25
449.338	93.25
449.559	123.25
449.779	130.25
450	88.25
450.221	88.25
450.442	86.25
450.662	100.25
450.883	91.25
451.104	99.25
451.324	73.25
451.545	88.25
451.766	88.25
451.986	87.25
452.207	82.25
452.428	87.25
452.648	93.25
452.869	115.25
453.089	116.25
453.31	105.25
453.53	92.25
453.751	91.25
453.971	89.25
454.192	96.25
454.412	87.25
454.633	80.25
454.853	79.25
455.073	81.25
455.294	96.25
455.514	93.25
455.734	83.25
455.955	95.25
456.175	92.25
456.395	84.25
456.616	81.25
456.836	68.25
457.056	88.25
457.276	83.25
457.497	85.25
457.717	92.25
457.937	89.25
458.157	90.25
458.377	79.25
458.598	89.25
458.818	123.25
459.038	144.25
459.258	111.25
459.478	93.25
459.698	84.25
459.918	95.25
460.138	89.25
460.358	78.25
460.578	77.25
460.798	90.25
461.018	87.25
461.238	98.25
461.458	88.25
461.678	79.25
461.898	77.25
462.118	90.25
462.338	66.25
462.558	90.25
462.777	87.25
462.997	84.25
463.217	79.25
463.437	85.25
463.657	97.25
463.876	77.25
464.096	95.25
464.316	93.25
464.536	100.25
464.755	85.25
464.975	96.25
465.195	146.25
465.414	141.25
465.634	85.25
465.854	72.25
466.073	84.25
466.293	85.25
466.512	81.25
466.732	88.25
466.951	94.25
467.171	82.25
467.391	88.25
467.61	97.25
467.829	91.25
468.049	111.25
468.268	85.25
468.488	63.25
468.707	80.25
468.927	71.25
469.146	86.25
469.365	81.25
469.585	82.25
469.804	94.25
470.023	88.25
470.243	83.25
470.462	97.25
470.681	101.25
470.901	99.25
471.12	90.25
471.339	87.25
471.558	63.25
471.777	78.25
471.997	87.25
472.216	97.25
472.435	93.25
472.654	86.25
472.873	85.25
473.092	75.25
473.311	87.25
473.53	85.25
473.749	87.25
473.968	96.25
474.187	112.25
474.406	94.25
474.625	97.25
474.844	70.25
475.063	88.25
475.282	68.25
475.501	85.25
475.72	81.25
475.939	88.25
476.158	84.25
476.377	77.25
476.596	76.25
476.814	84.25
477.033	89.25
477.252	82.25
477.471	85.25
477.69	86.25
477.908	94.25
478.127	84.25
478.346	85.25
478.564	96.25
478.783	92.25
479.002	77.25
479.22	89.25
479.439	86.25
479.658	102.25
479.876	94.25
480.095	79.25
480.313	89.25
480.532	89.25
480.751	86.25
480.969	100.25
481.188	132.25
481.406	108.25
481.624	86.25
481.843	95.25
482.061	98.25
482.28	94.25
482.498	90.25
482.717	76.25
482.935	84.25
483.153	77.25
483.372	93.25
483.59	82.25
483.808	91.25
484.027	99.25
484.245	103.25
484.463	88.25
484.681	97.25
484.9	77.25
485.118	88.25
485.336	91.25
485.554	88.25
485.772	89.25
485.99	102.25
486.209	92.25
486.427	111.25
486.645	99.25
486.863	115.25
487.081	94.25
487.299	92.25
487.517	103.25
487.735	91.25
487.953	86.25
488.171	94.25
488.389	91.25
488.607	104.25
488.825	82.25
489.043	94.25
489.261	65.25
489.479	70.25
489.696	107.25
489.914	72.25
490.132	91.25
490.35	91.25
490.568	91.25
490.786	77.25
491.003	77.25
491.221	84.25
491.439	88.25
491.657	81.25
491.874	94.25
492.092	80.25
492.31	100.25
492.527	103.25
492.745	96.25
492.963	83.25
493.18	85.25
493.398	94.25
493.615	89.25
493.833	88.25
494.05	90.25
494.268	89.25
494.485	96.25
494.703	94.25
494.92	87.25
495.138	90.25
495.355	91.25
495.573	95.25
495.79	86.25
496.008	72.25
496.225	90.25
496.442	70.25
496.66	97.25
496.877	85.25
497.094	94.25
497.312	92.25
497.529	97.25
497.746	97.25
497.963	85.25
498.181	95.25
498.398	112.25
498.615	111.25
498.832	88.25
499.049	91.25
499.267	96.25
499.484	85.25
499.701	92.25
499.918	87.25
500.135	92.25
500.352	94.25
500.569	88.25
500.786	89.25
501.003	92.25
501.22	92.25
501.437	90.25
501.654	97.25
501.871	95.25
502.088	95.25
502.305	80.25
502.522	85.25
502.739	99.25
502.956	81.25
503.172	87.25
503.389	81.25
503.606	116.25
503.823	92.25
504.04	94.25
504.256	108.25
504.473	83.25
504.69	89.25
504.907	83.25
505.123	88.25
505.34	87.25
505.557	80.25
505.773	85.25
505.99	83.25
506.207	84.25
506.423	93.25
506.64	83.25
506.856	87.25
507.073	90.25
507.289	84.25
507.506	92.25
507.722	98.25
507.939	96.25
508.155	97.25
508.372	100.25
508.588	98.25
508.805	94.25
509.021	92.25
509.238	94.25
509.454	93.25
509.67	99.25
509.887	97.25
510.103	135.25
510.319	194.25
510.536	657.25
510.752	1951.25
510.968	551.25
511.184	149.25
511.401	100.25
511.617	93.25
511.833	82.25
512.049	93.25
512.265	90.25
512.481	94.25
512.698	93.25
512.914	85.25
513.13	86.25
513.346	96.25
513.562	94.25
513.778	95.25
513.994	98.25
514.21	100.25
514.426	110.25
514.642	112.25
514.858	113.25
515.074	151.25
515.29	384.25
515.506	1242.25
515.721	451.25
515.937	129.25
516.153	97.25
516.369	116.25
516.585	91.25
