Data from Background_1_HRD10591_00080.txt Node
Date: Wed Nov 05 14:39:37 EST 2025
User: Yrep
Spectrometer: HR+D1059
Trigger mode: 1
Integration Time (sec): 1.000000E-1
Scans to average: 1
Electric dark correction enabled: true
Nonlinearity correction enabled: false
Boxcar width: 0
XAxis mode: Wavelengths
Number of Pixels in Spectrum: 2048
>>>>>Begin Spectral Data<<<<<
223.165	-3.94
223.4	-3.94
223.635	-3.94
223.869	-19.94
224.104	-15.94
224.338	-8.94
224.573	-28.94
224.808	-28.94
225.042	1.06
225.277	-3.94
225.511	-5.94
225.746	0.06
225.98	15.06
226.215	9.06
226.449	7.06
226.683	26.06
226.918	31.06
227.152	27.06
227.387	35.06
227.621	42.06
227.856	41.06
228.09	40.06
228.324	47.06
228.559	52.06
228.793	61.06
229.027	58.06
229.262	53.06
229.496	66.06
229.73	62.06
229.964	60.06
230.199	63.06
230.433	61.06
230.667	78.06
230.901	71.06
231.136	88.06
231.37	69.06
231.604	93.06
231.838	75.06
232.072	89.06
232.306	87.06
232.541	84.06
232.775	71.06
233.009	82.06
233.243	79.06
233.477	77.06
233.711	81.06
233.945	78.06
234.179	93.06
234.413	74.06
234.647	79.06
234.881	94.06
235.115	80.06
235.349	79.06
235.583	65.06
235.817	71.06
236.051	64.06
236.285	71.06
236.519	77.06
236.753	64.06
236.987	70.06
237.221	68.06
237.455	80.06
237.689	75.06
237.922	84.06
238.156	69.06
238.39	81.06
238.624	87.06
238.858	87.06
239.091	79.06
239.325	91.06
239.559	79.06
239.793	75.06
240.027	85.06
240.26	63.06
240.494	89.06
240.728	70.06
240.961	63.06
241.195	70.06
241.429	83.06
241.662	74.06
241.896	68.06
242.13	77.06
242.363	81.06
242.597	75.06
242.83	69.06
243.064	82.06
243.298	80.06
243.531	68.06
243.765	76.06
243.998	65.06
244.232	85.06
244.465	70.06
244.699	59.06
244.932	77.06
245.166	80.06
245.399	85.06
245.633	67.06
245.866	67.06
246.099	72.06
246.333	86.06
246.566	84.06
246.8	74.06
247.033	82.06
247.266	68.06
247.5	72.06
247.733	87.06
247.966	84.06
248.2	77.06
248.433	75.06
248.666	75.06
248.899	83.06
249.133	80.06
249.366	82.06
249.599	86.06
249.832	71.06
250.066	80.06
250.299	76.06
250.532	78.06
250.765	75.06
250.998	73.06
251.231	81.06
251.465	77.06
251.698	75.06
251.931	91.06
252.164	80.06
252.397	73.06
252.63	77.06
252.863	89.06
253.096	96.06
253.329	77.06
253.562	79.06
253.795	76.06
254.028	86.06
254.261	91.06
254.494	80.06
254.727	80.06
254.96	79.06
255.193	86.06
255.426	72.06
255.659	80.06
255.892	77.06
256.124	77.06
256.357	72.06
256.59	86.06
256.823	79.06
257.056	70.06
257.289	94.06
257.521	75.06
257.754	74.06
257.987	73.06
258.22	76.06
258.452	82.06
258.685	77.06
258.918	75.06
259.151	77.06
259.383	74.06
259.616	87.06
259.849	68.06
260.081	75.06
260.314	91.06
260.547	84.06
260.779	79.06
261.012	77.06
261.244	86.06
261.477	79.06
261.71	80.06
261.942	99.06
262.175	69.06
262.407	81.06
262.64	76.06
262.872	80.06
263.105	79.06
263.337	75.06
263.57	88.06
263.802	87.06
264.035	78.06
264.267	62.06
264.499	78.06
264.732	89.06
264.964	61.06
265.197	80.06
265.429	79.06
265.661	82.06
265.894	73.06
266.126	73.06
266.358	83.06
266.591	83.06
266.823	75.06
267.055	84.06
267.287	77.06
267.52	74.06
267.752	88.06
267.984	100.06
268.216	82.06
268.448	81.06
268.681	89.06
268.913	67.06
269.145	77.06
269.377	76.06
269.609	74.06
269.841	77.06
270.073	75.06
270.306	84.06
270.538	66.06
270.77	72.06
271.002	93.06
271.234	78.06
271.466	81.06
271.698	90.06
271.93	71.06
272.162	89.06
272.394	78.06
272.626	85.06
272.858	78.06
273.09	87.06
273.322	84.06
273.553	83.06
273.785	87.06
274.017	79.06
274.249	63.06
274.481	72.06
274.713	69.06
274.945	80.06
275.176	89.06
275.408	76.06
275.64	93.06
275.872	75.06
276.104	87.06
276.335	81.06
276.567	89.06
276.799	83.06
277.031	83.06
277.262	84.06
277.494	80.06
277.726	72.06
277.957	90.06
278.189	80.06
278.421	87.06
278.652	78.06
278.884	69.06
279.115	80.06
279.347	79.06
279.579	78.06
279.81	87.06
280.042	77.06
280.273	80.06
280.505	83.06
280.736	90.06
280.968	80.06
281.199	80.06
281.431	85.06
281.662	83.06
281.894	74.06
282.125	78.06
282.356	79.06
282.588	79.06
282.819	83.06
283.051	67.06
283.282	73.06
283.513	88.06
283.745	84.06
283.976	84.06
284.207	79.06
284.439	81.06
284.67	95.06
284.901	84.06
285.132	82.06
285.364	90.06
285.595	82.06
285.826	90.06
286.057	87.06
286.288	103.06
286.52	87.06
286.751	69.06
286.982	70.06
287.213	82.06
287.444	91.06
287.675	84.06
287.906	89.06
288.138	87.06
288.369	77.06
288.6	76.06
288.831	82.06
289.062	85.06
289.293	89.06
289.524	83.06
289.755	84.06
289.986	72.06
290.217	82.06
290.448	91.06
290.679	103.06
290.91	87.06
291.141	74.06
291.371	81.06
291.602	84.06
291.833	91.06
292.064	85.06
292.295	81.06
292.526	88.06
292.757	69.06
292.987	83.06
293.218	80.06
293.449	78.06
293.68	85.06
293.91	80.06
294.141	89.06
294.372	71.06
294.603	90.06
294.833	90.06
295.064	79.06
295.295	80.06
295.525	68.06
295.756	75.06
295.987	81.06
296.217	70.06
296.448	77.06
296.679	70.06
296.909	78.06
297.14	83.06
297.37	81.06
297.601	81.06
297.831	82.06
298.062	76.06
298.292	75.06
298.523	92.06
298.753	95.06
298.984	89.06
299.214	92.06
299.445	78.06
299.675	92.06
299.905	81.06
300.136	74.06
300.366	84.06
300.597	78.06
300.827	92.06
301.057	78.06
301.288	83.06
301.518	84.06
301.748	75.06
301.979	94.06
302.209	97.06
302.439	79.06
302.669	72.06
302.9	88.06
303.13	101.06
303.36	80.06
303.59	83.06
303.82	84.06
304.051	100.06
304.281	82.06
304.511	91.06
304.741	88.06
304.971	98.06
305.201	74.06
305.431	81.06
305.661	89.06
305.891	91.06
306.121	81.06
306.352	81.06
306.582	90.06
306.812	88.06
307.042	76.06
307.272	75.06
307.502	85.06
307.731	86.06
307.961	73.06
308.191	95.06
308.421	82.06
308.651	78.06
308.881	92.06
309.111	81.06
309.341	80.06
309.571	71.06
309.8	79.06
310.03	75.06
310.26	79.06
310.49	81.06
310.72	89.06
310.949	75.06
311.179	95.06
311.409	89.06
311.639	102.06
311.868	80.06
312.098	89.06
312.328	91.06
312.557	92.06
312.787	85.06
313.017	92.06
313.246	83.06
313.476	86.06
313.706	79.06
313.935	78.06
314.165	84.06
314.394	99.06
314.624	89.06
314.853	68.06
315.083	82.06
315.312	79.06
315.542	87.06
315.771	83.06
316.001	84.06
316.23	96.06
316.46	77.06
316.689	86.06
316.919	89.06
317.148	89.06
317.377	69.06
317.607	83.06
317.836	98.06
318.065	93.06
318.295	85.06
318.524	92.06
318.753	86.06
318.983	88.06
319.212	85.06
319.441	79.06
319.67	78.06
319.9	89.06
320.129	85.06
320.358	74.06
320.587	88.06
320.816	85.06
321.046	84.06
321.275	70.06
321.504	82.06
321.733	80.06
321.962	83.06
322.191	88.06
322.42	77.06
322.649	83.06
322.878	83.06
323.108	88.06
323.337	66.06
323.566	82.06
323.795	84.06
324.024	90.06
324.253	91.06
324.482	83.06
324.71	83.06
324.939	82.06
325.168	90.06
325.397	69.06
325.626	79.06
325.855	78.06
326.084	91.06
326.313	89.06
326.542	95.06
326.77	87.06
326.999	88.06
327.228	73.06
327.457	88.06
327.686	82.06
327.914	81.06
328.143	82.06
328.372	96.06
328.6	74.06
328.829	85.06
329.058	78.06
329.287	83.06
329.515	79.06
329.744	70.06
329.972	97.06
330.201	83.06
330.43	82.06
330.658	81.06
330.887	91.06
331.115	85.06
331.344	104.06
331.572	92.06
331.801	88.06
332.03	83.06
332.258	93.06
332.486	79.06
332.715	67.06
332.943	81.06
333.172	90.06
333.4	84.06
333.629	75.06
333.857	60.06
334.085	80.06
334.314	95.06
334.542	82.06
334.771	80.06
334.999	74.06
335.227	84.06
335.455	83.06
335.684	90.06
335.912	78.06
336.14	77.06
336.369	84.06
336.597	83.06
336.825	75.06
337.053	67.06
337.281	78.06
337.51	67.06
337.738	84.06
337.966	75.06
338.194	92.06
338.422	79.06
338.65	68.06
338.878	77.06
339.106	90.06
339.334	84.06
339.562	99.06
339.79	85.06
340.018	84.06
340.246	76.06
340.474	93.06
340.702	76.06
340.93	70.06
341.158	82.06
341.386	95.06
341.614	75.06
341.842	65.06
342.07	77.06
342.298	87.06
342.526	83.06
342.754	89.06
342.981	80.06
343.209	84.06
343.437	85.06
343.665	83.06
343.893	104.06
344.12	83.06
344.348	91.06
344.576	88.06
344.804	87.06
345.031	88.06
345.259	84.06
345.487	81.06
345.714	93.06
345.942	69.06
346.17	78.06
346.397	77.06
346.625	100.06
346.853	87.06
347.08	81.06
347.308	98.06
347.535	84.06
347.763	85.06
347.99	80.06
348.218	89.06
348.445	82.06
348.673	84.06
348.9	75.06
349.128	81.06
349.355	99.06
349.583	79.06
349.81	76.06
350.037	90.06
350.265	86.06
350.492	79.06
350.72	88.06
350.947	85.06
351.174	76.06
351.402	91.06
351.629	89.06
351.856	90.06
352.083	87.06
352.311	80.06
352.538	91.06
352.765	95.06
352.992	88.06
353.22	76.06
353.447	73.06
353.674	89.06
353.901	79.06
354.128	98.06
354.355	82.06
354.583	72.06
354.81	87.06
355.037	96.06
355.264	89.06
355.491	91.06
355.718	90.06
355.945	87.06
356.172	88.06
356.399	75.06
356.626	89.06
356.853	84.06
357.08	91.06
357.307	91.06
357.534	90.06
357.761	84.06
357.988	91.06
358.215	85.06
358.441	76.06
358.668	93.06
358.895	86.06
359.122	72.06
359.349	72.06
359.576	89.06
359.802	85.06
360.029	67.06
360.256	81.06
360.483	80.06
360.709	97.06
360.936	95.06
361.163	84.06
361.39	75.06
361.616	86.06
361.843	92.06
362.07	75.06
362.296	82.06
362.523	76.06
362.749	89.06
362.976	77.06
363.203	83.06
363.429	65.06
363.656	72.06
363.882	85.06
364.109	83.06
364.335	78.06
364.562	78.06
364.788	80.06
365.015	81.06
365.241	95.06
365.468	98.06
365.694	89.06
365.92	83.06
366.147	80.06
366.373	75.06
366.599	74.06
366.826	89.06
367.052	68.06
367.278	90.06
367.505	77.06
367.731	85.06
367.957	77.06
368.184	67.06
368.41	88.06
368.636	68.06
368.862	81.06
369.089	76.06
369.315	61.06
369.541	77.06
369.767	83.06
369.993	82.06
370.219	74.06
370.445	95.06
370.672	85.06
370.898	86.06
371.124	83.06
371.35	86.06
371.576	75.06
371.802	88.06
372.028	82.06
372.254	77.06
372.48	81.06
372.706	79.06
372.932	83.06
373.158	78.06
373.384	81.06
373.61	77.06
373.835	77.06
374.061	83.06
374.287	78.06
374.513	83.06
374.739	77.06
374.965	79.06
375.191	82.06
375.416	93.06
375.642	92.06
375.868	83.06
376.094	91.06
376.319	83.06
376.545	81.06
376.771	84.06
376.997	79.06
377.222	80.06
377.448	90.06
377.674	85.06
377.899	82.06
378.125	92.06
378.35	85.06
378.576	79.06
378.802	61.06
379.027	95.06
379.253	88.06
379.478	76.06
379.704	80.06
379.929	80.06
380.155	89.06
380.38	59.06
380.606	89.06
380.831	85.06
381.057	79.06
381.282	83.06
381.507	88.06
381.733	61.06
381.958	71.06
382.184	89.06
382.409	73.06
382.634	70.06
382.86	86.06
383.085	90.06
383.31	82.06
383.535	99.06
383.761	69.06
383.986	87.06
384.211	77.06
384.436	69.06
384.662	69.06
384.887	90.06
385.112	78.06
385.337	93.06
385.562	88.06
385.787	84.06
386.013	87.06
386.238	79.06
386.463	72.06
386.688	92.06
386.913	75.06
387.138	83.06
387.363	81.06
387.588	83.06
387.813	80.06
388.038	78.06
388.263	87.06
388.488	76.06
388.713	89.06
388.938	82.06
389.163	90.06
389.387	83.06
389.612	72.06
389.837	79.06
390.062	84.06
390.287	82.06
390.512	92.06
390.736	81.06
390.961	91.06
391.186	85.06
391.411	87.06
391.636	83.06
391.86	88.06
392.085	93.06
392.31	88.06
392.534	89.06
392.759	89.06
392.984	72.06
393.208	81.06
393.433	91.06
393.658	79.06
393.882	70.06
394.107	78.06
394.331	84.06
394.556	75.06
394.78	88.06
395.005	87.06
395.229	91.06
395.454	69.06
395.678	89.06
395.903	89.06
396.127	90.06
396.352	84.06
396.576	63.06
396.801	84.06
397.025	62.06
397.249	85.06
397.474	80.06
397.698	76.06
397.922	84.06
398.147	71.06
398.371	83.06
398.595	89.06
398.82	90.06
399.044	83.06
399.268	73.06
399.492	80.06
399.717	93.06
399.941	85.06
400.165	93.06
400.389	94.06
400.613	70.06
400.837	86.06
401.062	77.06
401.286	75.06
401.51	85.06
401.734	82.06
401.958	75.06
402.182	87.06
402.406	76.06
402.63	73.06
402.854	89.06
403.078	80.06
403.302	75.06
403.526	75.06
403.75	84.06
403.974	91.06
404.198	84.06
404.422	85.06
404.645	70.06
404.869	81.06
405.093	83.06
405.317	88.06
405.541	67.06
405.765	81.06
405.988	91.06
406.212	66.06
406.436	73.06
406.66	65.06
406.883	86.06
407.107	68.06
407.331	85.06
407.555	94.06
407.778	96.06
408.002	91.06
408.226	89.06
408.449	81.06
408.673	77.06
408.896	79.06
409.12	75.06
409.344	88.06
409.567	81.06
409.791	81.06
410.014	85.06
410.238	81.06
410.461	79.06
410.685	80.06
410.908	82.06
411.132	83.06
411.355	70.06
411.578	72.06
411.802	85.06
412.025	92.06
412.249	96.06
412.472	85.06
412.695	92.06
412.919	85.06
413.142	89.06
413.365	70.06
413.589	77.06
413.812	103.06
414.035	86.06
414.258	84.06
414.482	82.06
414.705	79.06
414.928	82.06
415.151	81.06
415.374	66.06
415.597	85.06
415.821	77.06
416.044	87.06
416.267	86.06
416.49	77.06
416.713	78.06
416.936	77.06
417.159	93.06
417.382	86.06
417.605	77.06
417.828	77.06
418.051	73.06
418.274	80.06
418.497	80.06
418.72	80.06
418.943	59.06
419.166	70.06
419.389	88.06
419.611	88.06
419.834	84.06
420.057	79.06
420.28	83.06
420.503	72.06
420.726	79.06
420.948	71.06
421.171	83.06
421.394	83.06
421.617	87.06
421.839	91.06
422.062	69.06
422.285	78.06
422.507	87.06
422.73	73.06
422.953	94.06
423.175	89.06
423.398	74.06
423.621	89.06
423.843	90.06
424.066	75.06
424.288	79.06
424.511	65.06
424.733	81.06
424.956	90.06
425.178	87.06
425.401	75.06
425.623	73.06
425.846	76.06
426.068	77.06
426.291	83.06
426.513	72.06
426.735	89.06
426.958	76.06
427.18	85.06
427.402	68.06
427.625	87.06
427.847	77.06
428.069	74.06
428.292	70.06
428.514	73.06
428.736	51.06
428.958	73.06
429.181	85.06
429.403	80.06
429.625	75.06
429.847	67.06
430.069	84.06
430.292	91.06
430.514	70.06
430.736	77.06
430.958	82.06
431.18	73.06
431.402	73.06
431.624	83.06
431.846	81.06
432.068	78.06
432.29	73.06
432.512	81.06
432.734	77.06
432.956	80.06
433.178	74.06
433.4	83.06
433.622	87.06
433.844	83.06
434.066	72.06
434.287	85.06
434.509	76.06
434.731	87.06
434.953	75.06
435.175	69.06
435.397	83.06
435.618	63.06
435.84	79.06
436.062	89.06
436.284	82.06
436.505	83.06
436.727	76.06
436.949	68.06
437.17	82.06
437.392	81.06
437.614	82.06
437.835	66.06
438.057	72.06
438.278	88.06
438.5	87.06
438.721	80.06
438.943	75.06
439.165	66.06
439.386	86.06
439.608	86.06
439.829	88.06
440.05	88.06
440.272	78.06
440.493	89.06
440.715	76.06
440.936	82.06
441.158	73.06
441.379	85.06
441.6	91.06
441.822	78.06
442.043	84.06
442.264	86.06
442.486	75.06
442.707	79.06
442.928	61.06
443.149	77.06
443.371	73.06
443.592	67.06
443.813	80.06
444.034	73.06
444.255	76.06
444.476	77.06
444.698	68.06
444.919	81.06
445.14	148.06
445.361	124.06
445.582	74.06
445.803	73.06
446.024	84.06
446.245	85.06
446.466	92.06
446.687	71.06
446.908	81.06
447.129	73.06
447.35	75.06
447.571	83.06
447.792	79.06
448.013	86.06
448.234	90.06
448.455	73.06
448.675	69.06
448.896	79.06
449.117	78.06
449.338	88.06
449.559	80.06
449.779	75.06
450	92.06
450.221	78.06
450.442	76.06
450.662	63.06
450.883	81.06
451.104	73.06
451.324	77.06
451.545	85.06
451.766	75.06
451.986	61.06
452.207	88.06
452.428	85.06
452.648	58.06
452.869	70.06
453.089	70.06
453.31	76.06
453.53	87.06
453.751	83.06
453.971	79.06
454.192	80.06
454.412	73.06
454.633	87.06
454.853	88.06
455.073	79.06
455.294	80.06
455.514	80.06
455.734	78.06
455.955	92.06
456.175	76.06
456.395	80.06
456.616	78.06
456.836	73.06
457.056	82.06
457.276	72.06
457.497	74.06
457.717	89.06
457.937	96.06
458.157	79.06
458.377	85.06
458.598	79.06
458.818	74.06
459.038	84.06
459.258	84.06
459.478	83.06
459.698	74.06
459.918	76.06
460.138	87.06
460.358	91.06
460.578	79.06
460.798	79.06
461.018	75.06
461.238	87.06
461.458	82.06
461.678	74.06
461.898	76.06
462.118	79.06
462.338	100.06
462.558	78.06
462.777	90.06
462.997	94.06
463.217	72.06
463.437	92.06
463.657	73.06
463.876	71.06
464.096	84.06
464.316	71.06
464.536	73.06
464.755	82.06
464.975	83.06
465.195	87.06
465.414	89.06
465.634	81.06
465.854	78.06
466.073	84.06
466.293	87.06
466.512	84.06
466.732	71.06
466.951	67.06
467.171	75.06
467.391	77.06
467.61	72.06
467.829	78.06
468.049	76.06
468.268	64.06
468.488	88.06
468.707	85.06
468.927	79.06
469.146	80.06
469.365	75.06
469.585	94.06
469.804	78.06
470.023	75.06
470.243	78.06
470.462	82.06
470.681	82.06
470.901	66.06
471.12	68.06
471.339	77.06
471.558	76.06
471.777	71.06
471.997	73.06
472.216	84.06
472.435	84.06
472.654	73.06
472.873	85.06
473.092	86.06
473.311	84.06
473.53	72.06
473.749	63.06
473.968	84.06
474.187	91.06
474.406	74.06
474.625	85.06
474.844	68.06
475.063	68.06
475.282	86.06
475.501	80.06
475.72	79.06
475.939	79.06
476.158	90.06
476.377	78.06
476.596	79.06
476.814	61.06
477.033	73.06
477.252	70.06
477.471	66.06
477.69	77.06
477.908	85.06
478.127	88.06
478.346	89.06
478.564	85.06
478.783	76.06
479.002	70.06
479.22	78.06
479.439	80.06
479.658	82.06
479.876	77.06
480.095	69.06
480.313	64.06
480.532	81.06
480.751	86.06
480.969	73.06
481.188	73.06
481.406	97.06
481.624	83.06
481.843	81.06
482.061	83.06
482.28	76.06
482.498	73.06
482.717	87.06
482.935	74.06
483.153	81.06
483.372	94.06
483.59	89.06
483.808	79.06
484.027	91.06
484.245	78.06
484.463	76.06
484.681	81.06
484.9	87.06
485.118	85.06
485.336	81.06
485.554	77.06
485.772	89.06
485.99	79.06
486.209	87.06
486.427	70.06
486.645	80.06
486.863	101.06
487.081	85.06
487.299	87.06
487.517	81.06
487.735	77.06
487.953	89.06
488.171	83.06
488.389	88.06
488.607	85.06
488.825	76.06
489.043	81.06
489.261	67.06
489.479	78.06
489.696	81.06
489.914	93.06
490.132	84.06
490.35	98.06
490.568	81.06
490.786	91.06
491.003	94.06
491.221	77.06
491.439	70.06
491.657	85.06
491.874	92.06
492.092	97.06
492.31	93.06
492.527	93.06
492.745	73.06
492.963	82.06
493.18	80.06
493.398	85.06
493.615	85.06
493.833	81.06
494.05	72.06
494.268	87.06
494.485	87.06
494.703	91.06
494.92	81.06
495.138	67.06
495.355	85.06
495.573	80.06
495.79	71.06
496.008	68.06
496.225	91.06
496.442	74.06
496.66	84.06
496.877	76.06
497.094	77.06
497.312	74.06
497.529	80.06
497.746	90.06
497.963	79.06
498.181	65.06
498.398	81.06
498.615	88.06
498.832	90.06
499.049	97.06
499.267	85.06
499.484	71.06
499.701	75.06
499.918	65.06
500.135	66.06
500.352	88.06
500.569	92.06
500.786	90.06
501.003	86.06
501.22	79.06
501.437	80.06
501.654	77.06
501.871	70.06
502.088	74.06
502.305	70.06
502.522	84.06
502.739	79.06
502.956	87.06
503.172	93.06
503.389	90.06
503.606	81.06
503.823	83.06
504.04	72.06
504.256	92.06
504.473	80.06
504.69	80.06
504.907	80.06
505.123	69.06
505.34	70.06
505.557	85.06
505.773	84.06
505.99	82.06
506.207	90.06
506.423	89.06
506.64	80.06
506.856	79.06
507.073	97.06
507.289	97.06
507.506	90.06
507.722	70.06
507.939	86.06
508.155	66.06
508.372	79.06
508.588	80.06
508.805	91.06
509.021	79.06
509.238	74.06
509.454	75.06
509.67	73.06
509.887	89.06
510.103	83.06
510.319	83.06
510.536	78.06
510.752	81.06
510.968	82.06
511.184	79.06
511.401	81.06
511.617	82.06
511.833	88.06
512.049	89.06
512.265	91.06
512.481	84.06
512.698	82.06
512.914	73.06
513.13	82.06
513.346	84.06
513.562	72.06
513.778	87.06
513.994	72.06
514.21	71.06
514.426	88.06
514.642	94.06
514.858	83.06
515.074	81.06
515.29	73.06
515.506	62.06
515.721	83.06
515.937	66.06
516.153	80.06
516.369	100.06
516.585	90.06
516.801	84.06
517.016	75.06
517.232	66.06
517.448	80.06
517.664	74.06
517.879	89.06
518.095	88.06
518.311	77.06
518.527	89.06
518.742	78.06
518.958	81.06
519.173	91.06
519.389	77.06
519.605	83.06
519.82	77.06
520.036	93.06
