Data from Background_1_HRD10591_00083.txt Node
Date: Wed Nov 05 14:39:39 EST 2025
User: Yrep
Spectrometer: HR+D1059
Trigger mode: 1
Integration Time (sec): 1.000000E-1
Scans to average: 1
Electric dark correction enabled: true
Nonlinearity correction enabled: false
Boxcar width: 0
XAxis mode: Wavelengths
Number of Pixels in Spectrum: 2048
>>>>>Begin Spectral Data<<<<<
223.165	-12.56
223.4	-12.56
223.635	-12.56
223.869	-31.56
224.104	-35.56
224.338	-6.56
224.573	-15.56
224.808	-7.56
225.042	-0.56
225.277	-5.56
225.511	10.44
225.746	11.44
225.98	-1.56
226.215	13.44
226.449	16.44
226.683	12.44
226.918	32.44
227.152	20.44
227.387	39.44
227.621	48.44
227.856	17.44
228.09	41.44
228.324	61.44
228.559	59.44
228.793	69.44
229.027	74.44
229.262	81.44
229.496	61.44
229.73	81.44
229.964	63.44
230.199	75.44
230.433	83.44
230.667	64.44
230.901	82.44
231.136	67.44
231.37	80.44
231.604	70.44
231.838	79.44
232.072	81.44
232.306	83.44
232.541	76.44
232.775	77.44
233.009	73.44
233.243	67.44
233.477	78.44
233.711	70.44
233.945	89.44
234.179	83.44
234.413	88.44
234.647	81.44
234.881	82.44
235.115	76.44
235.349	89.44
235.583	75.44
235.817	66.44
236.051	83.44
236.285	85.44
236.519	76.44
236.753	81.44
236.987	77.44
237.221	59.44
237.455	68.44
237.689	74.44
237.922	73.44
238.156	70.44
238.39	80.44
238.624	70.44
238.858	75.44
239.091	93.44
239.325	96.44
239.559	90.44
239.793	68.44
240.027	68.44
240.26	79.44
240.494	75.44
240.728	69.44
240.961	68.44
241.195	68.44
241.429	76.44
241.662	74.44
241.896	82.44
242.13	81.44
242.363	66.44
242.597	65.44
242.83	78.44
243.064	77.44
243.298	76.44
243.531	79.44
243.765	87.44
243.998	70.44
244.232	74.44
244.465	86.44
244.699	69.44
244.932	70.44
245.166	79.44
245.399	70.44
245.633	85.44
245.866	70.44
246.099	64.44
246.333	91.44
246.566	81.44
246.8	67.44
247.033	85.44
247.266	64.44
247.5	79.44
247.733	83.44
247.966	69.44
248.2	83.44
248.433	69.44
248.666	69.44
248.899	70.44
249.133	84.44
249.366	85.44
249.599	88.44
249.832	82.44
250.066	88.44
250.299	70.44
250.532	60.44
250.765	63.44
250.998	83.44
251.231	81.44
251.465	79.44
251.698	77.44
251.931	95.44
252.164	89.44
252.397	79.44
252.63	82.44
252.863	80.44
253.096	59.44
253.329	85.44
253.562	82.44
253.795	76.44
254.028	79.44
254.261	82.44
254.494	99.44
254.727	86.44
254.96	92.44
255.193	81.44
255.426	79.44
255.659	76.44
255.892	74.44
256.124	78.44
256.357	77.44
256.59	79.44
256.823	80.44
257.056	83.44
257.289	82.44
257.521	84.44
257.754	81.44
257.987	84.44
258.22	90.44
258.452	100.44
258.685	77.44
258.918	75.44
259.151	84.44
259.383	71.44
259.616	74.44
259.849	84.44
260.081	90.44
260.314	93.44
260.547	75.44
260.779	77.44
261.012	81.44
261.244	75.44
261.477	75.44
261.71	81.44
261.942	74.44
262.175	71.44
262.407	74.44
262.64	88.44
262.872	92.44
263.105	85.44
263.337	78.44
263.57	99.44
263.802	88.44
264.035	85.44
264.267	80.44
264.499	79.44
264.732	88.44
264.964	73.44
265.197	76.44
265.429	80.44
265.661	74.44
265.894	77.44
266.126	82.44
266.358	75.44
266.591	87.44
266.823	76.44
267.055	69.44
267.287	59.44
267.52	77.44
267.752	75.44
267.984	100.44
268.216	76.44
268.448	87.44
268.681	85.44
268.913	76.44
269.145	83.44
269.377	84.44
269.609	73.44
269.841	83.44
270.073	81.44
270.306	72.44
270.538	91.44
270.77	76.44
271.002	90.44
271.234	77.44
271.466	96.44
271.698	65.44
271.93	78.44
272.162	86.44
272.394	79.44
272.626	90.44
272.858	95.44
273.09	90.44
273.322	73.44
273.553	71.44
273.785	94.44
274.017	82.44
274.249	82.44
274.481	94.44
274.713	73.44
274.945	75.44
275.176	82.44
275.408	76.44
275.64	81.44
275.872	77.44
276.104	66.44
276.335	87.44
276.567	78.44
276.799	80.44
277.031	73.44
277.262	92.44
277.494	85.44
277.726	89.44
277.957	82.44
278.189	83.44
278.421	96.44
278.652	90.44
278.884	81.44
279.115	87.44
279.347	91.44
279.579	74.44
279.81	92.44
280.042	95.44
280.273	98.44
280.505	87.44
280.736	84.44
280.968	77.44
281.199	84.44
281.431	97.44
281.662	82.44
281.894	80.44
282.125	87.44
282.356	76.44
282.588	82.44
282.819	67.44
283.051	76.44
283.282	88.44
283.513	93.44
283.745	78.44
283.976	85.44
284.207	83.44
284.439	91.44
284.67	102.44
284.901	83.44
285.132	78.44
285.364	102.44
285.595	95.44
285.826	87.44
286.057	87.44
286.288	84.44
286.52	87.44
286.751	81.44
286.982	105.44
287.213	89.44
287.444	81.44
287.675	88.44
287.906	85.44
288.138	93.44
288.369	95.44
288.6	70.44
288.831	76.44
289.062	90.44
289.293	77.44
289.524	85.44
289.755	91.44
289.986	73.44
290.217	100.44
290.448	85.44
290.679	74.44
290.91	94.44
291.141	91.44
291.371	69.44
291.602	69.44
291.833	76.44
292.064	95.44
292.295	89.44
292.526	67.44
292.757	81.44
292.987	75.44
293.218	81.44
293.449	75.44
293.68	82.44
293.91	69.44
294.141	90.44
294.372	80.44
294.603	88.44
294.833	88.44
295.064	80.44
295.295	75.44
295.525	73.44
295.756	80.44
295.987	81.44
296.217	87.44
296.448	88.44
296.679	87.44
296.909	86.44
297.14	86.44
297.37	72.44
297.601	69.44
297.831	75.44
298.062	85.44
298.292	71.44
298.523	81.44
298.753	91.44
298.984	80.44
299.214	87.44
299.445	79.44
299.675	77.44
299.905	103.44
300.136	93.44
300.366	107.44
300.597	76.44
300.827	67.44
301.057	83.44
301.288	86.44
301.518	79.44
301.748	89.44
301.979	86.44
302.209	91.44
302.439	83.44
302.669	78.44
302.9	92.44
303.13	94.44
303.36	83.44
303.59	97.44
303.82	87.44
304.051	82.44
304.281	91.44
304.511	90.44
304.741	97.44
304.971	91.44
305.201	83.44
305.431	80.44
305.661	70.44
305.891	79.44
306.121	82.44
306.352	82.44
306.582	88.44
306.812	83.44
307.042	79.44
307.272	80.44
307.502	76.44
307.731	89.44
307.961	73.44
308.191	89.44
308.421	70.44
308.651	81.44
308.881	80.44
309.111	76.44
309.341	84.44
309.571	82.44
309.8	81.44
310.03	90.44
310.26	73.44
310.49	99.44
310.72	75.44
310.949	88.44
311.179	71.44
311.409	73.44
311.639	66.44
311.868	82.44
312.098	83.44
312.328	96.44
312.557	87.44
312.787	66.44
313.017	88.44
313.246	83.44
313.476	84.44
313.706	78.44
313.935	84.44
314.165	72.44
314.394	89.44
314.624	73.44
314.853	79.44
315.083	73.44
315.312	91.44
315.542	76.44
315.771	88.44
316.001	91.44
316.23	84.44
316.46	84.44
316.689	81.44
316.919	79.44
317.148	76.44
317.377	75.44
317.607	84.44
317.836	88.44
318.065	90.44
318.295	88.44
318.524	75.44
318.753	74.44
318.983	75.44
319.212	83.44
319.441	79.44
319.67	83.44
319.9	76.44
320.129	92.44
320.358	81.44
320.587	89.44
320.816	90.44
321.046	79.44
321.275	82.44
321.504	91.44
321.733	90.44
321.962	88.44
322.191	95.44
322.42	92.44
322.649	97.44
322.878	76.44
323.108	83.44
323.337	79.44
323.566	91.44
323.795	81.44
324.024	79.44
324.253	74.44
324.482	73.44
324.71	97.44
324.939	88.44
325.168	95.44
325.397	83.44
325.626	73.44
325.855	75.44
326.084	80.44
326.313	75.44
326.542	81.44
326.77	84.44
326.999	85.44
327.228	84.44
327.457	74.44
327.686	83.44
327.914	77.44
328.143	95.44
328.372	75.44
328.6	87.44
328.829	91.44
329.058	94.44
329.287	81.44
329.515	81.44
329.744	84.44
329.972	86.44
330.201	81.44
330.43	92.44
330.658	77.44
330.887	79.44
331.115	92.44
331.344	79.44
331.572	90.44
331.801	83.44
332.03	92.44
332.258	75.44
332.486	92.44
332.715	81.44
332.943	84.44
333.172	89.44
333.4	79.44
333.629	92.44
333.857	81.44
334.085	88.44
334.314	79.44
334.542	87.44
334.771	92.44
334.999	94.44
335.227	85.44
335.455	85.44
335.684	75.44
335.912	90.44
336.14	90.44
336.369	91.44
336.597	75.44
336.825	87.44
337.053	104.44
337.281	92.44
337.51	90.44
337.738	90.44
337.966	82.44
338.194	75.44
338.422	77.44
338.65	85.44
338.878	90.44
339.106	82.44
339.334	89.44
339.562	90.44
339.79	75.44
340.018	89.44
340.246	87.44
340.474	73.44
340.702	82.44
340.93	87.44
341.158	73.44
341.386	94.44
341.614	99.44
341.842	76.44
342.07	91.44
342.298	78.44
342.526	87.44
342.754	84.44
342.981	92.44
343.209	80.44
343.437	101.44
343.665	81.44
343.893	79.44
344.12	79.44
344.348	80.44
344.576	92.44
344.804	87.44
345.031	81.44
345.259	84.44
345.487	86.44
345.714	74.44
345.942	92.44
346.17	87.44
346.397	86.44
346.625	80.44
346.853	77.44
347.08	74.44
347.308	96.44
347.535	91.44
347.763	80.44
347.99	95.44
348.218	75.44
348.445	84.44
348.673	87.44
348.9	101.44
349.128	82.44
349.355	104.44
349.583	77.44
349.81	87.44
350.037	77.44
350.265	78.44
350.492	89.44
350.72	80.44
350.947	80.44
351.174	90.44
351.402	87.44
351.629	91.44
351.856	86.44
352.083	71.44
352.311	98.44
352.538	85.44
352.765	81.44
352.992	90.44
353.22	76.44
353.447	76.44
353.674	91.44
353.901	82.44
354.128	72.44
354.355	84.44
354.583	73.44
354.81	79.44
355.037	81.44
355.264	83.44
355.491	78.44
355.718	93.44
355.945	83.44
356.172	93.44
356.399	93.44
356.626	84.44
356.853	84.44
357.08	88.44
357.307	75.44
357.534	80.44
357.761	83.44
357.988	95.44
358.215	73.44
358.441	89.44
358.668	85.44
358.895	79.44
359.122	80.44
359.349	92.44
359.576	87.44
359.802	75.44
360.029	74.44
360.256	84.44
360.483	85.44
360.709	67.44
360.936	80.44
361.163	84.44
361.39	80.44
361.616	92.44
361.843	73.44
362.07	84.44
362.296	84.44
362.523	91.44
362.749	79.44
362.976	76.44
363.203	75.44
363.429	84.44
363.656	89.44
363.882	86.44
364.109	80.44
364.335	87.44
364.562	83.44
364.788	71.44
365.015	87.44
365.241	68.44
365.468	70.44
365.694	76.44
365.92	95.44
366.147	65.44
366.373	90.44
366.599	75.44
366.826	71.44
367.052	85.44
367.278	76.44
367.505	79.44
367.731	87.44
367.957	77.44
368.184	79.44
368.41	92.44
368.636	82.44
368.862	75.44
369.089	93.44
369.315	83.44
369.541	88.44
369.767	79.44
369.993	81.44
370.219	80.44
370.445	88.44
370.672	98.44
370.898	78.44
371.124	83.44
371.35	77.44
371.576	84.44
371.802	87.44
372.028	80.44
372.254	88.44
372.48	78.44
372.706	89.44
372.932	90.44
373.158	86.44
373.384	87.44
373.61	89.44
373.835	81.44
374.061	71.44
374.287	88.44
374.513	92.44
374.739	92.44
374.965	81.44
375.191	77.44
375.416	85.44
375.642	69.44
375.868	89.44
376.094	81.44
376.319	79.44
376.545	92.44
376.771	82.44
376.997	65.44
377.222	83.44
377.448	89.44
377.674	66.44
377.899	83.44
378.125	84.44
378.35	87.44
378.576	84.44
378.802	76.44
379.027	81.44
379.253	80.44
379.478	75.44
379.704	81.44
379.929	73.44
380.155	74.44
380.38	75.44
380.606	65.44
380.831	79.44
381.057	96.44
381.282	70.44
381.507	91.44
381.733	83.44
381.958	86.44
382.184	72.44
382.409	76.44
382.634	83.44
382.86	75.44
383.085	67.44
383.31	83.44
383.535	74.44
383.761	77.44
383.986	73.44
384.211	79.44
384.436	90.44
384.662	78.44
384.887	69.44
385.112	78.44
385.337	85.44
385.562	81.44
385.787	78.44
386.013	78.44
386.238	87.44
386.463	80.44
386.688	90.44
386.913	87.44
387.138	80.44
387.363	79.44
387.588	90.44
387.813	81.44
388.038	85.44
388.263	87.44
388.488	66.44
388.713	86.44
388.938	74.44
389.163	77.44
389.387	84.44
389.612	85.44
389.837	92.44
390.062	88.44
390.287	95.44
390.512	80.44
390.736	83.44
390.961	75.44
391.186	72.44
391.411	73.44
391.636	84.44
391.86	74.44
392.085	87.44
392.31	72.44
392.534	73.44
392.759	81.44
392.984	73.44
393.208	81.44
393.433	84.44
393.658	64.44
393.882	82.44
394.107	72.44
394.331	76.44
394.556	80.44
394.78	82.44
395.005	82.44
395.229	77.44
395.454	84.44
395.678	81.44
395.903	88.44
396.127	89.44
396.352	101.44
396.576	80.44
396.801	96.44
397.025	72.44
397.249	75.44
397.474	94.44
397.698	87.44
397.922	75.44
398.147	75.44
398.371	76.44
398.595	89.44
398.82	90.44
399.044	77.44
399.268	84.44
399.492	98.44
399.717	75.44
399.941	76.44
400.165	72.44
400.389	80.44
400.613	77.44
400.837	70.44
401.062	83.44
401.286	80.44
401.51	75.44
401.734	90.44
401.958	91.44
402.182	98.44
402.406	80.44
402.63	89.44
402.854	90.44
403.078	68.44
403.302	61.44
403.526	79.44
403.75	97.44
403.974	84.44
404.198	81.44
404.422	84.44
404.645	83.44
404.869	79.44
405.093	89.44
405.317	96.44
405.541	93.44
405.765	80.44
405.988	87.44
406.212	82.44
406.436	71.44
406.66	85.44
406.883	84.44
407.107	83.44
407.331	85.44
407.555	73.44
407.778	71.44
408.002	60.44
408.226	80.44
408.449	77.44
408.673	80.44
408.896	75.44
409.12	87.44
409.344	89.44
409.567	84.44
409.791	65.44
410.014	63.44
410.238	79.44
410.461	91.44
410.685	76.44
410.908	65.44
411.132	71.44
411.355	68.44
411.578	81.44
411.802	75.44
412.025	74.44
412.249	83.44
412.472	75.44
412.695	81.44
412.919	74.44
413.142	84.44
413.365	77.44
413.589	83.44
413.812	69.44
414.035	96.44
414.258	72.44
414.482	75.44
414.705	83.44
414.928	80.44
415.151	88.44
415.374	69.44
415.597	80.44
415.821	65.44
416.044	83.44
416.267	81.44
416.49	85.44
416.713	88.44
416.936	79.44
417.159	86.44
417.382	84.44
417.605	78.44
417.828	77.44
418.051	71.44
418.274	88.44
418.497	83.44
418.72	77.44
418.943	80.44
419.166	74.44
419.389	85.44
419.611	69.44
419.834	84.44
420.057	71.44
420.28	82.44
420.503	80.44
420.726	68.44
420.948	79.44
421.171	83.44
421.394	97.44
421.617	87.44
421.839	79.44
422.062	77.44
422.285	75.44
422.507	91.44
422.73	74.44
422.953	74.44
423.175	84.44
423.398	72.44
423.621	77.44
423.843	67.44
424.066	68.44
424.288	74.44
424.511	77.44
424.733	69.44
424.956	76.44
425.178	87.44
425.401	87.44
425.623	90.44
425.846	74.44
426.068	69.44
426.291	92.44
426.513	80.44
426.735	73.44
426.958	70.44
427.18	67.44
427.402	65.44
427.625	87.44
427.847	75.44
428.069	105.44
428.292	70.44
428.514	82.44
428.736	85.44
428.958	82.44
429.181	74.44
429.403	78.44
429.625	78.44
429.847	76.44
430.069	69.44
430.292	73.44
430.514	83.44
430.736	88.44
430.958	84.44
431.18	83.44
431.402	92.44
431.624	77.44
431.846	57.44
432.068	67.44
432.29	80.44
432.512	95.44
432.734	70.44
432.956	71.44
433.178	78.44
433.4	73.44
433.622	93.44
433.844	82.44
434.066	71.44
434.287	76.44
434.509	92.44
434.731	75.44
434.953	73.44
435.175	75.44
435.397	71.44
435.618	74.44
435.84	92.44
436.062	85.44
436.284	69.44
436.505	73.44
436.727	67.44
436.949	80.44
437.17	85.44
437.392	93.44
437.614	79.44
437.835	75.44
438.057	68.44
438.278	81.44
438.5	84.44
438.721	72.44
438.943	70.44
439.165	68.44
439.386	68.44
439.608	84.44
439.829	80.44
440.05	82.44
440.272	87.44
440.493	83.44
440.715	85.44
440.936	75.44
441.158	91.44
441.379	76.44
441.6	84.44
441.822	73.44
442.043	63.44
442.264	73.44
442.486	82.44
442.707	81.44
442.928	83.44
443.149	78.44
443.371	84.44
443.592	80.44
443.813	57.44
444.034	80.44
444.255	90.44
444.476	72.44
444.698	81.44
444.919	85.44
445.14	156.44
445.361	131.44
445.582	79.44
445.803	79.44
446.024	72.44
446.245	87.44
446.466	81.44
446.687	78.44
446.908	81.44
447.129	71.44
447.35	77.44
447.571	92.44
447.792	67.44
448.013	59.44
448.234	67.44
448.455	61.44
448.675	94.44
448.896	83.44
449.117	80.44
449.338	78.44
449.559	79.44
449.779	71.44
450	93.44
450.221	87.44
450.442	83.44
450.662	64.44
450.883	92.44
451.104	70.44
451.324	71.44
451.545	70.44
451.766	81.44
451.986	83.44
452.207	84.44
452.428	75.44
452.648	86.44
452.869	94.44
453.089	88.44
453.31	79.44
453.53	79.44
453.751	81.44
453.971	62.44
454.192	76.44
454.412	71.44
454.633	72.44
454.853	83.44
455.073	87.44
455.294	81.44
455.514	84.44
455.734	79.44
455.955	85.44
456.175	77.44
456.395	76.44
456.616	76.44
456.836	68.44
457.056	74.44
457.276	73.44
457.497	72.44
457.717	84.44
457.937	63.44
458.157	81.44
458.377	74.44
458.598	67.44
458.818	90.44
459.038	64.44
459.258	74.44
459.478	79.44
459.698	75.44
459.918	84.44
460.138	77.44
460.358	81.44
460.578	80.44
460.798	76.44
461.018	83.44
461.238	64.44
461.458	79.44
461.678	82.44
461.898	75.44
462.118	78.44
462.338	68.44
462.558	72.44
462.777	87.44
462.997	82.44
463.217	67.44
463.437	81.44
463.657	66.44
463.876	79.44
464.096	74.44
464.316	81.44
464.536	74.44
464.755	68.44
464.975	82.44
465.195	74.44
465.414	75.44
465.634	78.44
465.854	68.44
466.073	91.44
466.293	92.44
466.512	91.44
466.732	96.44
466.951	73.44
467.171	82.44
467.391	91.44
467.61	75.44
467.829	78.44
468.049	79.44
468.268	59.44
468.488	73.44
468.707	93.44
468.927	75.44
469.146	76.44
469.365	81.44
469.585	83.44
469.804	72.44
470.023	75.44
470.243	79.44
470.462	77.44
470.681	79.44
470.901	82.44
471.12	71.44
471.339	86.44
471.558	68.44
471.777	85.44
471.997	73.44
472.216	83.44
472.435	81.44
472.654	96.44
472.873	91.44
473.092	67.44
473.311	73.44
473.53	79.44
473.749	70.44
473.968	100.44
474.187	87.44
474.406	80.44
474.625	92.44
474.844	91.44
475.063	85.44
475.282	82.44
475.501	78.44
475.72	107.44
475.939	80.44
476.158	78.44
476.377	84.44
476.596	84.44
476.814	90.44
477.033	74.44
477.252	89.44
477.471	80.44
477.69	84.44
477.908	76.44
478.127	96.44
478.346	75.44
478.564	78.44
478.783	76.44
479.002	90.44
479.22	88.44
479.439	89.44
479.658	81.44
479.876	79.44
480.095	90.44
480.313	87.44
480.532	98.44
480.751	89.44
480.969	85.44
481.188	83.44
481.406	84.44
481.624	76.44
481.843	80.44
482.061	79.44
482.28	84.44
482.498	92.44
482.717	84.44
482.935	81.44
483.153	99.44
483.372	85.44
483.59	81.44
483.808	77.44
484.027	76.44
484.245	79.44
484.463	95.44
484.681	82.44
484.9	91.44
485.118	78.44
485.336	75.44
485.554	75.44
485.772	90.44
485.99	82.44
486.209	77.44
486.427	87.44
486.645	82.44
486.863	89.44
487.081	71.44
487.299	79.44
487.517	83.44
487.735	83.44
487.953	81.44
488.171	85.44
488.389	87.44
488.607	84.44
488.825	85.44
489.043	85.44
489.261	76.44
489.479	81.44
489.696	85.44
489.914	80.44
490.132	88.44
490.35	95.44
490.568	97.44
490.786	88.44
491.003	87.44
491.221	84.44
491.439	87.44
491.657	81.44
491.874	88.44
492.092	80.44
492.31	83.44
492.527	77.44
492.745	84.44
492.963	85.44
493.18	80.44
493.398	74.44
493.615	88.44
493.833	98.44
494.05	90.44
494.268	100.44
494.485	79.44
494.703	79.44
494.92	100.44
495.138	81.44
495.355	84.44
495.573	67.44
495.79	75.44
496.008	70.44
496.225	78.44
496.442	68.44
496.66	81.44
496.877	84.44
497.094	92.44
497.312	77.44
497.529	83.44
497.746	87.44
497.963	83.44
498.181	82.44
498.398	75.44
498.615	87.44
498.832	87.44
499.049	87.44
499.267	73.44
499.484	65.44
499.701	67.44
499.918	90.44
500.135	100.44
500.352	80.44
500.569	75.44
500.786	73.44
501.003	81.44
501.22	67.44
501.437	75.44
501.654	75.44
501.871	90.44
502.088	95.44
502.305	92.44
502.522	73.44
502.739	66.44
502.956	83.44
503.172	78.44
503.389	100.44
503.606	92.44
503.823	84.44
504.04	74.44
504.256	83.44
504.473	78.44
504.69	90.44
504.907	84.44
505.123	85.44
505.34	87.44
505.557	74.44
505.773	75.44
505.99	82.44
506.207	84.44
506.423	84.44
506.64	90.44
506.856	81.44
507.073	95.44
507.289	76.44
507.506	81.44
507.722	75.44
507.939	72.44
508.155	72.44
508.372	90.44
508.588	79.44
508.805	77.44
509.021	63.44
509.238	77.44
509.454	79.44
509.67	77.44
509.887	84.44
510.103	75.44
510.319	76.44
510.536	92.44
510.752	74.44
510.968	76.44
511.184	65.44
511.401	71.44
511.617	79.44
511.833	89.44
512.049	98.44
512.265	96.44
512.481	93.44
512.698	85.44
512.914	76.44
513.13	75.44
513.346	75.44
513.562	85.44
513.778	85.44
513.994	92.44
514.21	70.44
514.426	85.44
514.642	89.44
514.858	88.44
515.074	88.44
515.29	84.44
515.506	79.44
515.721	82.44
515.937	78.44
516.153	82.44
516.369	85.44
516.585	69.44
516.801	82.44
517.016	85.44
517.232	80.44
517.448	77.44
517.664	86.44
517.879	86.44
518.095	75.44
518.311	74.44
518.527	87.44
518.742	72.44
518.958	75.44
519.173	79.44
519.389	75.44
519.605	77.44
519.82	83.44
