Data from Background_1_HRD10591_00006.txt Node
Date: Wed Nov 05 14:39:01 EST 2025
User: Yrep
Spectrometer: HR+D1059
Trigger mode: 1
Integration Time (sec): 1.000000E-1
Scans to average: 1
Electric dark correction enabled: true
Nonlinearity correction enabled: false
Boxcar width: 0
XAxis mode: Wavelengths
Number of Pixels in Spectrum: 2048
>>>>>Begin Spectral Data<<<<<
223.165	-17.75
223.4	-17.75
223.635	-17.75
223.869	-11.75
224.104	-24.75
224.338	-12.75
224.573	-18.75
224.808	-20.75
225.042	-11.75
225.277	-6.75
225.511	5.25
225.746	0.25
225.98	14.25
226.215	9.25
226.449	30.25
226.683	20.25
226.918	21.25
227.152	24.25
227.387	27.25
227.621	37.25
227.856	42.25
228.09	44.25
228.324	38.25
228.559	57.25
228.793	54.25
229.027	65.25
229.262	69.25
229.496	67.25
229.73	71.25
229.964	70.25
230.199	70.25
230.433	75.25
230.667	86.25
230.901	78.25
231.136	75.25
231.37	81.25
231.604	91.25
231.838	76.25
232.072	80.25
232.306	78.25
232.541	85.25
232.775	87.25
233.009	79.25
233.243	82.25
233.477	83.25
233.711	69.25
233.945	83.25
234.179	90.25
234.413	95.25
234.647	85.25
234.881	73.25
235.115	86.25
235.349	78.25
235.583	82.25
235.817	89.25
236.051	69.25
236.285	75.25
236.519	76.25
236.753	57.25
236.987	73.25
237.221	78.25
237.455	74.25
237.689	74.25
237.922	86.25
238.156	74.25
238.39	77.25
238.624	85.25
238.858	81.25
239.091	71.25
239.325	81.25
239.559	76.25
239.793	83.25
240.027	87.25
240.26	75.25
240.494	66.25
240.728	67.25
240.961	66.25
241.195	81.25
241.429	68.25
241.662	93.25
241.896	59.25
242.13	71.25
242.363	87.25
242.597	85.25
242.83	92.25
243.064	92.25
243.298	91.25
243.531	63.25
243.765	77.25
243.998	84.25
244.232	86.25
244.465	58.25
244.699	77.25
244.932	71.25
245.166	81.25
245.399	81.25
245.633	86.25
245.866	79.25
246.099	85.25
246.333	68.25
246.566	98.25
246.8	74.25
247.033	77.25
247.266	58.25
247.5	70.25
247.733	84.25
247.966	94.25
248.2	80.25
248.433	81.25
248.666	66.25
248.899	81.25
249.133	77.25
249.366	79.25
249.599	78.25
249.832	74.25
250.066	86.25
250.299	96.25
250.532	84.25
250.765	74.25
250.998	83.25
251.231	71.25
251.465	83.25
251.698	72.25
251.931	78.25
252.164	89.25
252.397	84.25
252.63	88.25
252.863	72.25
253.096	85.25
253.329	72.25
253.562	85.25
253.795	81.25
254.028	85.25
254.261	85.25
254.494	80.25
254.727	83.25
254.96	73.25
255.193	85.25
255.426	69.25
255.659	84.25
255.892	75.25
256.124	77.25
256.357	85.25
256.59	76.25
256.823	81.25
257.056	77.25
257.289	80.25
257.521	95.25
257.754	74.25
257.987	76.25
258.22	95.25
258.452	71.25
258.685	83.25
258.918	75.25
259.151	74.25
259.383	74.25
259.616	94.25
259.849	79.25
260.081	84.25
260.314	81.25
260.547	85.25
260.779	82.25
261.012	89.25
261.244	75.25
261.477	96.25
261.71	84.25
261.942	85.25
262.175	85.25
262.407	89.25
262.64	93.25
262.872	71.25
263.105	96.25
263.337	93.25
263.57	78.25
263.802	83.25
264.035	82.25
264.267	77.25
264.499	79.25
264.732	91.25
264.964	97.25
265.197	82.25
265.429	93.25
265.661	71.25
265.894	79.25
266.126	85.25
266.358	96.25
266.591	81.25
266.823	100.25
267.055	83.25
267.287	90.25
267.52	71.25
267.752	86.25
267.984	75.25
268.216	69.25
268.448	78.25
268.681	97.25
268.913	85.25
269.145	75.25
269.377	83.25
269.609	84.25
269.841	85.25
270.073	102.25
270.306	91.25
270.538	85.25
270.77	86.25
271.002	98.25
271.234	75.25
271.466	87.25
271.698	77.25
271.93	92.25
272.162	86.25
272.394	86.25
272.626	87.25
272.858	97.25
273.09	75.25
273.322	86.25
273.553	74.25
273.785	64.25
274.017	84.25
274.249	80.25
274.481	76.25
274.713	89.25
274.945	76.25
275.176	86.25
275.408	79.25
275.64	70.25
275.872	74.25
276.104	93.25
276.335	90.25
276.567	92.25
276.799	85.25
277.031	94.25
277.262	75.25
277.494	92.25
277.726	75.25
277.957	77.25
278.189	72.25
278.421	76.25
278.652	81.25
278.884	85.25
279.115	78.25
279.347	80.25
279.579	86.25
279.81	79.25
280.042	74.25
280.273	82.25
280.505	89.25
280.736	99.25
280.968	94.25
281.199	87.25
281.431	83.25
281.662	74.25
281.894	83.25
282.125	93.25
282.356	81.25
282.588	79.25
282.819	94.25
283.051	90.25
283.282	84.25
283.513	91.25
283.745	84.25
283.976	84.25
284.207	87.25
284.439	79.25
284.67	78.25
284.901	73.25
285.132	86.25
285.364	80.25
285.595	96.25
285.826	92.25
286.057	86.25
286.288	93.25
286.52	71.25
286.751	95.25
286.982	81.25
287.213	87.25
287.444	76.25
287.675	77.25
287.906	91.25
288.138	87.25
288.369	103.25
288.6	82.25
288.831	98.25
289.062	76.25
289.293	98.25
289.524	109.25
289.755	81.25
289.986	72.25
290.217	108.25
290.448	83.25
290.679	85.25
290.91	77.25
291.141	95.25
291.371	90.25
291.602	89.25
291.833	90.25
292.064	104.25
292.295	75.25
292.526	72.25
292.757	73.25
292.987	88.25
293.218	81.25
293.449	86.25
293.68	92.25
293.91	82.25
294.141	78.25
294.372	98.25
294.603	60.25
294.833	89.25
295.064	78.25
295.295	73.25
295.525	82.25
295.756	89.25
295.987	84.25
296.217	97.25
296.448	79.25
296.679	81.25
296.909	102.25
297.14	85.25
297.37	82.25
297.601	93.25
297.831	77.25
298.062	92.25
298.292	97.25
298.523	81.25
298.753	87.25
298.984	94.25
299.214	78.25
299.445	99.25
299.675	103.25
299.905	89.25
300.136	92.25
300.366	80.25
300.597	90.25
300.827	85.25
301.057	81.25
301.288	84.25
301.518	77.25
301.748	91.25
301.979	108.25
302.209	82.25
302.439	75.25
302.669	85.25
302.9	74.25
303.13	87.25
303.36	89.25
303.59	83.25
303.82	93.25
304.051	87.25
304.281	89.25
304.511	85.25
304.741	95.25
304.971	85.25
305.201	97.25
305.431	96.25
305.661	81.25
305.891	94.25
306.121	95.25
306.352	113.25
306.582	97.25
306.812	81.25
307.042	79.25
307.272	89.25
307.502	99.25
307.731	95.25
307.961	94.25
308.191	92.25
308.421	95.25
308.651	86.25
308.881	84.25
309.111	92.25
309.341	93.25
309.571	75.25
309.8	91.25
310.03	81.25
310.26	91.25
310.49	84.25
310.72	78.25
310.949	77.25
311.179	70.25
311.409	79.25
311.639	100.25
311.868	98.25
312.098	82.25
312.328	90.25
312.557	92.25
312.787	91.25
313.017	87.25
313.246	86.25
313.476	93.25
313.706	78.25
313.935	90.25
314.165	86.25
314.394	80.25
314.624	75.25
314.853	84.25
315.083	82.25
315.312	69.25
315.542	86.25
315.771	85.25
316.001	75.25
316.23	86.25
316.46	89.25
316.689	79.25
316.919	85.25
317.148	84.25
317.377	80.25
317.607	86.25
317.836	84.25
318.065	71.25
318.295	79.25
318.524	78.25
318.753	86.25
318.983	85.25
319.212	83.25
319.441	73.25
319.67	81.25
319.9	83.25
320.129	87.25
320.358	84.25
320.587	95.25
320.816	85.25
321.046	87.25
321.275	79.25
321.504	93.25
321.733	91.25
321.962	86.25
322.191	79.25
322.42	86.25
322.649	78.25
322.878	85.25
323.108	89.25
323.337	84.25
323.566	61.25
323.795	93.25
324.024	93.25
324.253	80.25
324.482	80.25
324.71	85.25
324.939	91.25
325.168	85.25
325.397	90.25
325.626	80.25
325.855	82.25
326.084	98.25
326.313	79.25
326.542	77.25
326.77	86.25
326.999	83.25
327.228	98.25
327.457	90.25
327.686	73.25
327.914	79.25
328.143	94.25
328.372	74.25
328.6	77.25
328.829	67.25
329.058	89.25
329.287	81.25
329.515	89.25
329.744	98.25
329.972	102.25
330.201	95.25
330.43	74.25
330.658	74.25
330.887	93.25
331.115	80.25
331.344	90.25
331.572	79.25
331.801	73.25
332.03	99.25
332.258	71.25
332.486	71.25
332.715	90.25
332.943	85.25
333.172	80.25
333.4	84.25
333.629	95.25
333.857	83.25
334.085	98.25
334.314	91.25
334.542	78.25
334.771	78.25
334.999	76.25
335.227	100.25
335.455	82.25
335.684	93.25
335.912	75.25
336.14	86.25
336.369	91.25
336.597	87.25
336.825	97.25
337.053	82.25
337.281	79.25
337.51	86.25
337.738	86.25
337.966	88.25
338.194	91.25
338.422	97.25
338.65	94.25
338.878	85.25
339.106	82.25
339.334	95.25
339.562	90.25
339.79	84.25
340.018	73.25
340.246	89.25
340.474	89.25
340.702	93.25
340.93	84.25
341.158	77.25
341.386	97.25
341.614	92.25
341.842	87.25
342.07	100.25
342.298	79.25
342.526	85.25
342.754	67.25
342.981	83.25
343.209	94.25
343.437	105.25
343.665	74.25
343.893	75.25
344.12	73.25
344.348	79.25
344.576	94.25
344.804	80.25
345.031	89.25
345.259	78.25
345.487	61.25
345.714	89.25
345.942	92.25
346.17	86.25
346.397	76.25
346.625	80.25
346.853	76.25
347.08	81.25
347.308	89.25
347.535	86.25
347.763	89.25
347.99	82.25
348.218	75.25
348.445	85.25
348.673	89.25
348.9	86.25
349.128	79.25
349.355	97.25
349.583	83.25
349.81	85.25
350.037	91.25
350.265	81.25
350.492	80.25
350.72	86.25
350.947	88.25
351.174	100.25
351.402	90.25
351.629	85.25
351.856	82.25
352.083	88.25
352.311	71.25
352.538	83.25
352.765	85.25
352.992	86.25
353.22	70.25
353.447	84.25
353.674	83.25
353.901	80.25
354.128	93.25
354.355	82.25
354.583	82.25
354.81	71.25
355.037	89.25
355.264	78.25
355.491	91.25
355.718	89.25
355.945	87.25
356.172	80.25
356.399	68.25
356.626	90.25
356.853	78.25
357.08	90.25
357.307	93.25
357.534	82.25
357.761	70.25
357.988	87.25
358.215	89.25
358.441	85.25
358.668	90.25
358.895	85.25
359.122	75.25
359.349	82.25
359.576	77.25
359.802	95.25
360.029	87.25
360.256	92.25
360.483	69.25
360.709	76.25
360.936	81.25
361.163	86.25
361.39	95.25
361.616	91.25
361.843	77.25
362.07	97.25
362.296	81.25
362.523	82.25
362.749	78.25
362.976	87.25
363.203	90.25
363.429	76.25
363.656	81.25
363.882	77.25
364.109	76.25
364.335	86.25
364.562	87.25
364.788	75.25
365.015	80.25
365.241	88.25
365.468	89.25
365.694	92.25
365.92	71.25
366.147	79.25
366.373	89.25
366.599	76.25
366.826	91.25
367.052	84.25
367.278	87.25
367.505	81.25
367.731	101.25
367.957	94.25
368.184	89.25
368.41	72.25
368.636	71.25
368.862	81.25
369.089	69.25
369.315	93.25
369.541	103.25
369.767	91.25
369.993	84.25
370.219	90.25
370.445	79.25
370.672	83.25
370.898	89.25
371.124	83.25
371.35	82.25
371.576	83.25
371.802	90.25
372.028	92.25
372.254	82.25
372.48	78.25
372.706	71.25
372.932	71.25
373.158	78.25
373.384	85.25
373.61	85.25
373.835	78.25
374.061	92.25
374.287	85.25
374.513	85.25
374.739	84.25
374.965	77.25
375.191	95.25
375.416	84.25
375.642	81.25
375.868	90.25
376.094	86.25
376.319	71.25
376.545	88.25
376.771	89.25
376.997	75.25
377.222	90.25
377.448	89.25
377.674	78.25
377.899	91.25
378.125	82.25
378.35	78.25
378.576	74.25
378.802	77.25
379.027	79.25
379.253	77.25
379.478	71.25
379.704	78.25
379.929	92.25
380.155	93.25
380.38	87.25
380.606	82.25
380.831	79.25
381.057	90.25
381.282	86.25
381.507	92.25
381.733	82.25
381.958	83.25
382.184	85.25
382.409	84.25
382.634	82.25
382.86	94.25
383.085	96.25
383.31	86.25
383.535	86.25
383.761	75.25
383.986	85.25
384.211	81.25
384.436	86.25
384.662	76.25
384.887	83.25
385.112	77.25
385.337	81.25
385.562	90.25
385.787	90.25
386.013	88.25
386.238	89.25
386.463	89.25
386.688	100.25
386.913	81.25
387.138	84.25
387.363	85.25
387.588	94.25
387.813	93.25
388.038	93.25
388.263	79.25
388.488	80.25
388.713	84.25
388.938	80.25
389.163	70.25
389.387	76.25
389.612	90.25
389.837	80.25
390.062	93.25
390.287	80.25
390.512	87.25
390.736	79.25
390.961	86.25
391.186	83.25
391.411	76.25
391.636	87.25
391.86	75.25
392.085	75.25
392.31	94.25
392.534	83.25
392.759	96.25
392.984	78.25
393.208	82.25
393.433	81.25
393.658	85.25
393.882	81.25
394.107	86.25
394.331	86.25
394.556	78.25
394.78	90.25
395.005	90.25
395.229	78.25
395.454	83.25
395.678	80.25
395.903	85.25
396.127	90.25
396.352	83.25
396.576	75.25
396.801	86.25
397.025	81.25
397.249	91.25
397.474	89.25
397.698	81.25
397.922	90.25
398.147	81.25
398.371	77.25
398.595	88.25
398.82	92.25
399.044	81.25
399.268	87.25
399.492	88.25
399.717	88.25
399.941	91.25
400.165	79.25
400.389	90.25
400.613	66.25
400.837	97.25
401.062	96.25
401.286	91.25
401.51	89.25
401.734	75.25
401.958	94.25
402.182	89.25
402.406	90.25
402.63	94.25
402.854	91.25
403.078	86.25
403.302	91.25
403.526	85.25
403.75	78.25
403.974	91.25
404.198	81.25
404.422	71.25
404.645	82.25
404.869	83.25
405.093	72.25
405.317	89.25
405.541	80.25
405.765	78.25
405.988	75.25
406.212	85.25
406.436	87.25
406.66	86.25
406.883	91.25
407.107	89.25
407.331	78.25
407.555	75.25
407.778	84.25
408.002	85.25
408.226	83.25
408.449	79.25
408.673	70.25
408.896	80.25
409.12	76.25
409.344	86.25
409.567	91.25
409.791	64.25
410.014	88.25
410.238	77.25
410.461	90.25
410.685	83.25
410.908	84.25
411.132	83.25
411.355	86.25
411.578	86.25
411.802	77.25
412.025	86.25
412.249	100.25
412.472	78.25
412.695	83.25
412.919	70.25
413.142	81.25
413.365	93.25
413.589	79.25
413.812	90.25
414.035	84.25
414.258	84.25
414.482	88.25
414.705	80.25
414.928	81.25
415.151	81.25
415.374	72.25
415.597	79.25
415.821	84.25
416.044	78.25
416.267	88.25
416.49	77.25
416.713	80.25
416.936	78.25
417.159	80.25
417.382	77.25
417.605	89.25
417.828	82.25
418.051	83.25
418.274	82.25
418.497	82.25
418.72	82.25
418.943	84.25
419.166	84.25
419.389	93.25
419.611	94.25
419.834	83.25
420.057	79.25
420.28	97.25
420.503	82.25
420.726	78.25
420.948	78.25
421.171	69.25
421.394	80.25
421.617	69.25
421.839	81.25
422.062	83.25
422.285	68.25
422.507	76.25
422.73	66.25
422.953	81.25
423.175	69.25
423.398	86.25
423.621	90.25
423.843	85.25
424.066	97.25
424.288	94.25
424.511	94.25
424.733	86.25
424.956	85.25
425.178	84.25
425.401	81.25
425.623	77.25
425.846	97.25
426.068	81.25
426.291	93.25
426.513	91.25
426.735	83.25
426.958	82.25
427.18	100.25
427.402	91.25
427.625	82.25
427.847	85.25
428.069	81.25
428.292	85.25
428.514	87.25
428.736	78.25
428.958	77.25
429.181	78.25
429.403	72.25
429.625	90.25
429.847	79.25
430.069	84.25
430.292	88.25
430.514	83.25
430.736	97.25
430.958	85.25
431.18	70.25
431.402	77.25
431.624	80.25
431.846	82.25
432.068	74.25
432.29	80.25
432.512	81.25
432.734	79.25
432.956	98.25
433.178	64.25
433.4	83.25
433.622	87.25
433.844	87.25
434.066	68.25
434.287	91.25
434.509	100.25
434.731	91.25
434.953	79.25
435.175	87.25
435.397	91.25
435.618	80.25
435.84	77.25
436.062	69.25
436.284	86.25
436.505	84.25
436.727	89.25
436.949	83.25
437.17	73.25
437.392	84.25
437.614	77.25
437.835	78.25
438.057	74.25
438.278	89.25
438.5	67.25
438.721	83.25
438.943	83.25
439.165	80.25
439.386	81.25
439.608	87.25
439.829	83.25
440.05	85.25
440.272	100.25
440.493	81.25
440.715	82.25
440.936	90.25
441.158	107.25
441.379	89.25
441.6	99.25
441.822	87.25
442.043	86.25
442.264	86.25
442.486	79.25
442.707	82.25
442.928	80.25
443.149	74.25
443.371	74.25
443.592	77.25
443.813	82.25
444.034	69.25
444.255	74.25
444.476	82.25
444.698	76.25
444.919	89.25
445.14	136.25
445.361	113.25
445.582	69.25
445.803	73.25
446.024	86.25
446.245	82.25
446.466	89.25
446.687	76.25
446.908	88.25
447.129	82.25
447.35	83.25
447.571	85.25
447.792	83.25
448.013	81.25
448.234	84.25
448.455	89.25
448.675	81.25
448.896	82.25
449.117	82.25
449.338	79.25
449.559	81.25
449.779	82.25
450	77.25
450.221	78.25
450.442	93.25
450.662	82.25
450.883	83.25
451.104	86.25
451.324	90.25
451.545	93.25
451.766	78.25
451.986	74.25
452.207	83.25
452.428	98.25
452.648	94.25
452.869	74.25
453.089	85.25
453.31	91.25
453.53	90.25
453.751	92.25
453.971	77.25
454.192	83.25
454.412	90.25
454.633	86.25
454.853	79.25
455.073	65.25
455.294	72.25
455.514	81.25
455.734	93.25
455.955	90.25
456.175	89.25
456.395	86.25
456.616	80.25
456.836	99.25
457.056	93.25
457.276	94.25
457.497	85.25
457.717	82.25
457.937	79.25
458.157	75.25
458.377	85.25
458.598	85.25
458.818	88.25
459.038	75.25
459.258	89.25
459.478	96.25
459.698	82.25
459.918	75.25
460.138	69.25
460.358	91.25
460.578	82.25
460.798	84.25
461.018	83.25
461.238	72.25
461.458	83.25
461.678	76.25
461.898	84.25
462.118	89.25
462.338	81.25
462.558	71.25
462.777	85.25
462.997	78.25
463.217	67.25
463.437	68.25
463.657	84.25
463.876	80.25
464.096	78.25
464.316	79.25
464.536	82.25
464.755	83.25
464.975	79.25
465.195	87.25
465.414	83.25
465.634	83.25
465.854	70.25
466.073	94.25
466.293	74.25
466.512	70.25
466.732	73.25
466.951	81.25
467.171	78.25
467.391	84.25
467.61	86.25
467.829	93.25
468.049	73.25
468.268	76.25
468.488	104.25
468.707	86.25
468.927	88.25
469.146	78.25
469.365	84.25
469.585	82.25
469.804	81.25
470.023	85.25
470.243	90.25
470.462	92.25
470.681	91.25
470.901	79.25
471.12	77.25
471.339	79.25
471.558	93.25
471.777	78.25
471.997	81.25
472.216	69.25
472.435	91.25
472.654	80.25
472.873	85.25
473.092	83.25
473.311	92.25
473.53	85.25
473.749	97.25
473.968	89.25
474.187	76.25
474.406	77.25
474.625	78.25
474.844	83.25
475.063	93.25
475.282	93.25
475.501	72.25
475.72	86.25
475.939	86.25
476.158	63.25
476.377	84.25
476.596	92.25
476.814	91.25
477.033	92.25
477.252	95.25
477.471	87.25
477.69	84.25
477.908	94.25
478.127	86.25
478.346	84.25
478.564	70.25
478.783	77.25
479.002	85.25
479.22	77.25
479.439	91.25
479.658	78.25
479.876	74.25
480.095	84.25
480.313	77.25
480.532	74.25
480.751	80.25
480.969	82.25
481.188	91.25
481.406	89.25
481.624	75.25
481.843	72.25
482.061	92.25
482.28	76.25
482.498	81.25
482.717	77.25
482.935	80.25
483.153	83.25
483.372	90.25
483.59	91.25
483.808	90.25
484.027	87.25
484.245	91.25
484.463	81.25
484.681	95.25
484.9	92.25
485.118	85.25
485.336	89.25
485.554	93.25
485.772	68.25
485.99	95.25
486.209	84.25
486.427	84.25
486.645	75.25
486.863	91.25
487.081	79.25
487.299	83.25
487.517	87.25
487.735	89.25
487.953	93.25
488.171	79.25
488.389	83.25
488.607	79.25
488.825	74.25
489.043	82.25
489.261	89.25
489.479	80.25
489.696	101.25
489.914	86.25
490.132	71.25
490.35	97.25
490.568	74.25
490.786	76.25
491.003	81.25
491.221	94.25
491.439	86.25
491.657	82.25
491.874	78.25
492.092	90.25
492.31	92.25
492.527	71.25
492.745	90.25
492.963	82.25
493.18	75.25
493.398	84.25
493.615	75.25
493.833	72.25
494.05	84.25
494.268	78.25
494.485	77.25
494.703	75.25
494.92	89.25
495.138	89.25
495.355	90.25
495.573	83.25
495.79	82.25
496.008	84.25
496.225	72.25
496.442	96.25
496.66	83.25
496.877	85.25
497.094	78.25
497.312	95.25
497.529	92.25
497.746	91.25
497.963	89.25
498.181	79.25
498.398	87.25
498.615	90.25
498.832	83.25
499.049	97.25
499.267	79.25
499.484	75.25
499.701	70.25
499.918	93.25
500.135	85.25
500.352	76.25
500.569	78.25
500.786	84.25
501.003	77.25
501.22	86.25
501.437	101.25
501.654	85.25
501.871	85.25
502.088	79.25
502.305	84.25
502.522	76.25
502.739	89.25
502.956	100.25
503.172	86.25
503.389	71.25
503.606	81.25
503.823	84.25
504.04	90.25
504.256	80.25
504.473	72.25
504.69	89.25
504.907	75.25
505.123	95.25
505.34	86.25
505.557	78.25
505.773	81.25
505.99	79.25
506.207	77.25
506.423	78.25
506.64	82.25
506.856	87.25
507.073	83.25
507.289	94.25
507.506	84.25
507.722	79.25
507.939	89.25
508.155	78.25
508.372	84.25
508.588	84.25
508.805	82.25
509.021	87.25
509.238	95.25
509.454	100.25
509.67	81.25
509.887	92.25
510.103	89.25
510.319	72.25
510.536	94.25
510.752	91.25
510.968	79.25
511.184	77.25
511.401	74.25
511.617	91.25
511.833	69.25
512.049	88.25
512.265	93.25
512.481	86.25
512.698	95.25
512.914	91.25
513.13	83.25
513.346	86.25
513.562	83.25
513.778	73.25
513.994	71.25
514.21	78.25
514.426	97.25
514.642	87.25
514.858	81.25
515.074	91.25
515.29	97.25
515.506	89.25
515.721	98.25
515.937	89.25
516.153	82.25
516.369	72.25
516.585	79.25
516.801	91.25
517.016	88.25
517.232	89.25
517.448	71.25
517.664	64.25
517.879	72.25
518.095	80.25
518.311	86.25
518.527	87.25
518.742	89.25
518.958	83.25
519.173	86.25
519.389	98.25
519.605	75.25
519.82	86.25
