Data from Background_1_HRD10591_00081.txt Node
Date: Wed Nov 05 14:39:38 EST 2025
User: Yrep
Spectrometer: HR+D1059
Trigger mode: 1
Integration Time (sec): 1.000000E-1
Scans to average: 1
Electric dark correction enabled: true
Nonlinearity correction enabled: false
Boxcar width: 0
XAxis mode: Wavelengths
Number of Pixels in Spectrum: 2048
>>>>>Begin Spectral Data<<<<<
223.165	-24.12
223.4	-24.12
223.635	-24.12
223.869	-17.12
224.104	-21.12
224.338	-1.12
224.573	-17.12
224.808	2.88
225.042	-2.12
225.277	-2.12
225.511	-2.12
225.746	-3.12
225.98	2.88
226.215	5.88
226.449	24.88
226.683	14.88
226.918	25.88
227.152	12.88
227.387	26.88
227.621	51.88
227.856	44.88
228.09	46.88
228.324	57.88
228.559	53.88
228.793	53.88
229.027	53.88
229.262	63.88
229.496	56.88
229.73	78.88
229.964	82.88
230.199	78.88
230.433	66.88
230.667	62.88
230.901	84.88
231.136	89.88
231.37	80.88
231.604	100.88
231.838	74.88
232.072	75.88
232.306	86.88
232.541	74.88
232.775	72.88
233.009	92.88
233.243	79.88
233.477	72.88
233.711	70.88
233.945	73.88
234.179	80.88
234.413	89.88
234.647	93.88
234.881	80.88
235.115	92.88
235.349	76.88
235.583	74.88
235.817	83.88
236.051	72.88
236.285	66.88
236.519	68.88
236.753	79.88
236.987	70.88
237.221	80.88
237.455	76.88
237.689	77.88
237.922	73.88
238.156	71.88
238.39	77.88
238.624	68.88
238.858	68.88
239.091	83.88
239.325	67.88
239.559	65.88
239.793	82.88
240.027	77.88
240.26	67.88
240.494	60.88
240.728	76.88
240.961	84.88
241.195	74.88
241.429	81.88
241.662	66.88
241.896	78.88
242.13	72.88
242.363	72.88
242.597	77.88
242.83	74.88
243.064	68.88
243.298	85.88
243.531	79.88
243.765	78.88
243.998	68.88
244.232	66.88
244.465	78.88
244.699	69.88
244.932	63.88
245.166	70.88
245.399	67.88
245.633	88.88
245.866	79.88
246.099	74.88
246.333	84.88
246.566	77.88
246.8	72.88
247.033	66.88
247.266	76.88
247.5	74.88
247.733	78.88
247.966	79.88
248.2	74.88
248.433	95.88
248.666	79.88
248.899	85.88
249.133	76.88
249.366	80.88
249.599	88.88
249.832	86.88
250.066	84.88
250.299	72.88
250.532	71.88
250.765	79.88
250.998	74.88
251.231	75.88
251.465	67.88
251.698	72.88
251.931	79.88
252.164	72.88
252.397	67.88
252.63	71.88
252.863	68.88
253.096	77.88
253.329	91.88
253.562	75.88
253.795	86.88
254.028	84.88
254.261	76.88
254.494	76.88
254.727	62.88
254.96	74.88
255.193	72.88
255.426	86.88
255.659	72.88
255.892	72.88
256.124	78.88
256.357	77.88
256.59	80.88
256.823	74.88
257.056	69.88
257.289	80.88
257.521	82.88
257.754	78.88
257.987	78.88
258.22	75.88
258.452	89.88
258.685	78.88
258.918	65.88
259.151	72.88
259.383	70.88
259.616	65.88
259.849	84.88
260.081	78.88
260.314	78.88
260.547	88.88
260.779	77.88
261.012	68.88
261.244	73.88
261.477	78.88
261.71	82.88
261.942	90.88
262.175	72.88
262.407	84.88
262.64	95.88
262.872	90.88
263.105	89.88
263.337	83.88
263.57	81.88
263.802	88.88
264.035	85.88
264.267	56.88
264.499	74.88
264.732	82.88
264.964	71.88
265.197	85.88
265.429	72.88
265.661	65.88
265.894	90.88
266.126	79.88
266.358	82.88
266.591	75.88
266.823	84.88
267.055	70.88
267.287	84.88
267.52	90.88
267.752	75.88
267.984	84.88
268.216	86.88
268.448	71.88
268.681	81.88
268.913	73.88
269.145	81.88
269.377	87.88
269.609	75.88
269.841	73.88
270.073	72.88
270.306	81.88
270.538	88.88
270.77	84.88
271.002	93.88
271.234	85.88
271.466	87.88
271.698	85.88
271.93	62.88
272.162	97.88
272.394	84.88
272.626	87.88
272.858	89.88
273.09	80.88
273.322	79.88
273.553	81.88
273.785	90.88
274.017	74.88
274.249	82.88
274.481	83.88
274.713	84.88
274.945	83.88
275.176	88.88
275.408	82.88
275.64	88.88
275.872	84.88
276.104	74.88
276.335	86.88
276.567	76.88
276.799	76.88
277.031	100.88
277.262	89.88
277.494	72.88
277.726	78.88
277.957	84.88
278.189	58.88
278.421	98.88
278.652	81.88
278.884	77.88
279.115	91.88
279.347	80.88
279.579	86.88
279.81	76.88
280.042	64.88
280.273	84.88
280.505	85.88
280.736	80.88
280.968	83.88
281.199	77.88
281.431	86.88
281.662	92.88
281.894	78.88
282.125	76.88
282.356	78.88
282.588	84.88
282.819	95.88
283.051	87.88
283.282	82.88
283.513	84.88
283.745	78.88
283.976	89.88
284.207	88.88
284.439	76.88
284.67	94.88
284.901	85.88
285.132	82.88
285.364	77.88
285.595	90.88
285.826	80.88
286.057	79.88
286.288	77.88
286.52	70.88
286.751	84.88
286.982	92.88
287.213	72.88
287.444	88.88
287.675	85.88
287.906	95.88
288.138	73.88
288.369	74.88
288.6	72.88
288.831	86.88
289.062	89.88
289.293	81.88
289.524	87.88
289.755	65.88
289.986	91.88
290.217	92.88
290.448	83.88
290.679	75.88
290.91	100.88
291.141	89.88
291.371	94.88
291.602	94.88
291.833	79.88
292.064	97.88
292.295	101.88
292.526	79.88
292.757	74.88
292.987	91.88
293.218	77.88
293.449	68.88
293.68	86.88
293.91	73.88
294.141	76.88
294.372	87.88
294.603	81.88
294.833	88.88
295.064	81.88
295.295	76.88
295.525	88.88
295.756	79.88
295.987	78.88
296.217	80.88
296.448	73.88
296.679	87.88
296.909	68.88
297.14	76.88
297.37	86.88
297.601	88.88
297.831	77.88
298.062	75.88
298.292	82.88
298.523	80.88
298.753	81.88
298.984	77.88
299.214	82.88
299.445	81.88
299.675	75.88
299.905	97.88
300.136	80.88
300.366	84.88
300.597	80.88
300.827	70.88
301.057	78.88
301.288	85.88
301.518	86.88
301.748	91.88
301.979	86.88
302.209	78.88
302.439	88.88
302.669	80.88
302.9	81.88
303.13	81.88
303.36	88.88
303.59	79.88
303.82	83.88
304.051	81.88
304.281	85.88
304.511	88.88
304.741	95.88
304.971	82.88
305.201	78.88
305.431	84.88
305.661	78.88
305.891	77.88
306.121	92.88
306.352	78.88
306.582	79.88
306.812	83.88
307.042	78.88
307.272	73.88
307.502	95.88
307.731	86.88
307.961	72.88
308.191	87.88
308.421	93.88
308.651	78.88
308.881	91.88
309.111	72.88
309.341	86.88
309.571	82.88
309.8	81.88
310.03	67.88
310.26	80.88
310.49	80.88
310.72	88.88
310.949	80.88
311.179	77.88
311.409	78.88
311.639	84.88
311.868	81.88
312.098	84.88
312.328	73.88
312.557	92.88
312.787	88.88
313.017	92.88
313.246	95.88
313.476	98.88
313.706	96.88
313.935	80.88
314.165	84.88
314.394	78.88
314.624	81.88
314.853	84.88
315.083	89.88
315.312	76.88
315.542	86.88
315.771	87.88
316.001	76.88
316.23	75.88
316.46	77.88
316.689	84.88
316.919	67.88
317.148	78.88
317.377	81.88
317.607	90.88
317.836	93.88
318.065	81.88
318.295	78.88
318.524	84.88
318.753	85.88
318.983	74.88
319.212	87.88
319.441	85.88
319.67	71.88
319.9	73.88
320.129	85.88
320.358	63.88
320.587	86.88
320.816	86.88
321.046	87.88
321.275	92.88
321.504	62.88
321.733	80.88
321.962	70.88
322.191	78.88
322.42	58.88
322.649	83.88
322.878	74.88
323.108	84.88
323.337	65.88
323.566	86.88
323.795	86.88
324.024	87.88
324.253	80.88
324.482	85.88
324.71	89.88
324.939	79.88
325.168	81.88
325.397	74.88
325.626	67.88
325.855	74.88
326.084	81.88
326.313	65.88
326.542	85.88
326.77	87.88
326.999	81.88
327.228	77.88
327.457	91.88
327.686	96.88
327.914	85.88
328.143	79.88
328.372	111.88
328.6	85.88
328.829	90.88
329.058	85.88
329.287	82.88
329.515	80.88
329.744	81.88
329.972	69.88
330.201	84.88
330.43	80.88
330.658	78.88
330.887	86.88
331.115	90.88
331.344	80.88
331.572	77.88
331.801	75.88
332.03	77.88
332.258	84.88
332.486	80.88
332.715	72.88
332.943	98.88
333.172	86.88
333.4	78.88
333.629	88.88
333.857	84.88
334.085	88.88
334.314	85.88
334.542	82.88
334.771	77.88
334.999	91.88
335.227	86.88
335.455	74.88
335.684	86.88
335.912	81.88
336.14	81.88
336.369	91.88
336.597	77.88
336.825	87.88
337.053	77.88
337.281	79.88
337.51	88.88
337.738	98.88
337.966	82.88
338.194	70.88
338.422	84.88
338.65	82.88
338.878	102.88
339.106	92.88
339.334	77.88
339.562	71.88
339.79	92.88
340.018	75.88
340.246	66.88
340.474	91.88
340.702	72.88
340.93	90.88
341.158	92.88
341.386	87.88
341.614	73.88
341.842	81.88
342.07	87.88
342.298	86.88
342.526	88.88
342.754	80.88
342.981	77.88
343.209	88.88
343.437	94.88
343.665	81.88
343.893	81.88
344.12	71.88
344.348	83.88
344.576	84.88
344.804	70.88
345.031	69.88
345.259	84.88
345.487	82.88
345.714	84.88
345.942	88.88
346.17	80.88
346.397	86.88
346.625	87.88
346.853	77.88
347.08	93.88
347.308	80.88
347.535	98.88
347.763	73.88
347.99	87.88
348.218	75.88
348.445	72.88
348.673	82.88
348.9	81.88
349.128	69.88
349.355	80.88
349.583	78.88
349.81	71.88
350.037	90.88
350.265	86.88
350.492	83.88
350.72	82.88
350.947	90.88
351.174	86.88
351.402	88.88
351.629	80.88
351.856	87.88
352.083	88.88
352.311	71.88
352.538	69.88
352.765	77.88
352.992	88.88
353.22	74.88
353.447	86.88
353.674	75.88
353.901	87.88
354.128	82.88
354.355	98.88
354.583	73.88
354.81	83.88
355.037	82.88
355.264	80.88
355.491	69.88
355.718	95.88
355.945	80.88
356.172	84.88
356.399	73.88
356.626	73.88
356.853	93.88
357.08	81.88
357.307	88.88
357.534	78.88
357.761	88.88
357.988	88.88
358.215	83.88
358.441	90.88
358.668	71.88
358.895	76.88
359.122	85.88
359.349	85.88
359.576	66.88
359.802	66.88
360.029	72.88
360.256	78.88
360.483	79.88
360.709	87.88
360.936	90.88
361.163	70.88
361.39	66.88
361.616	92.88
361.843	83.88
362.07	81.88
362.296	88.88
362.523	81.88
362.749	67.88
362.976	85.88
363.203	85.88
363.429	79.88
363.656	88.88
363.882	80.88
364.109	79.88
364.335	78.88
364.562	86.88
364.788	73.88
365.015	71.88
365.241	82.88
365.468	87.88
365.694	84.88
365.92	95.88
366.147	92.88
366.373	72.88
366.599	76.88
366.826	73.88
367.052	80.88
367.278	84.88
367.505	74.88
367.731	79.88
367.957	78.88
368.184	75.88
368.41	80.88
368.636	76.88
368.862	81.88
369.089	74.88
369.315	85.88
369.541	81.88
369.767	83.88
369.993	88.88
370.219	75.88
370.445	74.88
370.672	89.88
370.898	81.88
371.124	67.88
371.35	68.88
371.576	87.88
371.802	78.88
372.028	69.88
372.254	74.88
372.48	72.88
372.706	86.88
372.932	84.88
373.158	74.88
373.384	87.88
373.61	92.88
373.835	79.88
374.061	73.88
374.287	74.88
374.513	73.88
374.739	65.88
374.965	75.88
375.191	84.88
375.416	75.88
375.642	98.88
375.868	70.88
376.094	80.88
376.319	70.88
376.545	81.88
376.771	77.88
376.997	81.88
377.222	62.88
377.448	77.88
377.674	96.88
377.899	87.88
378.125	78.88
378.35	74.88
378.576	74.88
378.802	91.88
379.027	76.88
379.253	74.88
379.478	76.88
379.704	75.88
379.929	86.88
380.155	79.88
380.38	63.88
380.606	80.88
380.831	88.88
381.057	81.88
381.282	83.88
381.507	65.88
381.733	73.88
381.958	96.88
382.184	98.88
382.409	91.88
382.634	90.88
382.86	90.88
383.085	70.88
383.31	95.88
383.535	88.88
383.761	83.88
383.986	82.88
384.211	69.88
384.436	73.88
384.662	81.88
384.887	82.88
385.112	75.88
385.337	87.88
385.562	91.88
385.787	73.88
386.013	80.88
386.238	87.88
386.463	79.88
386.688	86.88
386.913	92.88
387.138	76.88
387.363	78.88
387.588	92.88
387.813	85.88
388.038	84.88
388.263	81.88
388.488	88.88
388.713	76.88
388.938	82.88
389.163	82.88
389.387	87.88
389.612	72.88
389.837	96.88
390.062	76.88
390.287	84.88
390.512	89.88
390.736	78.88
390.961	78.88
391.186	81.88
391.411	73.88
391.636	72.88
391.86	70.88
392.085	80.88
392.31	67.88
392.534	83.88
392.759	84.88
392.984	68.88
393.208	85.88
393.433	80.88
393.658	71.88
393.882	80.88
394.107	76.88
394.331	86.88
394.556	84.88
394.78	69.88
395.005	79.88
395.229	76.88
395.454	62.88
395.678	61.88
395.903	80.88
396.127	80.88
396.352	90.88
396.576	72.88
396.801	79.88
397.025	79.88
397.249	73.88
397.474	89.88
397.698	90.88
397.922	71.88
398.147	81.88
398.371	97.88
398.595	92.88
398.82	88.88
399.044	74.88
399.268	80.88
399.492	93.88
399.717	81.88
399.941	85.88
400.165	80.88
400.389	84.88
400.613	79.88
400.837	84.88
401.062	91.88
401.286	80.88
401.51	63.88
401.734	80.88
401.958	74.88
402.182	97.88
402.406	70.88
402.63	87.88
402.854	85.88
403.078	80.88
403.302	80.88
403.526	87.88
403.75	65.88
403.974	79.88
404.198	82.88
404.422	78.88
404.645	70.88
404.869	84.88
405.093	84.88
405.317	69.88
405.541	81.88
405.765	71.88
405.988	84.88
406.212	104.88
406.436	88.88
406.66	74.88
406.883	86.88
407.107	76.88
407.331	80.88
407.555	78.88
407.778	86.88
408.002	81.88
408.226	67.88
408.449	66.88
408.673	85.88
408.896	80.88
409.12	80.88
409.344	69.88
409.567	72.88
409.791	78.88
410.014	77.88
410.238	78.88
410.461	76.88
410.685	84.88
410.908	76.88
411.132	82.88
411.355	73.88
411.578	74.88
411.802	80.88
412.025	74.88
412.249	85.88
412.472	80.88
412.695	92.88
412.919	60.88
413.142	73.88
413.365	81.88
413.589	80.88
413.812	79.88
414.035	82.88
414.258	77.88
414.482	78.88
414.705	71.88
414.928	76.88
415.151	76.88
415.374	69.88
415.597	89.88
415.821	86.88
416.044	81.88
416.267	77.88
416.49	78.88
416.713	75.88
416.936	75.88
417.159	77.88
417.382	92.88
417.605	93.88
417.828	82.88
418.051	85.88
418.274	96.88
418.497	85.88
418.72	89.88
418.943	80.88
419.166	82.88
419.389	82.88
419.611	79.88
419.834	82.88
420.057	82.88
420.28	84.88
420.503	84.88
420.726	72.88
420.948	86.88
421.171	73.88
421.394	72.88
421.617	76.88
421.839	87.88
422.062	81.88
422.285	95.88
422.507	77.88
422.73	71.88
422.953	77.88
423.175	64.88
423.398	73.88
423.621	83.88
423.843	76.88
424.066	81.88
424.288	74.88
424.511	66.88
424.733	83.88
424.956	72.88
425.178	75.88
425.401	76.88
425.623	83.88
425.846	82.88
426.068	72.88
426.291	88.88
426.513	82.88
426.735	72.88
426.958	78.88
427.18	90.88
427.402	73.88
427.625	87.88
427.847	78.88
428.069	84.88
428.292	70.88
428.514	90.88
428.736	71.88
428.958	71.88
429.181	79.88
429.403	82.88
429.625	79.88
429.847	89.88
430.069	79.88
430.292	80.88
430.514	87.88
430.736	76.88
430.958	87.88
431.18	83.88
431.402	86.88
431.624	76.88
431.846	88.88
432.068	76.88
432.29	78.88
432.512	76.88
432.734	63.88
432.956	66.88
433.178	78.88
433.4	69.88
433.622	85.88
433.844	81.88
434.066	74.88
434.287	81.88
434.509	85.88
434.731	81.88
434.953	69.88
435.175	70.88
435.397	76.88
435.618	92.88
435.84	89.88
436.062	75.88
436.284	80.88
436.505	85.88
436.727	64.88
436.949	86.88
437.17	79.88
437.392	82.88
437.614	82.88
437.835	80.88
438.057	89.88
438.278	74.88
438.5	73.88
438.721	82.88
438.943	85.88
439.165	79.88
439.386	70.88
439.608	79.88
439.829	85.88
440.05	94.88
440.272	71.88
440.493	93.88
440.715	84.88
440.936	81.88
441.158	80.88
441.379	70.88
441.6	73.88
441.822	86.88
442.043	88.88
442.264	92.88
442.486	74.88
442.707	86.88
442.928	85.88
443.149	81.88
443.371	93.88
443.592	86.88
443.813	83.88
444.034	91.88
444.255	72.88
444.476	72.88
444.698	70.88
444.919	80.88
445.14	151.88
445.361	107.88
445.582	76.88
445.803	80.88
446.024	66.88
446.245	88.88
446.466	88.88
446.687	69.88
446.908	84.88
447.129	97.88
447.35	71.88
447.571	84.88
447.792	86.88
448.013	88.88
448.234	90.88
448.455	80.88
448.675	91.88
448.896	83.88
449.117	79.88
449.338	72.88
449.559	70.88
449.779	75.88
450	86.88
450.221	72.88
450.442	79.88
450.662	72.88
450.883	80.88
451.104	89.88
451.324	79.88
451.545	87.88
451.766	74.88
451.986	75.88
452.207	89.88
452.428	82.88
452.648	86.88
452.869	93.88
453.089	91.88
453.31	80.88
453.53	80.88
453.751	94.88
453.971	93.88
454.192	102.88
454.412	77.88
454.633	89.88
454.853	92.88
455.073	68.88
455.294	91.88
455.514	78.88
455.734	75.88
455.955	83.88
456.175	78.88
456.395	81.88
456.616	75.88
456.836	70.88
457.056	74.88
457.276	81.88
457.497	85.88
457.717	72.88
457.937	76.88
458.157	76.88
458.377	74.88
458.598	67.88
458.818	80.88
459.038	75.88
459.258	74.88
459.478	81.88
459.698	74.88
459.918	77.88
460.138	78.88
460.358	61.88
460.578	71.88
460.798	86.88
461.018	84.88
461.238	78.88
461.458	78.88
461.678	82.88
461.898	77.88
462.118	89.88
462.338	74.88
462.558	74.88
462.777	76.88
462.997	102.88
463.217	88.88
463.437	69.88
463.657	77.88
463.876	80.88
464.096	77.88
464.316	68.88
464.536	74.88
464.755	82.88
464.975	88.88
465.195	79.88
465.414	76.88
465.634	77.88
465.854	77.88
466.073	84.88
466.293	83.88
466.512	73.88
466.732	75.88
466.951	74.88
467.171	66.88
467.391	85.88
467.61	87.88
467.829	82.88
468.049	82.88
468.268	69.88
468.488	76.88
468.707	66.88
468.927	74.88
469.146	83.88
469.365	85.88
469.585	74.88
469.804	72.88
470.023	76.88
470.243	78.88
470.462	77.88
470.681	71.88
470.901	84.88
471.12	71.88
471.339	68.88
471.558	67.88
471.777	104.88
471.997	84.88
472.216	90.88
472.435	97.88
472.654	79.88
472.873	82.88
473.092	90.88
473.311	77.88
473.53	88.88
473.749	72.88
473.968	86.88
474.187	89.88
474.406	73.88
474.625	76.88
474.844	80.88
475.063	74.88
475.282	79.88
475.501	89.88
475.72	83.88
475.939	103.88
476.158	91.88
476.377	72.88
476.596	92.88
476.814	93.88
477.033	77.88
477.252	67.88
477.471	75.88
477.69	73.88
477.908	66.88
478.127	84.88
478.346	84.88
478.564	81.88
478.783	80.88
479.002	76.88
479.22	85.88
479.439	84.88
479.658	82.88
479.876	71.88
480.095	76.88
480.313	67.88
480.532	86.88
480.751	69.88
480.969	87.88
481.188	82.88
481.406	90.88
481.624	75.88
481.843	72.88
482.061	72.88
482.28	72.88
482.498	82.88
482.717	69.88
482.935	88.88
483.153	86.88
483.372	75.88
483.59	86.88
483.808	86.88
484.027	77.88
484.245	84.88
484.463	77.88
484.681	94.88
484.9	81.88
485.118	92.88
485.336	88.88
485.554	78.88
485.772	77.88
485.99	89.88
486.209	93.88
486.427	75.88
486.645	74.88
486.863	65.88
487.081	78.88
487.299	78.88
487.517	92.88
487.735	74.88
487.953	79.88
488.171	87.88
488.389	77.88
488.607	77.88
488.825	77.88
489.043	78.88
489.261	79.88
489.479	84.88
489.696	83.88
489.914	85.88
490.132	83.88
490.35	88.88
490.568	72.88
490.786	83.88
491.003	76.88
491.221	81.88
491.439	84.88
491.657	93.88
491.874	93.88
492.092	80.88
492.31	84.88
492.527	79.88
492.745	68.88
492.963	76.88
493.18	78.88
493.398	86.88
493.615	61.88
493.833	84.88
494.05	84.88
494.268	78.88
494.485	75.88
494.703	74.88
494.92	75.88
495.138	88.88
495.355	92.88
495.573	74.88
495.79	84.88
496.008	74.88
496.225	81.88
496.442	65.88
496.66	97.88
496.877	86.88
497.094	82.88
497.312	67.88
497.529	81.88
497.746	79.88
497.963	86.88
498.181	76.88
498.398	88.88
498.615	92.88
498.832	86.88
499.049	79.88
499.267	76.88
499.484	87.88
499.701	92.88
499.918	68.88
500.135	80.88
500.352	68.88
500.569	81.88
500.786	84.88
501.003	78.88
501.22	52.88
501.437	78.88
501.654	83.88
501.871	84.88
502.088	67.88
502.305	86.88
502.522	84.88
502.739	80.88
502.956	60.88
503.172	82.88
503.389	93.88
503.606	69.88
503.823	91.88
504.04	72.88
504.256	80.88
504.473	82.88
504.69	80.88
504.907	74.88
505.123	73.88
505.34	75.88
505.557	82.88
505.773	65.88
505.99	85.88
506.207	88.88
506.423	77.88
506.64	81.88
506.856	77.88
507.073	83.88
507.289	72.88
507.506	94.88
507.722	66.88
507.939	80.88
508.155	82.88
508.372	79.88
508.588	70.88
508.805	92.88
509.021	62.88
509.238	79.88
509.454	78.88
509.67	88.88
509.887	80.88
510.103	75.88
510.319	68.88
510.536	77.88
510.752	68.88
510.968	75.88
511.184	58.88
511.401	73.88
511.617	80.88
511.833	82.88
512.049	72.88
512.265	81.88
512.481	74.88
512.698	87.88
512.914	80.88
513.13	79.88
513.346	87.88
513.562	83.88
513.778	94.88
513.994	79.88
514.21	88.88
514.426	72.88
514.642	67.88
514.858	81.88
515.074	76.88
515.29	65.88
515.506	74.88
515.721	75.88
515.937	84.88
516.153	75.88
516.369	87.88
516.585	81.88
516.801	77.88
517.016	83.88
517.232	88.88
517.448	76.88
517.664	77.88
517.879	75.88
518.095	82.88
518.311	92.88
518.527	86.88
518.742	76.88
518.958	79.88
519.173	88.88
519.389	91.88
519.605	73.88
519.82	71.88
520.036	84.88
