Data from Background_1_HRD10591_00095.txt Node
Date: Wed Nov 05 14:39:45 EST 2025
User: Yrep
Spectrometer: HR+D1059
Trigger mode: 1
Integration Time (sec): 1.000000E-1
Scans to average: 1
Electric dark correction enabled: true
Nonlinearity correction enabled: false
Boxcar width: 0
XAxis mode: Wavelengths
Number of Pixels in Spectrum: 2048
>>>>>Begin Spectral Data<<<<<
223.165	-2.94
223.4	-2.94
223.635	-2.94
223.869	-26.94
224.104	-11.94
224.338	-5.94
224.573	-23.94
224.808	-19.94
225.042	-6.94
225.277	-7.94
225.511	-9.94
225.746	-5.94
225.98	4.06
226.215	15.06
226.449	9.06
226.683	35.06
226.918	37.06
227.152	22.06
227.387	48.06
227.621	50.06
227.856	53.06
228.09	51.06
228.324	50.06
228.559	47.06
228.793	49.06
229.027	74.06
229.262	58.06
229.496	56.06
229.73	72.06
229.964	71.06
230.199	80.06
230.433	76.06
230.667	76.06
230.901	61.06
231.136	72.06
231.37	76.06
231.604	82.06
231.838	84.06
232.072	94.06
232.306	89.06
232.541	97.06
232.775	78.06
233.009	72.06
233.243	84.06
233.477	70.06
233.711	81.06
233.945	84.06
234.179	86.06
234.413	89.06
234.647	94.06
234.881	80.06
235.115	84.06
235.349	78.06
235.583	78.06
235.817	71.06
236.051	61.06
236.285	70.06
236.519	80.06
236.753	66.06
236.987	74.06
237.221	78.06
237.455	88.06
237.689	72.06
237.922	79.06
238.156	88.06
238.39	88.06
238.624	77.06
238.858	70.06
239.091	72.06
239.325	73.06
239.559	75.06
239.793	86.06
240.027	75.06
240.26	60.06
240.494	71.06
240.728	76.06
240.961	66.06
241.195	85.06
241.429	82.06
241.662	60.06
241.896	70.06
242.13	73.06
242.363	83.06
242.597	88.06
242.83	88.06
243.064	67.06
243.298	76.06
243.531	78.06
243.765	84.06
243.998	71.06
244.232	82.06
244.465	71.06
244.699	70.06
244.932	77.06
245.166	77.06
245.399	76.06
245.633	69.06
245.866	62.06
246.099	75.06
246.333	70.06
246.566	76.06
246.8	68.06
247.033	89.06
247.266	82.06
247.5	78.06
247.733	78.06
247.966	65.06
248.2	84.06
248.433	75.06
248.666	77.06
248.899	79.06
249.133	83.06
249.366	89.06
249.599	80.06
249.832	78.06
250.066	76.06
250.299	75.06
250.532	75.06
250.765	83.06
250.998	87.06
251.231	58.06
251.465	76.06
251.698	80.06
251.931	80.06
252.164	76.06
252.397	80.06
252.63	80.06
252.863	81.06
253.096	70.06
253.329	72.06
253.562	88.06
253.795	85.06
254.028	64.06
254.261	76.06
254.494	79.06
254.727	79.06
254.96	77.06
255.193	78.06
255.426	90.06
255.659	61.06
255.892	82.06
256.124	83.06
256.357	84.06
256.59	77.06
256.823	78.06
257.056	58.06
257.289	74.06
257.521	74.06
257.754	76.06
257.987	65.06
258.22	76.06
258.452	69.06
258.685	74.06
258.918	71.06
259.151	70.06
259.383	88.06
259.616	78.06
259.849	81.06
260.081	73.06
260.314	83.06
260.547	76.06
260.779	80.06
261.012	80.06
261.244	81.06
261.477	84.06
261.71	83.06
261.942	81.06
262.175	71.06
262.407	75.06
262.64	83.06
262.872	86.06
263.105	81.06
263.337	76.06
263.57	94.06
263.802	79.06
264.035	85.06
264.267	88.06
264.499	84.06
264.732	77.06
264.964	81.06
265.197	74.06
265.429	70.06
265.661	75.06
265.894	78.06
266.126	90.06
266.358	77.06
266.591	78.06
266.823	78.06
267.055	79.06
267.287	80.06
267.52	93.06
267.752	87.06
267.984	89.06
268.216	73.06
268.448	88.06
268.681	78.06
268.913	82.06
269.145	83.06
269.377	81.06
269.609	79.06
269.841	88.06
270.073	84.06
270.306	81.06
270.538	91.06
270.77	78.06
271.002	78.06
271.234	88.06
271.466	72.06
271.698	87.06
271.93	79.06
272.162	80.06
272.394	78.06
272.626	81.06
272.858	83.06
273.09	88.06
273.322	89.06
273.553	71.06
273.785	102.06
274.017	84.06
274.249	98.06
274.481	86.06
274.713	77.06
274.945	101.06
275.176	73.06
275.408	82.06
275.64	85.06
275.872	81.06
276.104	77.06
276.335	83.06
276.567	77.06
276.799	80.06
277.031	77.06
277.262	84.06
277.494	96.06
277.726	80.06
277.957	90.06
278.189	80.06
278.421	79.06
278.652	82.06
278.884	89.06
279.115	77.06
279.347	74.06
279.579	76.06
279.81	80.06
280.042	86.06
280.273	81.06
280.505	78.06
280.736	76.06
280.968	75.06
281.199	96.06
281.431	109.06
281.662	78.06
281.894	76.06
282.125	76.06
282.356	77.06
282.588	83.06
282.819	83.06
283.051	93.06
283.282	87.06
283.513	78.06
283.745	74.06
283.976	90.06
284.207	90.06
284.439	79.06
284.67	76.06
284.901	96.06
285.132	83.06
285.364	84.06
285.595	94.06
285.826	84.06
286.057	92.06
286.288	86.06
286.52	78.06
286.751	74.06
286.982	93.06
287.213	68.06
287.444	94.06
287.675	92.06
287.906	96.06
288.138	75.06
288.369	80.06
288.6	88.06
288.831	81.06
289.062	78.06
289.293	89.06
289.524	97.06
289.755	78.06
289.986	83.06
290.217	91.06
290.448	87.06
290.679	76.06
290.91	79.06
291.141	87.06
291.371	83.06
291.602	88.06
291.833	78.06
292.064	93.06
292.295	66.06
292.526	92.06
292.757	74.06
292.987	79.06
293.218	86.06
293.449	80.06
293.68	82.06
293.91	96.06
294.141	82.06
294.372	86.06
294.603	78.06
294.833	77.06
295.064	83.06
295.295	88.06
295.525	69.06
295.756	79.06
295.987	84.06
296.217	82.06
296.448	81.06
296.679	84.06
296.909	74.06
297.14	86.06
297.37	79.06
297.601	86.06
297.831	87.06
298.062	81.06
298.292	90.06
298.523	72.06
298.753	89.06
298.984	85.06
299.214	77.06
299.445	89.06
299.675	88.06
299.905	92.06
300.136	80.06
300.366	88.06
300.597	76.06
300.827	86.06
301.057	92.06
301.288	94.06
301.518	85.06
301.748	95.06
301.979	96.06
302.209	81.06
302.439	88.06
302.669	78.06
302.9	90.06
303.13	86.06
303.36	91.06
303.59	82.06
303.82	91.06
304.051	80.06
304.281	78.06
304.511	81.06
304.741	77.06
304.971	76.06
305.201	92.06
305.431	98.06
305.661	94.06
305.891	98.06
306.121	94.06
306.352	97.06
306.582	82.06
306.812	93.06
307.042	82.06
307.272	87.06
307.502	76.06
307.731	84.06
307.961	97.06
308.191	86.06
308.421	85.06
308.651	83.06
308.881	88.06
309.111	91.06
309.341	90.06
309.571	90.06
309.8	84.06
310.03	86.06
310.26	86.06
310.49	91.06
310.72	88.06
310.949	79.06
311.179	76.06
311.409	86.06
311.639	88.06
311.868	92.06
312.098	89.06
312.328	88.06
312.557	83.06
312.787	79.06
313.017	90.06
313.246	80.06
313.476	82.06
313.706	85.06
313.935	88.06
314.165	80.06
314.394	90.06
314.624	87.06
314.853	81.06
315.083	84.06
315.312	67.06
315.542	91.06
315.771	88.06
316.001	85.06
316.23	93.06
316.46	84.06
316.689	78.06
316.919	89.06
317.148	90.06
317.377	85.06
317.607	100.06
317.836	80.06
318.065	75.06
318.295	88.06
318.524	82.06
318.753	92.06
318.983	86.06
319.212	88.06
319.441	74.06
319.67	77.06
319.9	93.06
320.129	84.06
320.358	100.06
320.587	77.06
320.816	82.06
321.046	91.06
321.275	87.06
321.504	75.06
321.733	80.06
321.962	69.06
322.191	93.06
322.42	90.06
322.649	88.06
322.878	78.06
323.108	94.06
323.337	90.06
323.566	96.06
323.795	76.06
324.024	89.06
324.253	97.06
324.482	74.06
324.71	93.06
324.939	96.06
325.168	80.06
325.397	78.06
325.626	101.06
325.855	90.06
326.084	85.06
326.313	87.06
326.542	90.06
326.77	95.06
326.999	77.06
327.228	84.06
327.457	63.06
327.686	82.06
327.914	80.06
328.143	83.06
328.372	92.06
328.6	102.06
328.829	84.06
329.058	84.06
329.287	78.06
329.515	91.06
329.744	86.06
329.972	86.06
330.201	80.06
330.43	83.06
330.658	85.06
330.887	88.06
331.115	92.06
331.344	98.06
331.572	89.06
331.801	82.06
332.03	88.06
332.258	74.06
332.486	83.06
332.715	90.06
332.943	86.06
333.172	84.06
333.4	74.06
333.629	82.06
333.857	74.06
334.085	83.06
334.314	94.06
334.542	83.06
334.771	75.06
334.999	83.06
335.227	82.06
335.455	90.06
335.684	91.06
335.912	91.06
336.14	94.06
336.369	84.06
336.597	81.06
336.825	88.06
337.053	77.06
337.281	86.06
337.51	79.06
337.738	83.06
337.966	73.06
338.194	93.06
338.422	84.06
338.65	86.06
338.878	94.06
339.106	83.06
339.334	94.06
339.562	82.06
339.79	85.06
340.018	88.06
340.246	79.06
340.474	76.06
340.702	85.06
340.93	88.06
341.158	73.06
341.386	88.06
341.614	80.06
341.842	94.06
342.07	90.06
342.298	76.06
342.526	72.06
342.754	85.06
342.981	80.06
343.209	83.06
343.437	105.06
343.665	88.06
343.893	84.06
344.12	88.06
344.348	99.06
344.576	100.06
344.804	83.06
345.031	86.06
345.259	89.06
345.487	90.06
345.714	68.06
345.942	76.06
346.17	79.06
346.397	92.06
346.625	94.06
346.853	100.06
347.08	71.06
347.308	85.06
347.535	97.06
347.763	89.06
347.99	77.06
348.218	73.06
348.445	84.06
348.673	72.06
348.9	75.06
349.128	74.06
349.355	88.06
349.583	85.06
349.81	90.06
350.037	66.06
350.265	88.06
350.492	84.06
350.72	76.06
350.947	89.06
351.174	83.06
351.402	88.06
351.629	81.06
351.856	89.06
352.083	90.06
352.311	85.06
352.538	90.06
352.765	76.06
352.992	90.06
353.22	84.06
353.447	80.06
353.674	78.06
353.901	85.06
354.128	86.06
354.355	90.06
354.583	78.06
354.81	78.06
355.037	82.06
355.264	73.06
355.491	85.06
355.718	88.06
355.945	80.06
356.172	85.06
356.399	76.06
356.626	97.06
356.853	88.06
357.08	81.06
357.307	88.06
357.534	74.06
357.761	74.06
357.988	83.06
358.215	80.06
358.441	78.06
358.668	87.06
358.895	80.06
359.122	88.06
359.349	93.06
359.576	91.06
359.802	90.06
360.029	80.06
360.256	78.06
360.483	75.06
360.709	87.06
360.936	90.06
361.163	86.06
361.39	78.06
361.616	78.06
361.843	72.06
362.07	95.06
362.296	81.06
362.523	80.06
362.749	84.06
362.976	94.06
363.203	95.06
363.429	80.06
363.656	84.06
363.882	91.06
364.109	95.06
364.335	89.06
364.562	88.06
364.788	63.06
365.015	86.06
365.241	88.06
365.468	83.06
365.694	88.06
365.92	76.06
366.147	81.06
366.373	81.06
366.599	89.06
366.826	76.06
367.052	81.06
367.278	80.06
367.505	74.06
367.731	79.06
367.957	84.06
368.184	84.06
368.41	74.06
368.636	65.06
368.862	89.06
369.089	75.06
369.315	80.06
369.541	88.06
369.767	85.06
369.993	58.06
370.219	51.06
370.445	85.06
370.672	90.06
370.898	79.06
371.124	95.06
371.35	95.06
371.576	76.06
371.802	98.06
372.028	68.06
372.254	77.06
372.48	66.06
372.706	82.06
372.932	92.06
373.158	94.06
373.384	77.06
373.61	85.06
373.835	74.06
374.061	84.06
374.287	78.06
374.513	80.06
374.739	98.06
374.965	85.06
375.191	92.06
375.416	84.06
375.642	104.06
375.868	89.06
376.094	76.06
376.319	73.06
376.545	77.06
376.771	85.06
376.997	76.06
377.222	81.06
377.448	83.06
377.674	84.06
377.899	83.06
378.125	78.06
378.35	73.06
378.576	74.06
378.802	81.06
379.027	86.06
379.253	86.06
379.478	68.06
379.704	82.06
379.929	91.06
380.155	84.06
380.38	79.06
380.606	81.06
380.831	77.06
381.057	77.06
381.282	79.06
381.507	86.06
381.733	93.06
381.958	85.06
382.184	61.06
382.409	87.06
382.634	77.06
382.86	68.06
383.085	87.06
383.31	65.06
383.535	67.06
383.761	89.06
383.986	80.06
384.211	72.06
384.436	91.06
384.662	84.06
384.887	88.06
385.112	90.06
385.337	77.06
385.562	78.06
385.787	87.06
386.013	81.06
386.238	81.06
386.463	83.06
386.688	84.06
386.913	73.06
387.138	91.06
387.363	92.06
387.588	80.06
387.813	69.06
388.038	88.06
388.263	77.06
388.488	71.06
388.713	76.06
388.938	87.06
389.163	82.06
389.387	78.06
389.612	81.06
389.837	73.06
390.062	73.06
390.287	72.06
390.512	80.06
390.736	75.06
390.961	86.06
391.186	80.06
391.411	80.06
391.636	91.06
391.86	93.06
392.085	84.06
392.31	69.06
392.534	71.06
392.759	73.06
392.984	74.06
393.208	73.06
393.433	89.06
393.658	90.06
393.882	89.06
394.107	83.06
394.331	95.06
394.556	86.06
394.78	80.06
395.005	96.06
395.229	70.06
395.454	84.06
395.678	76.06
395.903	76.06
396.127	80.06
396.352	82.06
396.576	81.06
396.801	93.06
397.025	82.06
397.249	92.06
397.474	91.06
397.698	78.06
397.922	73.06
398.147	74.06
398.371	79.06
398.595	79.06
398.82	68.06
399.044	87.06
399.268	69.06
399.492	79.06
399.717	85.06
399.941	85.06
400.165	73.06
400.389	74.06
400.613	90.06
400.837	78.06
401.062	90.06
401.286	79.06
401.51	92.06
401.734	67.06
401.958	86.06
402.182	79.06
402.406	90.06
402.63	69.06
402.854	84.06
403.078	85.06
403.302	83.06
403.526	74.06
403.75	69.06
403.974	79.06
404.198	93.06
404.422	92.06
404.645	70.06
404.869	81.06
405.093	84.06
405.317	74.06
405.541	78.06
405.765	80.06
405.988	81.06
406.212	88.06
406.436	64.06
406.66	96.06
406.883	80.06
407.107	80.06
407.331	94.06
407.555	92.06
407.778	70.06
408.002	76.06
408.226	84.06
408.449	86.06
408.673	85.06
408.896	93.06
409.12	81.06
409.344	92.06
409.567	72.06
409.791	92.06
410.014	78.06
410.238	89.06
410.461	80.06
410.685	80.06
410.908	76.06
411.132	88.06
411.355	67.06
411.578	76.06
411.802	81.06
412.025	86.06
412.249	74.06
412.472	84.06
412.695	97.06
412.919	82.06
413.142	77.06
413.365	90.06
413.589	85.06
413.812	85.06
414.035	101.06
414.258	82.06
414.482	78.06
414.705	76.06
414.928	88.06
415.151	78.06
415.374	76.06
415.597	80.06
415.821	74.06
416.044	83.06
416.267	68.06
416.49	84.06
416.713	89.06
416.936	81.06
417.159	72.06
417.382	70.06
417.605	90.06
417.828	80.06
418.051	80.06
418.274	86.06
418.497	76.06
418.72	90.06
418.943	67.06
419.166	87.06
419.389	74.06
419.611	89.06
419.834	67.06
420.057	78.06
420.28	78.06
420.503	88.06
420.726	84.06
420.948	87.06
421.171	80.06
421.394	82.06
421.617	69.06
421.839	81.06
422.062	61.06
422.285	85.06
422.507	77.06
422.73	76.06
422.953	84.06
423.175	88.06
423.398	83.06
423.621	75.06
423.843	76.06
424.066	98.06
424.288	84.06
424.511	71.06
424.733	72.06
424.956	79.06
425.178	78.06
425.401	82.06
425.623	90.06
425.846	87.06
426.068	88.06
426.291	76.06
426.513	70.06
426.735	77.06
426.958	78.06
427.18	95.06
427.402	84.06
427.625	75.06
427.847	93.06
428.069	81.06
428.292	76.06
428.514	82.06
428.736	73.06
428.958	92.06
429.181	77.06
429.403	77.06
429.625	92.06
429.847	89.06
430.069	77.06
430.292	89.06
430.514	72.06
430.736	78.06
430.958	76.06
431.18	83.06
431.402	87.06
431.624	76.06
431.846	68.06
432.068	78.06
432.29	89.06
432.512	80.06
432.734	85.06
432.956	88.06
433.178	91.06
433.4	83.06
433.622	85.06
433.844	86.06
434.066	83.06
434.287	79.06
434.509	74.06
434.731	84.06
434.953	74.06
435.175	80.06
435.397	66.06
435.618	72.06
435.84	90.06
436.062	77.06
436.284	67.06
436.505	78.06
436.727	89.06
436.949	85.06
437.17	85.06
437.392	90.06
437.614	78.06
437.835	90.06
438.057	61.06
438.278	83.06
438.5	89.06
438.721	84.06
438.943	66.06
439.165	70.06
439.386	85.06
439.608	99.06
439.829	75.06
440.05	83.06
440.272	77.06
440.493	81.06
440.715	83.06
440.936	91.06
441.158	81.06
441.379	99.06
441.6	83.06
441.822	91.06
442.043	75.06
442.264	70.06
442.486	78.06
442.707	76.06
442.928	75.06
443.149	86.06
443.371	80.06
443.592	79.06
443.813	73.06
444.034	80.06
444.255	102.06
444.476	83.06
444.698	83.06
444.919	84.06
445.14	140.06
445.361	125.06
445.582	72.06
445.803	68.06
446.024	82.06
446.245	91.06
446.466	77.06
446.687	77.06
446.908	86.06
447.129	85.06
447.35	69.06
447.571	83.06
447.792	83.06
448.013	92.06
448.234	86.06
448.455	83.06
448.675	84.06
448.896	87.06
449.117	87.06
449.338	82.06
449.559	89.06
449.779	87.06
450	66.06
450.221	76.06
450.442	79.06
450.662	83.06
450.883	79.06
451.104	81.06
451.324	80.06
451.545	88.06
451.766	85.06
451.986	83.06
452.207	72.06
452.428	72.06
452.648	96.06
452.869	72.06
453.089	70.06
453.31	79.06
453.53	80.06
453.751	87.06
453.971	75.06
454.192	83.06
454.412	81.06
454.633	90.06
454.853	89.06
455.073	78.06
455.294	85.06
455.514	71.06
455.734	72.06
455.955	79.06
456.175	88.06
456.395	66.06
456.616	80.06
456.836	70.06
457.056	97.06
457.276	82.06
457.497	97.06
457.717	87.06
457.937	82.06
458.157	82.06
458.377	59.06
458.598	78.06
458.818	96.06
459.038	84.06
459.258	81.06
459.478	77.06
459.698	65.06
459.918	85.06
460.138	79.06
460.358	69.06
460.578	92.06
460.798	85.06
461.018	91.06
461.238	89.06
461.458	92.06
461.678	82.06
461.898	84.06
462.118	83.06
462.338	66.06
462.558	80.06
462.777	72.06
462.997	83.06
463.217	69.06
463.437	78.06
463.657	86.06
463.876	67.06
464.096	85.06
464.316	73.06
464.536	77.06
464.755	97.06
464.975	89.06
465.195	70.06
465.414	101.06
465.634	88.06
465.854	78.06
466.073	79.06
466.293	77.06
466.512	76.06
466.732	93.06
466.951	79.06
467.171	88.06
467.391	73.06
467.61	73.06
467.829	90.06
468.049	84.06
468.268	80.06
468.488	77.06
468.707	79.06
468.927	80.06
469.146	79.06
469.365	78.06
469.585	99.06
469.804	83.06
470.023	81.06
470.243	81.06
470.462	84.06
470.681	76.06
470.901	71.06
471.12	86.06
471.339	92.06
471.558	74.06
471.777	89.06
471.997	80.06
472.216	77.06
472.435	78.06
472.654	83.06
472.873	83.06
473.092	85.06
473.311	82.06
473.53	81.06
473.749	95.06
473.968	90.06
474.187	83.06
474.406	83.06
474.625	84.06
474.844	84.06
475.063	88.06
475.282	74.06
475.501	65.06
475.72	80.06
475.939	84.06
476.158	77.06
476.377	99.06
476.596	86.06
476.814	77.06
477.033	78.06
477.252	95.06
477.471	74.06
477.69	93.06
477.908	84.06
478.127	93.06
478.346	87.06
478.564	75.06
478.783	88.06
479.002	88.06
479.22	84.06
479.439	82.06
479.658	83.06
479.876	71.06
480.095	76.06
480.313	92.06
480.532	89.06
480.751	82.06
480.969	89.06
481.188	76.06
481.406	86.06
481.624	74.06
481.843	78.06
482.061	77.06
482.28	95.06
482.498	82.06
482.717	86.06
482.935	75.06
483.153	93.06
483.372	85.06
483.59	70.06
483.808	88.06
484.027	88.06
484.245	90.06
484.463	69.06
484.681	80.06
484.9	75.06
485.118	82.06
485.336	88.06
485.554	85.06
485.772	85.06
485.99	69.06
486.209	84.06
486.427	77.06
486.645	80.06
486.863	84.06
487.081	82.06
487.299	78.06
487.517	86.06
487.735	81.06
487.953	95.06
488.171	74.06
488.389	94.06
488.607	74.06
488.825	88.06
489.043	86.06
489.261	85.06
489.479	88.06
489.696	85.06
489.914	87.06
490.132	67.06
490.35	75.06
490.568	85.06
490.786	83.06
491.003	83.06
491.221	83.06
491.439	94.06
491.657	79.06
491.874	90.06
492.092	93.06
492.31	92.06
492.527	75.06
492.745	73.06
492.963	72.06
493.18	98.06
493.398	86.06
493.615	86.06
493.833	66.06
494.05	74.06
494.268	68.06
494.485	79.06
494.703	95.06
494.92	71.06
495.138	80.06
495.355	97.06
495.573	94.06
495.79	88.06
496.008	80.06
496.225	91.06
496.442	84.06
496.66	88.06
496.877	73.06
497.094	92.06
497.312	90.06
497.529	68.06
497.746	70.06
497.963	81.06
498.181	83.06
498.398	82.06
498.615	81.06
498.832	71.06
499.049	80.06
499.267	97.06
499.484	99.06
499.701	77.06
499.918	82.06
500.135	84.06
500.352	66.06
500.569	96.06
500.786	83.06
501.003	82.06
501.22	85.06
501.437	86.06
501.654	80.06
501.871	85.06
502.088	78.06
502.305	72.06
502.522	93.06
502.739	76.06
502.956	91.06
503.172	88.06
503.389	80.06
503.606	73.06
503.823	92.06
504.04	82.06
504.256	79.06
504.473	84.06
504.69	77.06
504.907	97.06
505.123	80.06
505.34	67.06
505.557	79.06
505.773	76.06
505.99	76.06
506.207	84.06
506.423	79.06
506.64	89.06
506.856	76.06
507.073	80.06
507.289	78.06
507.506	80.06
507.722	80.06
507.939	77.06
508.155	70.06
508.372	90.06
508.588	77.06
508.805	92.06
509.021	92.06
509.238	74.06
509.454	75.06
509.67	76.06
509.887	78.06
510.103	61.06
510.319	82.06
510.536	79.06
510.752	84.06
510.968	108.06
511.184	81.06
511.401	83.06
511.617	70.06
511.833	86.06
512.049	93.06
512.265	92.06
512.481	84.06
512.698	87.06
512.914	89.06
513.13	90.06
513.346	89.06
513.562	83.06
513.778	90.06
513.994	70.06
514.21	86.06
514.426	94.06
514.642	80.06
514.858	94.06
515.074	82.06
515.29	91.06
515.506	88.06
515.721	80.06
515.937	77.06
516.153	90.06
516.369	88.06
516.585	92.06
516.801	83.06
517.016	79.06
517.232	72.06
517.448	76.06
517.664	83.06
517.879	78.06
518.095	84.06
518.311	84.06
518.527	76.06
518.742	67.06
518.958	79.06
519.173	78.06
519.389	82.06
519.605	73.06
519.82	90.06
520.036	88.06
