Data from Background_1_HRD10591_00045.txt Node
Date: Wed Nov 05 14:39:20 EST 2025
User: Yrep
Spectrometer: HR+D1059
Trigger mode: 1
Integration Time (sec): 1.000000E-1
Scans to average: 1
Electric dark correction enabled: true
Nonlinearity correction enabled: false
Boxcar width: 0
XAxis mode: Wavelengths
Number of Pixels in Spectrum: 2048
>>>>>Begin Spectral Data<<<<<
223.165	-6.88
223.4	-6.88
223.635	-6.88
223.869	-15.88
224.104	-28.88
224.338	-5.88
224.573	-13.88
224.808	-13.88
225.042	-11.88
225.277	-3.88
225.511	4.12
225.746	7.12
225.98	-3.88
226.215	7.12
226.449	12.12
226.683	21.12
226.918	36.12
227.152	17.12
227.387	39.12
227.621	44.12
227.856	49.12
228.09	60.12
228.324	58.12
228.559	72.12
228.793	62.12
229.027	58.12
229.262	67.12
229.496	72.12
229.73	77.12
229.964	70.12
230.199	72.12
230.433	74.12
230.667	82.12
230.901	89.12
231.136	80.12
231.37	89.12
231.604	68.12
231.838	80.12
232.072	93.12
232.306	93.12
232.541	81.12
232.775	75.12
233.009	81.12
233.243	96.12
233.477	76.12
233.711	86.12
233.945	82.12
234.179	90.12
234.413	89.12
234.647	79.12
234.881	89.12
235.115	66.12
235.349	84.12
235.583	75.12
235.817	75.12
236.051	80.12
236.285	69.12
236.519	82.12
236.753	95.12
236.987	87.12
237.221	88.12
237.455	78.12
237.689	88.12
237.922	76.12
238.156	80.12
238.39	82.12
238.624	77.12
238.858	88.12
239.091	76.12
239.325	76.12
239.559	74.12
239.793	72.12
240.027	79.12
240.26	76.12
240.494	85.12
240.728	85.12
240.961	77.12
241.195	72.12
241.429	75.12
241.662	73.12
241.896	74.12
242.13	75.12
242.363	84.12
242.597	83.12
242.83	80.12
243.064	84.12
243.298	81.12
243.531	84.12
243.765	62.12
243.998	93.12
244.232	80.12
244.465	93.12
244.699	71.12
244.932	86.12
245.166	80.12
245.399	63.12
245.633	71.12
245.866	61.12
246.099	68.12
246.333	78.12
246.566	79.12
246.8	74.12
247.033	86.12
247.266	82.12
247.5	81.12
247.733	76.12
247.966	74.12
248.2	95.12
248.433	90.12
248.666	81.12
248.899	92.12
249.133	72.12
249.366	67.12
249.599	74.12
249.832	67.12
250.066	92.12
250.299	88.12
250.532	75.12
250.765	73.12
250.998	73.12
251.231	73.12
251.465	74.12
251.698	81.12
251.931	70.12
252.164	80.12
252.397	90.12
252.63	84.12
252.863	100.12
253.096	82.12
253.329	66.12
253.562	100.12
253.795	74.12
254.028	93.12
254.261	85.12
254.494	81.12
254.727	83.12
254.96	77.12
255.193	91.12
255.426	103.12
255.659	70.12
255.892	82.12
256.124	78.12
256.357	90.12
256.59	89.12
256.823	64.12
257.056	79.12
257.289	87.12
257.521	97.12
257.754	81.12
257.987	90.12
258.22	91.12
258.452	81.12
258.685	79.12
258.918	88.12
259.151	76.12
259.383	84.12
259.616	78.12
259.849	91.12
260.081	87.12
260.314	71.12
260.547	81.12
260.779	84.12
261.012	76.12
261.244	74.12
261.477	88.12
261.71	94.12
261.942	82.12
262.175	90.12
262.407	80.12
262.64	81.12
262.872	89.12
263.105	73.12
263.337	70.12
263.57	79.12
263.802	82.12
264.035	65.12
264.267	76.12
264.499	78.12
264.732	89.12
264.964	85.12
265.197	84.12
265.429	74.12
265.661	91.12
265.894	90.12
266.126	71.12
266.358	86.12
266.591	84.12
266.823	89.12
267.055	84.12
267.287	80.12
267.52	77.12
267.752	95.12
267.984	90.12
268.216	80.12
268.448	84.12
268.681	84.12
268.913	92.12
269.145	85.12
269.377	94.12
269.609	84.12
269.841	83.12
270.073	82.12
270.306	74.12
270.538	82.12
270.77	85.12
271.002	85.12
271.234	90.12
271.466	92.12
271.698	88.12
271.93	74.12
272.162	94.12
272.394	80.12
272.626	78.12
272.858	72.12
273.09	90.12
273.322	106.12
273.553	87.12
273.785	83.12
274.017	80.12
274.249	76.12
274.481	75.12
274.713	100.12
274.945	72.12
275.176	81.12
275.408	89.12
275.64	77.12
275.872	75.12
276.104	84.12
276.335	75.12
276.567	84.12
276.799	88.12
277.031	86.12
277.262	74.12
277.494	92.12
277.726	82.12
277.957	93.12
278.189	93.12
278.421	92.12
278.652	81.12
278.884	76.12
279.115	88.12
279.347	75.12
279.579	88.12
279.81	80.12
280.042	82.12
280.273	83.12
280.505	94.12
280.736	71.12
280.968	66.12
281.199	80.12
281.431	69.12
281.662	82.12
281.894	78.12
282.125	88.12
282.356	90.12
282.588	91.12
282.819	83.12
283.051	89.12
283.282	85.12
283.513	79.12
283.745	87.12
283.976	87.12
284.207	97.12
284.439	86.12
284.67	92.12
284.901	88.12
285.132	93.12
285.364	91.12
285.595	81.12
285.826	86.12
286.057	79.12
286.288	82.12
286.52	97.12
286.751	78.12
286.982	81.12
287.213	80.12
287.444	78.12
287.675	83.12
287.906	90.12
288.138	77.12
288.369	85.12
288.6	85.12
288.831	82.12
289.062	83.12
289.293	76.12
289.524	81.12
289.755	90.12
289.986	95.12
290.217	93.12
290.448	106.12
290.679	80.12
290.91	60.12
291.141	81.12
291.371	79.12
291.602	82.12
291.833	78.12
292.064	85.12
292.295	73.12
292.526	78.12
292.757	72.12
292.987	99.12
293.218	88.12
293.449	86.12
293.68	84.12
293.91	80.12
294.141	89.12
294.372	80.12
294.603	91.12
294.833	83.12
295.064	79.12
295.295	83.12
295.525	92.12
295.756	91.12
295.987	94.12
296.217	86.12
296.448	84.12
296.679	85.12
296.909	86.12
297.14	73.12
297.37	85.12
297.601	85.12
297.831	73.12
298.062	90.12
298.292	93.12
298.523	79.12
298.753	88.12
298.984	82.12
299.214	93.12
299.445	69.12
299.675	85.12
299.905	96.12
300.136	93.12
300.366	99.12
300.597	88.12
300.827	92.12
301.057	93.12
301.288	85.12
301.518	93.12
301.748	70.12
301.979	93.12
302.209	97.12
302.439	81.12
302.669	81.12
302.9	97.12
303.13	101.12
303.36	82.12
303.59	96.12
303.82	88.12
304.051	88.12
304.281	86.12
304.511	78.12
304.741	78.12
304.971	83.12
305.201	101.12
305.431	81.12
305.661	93.12
305.891	83.12
306.121	83.12
306.352	86.12
306.582	85.12
306.812	80.12
307.042	85.12
307.272	89.12
307.502	72.12
307.731	80.12
307.961	70.12
308.191	85.12
308.421	77.12
308.651	88.12
308.881	85.12
309.111	89.12
309.341	83.12
309.571	91.12
309.8	73.12
310.03	72.12
310.26	94.12
310.49	92.12
310.72	73.12
310.949	90.12
311.179	86.12
311.409	91.12
311.639	95.12
311.868	73.12
312.098	89.12
312.328	83.12
312.557	77.12
312.787	89.12
313.017	89.12
313.246	80.12
313.476	94.12
313.706	76.12
313.935	84.12
314.165	72.12
314.394	86.12
314.624	76.12
314.853	88.12
315.083	101.12
315.312	81.12
315.542	80.12
315.771	85.12
316.001	87.12
316.23	79.12
316.46	95.12
316.689	81.12
316.919	92.12
317.148	80.12
317.377	97.12
317.607	90.12
317.836	94.12
318.065	79.12
318.295	92.12
318.524	86.12
318.753	68.12
318.983	69.12
319.212	95.12
319.441	88.12
319.67	87.12
319.9	91.12
320.129	92.12
320.358	73.12
320.587	91.12
320.816	87.12
321.046	76.12
321.275	90.12
321.504	73.12
321.733	86.12
321.962	96.12
322.191	83.12
322.42	90.12
322.649	79.12
322.878	84.12
323.108	88.12
323.337	89.12
323.566	72.12
323.795	71.12
324.024	83.12
324.253	98.12
324.482	86.12
324.71	96.12
324.939	96.12
325.168	98.12
325.397	89.12
325.626	75.12
325.855	95.12
326.084	74.12
326.313	83.12
326.542	86.12
326.77	98.12
326.999	84.12
327.228	100.12
327.457	94.12
327.686	92.12
327.914	88.12
328.143	85.12
328.372	88.12
328.6	88.12
328.829	91.12
329.058	87.12
329.287	84.12
329.515	82.12
329.744	82.12
329.972	85.12
330.201	84.12
330.43	74.12
330.658	80.12
330.887	87.12
331.115	82.12
331.344	82.12
331.572	75.12
331.801	90.12
332.03	86.12
332.258	86.12
332.486	81.12
332.715	76.12
332.943	76.12
333.172	88.12
333.4	81.12
333.629	80.12
333.857	82.12
334.085	82.12
334.314	93.12
334.542	63.12
334.771	78.12
334.999	104.12
335.227	79.12
335.455	83.12
335.684	84.12
335.912	86.12
336.14	80.12
336.369	89.12
336.597	75.12
336.825	83.12
337.053	89.12
337.281	84.12
337.51	74.12
337.738	79.12
337.966	81.12
338.194	86.12
338.422	85.12
338.65	91.12
338.878	96.12
339.106	75.12
339.334	70.12
339.562	79.12
339.79	78.12
340.018	99.12
340.246	99.12
340.474	73.12
340.702	83.12
340.93	70.12
341.158	84.12
341.386	76.12
341.614	82.12
341.842	84.12
342.07	67.12
342.298	83.12
342.526	74.12
342.754	85.12
342.981	83.12
343.209	83.12
343.437	103.12
343.665	93.12
343.893	82.12
344.12	94.12
344.348	84.12
344.576	79.12
344.804	90.12
345.031	88.12
345.259	88.12
345.487	89.12
345.714	88.12
345.942	84.12
346.17	80.12
346.397	84.12
346.625	68.12
346.853	86.12
347.08	107.12
347.308	83.12
347.535	84.12
347.763	83.12
347.99	80.12
348.218	100.12
348.445	85.12
348.673	76.12
348.9	86.12
349.128	80.12
349.355	90.12
349.583	93.12
349.81	89.12
350.037	78.12
350.265	84.12
350.492	93.12
350.72	79.12
350.947	69.12
351.174	76.12
351.402	77.12
351.629	98.12
351.856	94.12
352.083	80.12
352.311	74.12
352.538	82.12
352.765	82.12
352.992	75.12
353.22	83.12
353.447	90.12
353.674	84.12
353.901	89.12
354.128	94.12
354.355	84.12
354.583	94.12
354.81	84.12
355.037	93.12
355.264	78.12
355.491	82.12
355.718	78.12
355.945	74.12
356.172	88.12
356.399	86.12
356.626	85.12
356.853	82.12
357.08	74.12
357.307	82.12
357.534	80.12
357.761	92.12
357.988	98.12
358.215	93.12
358.441	96.12
358.668	72.12
358.895	85.12
359.122	86.12
359.349	76.12
359.576	74.12
359.802	77.12
360.029	82.12
360.256	89.12
360.483	82.12
360.709	78.12
360.936	84.12
361.163	87.12
361.39	77.12
361.616	81.12
361.843	97.12
362.07	97.12
362.296	89.12
362.523	76.12
362.749	84.12
362.976	75.12
363.203	85.12
363.429	81.12
363.656	73.12
363.882	96.12
364.109	90.12
364.335	91.12
364.562	84.12
364.788	92.12
365.015	80.12
365.241	84.12
365.468	92.12
365.694	80.12
365.92	85.12
366.147	92.12
366.373	70.12
366.599	86.12
366.826	83.12
367.052	91.12
367.278	82.12
367.505	79.12
367.731	104.12
367.957	76.12
368.184	77.12
368.41	87.12
368.636	86.12
368.862	68.12
369.089	83.12
369.315	79.12
369.541	84.12
369.767	88.12
369.993	94.12
370.219	91.12
370.445	86.12
370.672	90.12
370.898	79.12
371.124	85.12
371.35	85.12
371.576	70.12
371.802	93.12
372.028	85.12
372.254	76.12
372.48	76.12
372.706	86.12
372.932	96.12
373.158	73.12
373.384	88.12
373.61	88.12
373.835	69.12
374.061	87.12
374.287	81.12
374.513	85.12
374.739	84.12
374.965	72.12
375.191	78.12
375.416	75.12
375.642	80.12
375.868	91.12
376.094	89.12
376.319	84.12
376.545	88.12
376.771	88.12
376.997	81.12
377.222	90.12
377.448	83.12
377.674	90.12
377.899	86.12
378.125	89.12
378.35	81.12
378.576	86.12
378.802	88.12
379.027	79.12
379.253	91.12
379.478	78.12
379.704	85.12
379.929	86.12
380.155	81.12
380.38	85.12
380.606	84.12
380.831	83.12
381.057	83.12
381.282	90.12
381.507	90.12
381.733	91.12
381.958	90.12
382.184	85.12
382.409	88.12
382.634	80.12
382.86	68.12
383.085	96.12
383.31	63.12
383.535	77.12
383.761	91.12
383.986	89.12
384.211	75.12
384.436	82.12
384.662	83.12
384.887	88.12
385.112	90.12
385.337	86.12
385.562	96.12
385.787	76.12
386.013	94.12
386.238	86.12
386.463	80.12
386.688	97.12
386.913	84.12
387.138	82.12
387.363	82.12
387.588	78.12
387.813	95.12
388.038	86.12
388.263	80.12
388.488	82.12
388.713	75.12
388.938	77.12
389.163	91.12
389.387	97.12
389.612	95.12
389.837	69.12
390.062	77.12
390.287	79.12
390.512	79.12
390.736	77.12
390.961	79.12
391.186	96.12
391.411	83.12
391.636	78.12
391.86	88.12
392.085	76.12
392.31	81.12
392.534	84.12
392.759	98.12
392.984	86.12
393.208	84.12
393.433	76.12
393.658	66.12
393.882	90.12
394.107	85.12
394.331	83.12
394.556	79.12
394.78	85.12
395.005	84.12
395.229	88.12
395.454	86.12
395.678	80.12
395.903	92.12
396.127	95.12
396.352	102.12
396.576	78.12
396.801	77.12
397.025	90.12
397.249	83.12
397.474	83.12
397.698	81.12
397.922	81.12
398.147	90.12
398.371	75.12
398.595	89.12
398.82	80.12
399.044	67.12
399.268	78.12
399.492	86.12
399.717	70.12
399.941	95.12
400.165	75.12
400.389	78.12
400.613	93.12
400.837	76.12
401.062	76.12
401.286	79.12
401.51	70.12
401.734	65.12
401.958	70.12
402.182	80.12
402.406	83.12
402.63	74.12
402.854	85.12
403.078	67.12
403.302	85.12
403.526	87.12
403.75	85.12
403.974	82.12
404.198	80.12
404.422	83.12
404.645	82.12
404.869	80.12
405.093	80.12
405.317	85.12
405.541	72.12
405.765	75.12
405.988	62.12
406.212	100.12
406.436	82.12
406.66	89.12
406.883	83.12
407.107	86.12
407.331	80.12
407.555	80.12
407.778	89.12
408.002	86.12
408.226	83.12
408.449	70.12
408.673	78.12
408.896	84.12
409.12	87.12
409.344	70.12
409.567	74.12
409.791	85.12
410.014	87.12
410.238	70.12
410.461	67.12
410.685	86.12
410.908	90.12
411.132	80.12
411.355	82.12
411.578	87.12
411.802	82.12
412.025	87.12
412.249	77.12
412.472	88.12
412.695	76.12
412.919	85.12
413.142	89.12
413.365	85.12
413.589	77.12
413.812	85.12
414.035	82.12
414.258	74.12
414.482	74.12
414.705	89.12
414.928	76.12
415.151	76.12
415.374	75.12
415.597	85.12
415.821	79.12
416.044	83.12
416.267	80.12
416.49	90.12
416.713	77.12
416.936	86.12
417.159	70.12
417.382	83.12
417.605	64.12
417.828	78.12
418.051	80.12
418.274	97.12
418.497	71.12
418.72	81.12
418.943	92.12
419.166	84.12
419.389	86.12
419.611	81.12
419.834	84.12
420.057	84.12
420.28	79.12
420.503	79.12
420.726	82.12
420.948	75.12
421.171	87.12
421.394	84.12
421.617	87.12
421.839	66.12
422.062	70.12
422.285	81.12
422.507	70.12
422.73	85.12
422.953	80.12
423.175	68.12
423.398	89.12
423.621	84.12
423.843	88.12
424.066	88.12
424.288	80.12
424.511	81.12
424.733	96.12
424.956	80.12
425.178	83.12
425.401	83.12
425.623	75.12
425.846	72.12
426.068	88.12
426.291	86.12
426.513	97.12
426.735	80.12
426.958	69.12
427.18	80.12
427.402	88.12
427.625	82.12
427.847	77.12
428.069	81.12
428.292	82.12
428.514	80.12
428.736	98.12
428.958	91.12
429.181	85.12
429.403	89.12
429.625	82.12
429.847	66.12
430.069	91.12
430.292	78.12
430.514	88.12
430.736	85.12
430.958	78.12
431.18	82.12
431.402	77.12
431.624	78.12
431.846	98.12
432.068	76.12
432.29	95.12
432.512	88.12
432.734	95.12
432.956	83.12
433.178	84.12
433.4	86.12
433.622	76.12
433.844	84.12
434.066	86.12
434.287	69.12
434.509	91.12
434.731	85.12
434.953	74.12
435.175	78.12
435.397	87.12
435.618	74.12
435.84	70.12
436.062	91.12
436.284	97.12
436.505	76.12
436.727	69.12
436.949	77.12
437.17	90.12
437.392	78.12
437.614	94.12
437.835	96.12
438.057	99.12
438.278	81.12
438.5	82.12
438.721	95.12
438.943	91.12
439.165	91.12
439.386	91.12
439.608	81.12
439.829	80.12
440.05	71.12
440.272	85.12
440.493	67.12
440.715	87.12
440.936	76.12
441.158	92.12
441.379	75.12
441.6	76.12
441.822	56.12
442.043	84.12
442.264	76.12
442.486	82.12
442.707	78.12
442.928	84.12
443.149	80.12
443.371	91.12
443.592	74.12
443.813	84.12
444.034	82.12
444.255	83.12
444.476	76.12
444.698	78.12
444.919	71.12
445.14	144.12
445.361	122.12
445.582	92.12
445.803	68.12
446.024	85.12
446.245	89.12
446.466	69.12
446.687	95.12
446.908	92.12
447.129	80.12
447.35	85.12
447.571	82.12
447.792	75.12
448.013	76.12
448.234	92.12
448.455	78.12
448.675	81.12
448.896	74.12
449.117	83.12
449.338	86.12
449.559	77.12
449.779	67.12
450	88.12
450.221	79.12
450.442	91.12
450.662	80.12
450.883	68.12
451.104	86.12
451.324	97.12
451.545	81.12
451.766	93.12
451.986	83.12
452.207	70.12
452.428	85.12
452.648	80.12
452.869	74.12
453.089	78.12
453.31	83.12
453.53	92.12
453.751	80.12
453.971	79.12
454.192	73.12
454.412	84.12
454.633	82.12
454.853	96.12
455.073	86.12
455.294	78.12
455.514	81.12
455.734	85.12
455.955	76.12
456.175	78.12
456.395	79.12
456.616	91.12
456.836	74.12
457.056	70.12
457.276	85.12
457.497	80.12
457.717	80.12
457.937	79.12
458.157	89.12
458.377	77.12
458.598	78.12
458.818	81.12
459.038	83.12
459.258	86.12
459.478	99.12
459.698	76.12
459.918	78.12
460.138	81.12
460.358	84.12
460.578	78.12
460.798	90.12
461.018	81.12
461.238	87.12
461.458	85.12
461.678	68.12
461.898	74.12
462.118	83.12
462.338	84.12
462.558	92.12
462.777	79.12
462.997	80.12
463.217	78.12
463.437	84.12
463.657	80.12
463.876	85.12
464.096	80.12
464.316	90.12
464.536	84.12
464.755	80.12
464.975	106.12
465.195	87.12
465.414	73.12
465.634	76.12
465.854	69.12
466.073	92.12
466.293	87.12
466.512	84.12
466.732	97.12
466.951	74.12
467.171	85.12
467.391	76.12
467.61	66.12
467.829	75.12
468.049	86.12
468.268	86.12
468.488	83.12
468.707	101.12
468.927	74.12
469.146	84.12
469.365	75.12
469.585	85.12
469.804	76.12
470.023	81.12
470.243	76.12
470.462	92.12
470.681	90.12
470.901	94.12
471.12	89.12
471.339	86.12
471.558	80.12
471.777	86.12
471.997	63.12
472.216	72.12
472.435	85.12
472.654	85.12
472.873	83.12
473.092	94.12
473.311	79.12
473.53	76.12
473.749	83.12
473.968	78.12
474.187	77.12
474.406	84.12
474.625	87.12
474.844	79.12
475.063	77.12
475.282	88.12
475.501	82.12
475.72	92.12
475.939	85.12
476.158	82.12
476.377	85.12
476.596	95.12
476.814	86.12
477.033	78.12
477.252	84.12
477.471	78.12
477.69	62.12
477.908	80.12
478.127	83.12
478.346	83.12
478.564	81.12
478.783	80.12
479.002	94.12
479.22	76.12
479.439	83.12
479.658	89.12
479.876	89.12
480.095	81.12
480.313	85.12
480.532	85.12
480.751	84.12
480.969	66.12
481.188	90.12
481.406	78.12
481.624	75.12
481.843	86.12
482.061	78.12
482.28	75.12
482.498	90.12
482.717	95.12
482.935	85.12
483.153	76.12
483.372	81.12
483.59	97.12
483.808	92.12
484.027	94.12
484.245	83.12
484.463	82.12
484.681	100.12
484.9	84.12
485.118	94.12
485.336	70.12
485.554	69.12
485.772	92.12
485.99	77.12
486.209	77.12
486.427	89.12
486.645	71.12
486.863	82.12
487.081	94.12
487.299	93.12
487.517	101.12
487.735	84.12
487.953	84.12
488.171	83.12
488.389	92.12
488.607	78.12
488.825	85.12
489.043	89.12
489.261	83.12
489.479	86.12
489.696	69.12
489.914	86.12
490.132	79.12
490.35	105.12
490.568	78.12
490.786	78.12
491.003	94.12
491.221	87.12
491.439	80.12
491.657	73.12
491.874	94.12
492.092	83.12
492.31	92.12
492.527	85.12
492.745	80.12
492.963	77.12
493.18	77.12
493.398	81.12
493.615	73.12
493.833	92.12
494.05	81.12
494.268	74.12
494.485	74.12
494.703	96.12
494.92	87.12
495.138	76.12
495.355	83.12
495.573	73.12
495.79	68.12
496.008	84.12
496.225	89.12
496.442	82.12
496.66	79.12
496.877	82.12
497.094	74.12
497.312	77.12
497.529	70.12
497.746	94.12
497.963	98.12
498.181	103.12
498.398	85.12
498.615	96.12
498.832	88.12
499.049	81.12
499.267	75.12
499.484	93.12
499.701	75.12
499.918	56.12
500.135	92.12
500.352	88.12
500.569	86.12
500.786	80.12
501.003	67.12
501.22	89.12
501.437	72.12
501.654	85.12
501.871	81.12
502.088	80.12
502.305	80.12
502.522	73.12
502.739	84.12
502.956	78.12
503.172	72.12
503.389	77.12
503.606	94.12
503.823	82.12
504.04	73.12
504.256	85.12
504.473	85.12
504.69	82.12
504.907	79.12
505.123	80.12
505.34	80.12
505.557	80.12
505.773	102.12
505.99	101.12
506.207	74.12
506.423	88.12
506.64	82.12
506.856	78.12
507.073	82.12
507.289	92.12
507.506	79.12
507.722	72.12
507.939	84.12
508.155	73.12
508.372	69.12
508.588	94.12
508.805	77.12
509.021	97.12
509.238	94.12
509.454	94.12
509.67	85.12
509.887	82.12
510.103	91.12
510.319	93.12
510.536	88.12
510.752	76.12
510.968	90.12
511.184	83.12
511.401	74.12
511.617	74.12
511.833	82.12
512.049	89.12
512.265	81.12
512.481	76.12
512.698	78.12
512.914	89.12
513.13	82.12
513.346	84.12
513.562	73.12
513.778	78.12
513.994	80.12
514.21	74.12
514.426	81.12
514.642	83.12
514.858	74.12
515.074	93.12
515.29	92.12
515.506	86.12
515.721	93.12
515.937	98.12
516.153	81.12
516.369	73.12
516.585	62.12
516.801	74.12
517.016	90.12
517.232	72.12
517.448	93.12
517.664	84.12
517.879	81.12
518.095	85.12
518.311	78.12
518.527	75.12
518.742	78.12
518.958	74.12
519.173	80.12
519.389	94.12
519.605	92.12
519.82	80.12
