Data from Background_1_HRD10591_00050.txt Node
Date: Wed Nov 05 14:39:22 EST 2025
User: Yrep
Spectrometer: HR+D1059
Trigger mode: 1
Integration Time (sec): 1.000000E-1
Scans to average: 1
Electric dark correction enabled: true
Nonlinearity correction enabled: false
Boxcar width: 0
XAxis mode: Wavelengths
Number of Pixels in Spectrum: 2048
>>>>>Begin Spectral Data<<<<<
223.165	-19.5
223.4	-19.5
223.635	-19.5
223.869	-25.5
224.104	-9.5
224.338	-5.5
224.573	-18.5
224.808	-15.5
225.042	-9.5
225.277	2.5
225.511	-10.5
225.746	-4.5
225.98	33.5
226.215	9.5
226.449	6.5
226.683	17.5
226.918	15.5
227.152	33.5
227.387	35.5
227.621	36.5
227.856	49.5
228.09	52.5
228.324	34.5
228.559	53.5
228.793	60.5
229.027	65.5
229.262	59.5
229.496	67.5
229.73	57.5
229.964	61.5
230.199	81.5
230.433	77.5
230.667	82.5
230.901	94.5
231.136	79.5
231.37	74.5
231.604	78.5
231.838	91.5
232.072	85.5
232.306	86.5
232.541	70.5
232.775	86.5
233.009	74.5
233.243	69.5
233.477	77.5
233.711	81.5
233.945	86.5
234.179	93.5
234.413	98.5
234.647	90.5
234.881	86.5
235.115	79.5
235.349	75.5
235.583	82.5
235.817	78.5
236.051	83.5
236.285	80.5
236.519	79.5
236.753	84.5
236.987	65.5
237.221	71.5
237.455	82.5
237.689	78.5
237.922	68.5
238.156	62.5
238.39	63.5
238.624	86.5
238.858	80.5
239.091	87.5
239.325	71.5
239.559	74.5
239.793	86.5
240.027	76.5
240.26	84.5
240.494	94.5
240.728	81.5
240.961	93.5
241.195	85.5
241.429	82.5
241.662	72.5
241.896	83.5
242.13	77.5
242.363	75.5
242.597	82.5
242.83	89.5
243.064	69.5
243.298	68.5
243.531	71.5
243.765	74.5
243.998	69.5
244.232	79.5
244.465	79.5
244.699	84.5
244.932	71.5
245.166	81.5
245.399	67.5
245.633	78.5
245.866	64.5
246.099	72.5
246.333	94.5
246.566	78.5
246.8	81.5
247.033	80.5
247.266	77.5
247.5	76.5
247.733	83.5
247.966	78.5
248.2	81.5
248.433	87.5
248.666	71.5
248.899	87.5
249.133	78.5
249.366	82.5
249.599	66.5
249.832	71.5
250.066	98.5
250.299	89.5
250.532	74.5
250.765	89.5
250.998	75.5
251.231	78.5
251.465	72.5
251.698	74.5
251.931	70.5
252.164	94.5
252.397	74.5
252.63	83.5
252.863	91.5
253.096	80.5
253.329	88.5
253.562	77.5
253.795	56.5
254.028	83.5
254.261	88.5
254.494	80.5
254.727	77.5
254.96	89.5
255.193	88.5
255.426	86.5
255.659	77.5
255.892	72.5
256.124	84.5
256.357	86.5
256.59	74.5
256.823	84.5
257.056	84.5
257.289	78.5
257.521	86.5
257.754	77.5
257.987	75.5
258.22	68.5
258.452	89.5
258.685	91.5
258.918	83.5
259.151	72.5
259.383	79.5
259.616	77.5
259.849	90.5
260.081	81.5
260.314	81.5
260.547	72.5
260.779	77.5
261.012	87.5
261.244	82.5
261.477	71.5
261.71	83.5
261.942	80.5
262.175	69.5
262.407	77.5
262.64	87.5
262.872	88.5
263.105	72.5
263.337	89.5
263.57	80.5
263.802	81.5
264.035	79.5
264.267	82.5
264.499	77.5
264.732	85.5
264.964	84.5
265.197	93.5
265.429	78.5
265.661	85.5
265.894	99.5
266.126	86.5
266.358	65.5
266.591	71.5
266.823	86.5
267.055	78.5
267.287	73.5
267.52	87.5
267.752	93.5
267.984	90.5
268.216	91.5
268.448	87.5
268.681	98.5
268.913	88.5
269.145	81.5
269.377	91.5
269.609	78.5
269.841	72.5
270.073	80.5
270.306	81.5
270.538	75.5
270.77	80.5
271.002	85.5
271.234	85.5
271.466	93.5
271.698	82.5
271.93	82.5
272.162	72.5
272.394	79.5
272.626	77.5
272.858	82.5
273.09	87.5
273.322	84.5
273.553	93.5
273.785	80.5
274.017	85.5
274.249	90.5
274.481	80.5
274.713	62.5
274.945	85.5
275.176	78.5
275.408	83.5
275.64	77.5
275.872	81.5
276.104	95.5
276.335	84.5
276.567	82.5
276.799	82.5
277.031	79.5
277.262	68.5
277.494	77.5
277.726	93.5
277.957	85.5
278.189	81.5
278.421	82.5
278.652	83.5
278.884	91.5
279.115	79.5
279.347	87.5
279.579	90.5
279.81	95.5
280.042	91.5
280.273	80.5
280.505	90.5
280.736	77.5
280.968	95.5
281.199	88.5
281.431	82.5
281.662	77.5
281.894	92.5
282.125	71.5
282.356	88.5
282.588	83.5
282.819	85.5
283.051	87.5
283.282	85.5
283.513	92.5
283.745	92.5
283.976	92.5
284.207	90.5
284.439	78.5
284.67	81.5
284.901	93.5
285.132	84.5
285.364	82.5
285.595	78.5
285.826	87.5
286.057	87.5
286.288	81.5
286.52	83.5
286.751	99.5
286.982	73.5
287.213	71.5
287.444	85.5
287.675	70.5
287.906	94.5
288.138	92.5
288.369	88.5
288.6	66.5
288.831	86.5
289.062	93.5
289.293	84.5
289.524	68.5
289.755	91.5
289.986	77.5
290.217	89.5
290.448	95.5
290.679	75.5
290.91	89.5
291.141	82.5
291.371	81.5
291.602	84.5
291.833	74.5
292.064	92.5
292.295	83.5
292.526	84.5
292.757	81.5
292.987	98.5
293.218	92.5
293.449	95.5
293.68	68.5
293.91	90.5
294.141	87.5
294.372	99.5
294.603	89.5
294.833	99.5
295.064	83.5
295.295	87.5
295.525	90.5
295.756	110.5
295.987	86.5
296.217	76.5
296.448	97.5
296.679	85.5
296.909	99.5
297.14	86.5
297.37	91.5
297.601	78.5
297.831	94.5
298.062	85.5
298.292	78.5
298.523	88.5
298.753	82.5
298.984	85.5
299.214	80.5
299.445	73.5
299.675	82.5
299.905	82.5
300.136	90.5
300.366	69.5
300.597	91.5
300.827	90.5
301.057	89.5
301.288	92.5
301.518	86.5
301.748	80.5
301.979	98.5
302.209	84.5
302.439	89.5
302.669	86.5
302.9	83.5
303.13	100.5
303.36	98.5
303.59	84.5
303.82	71.5
304.051	80.5
304.281	73.5
304.511	95.5
304.741	81.5
304.971	85.5
305.201	85.5
305.431	93.5
305.661	98.5
305.891	94.5
306.121	93.5
306.352	85.5
306.582	84.5
306.812	80.5
307.042	82.5
307.272	72.5
307.502	75.5
307.731	68.5
307.961	77.5
308.191	90.5
308.421	87.5
308.651	86.5
308.881	91.5
309.111	76.5
309.341	84.5
309.571	77.5
309.8	67.5
310.03	91.5
310.26	81.5
310.49	93.5
310.72	89.5
310.949	89.5
311.179	98.5
311.409	93.5
311.639	75.5
311.868	80.5
312.098	78.5
312.328	77.5
312.557	88.5
312.787	85.5
313.017	95.5
313.246	95.5
313.476	94.5
313.706	88.5
313.935	94.5
314.165	78.5
314.394	82.5
314.624	87.5
314.853	92.5
315.083	88.5
315.312	78.5
315.542	79.5
315.771	83.5
316.001	90.5
316.23	69.5
316.46	72.5
316.689	79.5
316.919	79.5
317.148	85.5
317.377	85.5
317.607	82.5
317.836	74.5
318.065	85.5
318.295	96.5
318.524	85.5
318.753	90.5
318.983	95.5
319.212	71.5
319.441	90.5
319.67	81.5
319.9	91.5
320.129	88.5
320.358	89.5
320.587	82.5
320.816	97.5
321.046	97.5
321.275	99.5
321.504	82.5
321.733	85.5
321.962	95.5
322.191	93.5
322.42	79.5
322.649	83.5
322.878	83.5
323.108	95.5
323.337	96.5
323.566	85.5
323.795	92.5
324.024	88.5
324.253	93.5
324.482	57.5
324.71	81.5
324.939	87.5
325.168	92.5
325.397	79.5
325.626	95.5
325.855	75.5
326.084	87.5
326.313	96.5
326.542	86.5
326.77	93.5
326.999	95.5
327.228	74.5
327.457	69.5
327.686	93.5
327.914	87.5
328.143	92.5
328.372	71.5
328.6	75.5
328.829	78.5
329.058	101.5
329.287	92.5
329.515	86.5
329.744	85.5
329.972	75.5
330.201	85.5
330.43	79.5
330.658	78.5
330.887	84.5
331.115	86.5
331.344	87.5
331.572	90.5
331.801	91.5
332.03	87.5
332.258	87.5
332.486	88.5
332.715	72.5
332.943	76.5
333.172	100.5
333.4	83.5
333.629	89.5
333.857	78.5
334.085	84.5
334.314	87.5
334.542	94.5
334.771	80.5
334.999	94.5
335.227	96.5
335.455	82.5
335.684	77.5
335.912	94.5
336.14	83.5
336.369	79.5
336.597	87.5
336.825	70.5
337.053	81.5
337.281	91.5
337.51	84.5
337.738	66.5
337.966	79.5
338.194	77.5
338.422	88.5
338.65	79.5
338.878	88.5
339.106	85.5
339.334	96.5
339.562	91.5
339.79	85.5
340.018	80.5
340.246	79.5
340.474	75.5
340.702	80.5
340.93	67.5
341.158	79.5
341.386	89.5
341.614	83.5
341.842	84.5
342.07	81.5
342.298	85.5
342.526	70.5
342.754	85.5
342.981	79.5
343.209	87.5
343.437	98.5
343.665	86.5
343.893	85.5
344.12	84.5
344.348	77.5
344.576	74.5
344.804	92.5
345.031	87.5
345.259	79.5
345.487	82.5
345.714	81.5
345.942	93.5
346.17	86.5
346.397	83.5
346.625	78.5
346.853	86.5
347.08	83.5
347.308	85.5
347.535	82.5
347.763	76.5
347.99	76.5
348.218	84.5
348.445	87.5
348.673	80.5
348.9	87.5
349.128	84.5
349.355	77.5
349.583	86.5
349.81	86.5
350.037	86.5
350.265	81.5
350.492	83.5
350.72	86.5
350.947	99.5
351.174	87.5
351.402	77.5
351.629	73.5
351.856	85.5
352.083	77.5
352.311	93.5
352.538	88.5
352.765	90.5
352.992	83.5
353.22	71.5
353.447	100.5
353.674	69.5
353.901	92.5
354.128	71.5
354.355	77.5
354.583	76.5
354.81	92.5
355.037	91.5
355.264	76.5
355.491	86.5
355.718	77.5
355.945	71.5
356.172	91.5
356.399	94.5
356.626	91.5
356.853	83.5
357.08	77.5
357.307	83.5
357.534	77.5
357.761	97.5
357.988	83.5
358.215	78.5
358.441	87.5
358.668	87.5
358.895	89.5
359.122	86.5
359.349	82.5
359.576	90.5
359.802	89.5
360.029	84.5
360.256	96.5
360.483	95.5
360.709	75.5
360.936	92.5
361.163	95.5
361.39	81.5
361.616	91.5
361.843	91.5
362.07	81.5
362.296	73.5
362.523	84.5
362.749	83.5
362.976	78.5
363.203	82.5
363.429	83.5
363.656	91.5
363.882	93.5
364.109	84.5
364.335	80.5
364.562	76.5
364.788	83.5
365.015	77.5
365.241	86.5
365.468	82.5
365.694	88.5
365.92	89.5
366.147	69.5
366.373	79.5
366.599	90.5
366.826	90.5
367.052	71.5
367.278	84.5
367.505	70.5
367.731	105.5
367.957	83.5
368.184	90.5
368.41	67.5
368.636	71.5
368.862	86.5
369.089	85.5
369.315	77.5
369.541	79.5
369.767	90.5
369.993	92.5
370.219	91.5
370.445	78.5
370.672	86.5
370.898	77.5
371.124	72.5
371.35	77.5
371.576	78.5
371.802	74.5
372.028	94.5
372.254	86.5
372.48	89.5
372.706	83.5
372.932	76.5
373.158	91.5
373.384	84.5
373.61	84.5
373.835	71.5
374.061	78.5
374.287	94.5
374.513	92.5
374.739	81.5
374.965	69.5
375.191	86.5
375.416	85.5
375.642	79.5
375.868	81.5
376.094	78.5
376.319	74.5
376.545	79.5
376.771	93.5
376.997	91.5
377.222	74.5
377.448	96.5
377.674	85.5
377.899	78.5
378.125	81.5
378.35	87.5
378.576	72.5
378.802	85.5
379.027	81.5
379.253	79.5
379.478	93.5
379.704	70.5
379.929	81.5
380.155	73.5
380.38	78.5
380.606	77.5
380.831	73.5
381.057	82.5
381.282	79.5
381.507	84.5
381.733	81.5
381.958	81.5
382.184	87.5
382.409	90.5
382.634	85.5
382.86	90.5
383.085	92.5
383.31	91.5
383.535	86.5
383.761	69.5
383.986	81.5
384.211	75.5
384.436	79.5
384.662	81.5
384.887	84.5
385.112	93.5
385.337	64.5
385.562	90.5
385.787	76.5
386.013	79.5
386.238	83.5
386.463	84.5
386.688	106.5
386.913	89.5
387.138	90.5
387.363	81.5
387.588	84.5
387.813	71.5
388.038	87.5
388.263	86.5
388.488	93.5
388.713	81.5
388.938	78.5
389.163	71.5
389.387	80.5
389.612	89.5
389.837	71.5
390.062	79.5
390.287	84.5
390.512	86.5
390.736	94.5
390.961	89.5
391.186	85.5
391.411	85.5
391.636	84.5
391.86	79.5
392.085	79.5
392.31	98.5
392.534	86.5
392.759	86.5
392.984	83.5
393.208	82.5
393.433	85.5
393.658	89.5
393.882	76.5
394.107	97.5
394.331	87.5
394.556	79.5
394.78	89.5
395.005	94.5
395.229	76.5
395.454	82.5
395.678	57.5
395.903	83.5
396.127	89.5
396.352	71.5
396.576	83.5
396.801	78.5
397.025	87.5
397.249	77.5
397.474	106.5
397.698	86.5
397.922	85.5
398.147	82.5
398.371	81.5
398.595	89.5
398.82	83.5
399.044	81.5
399.268	69.5
399.492	75.5
399.717	85.5
399.941	81.5
400.165	83.5
400.389	84.5
400.613	84.5
400.837	79.5
401.062	82.5
401.286	95.5
401.51	83.5
401.734	75.5
401.958	80.5
402.182	72.5
402.406	70.5
402.63	80.5
402.854	90.5
403.078	72.5
403.302	80.5
403.526	85.5
403.75	78.5
403.974	74.5
404.198	87.5
404.422	85.5
404.645	81.5
404.869	75.5
405.093	80.5
405.317	85.5
405.541	81.5
405.765	97.5
405.988	89.5
406.212	84.5
406.436	82.5
406.66	60.5
406.883	91.5
407.107	73.5
407.331	70.5
407.555	87.5
407.778	77.5
408.002	73.5
408.226	64.5
408.449	77.5
408.673	88.5
408.896	71.5
409.12	81.5
409.344	77.5
409.567	85.5
409.791	88.5
410.014	79.5
410.238	81.5
410.461	80.5
410.685	89.5
410.908	94.5
411.132	77.5
411.355	82.5
411.578	71.5
411.802	77.5
412.025	66.5
412.249	60.5
412.472	75.5
412.695	84.5
412.919	85.5
413.142	93.5
413.365	80.5
413.589	80.5
413.812	87.5
414.035	78.5
414.258	91.5
414.482	75.5
414.705	81.5
414.928	81.5
415.151	87.5
415.374	85.5
415.597	87.5
415.821	91.5
416.044	77.5
416.267	84.5
416.49	68.5
416.713	89.5
416.936	81.5
417.159	73.5
417.382	86.5
417.605	95.5
417.828	77.5
418.051	71.5
418.274	69.5
418.497	89.5
418.72	89.5
418.943	96.5
419.166	89.5
419.389	84.5
419.611	87.5
419.834	85.5
420.057	84.5
420.28	80.5
420.503	87.5
420.726	81.5
420.948	69.5
421.171	89.5
421.394	83.5
421.617	80.5
421.839	80.5
422.062	80.5
422.285	82.5
422.507	74.5
422.73	85.5
422.953	79.5
423.175	85.5
423.398	87.5
423.621	65.5
423.843	82.5
424.066	74.5
424.288	95.5
424.511	82.5
424.733	81.5
424.956	100.5
425.178	76.5
425.401	75.5
425.623	65.5
425.846	81.5
426.068	72.5
426.291	81.5
426.513	80.5
426.735	80.5
426.958	94.5
427.18	71.5
427.402	79.5
427.625	73.5
427.847	89.5
428.069	75.5
428.292	80.5
428.514	83.5
428.736	67.5
428.958	83.5
429.181	91.5
429.403	98.5
429.625	86.5
429.847	91.5
430.069	94.5
430.292	78.5
430.514	83.5
430.736	73.5
430.958	77.5
431.18	81.5
431.402	63.5
431.624	77.5
431.846	81.5
432.068	89.5
432.29	78.5
432.512	81.5
432.734	81.5
432.956	89.5
433.178	82.5
433.4	77.5
433.622	87.5
433.844	81.5
434.066	79.5
434.287	90.5
434.509	74.5
434.731	82.5
434.953	78.5
435.175	77.5
435.397	95.5
435.618	83.5
435.84	81.5
436.062	81.5
436.284	90.5
436.505	73.5
436.727	77.5
436.949	72.5
437.17	72.5
437.392	91.5
437.614	71.5
437.835	94.5
438.057	64.5
438.278	73.5
438.5	80.5
438.721	80.5
438.943	97.5
439.165	71.5
439.386	71.5
439.608	82.5
439.829	79.5
440.05	79.5
440.272	93.5
440.493	78.5
440.715	85.5
440.936	77.5
441.158	87.5
441.379	77.5
441.6	92.5
441.822	81.5
442.043	77.5
442.264	64.5
442.486	79.5
442.707	85.5
442.928	84.5
443.149	77.5
443.371	83.5
443.592	75.5
443.813	88.5
444.034	60.5
444.255	80.5
444.476	81.5
444.698	85.5
444.919	69.5
445.14	156.5
445.361	123.5
445.582	100.5
445.803	88.5
446.024	70.5
446.245	66.5
446.466	75.5
446.687	79.5
446.908	92.5
447.129	86.5
447.35	80.5
447.571	81.5
447.792	79.5
448.013	66.5
448.234	86.5
448.455	84.5
448.675	83.5
448.896	76.5
449.117	85.5
449.338	88.5
449.559	91.5
449.779	81.5
450	81.5
450.221	94.5
450.442	63.5
450.662	90.5
450.883	86.5
451.104	84.5
451.324	72.5
451.545	87.5
451.766	80.5
451.986	84.5
452.207	71.5
452.428	81.5
452.648	80.5
452.869	91.5
453.089	88.5
453.31	83.5
453.53	100.5
453.751	90.5
453.971	84.5
454.192	77.5
454.412	94.5
454.633	87.5
454.853	81.5
455.073	84.5
455.294	70.5
455.514	67.5
455.734	72.5
455.955	94.5
456.175	91.5
456.395	74.5
456.616	84.5
456.836	84.5
457.056	89.5
457.276	84.5
457.497	81.5
457.717	89.5
457.937	85.5
458.157	70.5
458.377	72.5
458.598	82.5
458.818	85.5
459.038	74.5
459.258	76.5
459.478	70.5
459.698	79.5
459.918	73.5
460.138	98.5
460.358	84.5
460.578	84.5
460.798	96.5
461.018	100.5
461.238	79.5
461.458	77.5
461.678	83.5
461.898	86.5
462.118	83.5
462.338	69.5
462.558	81.5
462.777	75.5
462.997	82.5
463.217	65.5
463.437	89.5
463.657	77.5
463.876	80.5
464.096	70.5
464.316	78.5
464.536	77.5
464.755	73.5
464.975	88.5
465.195	73.5
465.414	74.5
465.634	85.5
465.854	73.5
466.073	85.5
466.293	80.5
466.512	77.5
466.732	81.5
466.951	86.5
467.171	77.5
467.391	82.5
467.61	94.5
467.829	76.5
468.049	77.5
468.268	86.5
468.488	88.5
468.707	85.5
468.927	91.5
469.146	89.5
469.365	79.5
469.585	87.5
469.804	71.5
470.023	77.5
470.243	71.5
470.462	70.5
470.681	66.5
470.901	80.5
471.12	75.5
471.339	91.5
471.558	80.5
471.777	81.5
471.997	77.5
472.216	74.5
472.435	76.5
472.654	82.5
472.873	91.5
473.092	82.5
473.311	85.5
473.53	89.5
473.749	75.5
473.968	77.5
474.187	81.5
474.406	82.5
474.625	85.5
474.844	98.5
475.063	77.5
475.282	85.5
475.501	82.5
475.72	93.5
475.939	79.5
476.158	92.5
476.377	86.5
476.596	85.5
476.814	79.5
477.033	70.5
477.252	87.5
477.471	85.5
477.69	78.5
477.908	93.5
478.127	86.5
478.346	82.5
478.564	91.5
478.783	81.5
479.002	89.5
479.22	88.5
479.439	89.5
479.658	81.5
479.876	80.5
480.095	98.5
480.313	86.5
480.532	63.5
480.751	84.5
480.969	82.5
481.188	89.5
481.406	88.5
481.624	80.5
481.843	90.5
482.061	84.5
482.28	79.5
482.498	70.5
482.717	72.5
482.935	80.5
483.153	79.5
483.372	87.5
483.59	90.5
483.808	84.5
484.027	85.5
484.245	77.5
484.463	76.5
484.681	92.5
484.9	69.5
485.118	90.5
485.336	65.5
485.554	71.5
485.772	92.5
485.99	81.5
486.209	83.5
486.427	67.5
486.645	79.5
486.863	81.5
487.081	90.5
487.299	77.5
487.517	84.5
487.735	82.5
487.953	88.5
488.171	87.5
488.389	72.5
488.607	88.5
488.825	68.5
489.043	86.5
489.261	89.5
489.479	84.5
489.696	94.5
489.914	86.5
490.132	85.5
490.35	86.5
490.568	83.5
490.786	77.5
491.003	78.5
491.221	71.5
491.439	69.5
491.657	99.5
491.874	89.5
492.092	79.5
492.31	86.5
492.527	86.5
492.745	82.5
492.963	74.5
493.18	75.5
493.398	70.5
493.615	82.5
493.833	77.5
494.05	69.5
494.268	90.5
494.485	79.5
494.703	71.5
494.92	94.5
495.138	94.5
495.355	83.5
495.573	80.5
495.79	72.5
496.008	79.5
496.225	87.5
496.442	86.5
496.66	93.5
496.877	68.5
497.094	87.5
497.312	85.5
497.529	81.5
497.746	73.5
497.963	72.5
498.181	76.5
498.398	89.5
498.615	87.5
498.832	82.5
499.049	83.5
499.267	85.5
499.484	97.5
499.701	87.5
499.918	85.5
500.135	86.5
500.352	78.5
500.569	86.5
500.786	81.5
501.003	80.5
501.22	70.5
501.437	83.5
501.654	70.5
501.871	71.5
502.088	88.5
502.305	91.5
502.522	88.5
502.739	86.5
502.956	87.5
503.172	76.5
503.389	77.5
503.606	69.5
503.823	83.5
504.04	84.5
504.256	89.5
504.473	76.5
504.69	77.5
504.907	90.5
505.123	97.5
505.34	81.5
505.557	93.5
505.773	84.5
505.99	78.5
506.207	80.5
506.423	89.5
506.64	81.5
506.856	80.5
507.073	82.5
507.289	79.5
507.506	108.5
507.722	82.5
507.939	73.5
508.155	93.5
508.372	82.5
508.588	81.5
508.805	89.5
509.021	78.5
509.238	82.5
509.454	82.5
509.67	76.5
509.887	74.5
510.103	84.5
510.319	85.5
510.536	74.5
510.752	89.5
510.968	71.5
511.184	89.5
511.401	75.5
511.617	69.5
511.833	90.5
512.049	91.5
512.265	85.5
512.481	95.5
512.698	88.5
512.914	67.5
513.13	84.5
513.346	84.5
513.562	79.5
513.778	95.5
513.994	82.5
514.21	83.5
514.426	85.5
514.642	90.5
514.858	81.5
515.074	61.5
515.29	82.5
515.506	72.5
515.721	85.5
515.937	99.5
516.153	77.5
516.369	83.5
516.585	79.5
516.801	87.5
517.016	84.5
517.232	81.5
517.448	83.5
517.664	65.5
517.879	93.5
518.095	75.5
518.311	69.5
518.527	71.5
518.742	90.5
518.958	91.5
519.173	86.5
519.389	82.5
519.605	73.5
519.82	96.5
520.036	88.5
520.251	81.5
520.467	94.5
520.682	80.5
520.898	76.5
521.113	77.5
521.329	85.5
521.544	100.5
521.76	82.5
521.975	73.5
522.19	81.5
522.406	86.5
522.621	88.5
522.836	83.5
523.052	73.5
523.267	84.5
523.482	75.5
523.698	85.5
523.913	87.5
524.128	86.5
524.343	74.5
524.559	74.5
524.774	78.5
524.989	86.5
525.204	75.5
525.419	90.5
525.634	77.5
525.849	82.5
526.064	75.5
526.28	81.5
526.495	91.5
526.71	96.5
526.925	79.5
527.14	89.5
527.355	98.5
527.57	93.5
527.785	87.5
527.999	97.5
528.214	99.5
528.429	76.5
528.644	90.5
528.859	78.5
529.074	81.5
529.289	79.5
529.503	82.5
529.718	92.5
529.933	88.5
530.148	93.5
530.363	77.5
530.577	79.5
530.792	80.5
531.007	79.5
531.221	82.5
531.436	77.5
531.651	91.5
531.865	86.5
532.08	69.5
532.295	80.5
532.509	81.5
532.724	73.5
532.938	85.5
533.153	96.5
533.367	88.5
533.582	74.5
533.796	86.5
534.011	82.5
534.225	94.5
534.44	74.5
534.654	95.5
534.868	86.5
535.083	71.5
535.297	82.5
535.511	79.5
535.726	92.5
535.94	71.5
536.154	80.5
536.369	90.5
536.583	81.5
536.797	77.5
537.011	85.5
537.225	74.5
537.44	87.5
537.654	85.5
537.868	92.5
538.082	81.5
538.296	69.5
538.51	92.5
538.724	82.5
538.938	87.5
539.153	88.5
539.367	85.5
539.581	69.5
539.795	91.5
540.009	80.5
540.222	80.5
540.436	87.5
