Data from Background_1_HRD10591_00018.txt Node
Date: Wed Nov 05 14:39:07 EST 2025
User: Yrep
Spectrometer: HR+D1059
Trigger mode: 1
Integration Time (sec): 1.000000E-1
Scans to average: 1
Electric dark correction enabled: true
Nonlinearity correction enabled: false
Boxcar width: 0
XAxis mode: Wavelengths
Number of Pixels in Spectrum: 2048
>>>>>Begin Spectral Data<<<<<
223.165	-8.25
223.4	-8.25
223.635	-8.25
223.869	-12.25
224.104	-16.25
224.338	-4.25
224.573	-10.25
224.808	-16.25
225.042	1.75
225.277	-11.25
225.511	-6.25
225.746	6.75
225.98	-7.25
226.215	10.75
226.449	-4.25
226.683	14.75
226.918	17.75
227.152	44.75
227.387	27.75
227.621	31.75
227.856	39.75
228.09	50.75
228.324	49.75
228.559	68.75
228.793	50.75
229.027	58.75
229.262	72.75
229.496	64.75
229.73	64.75
229.964	69.75
230.199	72.75
230.433	80.75
230.667	75.75
230.901	79.75
231.136	67.75
231.37	81.75
231.604	69.75
231.838	82.75
232.072	86.75
232.306	66.75
232.541	78.75
232.775	86.75
233.009	94.75
233.243	78.75
233.477	96.75
233.711	89.75
233.945	82.75
234.179	78.75
234.413	67.75
234.647	78.75
234.881	77.75
235.115	72.75
235.349	85.75
235.583	70.75
235.817	72.75
236.051	73.75
236.285	80.75
236.519	74.75
236.753	78.75
236.987	79.75
237.221	77.75
237.455	83.75
237.689	82.75
237.922	68.75
238.156	74.75
238.39	80.75
238.624	64.75
238.858	80.75
239.091	82.75
239.325	67.75
239.559	70.75
239.793	74.75
240.027	64.75
240.26	75.75
240.494	74.75
240.728	75.75
240.961	81.75
241.195	87.75
241.429	63.75
241.662	77.75
241.896	74.75
242.13	78.75
242.363	72.75
242.597	85.75
242.83	59.75
243.064	69.75
243.298	79.75
243.531	66.75
243.765	68.75
243.998	63.75
244.232	74.75
244.465	66.75
244.699	83.75
244.932	64.75
245.166	74.75
245.399	76.75
245.633	69.75
245.866	68.75
246.099	74.75
246.333	68.75
246.566	59.75
246.8	74.75
247.033	63.75
247.266	76.75
247.5	76.75
247.733	73.75
247.966	95.75
248.2	75.75
248.433	69.75
248.666	64.75
248.899	69.75
249.133	79.75
249.366	79.75
249.599	75.75
249.832	78.75
250.066	87.75
250.299	76.75
250.532	82.75
250.765	88.75
250.998	70.75
251.231	74.75
251.465	74.75
251.698	82.75
251.931	70.75
252.164	70.75
252.397	74.75
252.63	73.75
252.863	73.75
253.096	77.75
253.329	76.75
253.562	77.75
253.795	93.75
254.028	78.75
254.261	87.75
254.494	78.75
254.727	84.75
254.96	72.75
255.193	82.75
255.426	57.75
255.659	76.75
255.892	77.75
256.124	80.75
256.357	76.75
256.59	83.75
256.823	62.75
257.056	76.75
257.289	88.75
257.521	80.75
257.754	82.75
257.987	79.75
258.22	81.75
258.452	76.75
258.685	99.75
258.918	86.75
259.151	90.75
259.383	76.75
259.616	58.75
259.849	77.75
260.081	70.75
260.314	77.75
260.547	79.75
260.779	76.75
261.012	80.75
261.244	80.75
261.477	65.75
261.71	71.75
261.942	77.75
262.175	72.75
262.407	84.75
262.64	86.75
262.872	78.75
263.105	65.75
263.337	89.75
263.57	81.75
263.802	74.75
264.035	83.75
264.267	71.75
264.499	74.75
264.732	87.75
264.964	94.75
265.197	80.75
265.429	74.75
265.661	92.75
265.894	92.75
266.126	86.75
266.358	81.75
266.591	74.75
266.823	74.75
267.055	80.75
267.287	84.75
267.52	89.75
267.752	82.75
267.984	69.75
268.216	77.75
268.448	82.75
268.681	94.75
268.913	85.75
269.145	82.75
269.377	91.75
269.609	66.75
269.841	95.75
270.073	86.75
270.306	86.75
270.538	81.75
270.77	67.75
271.002	86.75
271.234	86.75
271.466	82.75
271.698	80.75
271.93	81.75
272.162	73.75
272.394	91.75
272.626	77.75
272.858	75.75
273.09	80.75
273.322	83.75
273.553	69.75
273.785	87.75
274.017	83.75
274.249	82.75
274.481	78.75
274.713	85.75
274.945	92.75
275.176	76.75
275.408	77.75
275.64	80.75
275.872	77.75
276.104	78.75
276.335	89.75
276.567	95.75
276.799	79.75
277.031	86.75
277.262	78.75
277.494	76.75
277.726	77.75
277.957	76.75
278.189	74.75
278.421	78.75
278.652	87.75
278.884	78.75
279.115	84.75
279.347	88.75
279.579	80.75
279.81	82.75
280.042	79.75
280.273	83.75
280.505	65.75
280.736	86.75
280.968	86.75
281.199	93.75
281.431	75.75
281.662	87.75
281.894	82.75
282.125	88.75
282.356	86.75
282.588	79.75
282.819	81.75
283.051	65.75
283.282	78.75
283.513	85.75
283.745	69.75
283.976	72.75
284.207	83.75
284.439	70.75
284.67	71.75
284.901	78.75
285.132	86.75
285.364	81.75
285.595	90.75
285.826	84.75
286.057	80.75
286.288	82.75
286.52	91.75
286.751	73.75
286.982	87.75
287.213	90.75
287.444	92.75
287.675	72.75
287.906	92.75
288.138	90.75
288.369	89.75
288.6	79.75
288.831	72.75
289.062	74.75
289.293	82.75
289.524	80.75
289.755	76.75
289.986	94.75
290.217	86.75
290.448	87.75
290.679	91.75
290.91	75.75
291.141	72.75
291.371	76.75
291.602	87.75
291.833	64.75
292.064	76.75
292.295	84.75
292.526	75.75
292.757	95.75
292.987	67.75
293.218	95.75
293.449	90.75
293.68	87.75
293.91	82.75
294.141	82.75
294.372	75.75
294.603	86.75
294.833	81.75
295.064	69.75
295.295	92.75
295.525	91.75
295.756	89.75
295.987	74.75
296.217	80.75
296.448	84.75
296.679	78.75
296.909	91.75
297.14	84.75
297.37	78.75
297.601	88.75
297.831	85.75
298.062	75.75
298.292	81.75
298.523	80.75
298.753	82.75
298.984	82.75
299.214	90.75
299.445	81.75
299.675	76.75
299.905	82.75
300.136	92.75
300.366	90.75
300.597	85.75
300.827	73.75
301.057	79.75
301.288	65.75
301.518	88.75
301.748	96.75
301.979	99.75
302.209	85.75
302.439	94.75
302.669	79.75
302.9	91.75
303.13	88.75
303.36	69.75
303.59	100.75
303.82	90.75
304.051	76.75
304.281	83.75
304.511	91.75
304.741	90.75
304.971	89.75
305.201	106.75
305.431	81.75
305.661	78.75
305.891	80.75
306.121	93.75
306.352	103.75
306.582	90.75
306.812	83.75
307.042	76.75
307.272	86.75
307.502	102.75
307.731	92.75
307.961	88.75
308.191	96.75
308.421	86.75
308.651	79.75
308.881	87.75
309.111	84.75
309.341	85.75
309.571	87.75
309.8	81.75
310.03	83.75
310.26	92.75
310.49	93.75
310.72	70.75
310.949	91.75
311.179	80.75
311.409	74.75
311.639	90.75
311.868	75.75
312.098	104.75
312.328	82.75
312.557	72.75
312.787	86.75
313.017	79.75
313.246	86.75
313.476	91.75
313.706	74.75
313.935	72.75
314.165	76.75
314.394	80.75
314.624	90.75
314.853	80.75
315.083	78.75
315.312	78.75
315.542	76.75
315.771	66.75
316.001	82.75
316.23	86.75
316.46	86.75
316.689	79.75
316.919	63.75
317.148	84.75
317.377	85.75
317.607	85.75
317.836	62.75
318.065	92.75
318.295	91.75
318.524	84.75
318.753	80.75
318.983	73.75
319.212	86.75
319.441	73.75
319.67	89.75
319.9	80.75
320.129	83.75
320.358	89.75
320.587	95.75
320.816	94.75
321.046	83.75
321.275	84.75
321.504	82.75
321.733	87.75
321.962	67.75
322.191	69.75
322.42	83.75
322.649	82.75
322.878	99.75
323.108	90.75
323.337	82.75
323.566	80.75
323.795	90.75
324.024	91.75
324.253	79.75
324.482	86.75
324.71	68.75
324.939	83.75
325.168	80.75
325.397	86.75
325.626	74.75
325.855	65.75
326.084	93.75
326.313	77.75
326.542	73.75
326.77	69.75
326.999	74.75
327.228	90.75
327.457	72.75
327.686	80.75
327.914	69.75
328.143	94.75
328.372	83.75
328.6	78.75
328.829	83.75
329.058	92.75
329.287	86.75
329.515	81.75
329.744	89.75
329.972	91.75
330.201	75.75
330.43	86.75
330.658	70.75
330.887	68.75
331.115	75.75
331.344	86.75
331.572	93.75
331.801	90.75
332.03	85.75
332.258	88.75
332.486	90.75
332.715	95.75
332.943	96.75
333.172	65.75
333.4	92.75
333.629	86.75
333.857	87.75
334.085	79.75
334.314	86.75
334.542	90.75
334.771	88.75
334.999	78.75
335.227	82.75
335.455	83.75
335.684	74.75
335.912	89.75
336.14	92.75
336.369	78.75
336.597	83.75
336.825	83.75
337.053	91.75
337.281	76.75
337.51	85.75
337.738	80.75
337.966	66.75
338.194	83.75
338.422	80.75
338.65	67.75
338.878	91.75
339.106	77.75
339.334	68.75
339.562	82.75
339.79	81.75
340.018	76.75
340.246	98.75
340.474	86.75
340.702	74.75
340.93	80.75
341.158	76.75
341.386	94.75
341.614	93.75
341.842	94.75
342.07	87.75
342.298	93.75
342.526	78.75
342.754	86.75
342.981	84.75
343.209	78.75
343.437	96.75
343.665	79.75
343.893	80.75
344.12	84.75
344.348	84.75
344.576	82.75
344.804	98.75
345.031	78.75
345.259	90.75
345.487	74.75
345.714	77.75
345.942	81.75
346.17	83.75
346.397	78.75
346.625	85.75
346.853	98.75
347.08	86.75
347.308	89.75
347.535	78.75
347.763	97.75
347.99	77.75
348.218	93.75
348.445	75.75
348.673	60.75
348.9	80.75
349.128	83.75
349.355	76.75
349.583	77.75
349.81	98.75
350.037	88.75
350.265	75.75
350.492	93.75
350.72	75.75
350.947	82.75
351.174	74.75
351.402	83.75
351.629	88.75
351.856	87.75
352.083	85.75
352.311	75.75
352.538	79.75
352.765	76.75
352.992	91.75
353.22	66.75
353.447	89.75
353.674	76.75
353.901	92.75
354.128	95.75
354.355	78.75
354.583	84.75
354.81	89.75
355.037	76.75
355.264	75.75
355.491	81.75
355.718	90.75
355.945	86.75
356.172	78.75
356.399	73.75
356.626	84.75
356.853	73.75
357.08	93.75
357.307	95.75
357.534	63.75
357.761	79.75
357.988	73.75
358.215	87.75
358.441	73.75
358.668	88.75
358.895	66.75
359.122	84.75
359.349	82.75
359.576	71.75
359.802	87.75
360.029	76.75
360.256	65.75
360.483	80.75
360.709	89.75
360.936	81.75
361.163	81.75
361.39	94.75
361.616	71.75
361.843	76.75
362.07	78.75
362.296	84.75
362.523	82.75
362.749	81.75
362.976	83.75
363.203	76.75
363.429	74.75
363.656	89.75
363.882	81.75
364.109	102.75
364.335	72.75
364.562	78.75
364.788	90.75
365.015	72.75
365.241	76.75
365.468	95.75
365.694	92.75
365.92	81.75
366.147	77.75
366.373	90.75
366.599	81.75
366.826	76.75
367.052	64.75
367.278	75.75
367.505	78.75
367.731	90.75
367.957	75.75
368.184	64.75
368.41	84.75
368.636	82.75
368.862	86.75
369.089	70.75
369.315	78.75
369.541	99.75
369.767	72.75
369.993	87.75
370.219	71.75
370.445	85.75
370.672	81.75
370.898	82.75
371.124	74.75
371.35	91.75
371.576	75.75
371.802	76.75
372.028	75.75
372.254	81.75
372.48	74.75
372.706	90.75
372.932	86.75
373.158	83.75
373.384	86.75
373.61	77.75
373.835	81.75
374.061	75.75
374.287	92.75
374.513	82.75
374.739	88.75
374.965	88.75
375.191	72.75
375.416	82.75
375.642	87.75
375.868	84.75
376.094	99.75
376.319	90.75
376.545	69.75
376.771	82.75
376.997	87.75
377.222	72.75
377.448	76.75
377.674	67.75
377.899	93.75
378.125	74.75
378.35	80.75
378.576	76.75
378.802	83.75
379.027	82.75
379.253	78.75
379.478	86.75
379.704	88.75
379.929	81.75
380.155	98.75
380.38	83.75
380.606	70.75
380.831	83.75
381.057	92.75
381.282	79.75
381.507	88.75
381.733	73.75
381.958	78.75
382.184	81.75
382.409	91.75
382.634	91.75
382.86	86.75
383.085	72.75
383.31	65.75
383.535	80.75
383.761	78.75
383.986	88.75
384.211	91.75
384.436	66.75
384.662	70.75
384.887	90.75
385.112	80.75
385.337	69.75
385.562	82.75
385.787	76.75
386.013	91.75
386.238	69.75
386.463	81.75
386.688	88.75
386.913	73.75
387.138	78.75
387.363	79.75
387.588	90.75
387.813	74.75
388.038	76.75
388.263	72.75
388.488	86.75
388.713	89.75
388.938	79.75
389.163	75.75
389.387	78.75
389.612	82.75
389.837	71.75
390.062	76.75
390.287	73.75
390.512	91.75
390.736	73.75
390.961	75.75
391.186	90.75
391.411	79.75
391.636	76.75
391.86	58.75
392.085	79.75
392.31	79.75
392.534	79.75
392.759	90.75
392.984	100.75
393.208	91.75
393.433	89.75
393.658	88.75
393.882	87.75
394.107	81.75
394.331	88.75
394.556	74.75
394.78	103.75
395.005	82.75
395.229	90.75
395.454	70.75
395.678	91.75
395.903	73.75
396.127	81.75
396.352	82.75
396.576	90.75
396.801	86.75
397.025	81.75
397.249	88.75
397.474	66.75
397.698	66.75
397.922	75.75
398.147	85.75
398.371	60.75
398.595	83.75
398.82	75.75
399.044	87.75
399.268	83.75
399.492	69.75
399.717	72.75
399.941	90.75
400.165	80.75
400.389	82.75
400.613	86.75
400.837	82.75
401.062	82.75
401.286	86.75
401.51	81.75
401.734	80.75
401.958	82.75
402.182	88.75
402.406	78.75
402.63	74.75
402.854	72.75
403.078	76.75
403.302	80.75
403.526	74.75
403.75	90.75
403.974	79.75
404.198	84.75
404.422	80.75
404.645	82.75
404.869	72.75
405.093	69.75
405.317	79.75
405.541	82.75
405.765	78.75
405.988	86.75
406.212	78.75
406.436	71.75
406.66	89.75
406.883	84.75
407.107	81.75
407.331	91.75
407.555	73.75
407.778	82.75
408.002	90.75
408.226	81.75
408.449	77.75
408.673	73.75
408.896	68.75
409.12	71.75
409.344	92.75
409.567	89.75
409.791	81.75
410.014	95.75
410.238	80.75
410.461	94.75
410.685	83.75
410.908	97.75
411.132	87.75
411.355	80.75
411.578	85.75
411.802	58.75
412.025	74.75
412.249	62.75
412.472	83.75
412.695	76.75
412.919	94.75
413.142	81.75
413.365	71.75
413.589	75.75
413.812	79.75
414.035	68.75
414.258	71.75
414.482	84.75
414.705	83.75
414.928	72.75
415.151	75.75
415.374	86.75
415.597	70.75
415.821	71.75
416.044	79.75
416.267	75.75
416.49	83.75
416.713	75.75
416.936	80.75
417.159	78.75
417.382	80.75
417.605	89.75
417.828	74.75
418.051	79.75
418.274	77.75
418.497	90.75
418.72	88.75
418.943	80.75
419.166	87.75
419.389	67.75
419.611	74.75
419.834	79.75
420.057	85.75
420.28	75.75
420.503	78.75
420.726	86.75
420.948	83.75
421.171	89.75
421.394	92.75
421.617	70.75
421.839	83.75
422.062	83.75
422.285	72.75
422.507	91.75
422.73	82.75
422.953	80.75
423.175	74.75
423.398	76.75
423.621	58.75
423.843	87.75
424.066	76.75
424.288	82.75
424.511	85.75
424.733	82.75
424.956	70.75
425.178	75.75
425.401	75.75
425.623	88.75
425.846	84.75
426.068	79.75
426.291	75.75
426.513	58.75
426.735	75.75
426.958	78.75
427.18	78.75
427.402	77.75
427.625	69.75
427.847	75.75
428.069	79.75
428.292	75.75
428.514	83.75
428.736	82.75
428.958	87.75
429.181	79.75
429.403	84.75
429.625	70.75
429.847	86.75
430.069	74.75
430.292	75.75
430.514	72.75
430.736	73.75
430.958	91.75
431.18	88.75
431.402	82.75
431.624	68.75
431.846	82.75
432.068	70.75
432.29	87.75
432.512	82.75
432.734	84.75
432.956	76.75
433.178	78.75
433.4	70.75
433.622	79.75
433.844	79.75
434.066	83.75
434.287	94.75
434.509	71.75
434.731	86.75
434.953	86.75
435.175	85.75
435.397	89.75
435.618	78.75
435.84	80.75
436.062	85.75
436.284	93.75
436.505	67.75
436.727	84.75
436.949	80.75
437.17	90.75
437.392	74.75
437.614	75.75
437.835	78.75
438.057	67.75
438.278	72.75
438.5	88.75
438.721	72.75
438.943	82.75
439.165	78.75
439.386	86.75
439.608	71.75
439.829	71.75
440.05	69.75
440.272	83.75
440.493	83.75
440.715	85.75
440.936	78.75
441.158	68.75
441.379	71.75
441.6	77.75
441.822	82.75
442.043	86.75
442.264	86.75
442.486	71.75
442.707	70.75
442.928	72.75
443.149	72.75
443.371	81.75
443.592	66.75
443.813	83.75
444.034	87.75
444.255	81.75
444.476	80.75
444.698	78.75
444.919	96.75
445.14	144.75
445.361	110.75
445.582	95.75
445.803	80.75
446.024	76.75
446.245	93.75
446.466	81.75
446.687	86.75
446.908	79.75
447.129	94.75
447.35	75.75
447.571	71.75
447.792	82.75
448.013	80.75
448.234	87.75
448.455	80.75
448.675	75.75
448.896	82.75
449.117	78.75
449.338	65.75
449.559	83.75
449.779	81.75
450	92.75
450.221	75.75
450.442	90.75
450.662	72.75
450.883	96.75
451.104	94.75
451.324	84.75
451.545	89.75
451.766	88.75
451.986	73.75
452.207	76.75
452.428	76.75
452.648	86.75
452.869	81.75
453.089	75.75
453.31	89.75
453.53	81.75
453.751	85.75
453.971	85.75
454.192	82.75
454.412	72.75
454.633	80.75
454.853	98.75
455.073	64.75
455.294	79.75
455.514	78.75
455.734	76.75
455.955	78.75
456.175	80.75
456.395	94.75
456.616	68.75
456.836	78.75
457.056	73.75
457.276	77.75
457.497	90.75
457.717	94.75
457.937	78.75
458.157	75.75
458.377	81.75
458.598	89.75
458.818	89.75
459.038	73.75
459.258	82.75
459.478	76.75
459.698	83.75
459.918	88.75
460.138	92.75
460.358	78.75
460.578	88.75
460.798	74.75
461.018	79.75
461.238	84.75
461.458	80.75
461.678	73.75
461.898	88.75
462.118	78.75
462.338	66.75
462.558	80.75
462.777	87.75
462.997	90.75
463.217	73.75
463.437	74.75
463.657	81.75
463.876	86.75
464.096	81.75
464.316	71.75
464.536	77.75
464.755	74.75
464.975	83.75
465.195	89.75
465.414	69.75
465.634	74.75
465.854	67.75
466.073	74.75
466.293	83.75
466.512	67.75
466.732	96.75
466.951	75.75
467.171	84.75
467.391	69.75
467.61	84.75
467.829	91.75
468.049	82.75
468.268	81.75
468.488	79.75
468.707	84.75
468.927	69.75
469.146	83.75
469.365	82.75
469.585	87.75
469.804	70.75
470.023	71.75
470.243	64.75
470.462	81.75
470.681	84.75
470.901	72.75
471.12	64.75
471.339	75.75
471.558	62.75
471.777	73.75
471.997	90.75
472.216	90.75
472.435	81.75
472.654	87.75
472.873	90.75
473.092	78.75
473.311	70.75
473.53	76.75
473.749	76.75
473.968	89.75
474.187	80.75
474.406	85.75
474.625	90.75
474.844	91.75
475.063	74.75
475.282	85.75
475.501	82.75
475.72	88.75
475.939	74.75
476.158	70.75
476.377	87.75
476.596	96.75
476.814	86.75
477.033	89.75
477.252	70.75
477.471	83.75
477.69	69.75
477.908	93.75
478.127	79.75
478.346	84.75
478.564	89.75
478.783	100.75
479.002	91.75
479.22	74.75
479.439	84.75
479.658	93.75
479.876	74.75
480.095	69.75
480.313	77.75
480.532	90.75
480.751	85.75
480.969	99.75
481.188	76.75
481.406	71.75
481.624	84.75
481.843	85.75
482.061	86.75
482.28	86.75
482.498	84.75
482.717	83.75
482.935	96.75
483.153	83.75
483.372	86.75
483.59	66.75
483.808	90.75
484.027	84.75
484.245	88.75
484.463	69.75
484.681	79.75
484.9	85.75
485.118	84.75
485.336	84.75
485.554	81.75
485.772	90.75
485.99	70.75
486.209	84.75
486.427	82.75
486.645	95.75
486.863	73.75
487.081	76.75
487.299	70.75
487.517	74.75
487.735	86.75
487.953	88.75
488.171	89.75
488.389	73.75
488.607	71.75
488.825	85.75
489.043	89.75
489.261	74.75
489.479	81.75
489.696	74.75
489.914	90.75
490.132	86.75
490.35	91.75
490.568	77.75
490.786	73.75
491.003	68.75
491.221	102.75
491.439	80.75
491.657	78.75
491.874	78.75
492.092	87.75
492.31	78.75
492.527	91.75
492.745	80.75
492.963	90.75
493.18	76.75
493.398	86.75
493.615	74.75
493.833	68.75
494.05	82.75
494.268	77.75
494.485	88.75
494.703	96.75
494.92	69.75
495.138	78.75
495.355	74.75
495.573	84.75
495.79	85.75
496.008	72.75
496.225	88.75
496.442	84.75
496.66	95.75
496.877	78.75
497.094	68.75
497.312	90.75
497.529	78.75
497.746	69.75
497.963	70.75
498.181	74.75
498.398	82.75
498.615	90.75
498.832	72.75
499.049	70.75
499.267	66.75
499.484	85.75
499.701	86.75
499.918	93.75
500.135	79.75
500.352	84.75
500.569	99.75
500.786	73.75
501.003	78.75
501.22	75.75
501.437	87.75
501.654	89.75
501.871	90.75
502.088	78.75
502.305	77.75
502.522	89.75
502.739	83.75
502.956	83.75
503.172	92.75
503.389	77.75
503.606	80.75
503.823	80.75
504.04	88.75
504.256	89.75
504.473	87.75
504.69	71.75
504.907	87.75
505.123	98.75
505.34	70.75
505.557	74.75
505.773	74.75
505.99	72.75
506.207	76.75
506.423	86.75
506.64	72.75
506.856	84.75
507.073	70.75
507.289	83.75
507.506	85.75
507.722	72.75
507.939	71.75
508.155	71.75
508.372	86.75
508.588	82.75
508.805	86.75
509.021	81.75
509.238	74.75
509.454	79.75
509.67	63.75
509.887	83.75
510.103	82.75
510.319	89.75
510.536	80.75
510.752	89.75
510.968	76.75
511.184	81.75
511.401	97.75
511.617	76.75
511.833	74.75
512.049	84.75
512.265	80.75
512.481	74.75
512.698	86.75
512.914	71.75
513.13	82.75
513.346	76.75
513.562	68.75
513.778	73.75
513.994	81.75
514.21	81.75
514.426	98.75
514.642	90.75
514.858	92.75
515.074	91.75
515.29	80.75
515.506	65.75
515.721	90.75
515.937	86.75
516.153	84.75
516.369	97.75
516.585	87.75
516.801	81.75
517.016	77.75
517.232	77.75
517.448	90.75
517.664	69.75
517.879	86.75
518.095	75.75
518.311	82.75
518.527	73.75
518.742	80.75
518.958	93.75
519.173	66.75
519.389	75.75
519.605	71.75
519.82	95.75
520.036	86.75
