Data from Background_1_HRD10591_00034.txt Node
Date: Wed Nov 05 14:39:15 EST 2025
User: Yrep
Spectrometer: HR+D1059
Trigger mode: 1
Integration Time (sec): 1.000000E-1
Scans to average: 1
Electric dark correction enabled: true
Nonlinearity correction enabled: false
Boxcar width: 0
XAxis mode: Wavelengths
Number of Pixels in Spectrum: 2048
>>>>>Begin Spectral Data<<<<<
223.165	-22
223.4	-22
223.635	-22
223.869	-25
224.104	-17
224.338	-18
224.573	-25
224.808	-5
225.042	1
225.277	1
225.511	-18
225.746	-5
225.98	10
226.215	19
226.449	16
226.683	31
226.918	33
227.152	24
227.387	25
227.621	31
227.856	44
228.09	49
228.324	44
228.559	56
228.793	63
229.027	50
229.262	72
229.496	66
229.73	67
229.964	65
230.199	86
230.433	67
230.667	68
230.901	79
231.136	75
231.37	80
231.604	82
231.838	71
232.072	74
232.306	79
232.541	84
232.775	83
233.009	89
233.243	75
233.477	81
233.711	79
233.945	68
234.179	80
234.413	78
234.647	89
234.881	80
235.115	76
235.349	71
235.583	82
235.817	90
236.051	84
236.285	86
236.519	88
236.753	86
236.987	82
237.221	65
237.455	91
237.689	74
237.922	78
238.156	67
238.39	84
238.624	76
238.858	78
239.091	71
239.325	78
239.559	87
239.793	71
240.027	50
240.26	58
240.494	62
240.728	77
240.961	68
241.195	84
241.429	74
241.662	81
241.896	77
242.13	68
242.363	85
242.597	74
242.83	74
243.064	79
243.298	76
243.531	80
243.765	88
243.998	72
244.232	54
244.465	68
244.699	76
244.932	89
245.166	94
245.399	64
245.633	68
245.866	79
246.099	74
246.333	85
246.566	66
246.8	80
247.033	82
247.266	78
247.5	76
247.733	78
247.966	82
248.2	77
248.433	65
248.666	76
248.899	70
249.133	76
249.366	83
249.599	84
249.832	72
250.066	75
250.299	74
250.532	77
250.765	75
250.998	80
251.231	87
251.465	74
251.698	76
251.931	80
252.164	83
252.397	81
252.63	78
252.863	91
253.096	81
253.329	83
253.562	82
253.795	80
254.028	61
254.261	86
254.494	72
254.727	88
254.96	76
255.193	90
255.426	83
255.659	61
255.892	86
256.124	84
256.357	78
256.59	72
256.823	74
257.056	77
257.289	78
257.521	73
257.754	79
257.987	84
258.22	78
258.452	79
258.685	89
258.918	81
259.151	86
259.383	66
259.616	69
259.849	80
260.081	82
260.314	76
260.547	76
260.779	81
261.012	71
261.244	68
261.477	80
261.71	87
261.942	88
262.175	81
262.407	88
262.64	85
262.872	80
263.105	71
263.337	97
263.57	75
263.802	77
264.035	80
264.267	86
264.499	56
264.732	92
264.964	80
265.197	79
265.429	72
265.661	83
265.894	85
266.126	82
266.358	88
266.591	80
266.823	89
267.055	89
267.287	79
267.52	83
267.752	84
267.984	88
268.216	79
268.448	79
268.681	75
268.913	68
269.145	81
269.377	82
269.609	86
269.841	90
270.073	88
270.306	82
270.538	92
270.77	72
271.002	83
271.234	90
271.466	78
271.698	79
271.93	87
272.162	82
272.394	81
272.626	70
272.858	83
273.09	78
273.322	84
273.553	84
273.785	93
274.017	79
274.249	91
274.481	84
274.713	81
274.945	79
275.176	79
275.408	75
275.64	82
275.872	86
276.104	85
276.335	77
276.567	80
276.799	80
277.031	79
277.262	72
277.494	74
277.726	82
277.957	85
278.189	79
278.421	80
278.652	95
278.884	96
279.115	78
279.347	83
279.579	95
279.81	76
280.042	82
280.273	81
280.505	86
280.736	92
280.968	80
281.199	88
281.431	90
281.662	75
281.894	77
282.125	82
282.356	76
282.588	81
282.819	99
283.051	88
283.282	87
283.513	94
283.745	82
283.976	81
284.207	82
284.439	80
284.67	83
284.901	67
285.132	78
285.364	75
285.595	96
285.826	102
286.057	86
286.288	90
286.52	82
286.751	95
286.982	76
287.213	83
287.444	83
287.675	87
287.906	90
288.138	78
288.369	78
288.6	81
288.831	70
289.062	74
289.293	79
289.524	77
289.755	79
289.986	95
290.217	83
290.448	91
290.679	86
290.91	104
291.141	87
291.371	93
291.602	78
291.833	85
292.064	92
292.295	82
292.526	85
292.757	92
292.987	74
293.218	82
293.449	81
293.68	80
293.91	89
294.141	84
294.372	75
294.603	83
294.833	71
295.064	80
295.295	89
295.525	78
295.756	74
295.987	69
296.217	69
296.448	82
296.679	86
296.909	88
297.14	94
297.37	78
297.601	98
297.831	87
298.062	82
298.292	86
298.523	79
298.753	90
298.984	84
299.214	94
299.445	76
299.675	83
299.905	73
300.136	92
300.366	84
300.597	91
300.827	90
301.057	86
301.288	92
301.518	79
301.748	85
301.979	87
302.209	83
302.439	81
302.669	83
302.9	88
303.13	83
303.36	91
303.59	76
303.82	86
304.051	72
304.281	95
304.511	98
304.741	82
304.971	88
305.201	82
305.431	87
305.661	80
305.891	90
306.121	93
306.352	88
306.582	89
306.812	89
307.042	75
307.272	87
307.502	89
307.731	76
307.961	97
308.191	82
308.421	88
308.651	76
308.881	78
309.111	77
309.341	77
309.571	75
309.8	83
310.03	78
310.26	66
310.49	55
310.72	84
310.949	77
311.179	86
311.409	80
311.639	90
311.868	90
312.098	93
312.328	84
312.557	85
312.787	85
313.017	80
313.246	88
313.476	90
313.706	93
313.935	95
314.165	85
314.394	86
314.624	87
314.853	72
315.083	79
315.312	88
315.542	92
315.771	91
316.001	74
316.23	77
316.46	72
316.689	79
316.919	76
317.148	86
317.377	99
317.607	88
317.836	68
318.065	76
318.295	90
318.524	89
318.753	95
318.983	73
319.212	81
319.441	67
319.67	80
319.9	89
320.129	99
320.358	90
320.587	92
320.816	89
321.046	86
321.275	74
321.504	69
321.733	68
321.962	74
322.191	82
322.42	75
322.649	88
322.878	90
323.108	84
323.337	80
323.566	83
323.795	82
324.024	74
324.253	76
324.482	85
324.71	91
324.939	90
325.168	74
325.397	80
325.626	89
325.855	79
326.084	70
326.313	87
326.542	96
326.77	79
326.999	73
327.228	89
327.457	86
327.686	81
327.914	78
328.143	86
328.372	75
328.6	90
328.829	89
329.058	81
329.287	79
329.515	93
329.744	104
329.972	81
330.201	82
330.43	75
330.658	91
330.887	68
331.115	78
331.344	86
331.572	90
331.801	91
332.03	82
332.258	86
332.486	86
332.715	93
332.943	73
333.172	78
333.4	102
333.629	79
333.857	82
334.085	81
334.314	101
334.542	83
334.771	82
334.999	88
335.227	80
335.455	72
335.684	88
335.912	100
336.14	68
336.369	92
336.597	99
336.825	72
337.053	83
337.281	78
337.51	71
337.738	86
337.966	82
338.194	78
338.422	80
338.65	80
338.878	106
339.106	82
339.334	73
339.562	78
339.79	91
340.018	84
340.246	82
340.474	74
340.702	75
340.93	84
341.158	85
341.386	82
341.614	77
341.842	72
342.07	79
342.298	85
342.526	83
342.754	80
342.981	79
343.209	76
343.437	96
343.665	82
343.893	77
344.12	70
344.348	84
344.576	77
344.804	73
345.031	104
345.259	75
345.487	80
345.714	89
345.942	106
346.17	92
346.397	89
346.625	88
346.853	90
347.08	88
347.308	97
347.535	81
347.763	74
347.99	86
348.218	93
348.445	78
348.673	89
348.9	85
349.128	84
349.355	76
349.583	82
349.81	69
350.037	90
350.265	84
350.492	80
350.72	75
350.947	78
351.174	82
351.402	72
351.629	80
351.856	83
352.083	76
352.311	89
352.538	87
352.765	88
352.992	111
353.22	91
353.447	102
353.674	94
353.901	83
354.128	83
354.355	80
354.583	67
354.81	87
355.037	82
355.264	76
355.491	78
355.718	84
355.945	85
356.172	82
356.399	82
356.626	84
356.853	97
357.08	88
357.307	72
357.534	88
357.761	80
357.988	84
358.215	75
358.441	76
358.668	73
358.895	78
359.122	81
359.349	90
359.576	74
359.802	69
360.029	88
360.256	79
360.483	83
360.709	80
360.936	74
361.163	64
361.39	69
361.616	91
361.843	84
362.07	88
362.296	84
362.523	81
362.749	95
362.976	71
363.203	87
363.429	87
363.656	97
363.882	72
364.109	86
364.335	80
364.562	75
364.788	75
365.015	90
365.241	76
365.468	86
365.694	76
365.92	78
366.147	89
366.373	80
366.599	80
366.826	86
367.052	94
367.278	76
367.505	81
367.731	89
367.957	92
368.184	70
368.41	76
368.636	70
368.862	83
369.089	58
369.315	67
369.541	88
369.767	78
369.993	70
370.219	83
370.445	82
370.672	60
370.898	89
371.124	80
371.35	70
371.576	102
371.802	83
372.028	78
372.254	77
372.48	69
372.706	78
372.932	84
373.158	82
373.384	78
373.61	82
373.835	77
374.061	89
374.287	72
374.513	73
374.739	83
374.965	98
375.191	75
375.416	72
375.642	82
375.868	91
376.094	78
376.319	79
376.545	72
376.771	66
376.997	84
377.222	86
377.448	97
377.674	69
377.899	64
378.125	79
378.35	94
378.576	82
378.802	91
379.027	78
379.253	80
379.478	91
379.704	74
379.929	80
380.155	78
380.38	83
380.606	86
380.831	77
381.057	90
381.282	87
381.507	81
381.733	78
381.958	87
382.184	74
382.409	92
382.634	66
382.86	74
383.085	100
383.31	69
383.535	82
383.761	90
383.986	88
384.211	102
384.436	75
384.662	78
384.887	80
385.112	86
385.337	83
385.562	82
385.787	87
386.013	83
386.238	76
386.463	73
386.688	96
386.913	82
387.138	72
387.363	95
387.588	82
387.813	71
388.038	76
388.263	84
388.488	76
388.713	79
388.938	83
389.163	74
389.387	78
389.612	79
389.837	87
390.062	79
390.287	83
390.512	75
390.736	82
390.961	76
391.186	60
391.411	66
391.636	74
391.86	92
392.085	88
392.31	87
392.534	74
392.759	69
392.984	74
393.208	84
393.433	83
393.658	77
393.882	69
394.107	89
394.331	81
394.556	89
394.78	85
395.005	81
395.229	83
395.454	70
395.678	70
395.903	85
396.127	85
396.352	66
396.576	72
396.801	70
397.025	70
397.249	82
397.474	85
397.698	84
397.922	78
398.147	77
398.371	87
398.595	81
398.82	73
399.044	87
399.268	80
399.492	87
399.717	84
399.941	83
400.165	86
400.389	90
400.613	68
400.837	86
401.062	78
401.286	64
401.51	89
401.734	76
401.958	86
402.182	66
402.406	74
402.63	84
402.854	79
403.078	79
403.302	69
403.526	77
403.75	68
403.974	76
404.198	74
404.422	87
404.645	72
404.869	76
405.093	73
405.317	79
405.541	82
405.765	83
405.988	74
406.212	71
406.436	83
406.66	80
406.883	75
407.107	79
407.331	90
407.555	76
407.778	73
408.002	79
408.226	89
408.449	75
408.673	94
408.896	90
409.12	75
409.344	75
409.567	89
409.791	65
410.014	63
410.238	78
410.461	83
410.685	84
410.908	76
411.132	73
411.355	79
411.578	77
411.802	94
412.025	80
412.249	90
412.472	76
412.695	74
412.919	81
413.142	84
413.365	71
413.589	81
413.812	81
414.035	91
414.258	86
414.482	72
414.705	73
414.928	79
415.151	87
415.374	82
415.597	83
415.821	69
416.044	77
416.267	79
416.49	77
416.713	75
416.936	91
417.159	100
417.382	78
417.605	78
417.828	89
418.051	100
418.274	96
418.497	83
418.72	68
418.943	86
419.166	73
419.389	86
419.611	84
419.834	81
420.057	79
420.28	77
420.503	81
420.726	79
420.948	79
421.171	86
421.394	84
421.617	64
421.839	78
422.062	74
422.285	72
422.507	67
422.73	81
422.953	77
423.175	73
423.398	86
423.621	86
423.843	71
424.066	86
424.288	92
424.511	76
424.733	75
424.956	80
425.178	82
425.401	90
425.623	92
425.846	79
426.068	81
426.291	87
426.513	78
426.735	80
426.958	83
427.18	88
427.402	88
427.625	90
427.847	91
428.069	88
428.292	86
428.514	77
428.736	83
428.958	83
429.181	77
429.403	64
429.625	84
429.847	69
430.069	84
430.292	82
430.514	70
430.736	74
430.958	75
431.18	84
431.402	72
431.624	78
431.846	82
432.068	90
432.29	82
432.512	84
432.734	79
432.956	89
433.178	83
433.4	88
433.622	79
433.844	81
434.066	87
434.287	63
434.509	76
434.731	91
434.953	72
435.175	74
435.397	78
435.618	74
435.84	81
436.062	83
436.284	80
436.505	83
436.727	83
436.949	81
437.17	83
437.392	68
437.614	78
437.835	100
438.057	88
438.278	87
438.5	83
438.721	90
438.943	90
439.165	78
439.386	72
439.608	75
439.829	62
440.05	64
440.272	87
440.493	65
440.715	76
440.936	78
441.158	75
441.379	81
441.6	74
441.822	90
442.043	77
442.264	87
442.486	78
442.707	79
442.928	83
443.149	66
443.371	86
443.592	86
443.813	68
444.034	81
444.255	82
444.476	79
444.698	71
444.919	77
445.14	156
445.361	97
445.582	84
445.803	92
446.024	88
446.245	82
446.466	70
446.687	80
446.908	84
447.129	79
447.35	94
447.571	80
447.792	90
448.013	84
448.234	68
448.455	69
448.675	79
448.896	76
449.117	82
449.338	96
449.559	91
449.779	79
450	81
450.221	89
450.442	67
450.662	77
450.883	78
451.104	65
451.324	62
451.545	76
451.766	81
451.986	79
452.207	82
452.428	80
452.648	79
452.869	74
453.089	70
453.31	68
453.53	97
453.751	87
453.971	83
454.192	83
454.412	78
454.633	74
454.853	83
455.073	83
455.294	94
455.514	90
455.734	76
455.955	95
456.175	74
456.395	80
456.616	83
456.836	77
457.056	78
457.276	74
457.497	79
457.717	78
457.937	78
458.157	92
458.377	81
458.598	64
458.818	78
459.038	66
459.258	79
459.478	80
459.698	80
459.918	75
460.138	81
460.358	86
460.578	74
460.798	84
461.018	87
461.238	81
461.458	86
461.678	87
461.898	77
462.118	74
462.338	90
462.558	76
462.777	80
462.997	76
463.217	87
463.437	82
463.657	80
463.876	61
464.096	92
464.316	88
464.536	70
464.755	67
464.975	76
465.195	76
465.414	70
465.634	70
465.854	81
466.073	89
466.293	92
466.512	72
466.732	70
466.951	83
467.171	74
467.391	81
467.61	70
467.829	103
468.049	85
468.268	82
468.488	89
468.707	80
468.927	63
469.146	72
469.365	97
469.585	90
469.804	96
470.023	88
470.243	81
470.462	88
470.681	82
470.901	86
471.12	104
471.339	90
471.558	74
471.777	81
471.997	86
472.216	72
472.435	75
472.654	78
472.873	80
473.092	78
473.311	88
473.53	78
473.749	75
473.968	91
474.187	77
474.406	80
474.625	72
474.844	85
475.063	79
475.282	69
475.501	64
475.72	89
475.939	86
476.158	65
476.377	95
476.596	85
476.814	82
477.033	79
477.252	82
477.471	98
477.69	86
477.908	81
478.127	86
478.346	84
478.564	80
478.783	88
479.002	76
479.22	71
479.439	75
479.658	72
479.876	82
480.095	73
480.313	81
480.532	73
480.751	82
480.969	81
481.188	82
481.406	98
481.624	91
481.843	66
482.061	85
482.28	85
482.498	91
482.717	76
482.935	72
483.153	84
483.372	87
483.59	87
483.808	75
484.027	78
484.245	90
484.463	72
484.681	90
484.9	86
485.118	82
485.336	89
485.554	73
485.772	76
485.99	87
486.209	74
486.427	68
486.645	69
486.863	81
487.081	83
487.299	83
487.517	100
487.735	79
487.953	77
488.171	80
488.389	88
488.607	93
488.825	68
489.043	90
489.261	86
489.479	83
489.696	84
489.914	99
490.132	88
490.35	91
490.568	93
490.786	80
491.003	90
491.221	84
491.439	79
491.657	81
491.874	77
492.092	84
492.31	77
492.527	87
492.745	91
492.963	73
493.18	89
493.398	79
493.615	77
493.833	84
494.05	87
494.268	78
494.485	64
494.703	81
494.92	67
495.138	81
495.355	82
495.573	89
495.79	80
496.008	80
496.225	87
496.442	90
496.66	88
496.877	65
497.094	68
497.312	74
497.529	85
497.746	92
497.963	66
498.181	72
498.398	78
498.615	77
498.832	76
499.049	74
499.267	79
499.484	80
499.701	94
499.918	81
500.135	94
500.352	83
500.569	78
500.786	84
501.003	83
501.22	80
501.437	83
501.654	92
501.871	75
502.088	68
502.305	92
502.522	90
502.739	61
502.956	83
503.172	86
503.389	78
503.606	83
503.823	83
504.04	81
504.256	90
504.473	96
504.69	93
504.907	92
505.123	86
505.34	84
505.557	94
505.773	76
505.99	80
506.207	59
506.423	80
506.64	86
506.856	79
507.073	81
507.289	108
507.506	87
507.722	86
507.939	76
508.155	84
508.372	82
508.588	68
508.805	82
509.021	93
509.238	90
509.454	77
509.67	78
509.887	69
510.103	92
510.319	99
510.536	82
510.752	79
510.968	93
511.184	97
511.401	95
511.617	82
511.833	90
512.049	67
512.265	95
512.481	94
512.698	83
512.914	80
513.13	73
513.346	88
513.562	74
513.778	85
513.994	74
514.21	83
514.426	81
514.642	72
514.858	83
515.074	65
515.29	81
515.506	74
515.721	69
515.937	82
516.153	91
516.369	88
516.585	90
516.801	79
517.016	87
517.232	70
517.448	94
517.664	74
517.879	86
518.095	63
518.311	79
518.527	79
518.742	74
518.958	89
519.173	72
519.389	90
519.605	76
519.82	88
520.036	87
520.251	91
520.467	84
520.682	74
520.898	67
521.113	83
521.329	81
521.544	75
521.76	78
521.975	95
522.19	79
522.406	75
522.621	81
522.836	77
523.052	68
523.267	92
523.482	92
523.698	74
523.913	96
524.128	76
524.343	101
524.559	89
524.774	70
524.989	90
525.204	91
525.419	90
525.634	87
525.849	88
526.064	77
526.28	72
526.495	79
526.71	84
526.925	75
527.14	90
527.355	81
527.57	74
527.785	86
527.999	79
528.214	83
528.429	83
528.644	83
528.859	84
529.074	83
529.289	89
529.503	101
529.718	93
529.933	77
530.148	67
530.363	84
530.577	90
530.792	82
531.007	76
531.221	71
531.436	75
531.651	85
531.865	94
532.08	87
532.295	78
532.509	80
532.724	76
532.938	78
533.153	78
533.367	87
533.582	94
533.796	86
534.011	86
534.225	86
534.44	83
534.654	85
534.868	87
535.083	86
535.297	87
535.511	84
535.726	83
535.94	95
536.154	83
536.369	80
536.583	81
536.797	80
537.011	83
537.225	86
537.44	68
537.654	80
537.868	90
538.082	87
538.296	82
538.51	71
538.724	80
538.938	72
539.153	77
539.367	87
539.581	92
539.795	77
540.009	81
540.222	71
540.436	71
540.65	87
540.864	86
541.078	74
541.292	72
541.506	81
541.72	77
541.934	94
542.147	82
542.361	80
542.575	81
542.789	84
543.002	71
543.216	81
543.43	96
543.644	89
543.857	79
544.071	73
544.285	86
544.498	85
544.712	66
544.925	72
545.139	97
545.352	80
545.566	79
545.779	69
545.993	81
546.206	80
546.42	99
546.633	76
546.847	90
547.06	76
547.274	86
547.487	73
547.7	82
547.914	85
548.127	74
548.34	97
548.554	83
548.767	78
548.98	85
549.193	83
549.407	84
549.62	86
549.833	88
550.046	73
550.259	86
550.473	86
550.686	90
550.899	77
551.112	89
551.325	92
551.538	97
551.751	78
551.964	65
552.177	78
552.39	91
552.603	62
552.816	90
553.029	101
553.242	83
553.455	76
553.667	79
553.88	85
554.093	88
554.306	84
554.519	78
554.732	84
554.944	81
555.157	81
555.37	88
555.583	74
555.795	81
556.008	71
556.221	73
556.433	82
556.646	83
556.859	73
557.071	86
557.284	95
557.496	83
557.709	85
557.921	84
558.134	90
558.346	84
558.559	72
558.771	90
558.984	86
559.196	83
559.409	84
559.621	76
559.833	90
560.046	87
560.258	97
560.47	88
560.683	81
560.895	79
561.107	86
561.32	74
561.532	84
561.744	100
561.956	74
562.168	76
562.381	76
562.593	86
562.805	81
563.017	83
563.229	79
563.441	72
563.653	99
563.865	84
564.077	91
564.289	82
564.501	81
564.713	83
564.925	82
565.137	87
565.349	90
565.561	86
565.773	75
565.985	74
566.197	80
566.408	88
566.62	87
566.832	84
567.044	85
567.255	74
567.467	86
567.679	89
567.891	69
568.102	85
568.314	87
568.526	81
568.737	100
568.949	98
569.161	79
569.372	88
569.584	83
569.795	88
570.007	98
570.218	87
570.43	86
570.641	76
570.853	83
571.064	88
571.276	75
571.487	92
571.698	83
571.91	83
572.121	82
572.333	86
572.544	74
572.755	88
572.966	90
573.178	76
573.389	91
573.6	79
573.811	83
574.023	91
574.234	79
574.445	76
574.656	74
574.867	77
575.078	87
575.289	89
575.501	84
575.712	76
575.923	83
576.134	67
576.345	81
576.556	80
576.767	69
576.978	82
577.188	81
577.399	69
577.61	85
577.821	88
578.032	92
578.243	88
578.454	84
578.665	91
578.875	85
579.086	66
579.297	82
579.508	86
579.718	71
579.929	87
580.14	88
580.35	78
580.561	84
580.772	103
580.982	87
581.193	71
581.403	80
581.614	85
581.825	76
582.035	92
582.246	86
582.456	91
582.667	74
582.877	82
583.087	83
583.298	93
583.508	82
583.719	78
583.929	102
584.139	72
584.35	76
584.56	97
584.77	81
584.981	77
585.191	76
585.401	84
585.611	84
585.821	84
586.032	97
586.242	73
586.452	84
586.662	78
586.872	91
587.082	87
587.292	86
587.502	92
587.713	85
587.923	94
588.133	78
588.343	78
588.553	79
588.762	87
588.972	90
589.182	78
589.392	72
589.602	92
589.812	87
590.022	86
590.232	80
590.441	82
