Data from Background_1_HRD10591_00014.txt Node
Date: Wed Nov 05 14:39:05 EST 2025
User: Yrep
Spectrometer: HR+D1059
Trigger mode: 1
Integration Time (sec): 1.000000E-1
Scans to average: 1
Electric dark correction enabled: true
Nonlinearity correction enabled: false
Boxcar width: 0
XAxis mode: Wavelengths
Number of Pixels in Spectrum: 2048
>>>>>Begin Spectral Data<<<<<
223.165	-16.31
223.4	-16.31
223.635	-16.31
223.869	-28.31
224.104	-20.31
224.338	-9.31
224.573	-14.31
224.808	-8.31
225.042	-11.31
225.277	-3.31
225.511	14.69
225.746	-8.31
225.98	6.69
226.215	0.69
226.449	17.69
226.683	23.69
226.918	20.69
227.152	35.69
227.387	26.69
227.621	41.69
227.856	34.69
228.09	58.69
228.324	47.69
228.559	62.69
228.793	58.69
229.027	53.69
229.262	58.69
229.496	82.69
229.73	69.69
229.964	74.69
230.199	67.69
230.433	64.69
230.667	83.69
230.901	69.69
231.136	85.69
231.37	82.69
231.604	78.69
231.838	83.69
232.072	84.69
232.306	64.69
232.541	83.69
232.775	80.69
233.009	71.69
233.243	88.69
233.477	83.69
233.711	85.69
233.945	83.69
234.179	80.69
234.413	86.69
234.647	85.69
234.881	74.69
235.115	71.69
235.349	99.69
235.583	79.69
235.817	89.69
236.051	69.69
236.285	66.69
236.519	74.69
236.753	86.69
236.987	78.69
237.221	77.69
237.455	70.69
237.689	64.69
237.922	71.69
238.156	66.69
238.39	61.69
238.624	89.69
238.858	84.69
239.091	70.69
239.325	74.69
239.559	71.69
239.793	81.69
240.027	82.69
240.26	83.69
240.494	70.69
240.728	81.69
240.961	66.69
241.195	75.69
241.429	74.69
241.662	69.69
241.896	63.69
242.13	76.69
242.363	81.69
242.597	84.69
242.83	83.69
243.064	63.69
243.298	81.69
243.531	73.69
243.765	89.69
243.998	73.69
244.232	99.69
244.465	76.69
244.699	90.69
244.932	75.69
245.166	67.69
245.399	80.69
245.633	70.69
245.866	74.69
246.099	88.69
246.333	68.69
246.566	78.69
246.8	88.69
247.033	80.69
247.266	71.69
247.5	75.69
247.733	84.69
247.966	78.69
248.2	84.69
248.433	69.69
248.666	89.69
248.899	81.69
249.133	61.69
249.366	70.69
249.599	67.69
249.832	80.69
250.066	61.69
250.299	75.69
250.532	83.69
250.765	78.69
250.998	80.69
251.231	82.69
251.465	76.69
251.698	80.69
251.931	74.69
252.164	80.69
252.397	92.69
252.63	81.69
252.863	66.69
253.096	66.69
253.329	77.69
253.562	82.69
253.795	81.69
254.028	68.69
254.261	81.69
254.494	76.69
254.727	80.69
254.96	86.69
255.193	78.69
255.426	80.69
255.659	80.69
255.892	83.69
256.124	81.69
256.357	71.69
256.59	73.69
256.823	76.69
257.056	85.69
257.289	94.69
257.521	74.69
257.754	67.69
257.987	86.69
258.22	80.69
258.452	81.69
258.685	82.69
258.918	91.69
259.151	88.69
259.383	76.69
259.616	88.69
259.849	91.69
260.081	88.69
260.314	88.69
260.547	77.69
260.779	88.69
261.012	88.69
261.244	76.69
261.477	80.69
261.71	74.69
261.942	69.69
262.175	71.69
262.407	85.69
262.64	97.69
262.872	102.69
263.105	92.69
263.337	92.69
263.57	82.69
263.802	93.69
264.035	72.69
264.267	78.69
264.499	86.69
264.732	99.69
264.964	88.69
265.197	76.69
265.429	71.69
265.661	76.69
265.894	90.69
266.126	74.69
266.358	84.69
266.591	79.69
266.823	89.69
267.055	86.69
267.287	75.69
267.52	83.69
267.752	86.69
267.984	80.69
268.216	77.69
268.448	80.69
268.681	70.69
268.913	82.69
269.145	80.69
269.377	76.69
269.609	77.69
269.841	89.69
270.073	90.69
270.306	97.69
270.538	95.69
270.77	92.69
271.002	92.69
271.234	83.69
271.466	79.69
271.698	96.69
271.93	87.69
272.162	76.69
272.394	91.69
272.626	84.69
272.858	74.69
273.09	78.69
273.322	76.69
273.553	82.69
273.785	67.69
274.017	84.69
274.249	71.69
274.481	86.69
274.713	88.69
274.945	82.69
275.176	78.69
275.408	94.69
275.64	85.69
275.872	78.69
276.104	76.69
276.335	89.69
276.567	85.69
276.799	82.69
277.031	75.69
277.262	90.69
277.494	84.69
277.726	84.69
277.957	74.69
278.189	80.69
278.421	84.69
278.652	81.69
278.884	81.69
279.115	84.69
279.347	69.69
279.579	67.69
279.81	74.69
280.042	78.69
280.273	81.69
280.505	78.69
280.736	77.69
280.968	83.69
281.199	78.69
281.431	85.69
281.662	74.69
281.894	84.69
282.125	91.69
282.356	80.69
282.588	83.69
282.819	86.69
283.051	67.69
283.282	70.69
283.513	74.69
283.745	72.69
283.976	94.69
284.207	72.69
284.439	80.69
284.67	95.69
284.901	82.69
285.132	90.69
285.364	75.69
285.595	92.69
285.826	85.69
286.057	73.69
286.288	77.69
286.52	82.69
286.751	70.69
286.982	83.69
287.213	78.69
287.444	88.69
287.675	68.69
287.906	78.69
288.138	86.69
288.369	67.69
288.6	82.69
288.831	86.69
289.062	88.69
289.293	93.69
289.524	88.69
289.755	97.69
289.986	83.69
290.217	84.69
290.448	75.69
290.679	78.69
290.91	81.69
291.141	91.69
291.371	82.69
291.602	84.69
291.833	81.69
292.064	93.69
292.295	68.69
292.526	85.69
292.757	79.69
292.987	91.69
293.218	69.69
293.449	85.69
293.68	74.69
293.91	88.69
294.141	91.69
294.372	85.69
294.603	73.69
294.833	74.69
295.064	89.69
295.295	96.69
295.525	80.69
295.756	76.69
295.987	90.69
296.217	74.69
296.448	74.69
296.679	100.69
296.909	104.69
297.14	77.69
297.37	91.69
297.601	92.69
297.831	77.69
298.062	94.69
298.292	82.69
298.523	86.69
298.753	76.69
298.984	83.69
299.214	88.69
299.445	91.69
299.675	71.69
299.905	78.69
300.136	79.69
300.366	77.69
300.597	79.69
300.827	82.69
301.057	87.69
301.288	79.69
301.518	86.69
301.748	78.69
301.979	95.69
302.209	84.69
302.439	92.69
302.669	92.69
302.9	70.69
303.13	86.69
303.36	85.69
303.59	77.69
303.82	82.69
304.051	72.69
304.281	78.69
304.511	85.69
304.741	84.69
304.971	99.69
305.201	83.69
305.431	90.69
305.661	92.69
305.891	69.69
306.121	82.69
306.352	88.69
306.582	79.69
306.812	85.69
307.042	80.69
307.272	97.69
307.502	75.69
307.731	75.69
307.961	92.69
308.191	78.69
308.421	73.69
308.651	73.69
308.881	78.69
309.111	89.69
309.341	85.69
309.571	80.69
309.8	85.69
310.03	96.69
310.26	92.69
310.49	85.69
310.72	82.69
310.949	86.69
311.179	84.69
311.409	84.69
311.639	88.69
311.868	79.69
312.098	85.69
312.328	78.69
312.557	78.69
312.787	93.69
313.017	101.69
313.246	89.69
313.476	73.69
313.706	72.69
313.935	77.69
314.165	78.69
314.394	82.69
314.624	74.69
314.853	75.69
315.083	94.69
315.312	80.69
315.542	82.69
315.771	84.69
316.001	98.69
316.23	77.69
316.46	84.69
316.689	80.69
316.919	84.69
317.148	83.69
317.377	85.69
317.607	84.69
317.836	82.69
318.065	77.69
318.295	91.69
318.524	78.69
318.753	89.69
318.983	81.69
319.212	102.69
319.441	91.69
319.67	83.69
319.9	88.69
320.129	80.69
320.358	90.69
320.587	91.69
320.816	76.69
321.046	80.69
321.275	92.69
321.504	85.69
321.733	76.69
321.962	91.69
322.191	84.69
322.42	84.69
322.649	75.69
322.878	84.69
323.108	99.69
323.337	82.69
323.566	80.69
323.795	95.69
324.024	97.69
324.253	88.69
324.482	81.69
324.71	92.69
324.939	77.69
325.168	80.69
325.397	99.69
325.626	93.69
325.855	72.69
326.084	86.69
326.313	89.69
326.542	92.69
326.77	81.69
326.999	88.69
327.228	78.69
327.457	92.69
327.686	80.69
327.914	76.69
328.143	84.69
328.372	83.69
328.6	84.69
328.829	68.69
329.058	77.69
329.287	72.69
329.515	80.69
329.744	77.69
329.972	76.69
330.201	79.69
330.43	72.69
330.658	90.69
330.887	86.69
331.115	97.69
331.344	92.69
331.572	88.69
331.801	93.69
332.03	77.69
332.258	83.69
332.486	75.69
332.715	89.69
332.943	77.69
333.172	86.69
333.4	85.69
333.629	93.69
333.857	83.69
334.085	94.69
334.314	91.69
334.542	77.69
334.771	75.69
334.999	77.69
335.227	96.69
335.455	72.69
335.684	93.69
335.912	88.69
336.14	84.69
336.369	98.69
336.597	82.69
336.825	96.69
337.053	81.69
337.281	85.69
337.51	84.69
337.738	84.69
337.966	91.69
338.194	93.69
338.422	80.69
338.65	78.69
338.878	81.69
339.106	82.69
339.334	83.69
339.562	69.69
339.79	73.69
340.018	83.69
340.246	82.69
340.474	80.69
340.702	82.69
340.93	86.69
341.158	85.69
341.386	82.69
341.614	93.69
341.842	81.69
342.07	89.69
342.298	80.69
342.526	91.69
342.754	104.69
342.981	80.69
343.209	94.69
343.437	104.69
343.665	97.69
343.893	88.69
344.12	77.69
344.348	81.69
344.576	88.69
344.804	84.69
345.031	90.69
345.259	82.69
345.487	89.69
345.714	79.69
345.942	81.69
346.17	82.69
346.397	87.69
346.625	86.69
346.853	68.69
347.08	81.69
347.308	88.69
347.535	84.69
347.763	90.69
347.99	83.69
348.218	86.69
348.445	93.69
348.673	88.69
348.9	89.69
349.128	87.69
349.355	81.69
349.583	92.69
349.81	90.69
350.037	89.69
350.265	70.69
350.492	86.69
350.72	76.69
350.947	80.69
351.174	93.69
351.402	80.69
351.629	78.69
351.856	74.69
352.083	93.69
352.311	86.69
352.538	82.69
352.765	72.69
352.992	89.69
353.22	84.69
353.447	80.69
353.674	85.69
353.901	84.69
354.128	92.69
354.355	93.69
354.583	81.69
354.81	74.69
355.037	73.69
355.264	83.69
355.491	89.69
355.718	75.69
355.945	77.69
356.172	86.69
356.399	85.69
356.626	75.69
356.853	77.69
357.08	83.69
357.307	88.69
357.534	93.69
357.761	81.69
357.988	81.69
358.215	89.69
358.441	82.69
358.668	84.69
358.895	88.69
359.122	81.69
359.349	81.69
359.576	76.69
359.802	73.69
360.029	85.69
360.256	91.69
360.483	85.69
360.709	88.69
360.936	97.69
361.163	92.69
361.39	81.69
361.616	74.69
361.843	73.69
362.07	76.69
362.296	81.69
362.523	74.69
362.749	82.69
362.976	90.69
363.203	96.69
363.429	81.69
363.656	91.69
363.882	72.69
364.109	91.69
364.335	80.69
364.562	65.69
364.788	72.69
365.015	88.69
365.241	81.69
365.468	91.69
365.694	85.69
365.92	85.69
366.147	81.69
366.373	93.69
366.599	84.69
366.826	84.69
367.052	86.69
367.278	70.69
367.505	78.69
367.731	88.69
367.957	86.69
368.184	75.69
368.41	98.69
368.636	80.69
368.862	86.69
369.089	84.69
369.315	70.69
369.541	81.69
369.767	94.69
369.993	70.69
370.219	79.69
370.445	78.69
370.672	87.69
370.898	71.69
371.124	74.69
371.35	82.69
371.576	76.69
371.802	77.69
372.028	82.69
372.254	103.69
372.48	81.69
372.706	93.69
372.932	85.69
373.158	86.69
373.384	85.69
373.61	87.69
373.835	89.69
374.061	76.69
374.287	91.69
374.513	71.69
374.739	84.69
374.965	79.69
375.191	76.69
375.416	73.69
375.642	85.69
375.868	93.69
376.094	76.69
376.319	81.69
376.545	77.69
376.771	85.69
376.997	80.69
377.222	82.69
377.448	77.69
377.674	81.69
377.899	77.69
378.125	88.69
378.35	81.69
378.576	85.69
378.802	83.69
379.027	69.69
379.253	78.69
379.478	74.69
379.704	73.69
379.929	69.69
380.155	78.69
380.38	81.69
380.606	89.69
380.831	85.69
381.057	78.69
381.282	85.69
381.507	84.69
381.733	78.69
381.958	83.69
382.184	82.69
382.409	67.69
382.634	92.69
382.86	93.69
383.085	88.69
383.31	80.69
383.535	90.69
383.761	84.69
383.986	82.69
384.211	92.69
384.436	78.69
384.662	85.69
384.887	80.69
385.112	90.69
385.337	76.69
385.562	81.69
385.787	71.69
386.013	78.69
386.238	81.69
386.463	80.69
386.688	81.69
386.913	78.69
387.138	81.69
387.363	88.69
387.588	80.69
387.813	70.69
388.038	84.69
388.263	81.69
388.488	73.69
388.713	88.69
388.938	82.69
389.163	66.69
389.387	80.69
389.612	80.69
389.837	98.69
390.062	69.69
390.287	70.69
390.512	75.69
390.736	65.69
390.961	74.69
391.186	96.69
391.411	82.69
391.636	80.69
391.86	78.69
392.085	90.69
392.31	82.69
392.534	76.69
392.759	70.69
392.984	80.69
393.208	86.69
393.433	78.69
393.658	69.69
393.882	95.69
394.107	89.69
394.331	84.69
394.556	71.69
394.78	85.69
395.005	89.69
395.229	92.69
395.454	83.69
395.678	72.69
395.903	77.69
396.127	92.69
396.352	82.69
396.576	70.69
396.801	85.69
397.025	91.69
397.249	92.69
397.474	83.69
397.698	81.69
397.922	84.69
398.147	77.69
398.371	73.69
398.595	78.69
398.82	84.69
399.044	78.69
399.268	73.69
399.492	85.69
399.717	79.69
399.941	80.69
400.165	91.69
400.389	96.69
400.613	88.69
400.837	77.69
401.062	99.69
401.286	84.69
401.51	67.69
401.734	84.69
401.958	75.69
402.182	85.69
402.406	93.69
402.63	76.69
402.854	90.69
403.078	76.69
403.302	67.69
403.526	76.69
403.75	76.69
403.974	72.69
404.198	92.69
404.422	87.69
404.645	77.69
404.869	80.69
405.093	71.69
405.317	75.69
405.541	88.69
405.765	75.69
405.988	81.69
406.212	69.69
406.436	78.69
406.66	78.69
406.883	79.69
407.107	52.69
407.331	78.69
407.555	91.69
407.778	76.69
408.002	86.69
408.226	82.69
408.449	89.69
408.673	86.69
408.896	78.69
409.12	77.69
409.344	90.69
409.567	85.69
409.791	79.69
410.014	76.69
410.238	90.69
410.461	86.69
410.685	75.69
410.908	77.69
411.132	75.69
411.355	85.69
411.578	80.69
411.802	82.69
412.025	88.69
412.249	76.69
412.472	83.69
412.695	85.69
412.919	80.69
413.142	89.69
413.365	75.69
413.589	94.69
413.812	84.69
414.035	74.69
414.258	85.69
414.482	89.69
414.705	71.69
414.928	79.69
415.151	83.69
415.374	91.69
415.597	70.69
415.821	84.69
416.044	80.69
416.267	85.69
416.49	93.69
416.713	78.69
416.936	74.69
417.159	98.69
417.382	98.69
417.605	88.69
417.828	76.69
418.051	80.69
418.274	68.69
418.497	84.69
418.72	86.69
418.943	94.69
419.166	89.69
419.389	91.69
419.611	96.69
419.834	72.69
420.057	78.69
420.28	62.69
420.503	82.69
420.726	71.69
420.948	81.69
421.171	68.69
421.394	86.69
421.617	81.69
421.839	84.69
422.062	78.69
422.285	80.69
422.507	80.69
422.73	77.69
422.953	70.69
423.175	68.69
423.398	83.69
423.621	78.69
423.843	84.69
424.066	69.69
424.288	87.69
424.511	77.69
424.733	89.69
424.956	69.69
425.178	79.69
425.401	85.69
425.623	88.69
425.846	81.69
426.068	86.69
426.291	85.69
426.513	89.69
426.735	83.69
426.958	84.69
427.18	94.69
427.402	76.69
427.625	88.69
427.847	61.69
428.069	80.69
428.292	85.69
428.514	90.69
428.736	91.69
428.958	74.69
429.181	69.69
429.403	76.69
429.625	92.69
429.847	82.69
430.069	71.69
430.292	88.69
430.514	90.69
430.736	75.69
430.958	75.69
431.18	77.69
431.402	80.69
431.624	85.69
431.846	79.69
432.068	93.69
432.29	83.69
432.512	79.69
432.734	77.69
432.956	88.69
433.178	69.69
433.4	89.69
433.622	84.69
433.844	77.69
434.066	89.69
434.287	89.69
434.509	76.69
434.731	66.69
434.953	84.69
435.175	69.69
435.397	91.69
435.618	86.69
435.84	66.69
436.062	72.69
436.284	76.69
436.505	73.69
436.727	81.69
436.949	92.69
437.17	73.69
437.392	96.69
437.614	62.69
437.835	71.69
438.057	89.69
438.278	73.69
438.5	85.69
438.721	93.69
438.943	68.69
439.165	79.69
439.386	78.69
439.608	85.69
439.829	85.69
440.05	76.69
440.272	84.69
440.493	84.69
440.715	93.69
440.936	97.69
441.158	73.69
441.379	82.69
441.6	77.69
441.822	77.69
442.043	86.69
442.264	80.69
442.486	79.69
442.707	79.69
442.928	85.69
443.149	94.69
443.371	88.69
443.592	80.69
443.813	84.69
444.034	74.69
444.255	84.69
444.476	78.69
444.698	86.69
444.919	90.69
445.14	157.69
445.361	121.69
445.582	92.69
445.803	80.69
446.024	82.69
446.245	74.69
446.466	77.69
446.687	86.69
446.908	93.69
447.129	69.69
447.35	87.69
447.571	83.69
447.792	84.69
448.013	85.69
448.234	89.69
448.455	97.69
448.675	70.69
448.896	57.69
449.117	82.69
449.338	78.69
449.559	78.69
449.779	71.69
450	88.69
450.221	75.69
450.442	97.69
450.662	84.69
450.883	90.69
451.104	70.69
451.324	71.69
451.545	77.69
451.766	76.69
451.986	71.69
452.207	78.69
452.428	90.69
452.648	84.69
452.869	72.69
453.089	76.69
453.31	79.69
453.53	64.69
453.751	80.69
453.971	73.69
454.192	78.69
454.412	76.69
454.633	89.69
454.853	90.69
455.073	85.69
455.294	92.69
455.514	86.69
455.734	73.69
455.955	81.69
456.175	68.69
456.395	88.69
456.616	90.69
456.836	83.69
457.056	71.69
457.276	81.69
457.497	74.69
457.717	78.69
457.937	85.69
458.157	81.69
458.377	85.69
458.598	73.69
458.818	91.69
459.038	71.69
459.258	81.69
459.478	86.69
459.698	80.69
459.918	93.69
460.138	79.69
460.358	80.69
460.578	81.69
460.798	90.69
461.018	78.69
461.238	82.69
461.458	70.69
461.678	78.69
461.898	81.69
462.118	80.69
462.338	89.69
462.558	79.69
462.777	85.69
462.997	70.69
463.217	93.69
463.437	100.69
463.657	93.69
463.876	86.69
464.096	71.69
464.316	67.69
464.536	77.69
464.755	107.69
464.975	75.69
465.195	83.69
465.414	82.69
465.634	80.69
465.854	81.69
466.073	74.69
466.293	76.69
466.512	74.69
466.732	77.69
466.951	80.69
467.171	78.69
467.391	85.69
467.61	94.69
467.829	76.69
468.049	77.69
468.268	76.69
468.488	73.69
468.707	82.69
468.927	80.69
469.146	75.69
469.365	78.69
469.585	61.69
469.804	96.69
470.023	64.69
470.243	85.69
470.462	85.69
470.681	93.69
470.901	97.69
471.12	70.69
471.339	85.69
471.558	87.69
471.777	81.69
471.997	69.69
472.216	64.69
472.435	84.69
472.654	85.69
472.873	78.69
473.092	88.69
473.311	86.69
473.53	75.69
473.749	87.69
473.968	79.69
474.187	80.69
474.406	78.69
474.625	90.69
474.844	80.69
475.063	76.69
475.282	72.69
475.501	73.69
475.72	86.69
475.939	83.69
476.158	85.69
476.377	78.69
476.596	85.69
476.814	77.69
477.033	71.69
477.252	81.69
477.471	77.69
477.69	72.69
477.908	90.69
478.127	86.69
478.346	89.69
478.564	92.69
478.783	84.69
479.002	85.69
479.22	69.69
479.439	71.69
479.658	79.69
479.876	77.69
480.095	80.69
480.313	88.69
480.532	84.69
480.751	73.69
480.969	75.69
481.188	88.69
481.406	89.69
481.624	71.69
481.843	82.69
482.061	78.69
482.28	84.69
482.498	78.69
482.717	68.69
482.935	93.69
483.153	74.69
483.372	80.69
483.59	84.69
483.808	88.69
484.027	77.69
484.245	79.69
484.463	83.69
484.681	94.69
484.9	95.69
485.118	75.69
485.336	84.69
485.554	97.69
485.772	88.69
485.99	78.69
486.209	86.69
486.427	81.69
486.645	78.69
486.863	76.69
487.081	90.69
487.299	81.69
487.517	73.69
487.735	78.69
487.953	83.69
488.171	95.69
488.389	90.69
488.607	68.69
488.825	85.69
489.043	82.69
489.261	82.69
489.479	83.69
489.696	83.69
489.914	85.69
490.132	85.69
490.35	84.69
490.568	104.69
490.786	83.69
491.003	73.69
491.221	61.69
491.439	88.69
491.657	82.69
491.874	83.69
492.092	91.69
492.31	71.69
492.527	81.69
492.745	86.69
492.963	86.69
493.18	86.69
493.398	95.69
493.615	78.69
493.833	68.69
494.05	93.69
494.268	94.69
494.485	88.69
494.703	75.69
494.92	76.69
495.138	77.69
495.355	93.69
495.573	88.69
495.79	88.69
496.008	90.69
496.225	73.69
496.442	69.69
496.66	76.69
496.877	84.69
497.094	74.69
497.312	85.69
497.529	84.69
497.746	86.69
497.963	73.69
498.181	84.69
498.398	83.69
498.615	78.69
498.832	100.69
499.049	76.69
499.267	85.69
499.484	80.69
499.701	82.69
499.918	77.69
500.135	96.69
500.352	76.69
500.569	78.69
500.786	85.69
501.003	90.69
501.22	81.69
501.437	82.69
501.654	91.69
501.871	88.69
502.088	82.69
502.305	83.69
502.522	67.69
502.739	85.69
502.956	76.69
503.172	78.69
503.389	79.69
503.606	91.69
503.823	90.69
504.04	90.69
504.256	74.69
504.473	84.69
504.69	91.69
504.907	74.69
505.123	89.69
505.34	76.69
505.557	75.69
505.773	90.69
505.99	74.69
506.207	84.69
506.423	75.69
506.64	91.69
506.856	86.69
507.073	81.69
507.289	82.69
507.506	87.69
507.722	84.69
507.939	89.69
508.155	89.69
508.372	88.69
508.588	82.69
508.805	79.69
509.021	96.69
509.238	88.69
509.454	83.69
509.67	70.69
509.887	77.69
510.103	87.69
510.319	87.69
510.536	80.69
510.752	80.69
510.968	77.69
511.184	92.69
511.401	88.69
511.617	92.69
511.833	82.69
512.049	81.69
512.265	82.69
512.481	77.69
512.698	80.69
512.914	81.69
513.13	78.69
513.346	88.69
513.562	88.69
513.778	94.69
513.994	93.69
514.21	78.69
514.426	81.69
514.642	71.69
514.858	78.69
515.074	92.69
515.29	71.69
515.506	86.69
515.721	86.69
515.937	77.69
516.153	87.69
516.369	76.69
516.585	78.69
516.801	78.69
517.016	81.69
517.232	93.69
517.448	82.69
517.664	86.69
517.879	88.69
518.095	86.69
518.311	76.69
518.527	82.69
518.742	82.69
518.958	90.69
519.173	88.69
519.389	91.69
519.605	100.69
519.82	84.69
520.036	76.69
