Data from Background_1_HRD10591_00052.txt Node
Date: Wed Nov 05 14:39:23 EST 2025
User: Yrep
Spectrometer: HR+D1059
Trigger mode: 1
Integration Time (sec): 1.000000E-1
Scans to average: 1
Electric dark correction enabled: true
Nonlinearity correction enabled: false
Boxcar width: 0
XAxis mode: Wavelengths
Number of Pixels in Spectrum: 2048
>>>>>Begin Spectral Data<<<<<
223.165	-2.56
223.4	-2.56
223.635	-2.56
223.869	-13.56
224.104	-8.56
224.338	-25.56
224.573	-12.56
224.808	-12.56
225.042	-11.56
225.277	-5.56
225.511	-12.56
225.746	1.44
225.98	10.44
226.215	4.44
226.449	23.44
226.683	21.44
226.918	14.44
227.152	29.44
227.387	44.44
227.621	48.44
227.856	53.44
228.09	54.44
228.324	69.44
228.559	54.44
228.793	59.44
229.027	66.44
229.262	61.44
229.496	64.44
229.73	59.44
229.964	70.44
230.199	64.44
230.433	79.44
230.667	88.44
230.901	63.44
231.136	87.44
231.37	83.44
231.604	70.44
231.838	86.44
232.072	92.44
232.306	76.44
232.541	77.44
232.775	88.44
233.009	91.44
233.243	87.44
233.477	95.44
233.711	92.44
233.945	90.44
234.179	85.44
234.413	88.44
234.647	92.44
234.881	94.44
235.115	75.44
235.349	95.44
235.583	88.44
235.817	79.44
236.051	78.44
236.285	84.44
236.519	82.44
236.753	82.44
236.987	78.44
237.221	87.44
237.455	74.44
237.689	79.44
237.922	69.44
238.156	73.44
238.39	74.44
238.624	74.44
238.858	86.44
239.091	78.44
239.325	69.44
239.559	78.44
239.793	78.44
240.027	74.44
240.26	78.44
240.494	73.44
240.728	66.44
240.961	90.44
241.195	69.44
241.429	84.44
241.662	83.44
241.896	85.44
242.13	70.44
242.363	88.44
242.597	70.44
242.83	79.44
243.064	71.44
243.298	83.44
243.531	71.44
243.765	74.44
243.998	78.44
244.232	82.44
244.465	99.44
244.699	83.44
244.932	78.44
245.166	83.44
245.399	95.44
245.633	92.44
245.866	94.44
246.099	83.44
246.333	76.44
246.566	79.44
246.8	83.44
247.033	76.44
247.266	76.44
247.5	73.44
247.733	78.44
247.966	76.44
248.2	69.44
248.433	88.44
248.666	71.44
248.899	70.44
249.133	80.44
249.366	88.44
249.599	85.44
249.832	77.44
250.066	84.44
250.299	85.44
250.532	76.44
250.765	82.44
250.998	70.44
251.231	88.44
251.465	85.44
251.698	68.44
251.931	70.44
252.164	79.44
252.397	80.44
252.63	88.44
252.863	70.44
253.096	86.44
253.329	82.44
253.562	86.44
253.795	95.44
254.028	93.44
254.261	96.44
254.494	80.44
254.727	88.44
254.96	70.44
255.193	73.44
255.426	84.44
255.659	80.44
255.892	81.44
256.124	86.44
256.357	77.44
256.59	87.44
256.823	73.44
257.056	68.44
257.289	80.44
257.521	93.44
257.754	78.44
257.987	92.44
258.22	81.44
258.452	78.44
258.685	85.44
258.918	79.44
259.151	90.44
259.383	80.44
259.616	84.44
259.849	85.44
260.081	75.44
260.314	84.44
260.547	70.44
260.779	95.44
261.012	93.44
261.244	71.44
261.477	83.44
261.71	76.44
261.942	83.44
262.175	91.44
262.407	84.44
262.64	87.44
262.872	92.44
263.105	78.44
263.337	96.44
263.57	83.44
263.802	80.44
264.035	82.44
264.267	84.44
264.499	84.44
264.732	85.44
264.964	84.44
265.197	78.44
265.429	78.44
265.661	87.44
265.894	85.44
266.126	93.44
266.358	96.44
266.591	90.44
266.823	80.44
267.055	95.44
267.287	87.44
267.52	98.44
267.752	78.44
267.984	77.44
268.216	86.44
268.448	98.44
268.681	71.44
268.913	83.44
269.145	88.44
269.377	87.44
269.609	67.44
269.841	75.44
270.073	102.44
270.306	78.44
270.538	94.44
270.77	87.44
271.002	97.44
271.234	67.44
271.466	86.44
271.698	87.44
271.93	71.44
272.162	90.44
272.394	81.44
272.626	82.44
272.858	88.44
273.09	87.44
273.322	86.44
273.553	83.44
273.785	86.44
274.017	83.44
274.249	82.44
274.481	99.44
274.713	90.44
274.945	99.44
275.176	80.44
275.408	88.44
275.64	86.44
275.872	66.44
276.104	86.44
276.335	97.44
276.567	92.44
276.799	80.44
277.031	86.44
277.262	98.44
277.494	84.44
277.726	87.44
277.957	93.44
278.189	82.44
278.421	85.44
278.652	91.44
278.884	81.44
279.115	92.44
279.347	89.44
279.579	77.44
279.81	85.44
280.042	95.44
280.273	78.44
280.505	82.44
280.736	78.44
280.968	75.44
281.199	87.44
281.431	85.44
281.662	87.44
281.894	85.44
282.125	94.44
282.356	94.44
282.588	95.44
282.819	99.44
283.051	76.44
283.282	79.44
283.513	90.44
283.745	99.44
283.976	93.44
284.207	80.44
284.439	95.44
284.67	71.44
284.901	87.44
285.132	90.44
285.364	82.44
285.595	98.44
285.826	75.44
286.057	87.44
286.288	95.44
286.52	106.44
286.751	96.44
286.982	88.44
287.213	86.44
287.444	90.44
287.675	98.44
287.906	99.44
288.138	78.44
288.369	89.44
288.6	87.44
288.831	87.44
289.062	94.44
289.293	92.44
289.524	82.44
289.755	97.44
289.986	79.44
290.217	87.44
290.448	90.44
290.679	90.44
290.91	92.44
291.141	91.44
291.371	91.44
291.602	108.44
291.833	94.44
292.064	78.44
292.295	92.44
292.526	85.44
292.757	87.44
292.987	92.44
293.218	91.44
293.449	75.44
293.68	103.44
293.91	98.44
294.141	88.44
294.372	82.44
294.603	93.44
294.833	68.44
295.064	98.44
295.295	95.44
295.525	94.44
295.756	96.44
295.987	96.44
296.217	94.44
296.448	83.44
296.679	88.44
296.909	88.44
297.14	94.44
297.37	89.44
297.601	98.44
297.831	85.44
298.062	90.44
298.292	85.44
298.523	73.44
298.753	84.44
298.984	100.44
299.214	70.44
299.445	86.44
299.675	95.44
299.905	89.44
300.136	87.44
300.366	90.44
300.597	87.44
300.827	94.44
301.057	87.44
301.288	85.44
301.518	91.44
301.748	90.44
301.979	87.44
302.209	86.44
302.439	76.44
302.669	84.44
302.9	81.44
303.13	93.44
303.36	96.44
303.59	85.44
303.82	94.44
304.051	85.44
304.281	98.44
304.511	88.44
304.741	79.44
304.971	95.44
305.201	95.44
305.431	80.44
305.661	84.44
305.891	96.44
306.121	88.44
306.352	90.44
306.582	103.44
306.812	82.44
307.042	85.44
307.272	83.44
307.502	92.44
307.731	97.44
307.961	85.44
308.191	78.44
308.421	99.44
308.651	90.44
308.881	89.44
309.111	93.44
309.341	91.44
309.571	86.44
309.8	99.44
310.03	82.44
310.26	84.44
310.49	85.44
310.72	89.44
310.949	86.44
311.179	73.44
311.409	84.44
311.639	86.44
311.868	99.44
312.098	96.44
312.328	95.44
312.557	91.44
312.787	80.44
313.017	104.44
313.246	86.44
313.476	85.44
313.706	91.44
313.935	94.44
314.165	85.44
314.394	74.44
314.624	72.44
314.853	78.44
315.083	84.44
315.312	89.44
315.542	107.44
315.771	93.44
316.001	82.44
316.23	89.44
316.46	83.44
316.689	88.44
316.919	84.44
317.148	94.44
317.377	82.44
317.607	78.44
317.836	85.44
318.065	107.44
318.295	87.44
318.524	86.44
318.753	81.44
318.983	90.44
319.212	91.44
319.441	97.44
319.67	96.44
319.9	80.44
320.129	94.44
320.358	94.44
320.587	90.44
320.816	78.44
321.046	99.44
321.275	94.44
321.504	97.44
321.733	101.44
321.962	86.44
322.191	80.44
322.42	102.44
322.649	91.44
322.878	92.44
323.108	88.44
323.337	78.44
323.566	90.44
323.795	89.44
324.024	84.44
324.253	66.44
324.482	73.44
324.71	98.44
324.939	100.44
325.168	87.44
325.397	72.44
325.626	88.44
325.855	88.44
326.084	95.44
326.313	91.44
326.542	81.44
326.77	72.44
326.999	90.44
327.228	84.44
327.457	94.44
327.686	101.44
327.914	79.44
328.143	80.44
328.372	97.44
328.6	94.44
328.829	94.44
329.058	87.44
329.287	76.44
329.515	70.44
329.744	86.44
329.972	88.44
330.201	91.44
330.43	87.44
330.658	103.44
330.887	95.44
331.115	93.44
331.344	73.44
331.572	102.44
331.801	95.44
332.03	91.44
332.258	87.44
332.486	85.44
332.715	75.44
332.943	80.44
333.172	91.44
333.4	87.44
333.629	85.44
333.857	88.44
334.085	86.44
334.314	83.44
334.542	84.44
334.771	79.44
334.999	93.44
335.227	94.44
335.455	115.44
335.684	84.44
335.912	86.44
336.14	84.44
336.369	75.44
336.597	96.44
336.825	100.44
337.053	91.44
337.281	84.44
337.51	94.44
337.738	92.44
337.966	84.44
338.194	94.44
338.422	86.44
338.65	91.44
338.878	102.44
339.106	91.44
339.334	84.44
339.562	76.44
339.79	91.44
340.018	73.44
340.246	97.44
340.474	99.44
340.702	92.44
340.93	106.44
341.158	90.44
341.386	99.44
341.614	86.44
341.842	93.44
342.07	93.44
342.298	92.44
342.526	98.44
342.754	81.44
342.981	79.44
343.209	96.44
343.437	115.44
343.665	82.44
343.893	72.44
344.12	96.44
344.348	93.44
344.576	88.44
344.804	95.44
345.031	95.44
345.259	96.44
345.487	82.44
345.714	72.44
345.942	90.44
346.17	83.44
346.397	93.44
346.625	94.44
346.853	95.44
347.08	99.44
347.308	95.44
347.535	96.44
347.763	74.44
347.99	88.44
348.218	79.44
348.445	90.44
348.673	86.44
348.9	95.44
349.128	84.44
349.355	86.44
349.583	88.44
349.81	86.44
350.037	87.44
350.265	92.44
350.492	98.44
350.72	92.44
350.947	91.44
351.174	99.44
351.402	81.44
351.629	88.44
351.856	98.44
352.083	83.44
352.311	79.44
352.538	82.44
352.765	96.44
352.992	103.44
353.22	87.44
353.447	88.44
353.674	94.44
353.901	91.44
354.128	92.44
354.355	88.44
354.583	62.44
354.81	82.44
355.037	84.44
355.264	82.44
355.491	87.44
355.718	83.44
355.945	85.44
356.172	81.44
356.399	91.44
356.626	80.44
356.853	82.44
357.08	83.44
357.307	70.44
357.534	100.44
357.761	87.44
357.988	82.44
358.215	98.44
358.441	94.44
358.668	86.44
358.895	92.44
359.122	94.44
359.349	92.44
359.576	80.44
359.802	94.44
360.029	86.44
360.256	78.44
360.483	87.44
360.709	82.44
360.936	92.44
361.163	77.44
361.39	92.44
361.616	80.44
361.843	94.44
362.07	81.44
362.296	101.44
362.523	80.44
362.749	87.44
362.976	79.44
363.203	94.44
363.429	83.44
363.656	80.44
363.882	93.44
364.109	94.44
364.335	97.44
364.562	90.44
364.788	90.44
365.015	80.44
365.241	90.44
365.468	86.44
365.694	96.44
365.92	99.44
366.147	93.44
366.373	75.44
366.599	83.44
366.826	84.44
367.052	90.44
367.278	87.44
367.505	74.44
367.731	101.44
367.957	87.44
368.184	85.44
368.41	78.44
368.636	83.44
368.862	94.44
369.089	80.44
369.315	103.44
369.541	85.44
369.767	83.44
369.993	95.44
370.219	88.44
370.445	78.44
370.672	85.44
370.898	90.44
371.124	84.44
371.35	78.44
371.576	80.44
371.802	72.44
372.028	80.44
372.254	86.44
372.48	81.44
372.706	93.44
372.932	99.44
373.158	80.44
373.384	100.44
373.61	96.44
373.835	101.44
374.061	82.44
374.287	88.44
374.513	90.44
374.739	96.44
374.965	76.44
375.191	87.44
375.416	96.44
375.642	92.44
375.868	88.44
376.094	70.44
376.319	74.44
376.545	86.44
376.771	81.44
376.997	87.44
377.222	78.44
377.448	71.44
377.674	74.44
377.899	88.44
378.125	77.44
378.35	86.44
378.576	85.44
378.802	81.44
379.027	83.44
379.253	93.44
379.478	88.44
379.704	92.44
379.929	90.44
380.155	94.44
380.38	92.44
380.606	90.44
380.831	99.44
381.057	81.44
381.282	91.44
381.507	82.44
381.733	96.44
381.958	104.44
382.184	79.44
382.409	88.44
382.634	80.44
382.86	81.44
383.085	88.44
383.31	78.44
383.535	81.44
383.761	86.44
383.986	79.44
384.211	90.44
384.436	88.44
384.662	82.44
384.887	83.44
385.112	82.44
385.337	80.44
385.562	90.44
385.787	88.44
386.013	88.44
386.238	91.44
386.463	94.44
386.688	82.44
386.913	79.44
387.138	79.44
387.363	89.44
387.588	95.44
387.813	90.44
388.038	105.44
388.263	88.44
388.488	86.44
388.713	99.44
388.938	81.44
389.163	70.44
389.387	85.44
389.612	104.44
389.837	85.44
390.062	79.44
390.287	98.44
390.512	77.44
390.736	73.44
390.961	101.44
391.186	84.44
391.411	90.44
391.636	90.44
391.86	78.44
392.085	76.44
392.31	87.44
392.534	92.44
392.759	80.44
392.984	80.44
393.208	81.44
393.433	80.44
393.658	94.44
393.882	87.44
394.107	91.44
394.331	74.44
394.556	84.44
394.78	78.44
395.005	85.44
395.229	76.44
395.454	73.44
395.678	86.44
395.903	78.44
396.127	91.44
396.352	88.44
396.576	73.44
396.801	83.44
397.025	100.44
397.249	73.44
397.474	95.44
397.698	91.44
397.922	86.44
398.147	78.44
398.371	87.44
398.595	98.44
398.82	97.44
399.044	84.44
399.268	83.44
399.492	79.44
399.717	94.44
399.941	73.44
400.165	79.44
400.389	86.44
400.613	90.44
400.837	78.44
401.062	80.44
401.286	87.44
401.51	86.44
401.734	84.44
401.958	79.44
402.182	94.44
402.406	73.44
402.63	80.44
402.854	74.44
403.078	82.44
403.302	90.44
403.526	91.44
403.75	86.44
403.974	79.44
404.198	88.44
404.422	72.44
404.645	86.44
404.869	82.44
405.093	83.44
405.317	83.44
405.541	79.44
405.765	85.44
405.988	67.44
406.212	90.44
406.436	98.44
406.66	63.44
406.883	81.44
407.107	84.44
407.331	84.44
407.555	83.44
407.778	76.44
408.002	84.44
408.226	71.44
408.449	94.44
408.673	88.44
408.896	88.44
409.12	95.44
409.344	87.44
409.567	76.44
409.791	85.44
410.014	84.44
410.238	82.44
410.461	85.44
410.685	90.44
410.908	70.44
411.132	103.44
411.355	92.44
411.578	77.44
411.802	92.44
412.025	84.44
412.249	84.44
412.472	94.44
412.695	92.44
412.919	91.44
413.142	78.44
413.365	79.44
413.589	84.44
413.812	99.44
414.035	77.44
414.258	89.44
414.482	82.44
414.705	68.44
414.928	76.44
415.151	78.44
415.374	82.44
415.597	84.44
415.821	86.44
416.044	84.44
416.267	73.44
416.49	96.44
416.713	78.44
416.936	89.44
417.159	84.44
417.382	86.44
417.605	75.44
417.828	95.44
418.051	82.44
418.274	87.44
418.497	67.44
418.72	91.44
418.943	91.44
419.166	83.44
419.389	81.44
419.611	75.44
419.834	85.44
420.057	86.44
420.28	85.44
420.503	78.44
420.726	77.44
420.948	70.44
421.171	83.44
421.394	90.44
421.617	86.44
421.839	77.44
422.062	73.44
422.285	78.44
422.507	83.44
422.73	70.44
422.953	77.44
423.175	82.44
423.398	81.44
423.621	83.44
423.843	81.44
424.066	96.44
424.288	82.44
424.511	82.44
424.733	71.44
424.956	95.44
425.178	88.44
425.401	86.44
425.623	92.44
425.846	86.44
426.068	87.44
426.291	90.44
426.513	85.44
426.735	82.44
426.958	86.44
427.18	86.44
427.402	88.44
427.625	88.44
427.847	89.44
428.069	75.44
428.292	76.44
428.514	85.44
428.736	99.44
428.958	81.44
429.181	83.44
429.403	65.44
429.625	75.44
429.847	98.44
430.069	84.44
430.292	92.44
430.514	76.44
430.736	72.44
430.958	79.44
431.18	82.44
431.402	84.44
431.624	82.44
431.846	88.44
432.068	88.44
432.29	95.44
432.512	99.44
432.734	86.44
432.956	73.44
433.178	99.44
433.4	93.44
433.622	76.44
433.844	82.44
434.066	86.44
434.287	85.44
434.509	85.44
434.731	93.44
434.953	97.44
435.175	85.44
435.397	81.44
435.618	83.44
435.84	85.44
436.062	99.44
436.284	80.44
436.505	70.44
436.727	80.44
436.949	89.44
437.17	76.44
437.392	73.44
437.614	80.44
437.835	80.44
438.057	102.44
438.278	83.44
438.5	82.44
438.721	87.44
438.943	91.44
439.165	91.44
439.386	93.44
439.608	91.44
439.829	78.44
440.05	84.44
440.272	99.44
440.493	97.44
440.715	83.44
440.936	79.44
441.158	102.44
441.379	78.44
441.6	96.44
441.822	81.44
442.043	94.44
442.264	76.44
442.486	87.44
442.707	92.44
442.928	66.44
443.149	75.44
443.371	84.44
443.592	84.44
443.813	63.44
444.034	94.44
444.255	76.44
444.476	78.44
444.698	91.44
444.919	72.44
445.14	154.44
445.361	128.44
445.582	87.44
445.803	83.44
446.024	86.44
446.245	82.44
446.466	87.44
446.687	88.44
446.908	76.44
447.129	75.44
447.35	87.44
447.571	87.44
447.792	75.44
448.013	82.44
448.234	90.44
448.455	88.44
448.675	84.44
448.896	83.44
449.117	98.44
449.338	94.44
449.559	94.44
449.779	79.44
450	84.44
450.221	76.44
450.442	90.44
450.662	88.44
450.883	87.44
451.104	93.44
451.324	92.44
451.545	67.44
451.766	90.44
451.986	93.44
452.207	90.44
452.428	91.44
452.648	85.44
452.869	74.44
453.089	90.44
453.31	82.44
453.53	62.44
453.751	92.44
453.971	86.44
454.192	86.44
454.412	79.44
454.633	94.44
454.853	98.44
455.073	90.44
455.294	81.44
455.514	76.44
455.734	82.44
455.955	93.44
456.175	79.44
456.395	94.44
456.616	91.44
456.836	90.44
457.056	74.44
457.276	92.44
457.497	87.44
457.717	78.44
457.937	92.44
458.157	92.44
458.377	79.44
458.598	90.44
458.818	77.44
459.038	69.44
459.258	79.44
459.478	74.44
459.698	88.44
459.918	87.44
460.138	75.44
460.358	75.44
460.578	86.44
460.798	77.44
461.018	82.44
461.238	83.44
461.458	74.44
461.678	87.44
461.898	90.44
462.118	81.44
462.338	84.44
462.558	92.44
462.777	81.44
462.997	83.44
463.217	82.44
463.437	80.44
463.657	80.44
463.876	78.44
464.096	65.44
464.316	77.44
464.536	80.44
464.755	84.44
464.975	85.44
465.195	88.44
465.414	101.44
465.634	101.44
465.854	81.44
466.073	81.44
466.293	81.44
466.512	89.44
466.732	79.44
466.951	80.44
467.171	82.44
467.391	83.44
467.61	96.44
467.829	82.44
468.049	84.44
468.268	91.44
468.488	84.44
468.707	84.44
468.927	89.44
469.146	85.44
469.365	96.44
469.585	88.44
469.804	77.44
470.023	82.44
470.243	82.44
470.462	77.44
470.681	76.44
470.901	91.44
471.12	78.44
471.339	81.44
471.558	85.44
471.777	86.44
471.997	96.44
472.216	86.44
472.435	86.44
472.654	92.44
472.873	87.44
473.092	92.44
473.311	90.44
473.53	87.44
473.749	92.44
473.968	88.44
474.187	90.44
474.406	83.44
474.625	81.44
474.844	83.44
475.063	87.44
475.282	93.44
475.501	88.44
475.72	79.44
475.939	82.44
476.158	82.44
476.377	83.44
476.596	81.44
476.814	82.44
477.033	73.44
477.252	98.44
477.471	94.44
477.69	82.44
477.908	103.44
478.127	88.44
478.346	90.44
478.564	90.44
478.783	91.44
479.002	91.44
479.22	91.44
479.439	87.44
479.658	80.44
479.876	89.44
480.095	101.44
480.313	96.44
480.532	74.44
480.751	77.44
480.969	91.44
481.188	86.44
481.406	90.44
481.624	95.44
481.843	85.44
482.061	95.44
482.28	94.44
482.498	79.44
482.717	79.44
482.935	87.44
483.153	83.44
483.372	76.44
483.59	95.44
483.808	92.44
484.027	85.44
484.245	84.44
484.463	70.44
484.681	95.44
484.9	88.44
485.118	81.44
485.336	94.44
485.554	84.44
485.772	74.44
485.99	76.44
486.209	82.44
486.427	94.44
486.645	81.44
486.863	84.44
487.081	89.44
487.299	96.44
487.517	103.44
487.735	90.44
487.953	87.44
488.171	87.44
488.389	87.44
488.607	75.44
488.825	72.44
489.043	78.44
489.261	96.44
489.479	91.44
489.696	76.44
489.914	78.44
490.132	95.44
490.35	88.44
490.568	88.44
490.786	89.44
491.003	87.44
491.221	89.44
491.439	90.44
491.657	83.44
491.874	92.44
492.092	87.44
492.31	81.44
492.527	83.44
492.745	90.44
492.963	73.44
493.18	86.44
493.398	79.44
493.615	88.44
493.833	72.44
494.05	93.44
494.268	79.44
494.485	91.44
494.703	90.44
494.92	85.44
495.138	80.44
495.355	88.44
495.573	86.44
495.79	66.44
496.008	83.44
496.225	98.44
496.442	82.44
496.66	84.44
496.877	92.44
497.094	103.44
497.312	76.44
497.529	91.44
497.746	80.44
497.963	85.44
498.181	67.44
498.398	86.44
498.615	78.44
498.832	86.44
499.049	99.44
499.267	92.44
499.484	77.44
499.701	77.44
499.918	90.44
500.135	95.44
500.352	96.44
500.569	90.44
500.786	76.44
501.003	91.44
501.22	93.44
501.437	90.44
501.654	75.44
501.871	86.44
502.088	78.44
502.305	91.44
502.522	83.44
502.739	88.44
502.956	95.44
503.172	86.44
503.389	87.44
503.606	90.44
503.823	89.44
504.04	94.44
504.256	99.44
504.473	90.44
504.69	86.44
504.907	87.44
505.123	93.44
505.34	103.44
505.557	76.44
505.773	88.44
505.99	90.44
506.207	75.44
506.423	81.44
506.64	80.44
506.856	95.44
507.073	95.44
507.289	84.44
507.506	95.44
507.722	78.44
507.939	84.44
508.155	86.44
508.372	91.44
508.588	95.44
508.805	102.44
509.021	82.44
509.238	85.44
509.454	90.44
509.67	79.44
509.887	67.44
510.103	83.44
510.319	78.44
510.536	87.44
510.752	85.44
510.968	103.44
511.184	83.44
511.401	91.44
511.617	85.44
511.833	83.44
512.049	74.44
512.265	96.44
512.481	86.44
512.698	99.44
512.914	101.44
513.13	87.44
513.346	92.44
513.562	87.44
513.778	73.44
513.994	83.44
514.21	95.44
514.426	93.44
514.642	94.44
514.858	78.44
515.074	82.44
515.29	81.44
515.506	96.44
515.721	92.44
515.937	103.44
516.153	95.44
516.369	102.44
516.585	92.44
516.801	80.44
517.016	91.44
517.232	91.44
517.448	78.44
517.664	80.44
517.879	84.44
518.095	71.44
518.311	97.44
518.527	78.44
518.742	82.44
518.958	76.44
519.173	83.44
519.389	83.44
519.605	94.44
