Data from Background_1_HRD10591_00077.txt Node
Date: Wed Nov 05 14:39:36 EST 2025
User: Yrep
Spectrometer: HR+D1059
Trigger mode: 1
Integration Time (sec): 1.000000E-1
Scans to average: 1
Electric dark correction enabled: true
Nonlinearity correction enabled: false
Boxcar width: 0
XAxis mode: Wavelengths
Number of Pixels in Spectrum: 2048
>>>>>Begin Spectral Data<<<<<
223.165	-21.25
223.4	-21.25
223.635	-21.25
223.869	-3.25
224.104	-25.25
224.338	-9.25
224.573	-6.25
224.808	-15.25
225.042	-11.25
225.277	3.75
225.511	-1.25
225.746	-5.25
225.98	11.75
226.215	1.75
226.449	14.75
226.683	12.75
226.918	19.75
227.152	33.75
227.387	52.75
227.621	56.75
227.856	38.75
228.09	40.75
228.324	44.75
228.559	52.75
228.793	69.75
229.027	62.75
229.262	60.75
229.496	68.75
229.73	69.75
229.964	67.75
230.199	75.75
230.433	72.75
230.667	77.75
230.901	82.75
231.136	70.75
231.37	77.75
231.604	80.75
231.838	76.75
232.072	78.75
232.306	75.75
232.541	71.75
232.775	72.75
233.009	92.75
233.243	81.75
233.477	88.75
233.711	83.75
233.945	89.75
234.179	80.75
234.413	76.75
234.647	70.75
234.881	83.75
235.115	94.75
235.349	78.75
235.583	77.75
235.817	76.75
236.051	62.75
236.285	83.75
236.519	67.75
236.753	83.75
236.987	80.75
237.221	74.75
237.455	79.75
237.689	82.75
237.922	79.75
238.156	84.75
238.39	82.75
238.624	85.75
238.858	82.75
239.091	73.75
239.325	76.75
239.559	80.75
239.793	87.75
240.027	81.75
240.26	91.75
240.494	79.75
240.728	85.75
240.961	77.75
241.195	84.75
241.429	88.75
241.662	81.75
241.896	59.75
242.13	82.75
242.363	75.75
242.597	78.75
242.83	84.75
243.064	88.75
243.298	80.75
243.531	71.75
243.765	91.75
243.998	88.75
244.232	90.75
244.465	61.75
244.699	77.75
244.932	63.75
245.166	80.75
245.399	86.75
245.633	78.75
245.866	90.75
246.099	98.75
246.333	93.75
246.566	85.75
246.8	82.75
247.033	84.75
247.266	79.75
247.5	68.75
247.733	68.75
247.966	69.75
248.2	70.75
248.433	87.75
248.666	76.75
248.899	84.75
249.133	77.75
249.366	88.75
249.599	76.75
249.832	68.75
250.066	79.75
250.299	72.75
250.532	69.75
250.765	78.75
250.998	69.75
251.231	89.75
251.465	83.75
251.698	76.75
251.931	74.75
252.164	78.75
252.397	60.75
252.63	94.75
252.863	67.75
253.096	82.75
253.329	76.75
253.562	105.75
253.795	58.75
254.028	70.75
254.261	88.75
254.494	68.75
254.727	77.75
254.96	82.75
255.193	76.75
255.426	79.75
255.659	80.75
255.892	80.75
256.124	92.75
256.357	81.75
256.59	87.75
256.823	89.75
257.056	77.75
257.289	81.75
257.521	89.75
257.754	81.75
257.987	82.75
258.22	101.75
258.452	87.75
258.685	96.75
258.918	83.75
259.151	89.75
259.383	99.75
259.616	91.75
259.849	72.75
260.081	81.75
260.314	89.75
260.547	89.75
260.779	75.75
261.012	84.75
261.244	100.75
261.477	99.75
261.71	84.75
261.942	80.75
262.175	90.75
262.407	61.75
262.64	82.75
262.872	86.75
263.105	95.75
263.337	84.75
263.57	76.75
263.802	69.75
264.035	73.75
264.267	75.75
264.499	88.75
264.732	79.75
264.964	95.75
265.197	87.75
265.429	92.75
265.661	85.75
265.894	97.75
266.126	87.75
266.358	83.75
266.591	95.75
266.823	93.75
267.055	88.75
267.287	82.75
267.52	84.75
267.752	76.75
267.984	87.75
268.216	80.75
268.448	74.75
268.681	94.75
268.913	78.75
269.145	69.75
269.377	86.75
269.609	88.75
269.841	92.75
270.073	89.75
270.306	82.75
270.538	76.75
270.77	96.75
271.002	92.75
271.234	97.75
271.466	80.75
271.698	86.75
271.93	89.75
272.162	76.75
272.394	61.75
272.626	75.75
272.858	76.75
273.09	92.75
273.322	88.75
273.553	99.75
273.785	76.75
274.017	79.75
274.249	89.75
274.481	85.75
274.713	81.75
274.945	92.75
275.176	74.75
275.408	78.75
275.64	81.75
275.872	105.75
276.104	80.75
276.335	88.75
276.567	85.75
276.799	87.75
277.031	84.75
277.262	69.75
277.494	83.75
277.726	87.75
277.957	85.75
278.189	94.75
278.421	96.75
278.652	77.75
278.884	88.75
279.115	82.75
279.347	91.75
279.579	86.75
279.81	93.75
280.042	77.75
280.273	81.75
280.505	92.75
280.736	74.75
280.968	94.75
281.199	80.75
281.431	93.75
281.662	84.75
281.894	74.75
282.125	86.75
282.356	89.75
282.588	93.75
282.819	86.75
283.051	76.75
283.282	68.75
283.513	88.75
283.745	86.75
283.976	84.75
284.207	95.75
284.439	89.75
284.67	85.75
284.901	86.75
285.132	88.75
285.364	100.75
285.595	83.75
285.826	80.75
286.057	81.75
286.288	91.75
286.52	88.75
286.751	88.75
286.982	69.75
287.213	78.75
287.444	90.75
287.675	92.75
287.906	92.75
288.138	91.75
288.369	89.75
288.6	83.75
288.831	82.75
289.062	94.75
289.293	90.75
289.524	75.75
289.755	96.75
289.986	80.75
290.217	83.75
290.448	76.75
290.679	85.75
290.91	94.75
291.141	93.75
291.371	76.75
291.602	89.75
291.833	94.75
292.064	106.75
292.295	77.75
292.526	81.75
292.757	89.75
292.987	100.75
293.218	88.75
293.449	93.75
293.68	90.75
293.91	87.75
294.141	93.75
294.372	83.75
294.603	86.75
294.833	97.75
295.064	80.75
295.295	81.75
295.525	81.75
295.756	91.75
295.987	80.75
296.217	83.75
296.448	89.75
296.679	82.75
296.909	81.75
297.14	96.75
297.37	86.75
297.601	77.75
297.831	79.75
298.062	92.75
298.292	78.75
298.523	89.75
298.753	82.75
298.984	77.75
299.214	92.75
299.445	84.75
299.675	74.75
299.905	88.75
300.136	105.75
300.366	92.75
300.597	94.75
300.827	81.75
301.057	83.75
301.288	79.75
301.518	72.75
301.748	75.75
301.979	94.75
302.209	88.75
302.439	71.75
302.669	101.75
302.9	93.75
303.13	81.75
303.36	86.75
303.59	83.75
303.82	93.75
304.051	101.75
304.281	84.75
304.511	92.75
304.741	96.75
304.971	86.75
305.201	80.75
305.431	82.75
305.661	89.75
305.891	79.75
306.121	86.75
306.352	92.75
306.582	93.75
306.812	80.75
307.042	69.75
307.272	80.75
307.502	88.75
307.731	81.75
307.961	94.75
308.191	93.75
308.421	79.75
308.651	84.75
308.881	96.75
309.111	76.75
309.341	93.75
309.571	84.75
309.8	89.75
310.03	78.75
310.26	76.75
310.49	91.75
310.72	74.75
310.949	84.75
311.179	71.75
311.409	80.75
311.639	89.75
311.868	106.75
312.098	74.75
312.328	91.75
312.557	86.75
312.787	80.75
313.017	89.75
313.246	90.75
313.476	82.75
313.706	83.75
313.935	94.75
314.165	69.75
314.394	72.75
314.624	80.75
314.853	83.75
315.083	93.75
315.312	81.75
315.542	91.75
315.771	75.75
316.001	80.75
316.23	87.75
316.46	96.75
316.689	94.75
316.919	87.75
317.148	76.75
317.377	96.75
317.607	98.75
317.836	76.75
318.065	92.75
318.295	81.75
318.524	72.75
318.753	82.75
318.983	83.75
319.212	91.75
319.441	67.75
319.67	81.75
319.9	90.75
320.129	92.75
320.358	81.75
320.587	109.75
320.816	74.75
321.046	94.75
321.275	101.75
321.504	84.75
321.733	78.75
321.962	77.75
322.191	91.75
322.42	86.75
322.649	84.75
322.878	77.75
323.108	81.75
323.337	83.75
323.566	97.75
323.795	97.75
324.024	96.75
324.253	76.75
324.482	78.75
324.71	84.75
324.939	93.75
325.168	77.75
325.397	89.75
325.626	89.75
325.855	63.75
326.084	86.75
326.313	81.75
326.542	87.75
326.77	105.75
326.999	87.75
327.228	84.75
327.457	88.75
327.686	76.75
327.914	87.75
328.143	92.75
328.372	89.75
328.6	83.75
328.829	91.75
329.058	83.75
329.287	82.75
329.515	92.75
329.744	90.75
329.972	92.75
330.201	95.75
330.43	93.75
330.658	84.75
330.887	89.75
331.115	81.75
331.344	90.75
331.572	89.75
331.801	95.75
332.03	84.75
332.258	88.75
332.486	80.75
332.715	87.75
332.943	70.75
333.172	90.75
333.4	84.75
333.629	86.75
333.857	85.75
334.085	85.75
334.314	82.75
334.542	93.75
334.771	64.75
334.999	85.75
335.227	80.75
335.455	79.75
335.684	94.75
335.912	78.75
336.14	91.75
336.369	96.75
336.597	92.75
336.825	93.75
337.053	107.75
337.281	84.75
337.51	86.75
337.738	99.75
337.966	83.75
338.194	86.75
338.422	88.75
338.65	88.75
338.878	92.75
339.106	93.75
339.334	88.75
339.562	74.75
339.79	92.75
340.018	93.75
340.246	85.75
340.474	100.75
340.702	98.75
340.93	99.75
341.158	94.75
341.386	82.75
341.614	79.75
341.842	88.75
342.07	80.75
342.298	74.75
342.526	75.75
342.754	78.75
342.981	73.75
343.209	72.75
343.437	93.75
343.665	93.75
343.893	80.75
344.12	89.75
344.348	87.75
344.576	93.75
344.804	100.75
345.031	81.75
345.259	96.75
345.487	91.75
345.714	76.75
345.942	100.75
346.17	75.75
346.397	85.75
346.625	81.75
346.853	92.75
347.08	82.75
347.308	84.75
347.535	89.75
347.763	88.75
347.99	104.75
348.218	84.75
348.445	89.75
348.673	82.75
348.9	81.75
349.128	90.75
349.355	99.75
349.583	94.75
349.81	76.75
350.037	85.75
350.265	86.75
350.492	87.75
350.72	82.75
350.947	70.75
351.174	90.75
351.402	82.75
351.629	83.75
351.856	82.75
352.083	97.75
352.311	100.75
352.538	86.75
352.765	91.75
352.992	93.75
353.22	90.75
353.447	92.75
353.674	88.75
353.901	76.75
354.128	87.75
354.355	92.75
354.583	99.75
354.81	93.75
355.037	83.75
355.264	80.75
355.491	96.75
355.718	76.75
355.945	91.75
356.172	88.75
356.399	92.75
356.626	85.75
356.853	73.75
357.08	90.75
357.307	89.75
357.534	93.75
357.761	85.75
357.988	84.75
358.215	84.75
358.441	78.75
358.668	76.75
358.895	91.75
359.122	99.75
359.349	89.75
359.576	92.75
359.802	99.75
360.029	79.75
360.256	78.75
360.483	81.75
360.709	80.75
360.936	83.75
361.163	96.75
361.39	73.75
361.616	72.75
361.843	85.75
362.07	80.75
362.296	78.75
362.523	82.75
362.749	74.75
362.976	86.75
363.203	85.75
363.429	82.75
363.656	86.75
363.882	84.75
364.109	86.75
364.335	90.75
364.562	76.75
364.788	74.75
365.015	88.75
365.241	80.75
365.468	82.75
365.694	78.75
365.92	67.75
366.147	92.75
366.373	82.75
366.599	88.75
366.826	81.75
367.052	92.75
367.278	84.75
367.505	84.75
367.731	96.75
367.957	90.75
368.184	77.75
368.41	81.75
368.636	85.75
368.862	82.75
369.089	78.75
369.315	93.75
369.541	90.75
369.767	96.75
369.993	78.75
370.219	82.75
370.445	85.75
370.672	80.75
370.898	76.75
371.124	93.75
371.35	85.75
371.576	88.75
371.802	82.75
372.028	84.75
372.254	84.75
372.48	79.75
372.706	89.75
372.932	84.75
373.158	96.75
373.384	81.75
373.61	84.75
373.835	95.75
374.061	81.75
374.287	85.75
374.513	99.75
374.739	90.75
374.965	70.75
375.191	81.75
375.416	92.75
375.642	81.75
375.868	81.75
376.094	72.75
376.319	95.75
376.545	94.75
376.771	80.75
376.997	84.75
377.222	85.75
377.448	83.75
377.674	86.75
377.899	92.75
378.125	96.75
378.35	77.75
378.576	85.75
378.802	84.75
379.027	82.75
379.253	80.75
379.478	96.75
379.704	84.75
379.929	85.75
380.155	79.75
380.38	81.75
380.606	85.75
380.831	78.75
381.057	87.75
381.282	77.75
381.507	88.75
381.733	83.75
381.958	84.75
382.184	80.75
382.409	75.75
382.634	65.75
382.86	82.75
383.085	90.75
383.31	81.75
383.535	74.75
383.761	84.75
383.986	76.75
384.211	85.75
384.436	81.75
384.662	86.75
384.887	85.75
385.112	85.75
385.337	80.75
385.562	96.75
385.787	81.75
386.013	95.75
386.238	76.75
386.463	85.75
386.688	98.75
386.913	78.75
387.138	83.75
387.363	93.75
387.588	90.75
387.813	85.75
388.038	82.75
388.263	89.75
388.488	76.75
388.713	69.75
388.938	92.75
389.163	76.75
389.387	78.75
389.612	83.75
389.837	89.75
390.062	89.75
390.287	80.75
390.512	79.75
390.736	76.75
390.961	78.75
391.186	102.75
391.411	85.75
391.636	89.75
391.86	96.75
392.085	91.75
392.31	85.75
392.534	80.75
392.759	97.75
392.984	90.75
393.208	75.75
393.433	85.75
393.658	93.75
393.882	78.75
394.107	76.75
394.331	88.75
394.556	78.75
394.78	89.75
395.005	93.75
395.229	70.75
395.454	80.75
395.678	71.75
395.903	76.75
396.127	70.75
396.352	71.75
396.576	82.75
396.801	93.75
397.025	84.75
397.249	86.75
397.474	94.75
397.698	67.75
397.922	85.75
398.147	92.75
398.371	65.75
398.595	70.75
398.82	76.75
399.044	81.75
399.268	72.75
399.492	84.75
399.717	85.75
399.941	82.75
400.165	78.75
400.389	74.75
400.613	85.75
400.837	83.75
401.062	72.75
401.286	75.75
401.51	86.75
401.734	76.75
401.958	82.75
402.182	80.75
402.406	84.75
402.63	81.75
402.854	83.75
403.078	76.75
403.302	71.75
403.526	70.75
403.75	80.75
403.974	73.75
404.198	77.75
404.422	87.75
404.645	91.75
404.869	80.75
405.093	76.75
405.317	76.75
405.541	73.75
405.765	87.75
405.988	65.75
406.212	68.75
406.436	83.75
406.66	91.75
406.883	87.75
407.107	84.75
407.331	85.75
407.555	86.75
407.778	74.75
408.002	91.75
408.226	83.75
408.449	85.75
408.673	79.75
408.896	95.75
409.12	85.75
409.344	78.75
409.567	85.75
409.791	92.75
410.014	76.75
410.238	88.75
410.461	85.75
410.685	84.75
410.908	87.75
411.132	74.75
411.355	94.75
411.578	94.75
411.802	80.75
412.025	88.75
412.249	82.75
412.472	70.75
412.695	88.75
412.919	88.75
413.142	73.75
413.365	83.75
413.589	82.75
413.812	73.75
414.035	69.75
414.258	81.75
414.482	84.75
414.705	84.75
414.928	83.75
415.151	86.75
415.374	73.75
415.597	76.75
415.821	75.75
416.044	78.75
416.267	80.75
416.49	83.75
416.713	84.75
416.936	98.75
417.159	90.75
417.382	89.75
417.605	88.75
417.828	91.75
418.051	80.75
418.274	97.75
418.497	86.75
418.72	84.75
418.943	93.75
419.166	86.75
419.389	82.75
419.611	84.75
419.834	77.75
420.057	79.75
420.28	81.75
420.503	90.75
420.726	69.75
420.948	92.75
421.171	78.75
421.394	78.75
421.617	90.75
421.839	70.75
422.062	95.75
422.285	77.75
422.507	85.75
422.73	85.75
422.953	78.75
423.175	71.75
423.398	72.75
423.621	91.75
423.843	86.75
424.066	82.75
424.288	82.75
424.511	81.75
424.733	72.75
424.956	81.75
425.178	67.75
425.401	75.75
425.623	92.75
425.846	82.75
426.068	75.75
426.291	92.75
426.513	82.75
426.735	86.75
426.958	90.75
427.18	75.75
427.402	81.75
427.625	95.75
427.847	76.75
428.069	87.75
428.292	70.75
428.514	89.75
428.736	70.75
428.958	84.75
429.181	81.75
429.403	85.75
429.625	91.75
429.847	78.75
430.069	82.75
430.292	79.75
430.514	80.75
430.736	83.75
430.958	86.75
431.18	84.75
431.402	64.75
431.624	81.75
431.846	97.75
432.068	74.75
432.29	82.75
432.512	88.75
432.734	76.75
432.956	88.75
433.178	88.75
433.4	71.75
433.622	86.75
433.844	94.75
434.066	91.75
434.287	86.75
434.509	68.75
434.731	82.75
434.953	110.75
435.175	68.75
435.397	76.75
435.618	88.75
435.84	90.75
436.062	87.75
436.284	81.75
436.505	95.75
436.727	72.75
436.949	86.75
437.17	81.75
437.392	74.75
437.614	85.75
437.835	78.75
438.057	77.75
438.278	79.75
438.5	88.75
438.721	77.75
438.943	78.75
439.165	84.75
439.386	85.75
439.608	95.75
439.829	73.75
440.05	79.75
440.272	78.75
440.493	74.75
440.715	78.75
440.936	83.75
441.158	71.75
441.379	90.75
441.6	88.75
441.822	77.75
442.043	81.75
442.264	96.75
442.486	92.75
442.707	81.75
442.928	99.75
443.149	84.75
443.371	92.75
443.592	79.75
443.813	94.75
444.034	86.75
444.255	77.75
444.476	100.75
444.698	88.75
444.919	70.75
445.14	152.75
445.361	112.75
445.582	76.75
445.803	81.75
446.024	70.75
446.245	88.75
446.466	69.75
446.687	86.75
446.908	90.75
447.129	84.75
447.35	75.75
447.571	85.75
447.792	66.75
448.013	84.75
448.234	70.75
448.455	73.75
448.675	80.75
448.896	85.75
449.117	84.75
449.338	82.75
449.559	82.75
449.779	72.75
450	77.75
450.221	84.75
450.442	74.75
450.662	87.75
450.883	74.75
451.104	81.75
451.324	77.75
451.545	80.75
451.766	79.75
451.986	80.75
452.207	76.75
452.428	76.75
452.648	86.75
452.869	81.75
453.089	82.75
453.31	76.75
453.53	75.75
453.751	75.75
453.971	94.75
454.192	98.75
454.412	80.75
454.633	76.75
454.853	93.75
455.073	77.75
455.294	83.75
455.514	85.75
455.734	78.75
455.955	70.75
456.175	93.75
456.395	92.75
456.616	89.75
456.836	82.75
457.056	85.75
457.276	87.75
457.497	88.75
457.717	89.75
457.937	76.75
458.157	89.75
458.377	99.75
458.598	86.75
458.818	83.75
459.038	68.75
459.258	77.75
459.478	76.75
459.698	71.75
459.918	80.75
460.138	94.75
460.358	82.75
460.578	91.75
460.798	93.75
461.018	80.75
461.238	81.75
461.458	76.75
461.678	79.75
461.898	72.75
462.118	80.75
462.338	86.75
462.558	83.75
462.777	85.75
462.997	93.75
463.217	88.75
463.437	78.75
463.657	82.75
463.876	80.75
464.096	90.75
464.316	80.75
464.536	77.75
464.755	78.75
464.975	89.75
465.195	79.75
465.414	95.75
465.634	82.75
465.854	79.75
466.073	97.75
466.293	85.75
466.512	83.75
466.732	92.75
466.951	89.75
467.171	73.75
467.391	86.75
467.61	80.75
467.829	98.75
468.049	78.75
468.268	91.75
468.488	75.75
468.707	71.75
468.927	79.75
469.146	82.75
469.365	88.75
469.585	80.75
469.804	78.75
470.023	80.75
470.243	73.75
470.462	80.75
470.681	76.75
470.901	81.75
471.12	77.75
471.339	88.75
471.558	84.75
471.777	81.75
471.997	76.75
472.216	94.75
472.435	89.75
472.654	67.75
472.873	92.75
473.092	76.75
473.311	86.75
473.53	80.75
473.749	83.75
473.968	77.75
474.187	77.75
474.406	92.75
474.625	87.75
474.844	84.75
475.063	73.75
475.282	78.75
475.501	88.75
475.72	84.75
475.939	83.75
476.158	82.75
476.377	85.75
476.596	89.75
476.814	86.75
477.033	80.75
477.252	92.75
477.471	89.75
477.69	97.75
477.908	83.75
478.127	89.75
478.346	80.75
478.564	86.75
478.783	74.75
479.002	82.75
479.22	89.75
479.439	90.75
479.658	83.75
479.876	74.75
480.095	69.75
480.313	96.75
480.532	89.75
480.751	85.75
480.969	87.75
481.188	76.75
481.406	96.75
481.624	85.75
481.843	97.75
482.061	82.75
482.28	95.75
482.498	88.75
482.717	86.75
482.935	74.75
483.153	77.75
483.372	79.75
483.59	77.75
483.808	86.75
484.027	86.75
484.245	74.75
484.463	82.75
484.681	80.75
484.9	73.75
485.118	88.75
485.336	101.75
485.554	76.75
485.772	93.75
485.99	93.75
486.209	84.75
486.427	90.75
486.645	79.75
486.863	78.75
487.081	76.75
487.299	80.75
487.517	84.75
487.735	80.75
487.953	87.75
488.171	85.75
488.389	92.75
488.607	92.75
488.825	92.75
489.043	72.75
489.261	77.75
489.479	83.75
489.696	94.75
489.914	91.75
490.132	84.75
490.35	79.75
490.568	88.75
490.786	80.75
491.003	81.75
491.221	74.75
491.439	78.75
491.657	85.75
491.874	102.75
492.092	79.75
492.31	69.75
492.527	75.75
492.745	85.75
492.963	82.75
493.18	78.75
493.398	80.75
493.615	81.75
493.833	85.75
494.05	76.75
494.268	85.75
494.485	101.75
494.703	85.75
494.92	92.75
495.138	80.75
495.355	92.75
495.573	81.75
495.79	92.75
496.008	80.75
496.225	79.75
496.442	87.75
496.66	74.75
496.877	75.75
497.094	82.75
497.312	86.75
497.529	79.75
497.746	100.75
497.963	88.75
498.181	95.75
498.398	80.75
498.615	77.75
498.832	91.75
499.049	83.75
499.267	87.75
499.484	94.75
499.701	86.75
499.918	58.75
500.135	76.75
500.352	85.75
500.569	82.75
500.786	80.75
501.003	92.75
501.22	84.75
501.437	83.75
501.654	84.75
501.871	95.75
502.088	89.75
502.305	80.75
502.522	72.75
502.739	85.75
502.956	78.75
503.172	87.75
503.389	72.75
503.606	98.75
503.823	86.75
504.04	88.75
504.256	76.75
504.473	75.75
504.69	82.75
504.907	91.75
505.123	82.75
505.34	85.75
505.557	83.75
505.773	78.75
505.99	82.75
506.207	84.75
506.423	83.75
506.64	79.75
506.856	91.75
507.073	76.75
507.289	92.75
507.506	69.75
507.722	71.75
507.939	85.75
508.155	90.75
508.372	85.75
508.588	89.75
508.805	78.75
509.021	78.75
509.238	77.75
509.454	78.75
509.67	82.75
509.887	82.75
510.103	81.75
510.319	86.75
510.536	88.75
510.752	84.75
510.968	92.75
511.184	75.75
511.401	76.75
511.617	81.75
511.833	84.75
512.049	83.75
512.265	92.75
512.481	79.75
512.698	74.75
512.914	74.75
513.13	84.75
513.346	79.75
513.562	104.75
513.778	94.75
513.994	79.75
514.21	74.75
514.426	87.75
514.642	96.75
514.858	89.75
515.074	82.75
515.29	88.75
515.506	88.75
515.721	88.75
515.937	89.75
516.153	94.75
516.369	92.75
516.585	72.75
516.801	80.75
517.016	108.75
517.232	74.75
517.448	89.75
517.664	97.75
517.879	77.75
518.095	93.75
518.311	84.75
518.527	76.75
518.742	82.75
518.958	92.75
519.173	83.75
519.389	85.75
519.605	90.75
519.82	93.75
