Data from Background_1_HRD10591_00042.txt Node
Date: Wed Nov 05 14:39:18 EST 2025
User: Yrep
Spectrometer: HR+D1059
Trigger mode: 1
Integration Time (sec): 1.000000E-1
Scans to average: 1
Electric dark correction enabled: true
Nonlinearity correction enabled: false
Boxcar width: 0
XAxis mode: Wavelengths
Number of Pixels in Spectrum: 2048
>>>>>Begin Spectral Data<<<<<
223.165	-15.31
223.4	-15.31
223.635	-15.31
223.869	-15.31
224.104	-27.31
224.338	-12.31
224.573	-14.31
224.808	-7.31
225.042	-0.31
225.277	-0.31
225.511	0.69
225.746	-0.31
225.98	3.69
226.215	6.69
226.449	16.69
226.683	28.69
226.918	25.69
227.152	10.69
227.387	16.69
227.621	43.69
227.856	51.69
228.09	35.69
228.324	60.69
228.559	58.69
228.793	57.69
229.027	54.69
229.262	55.69
229.496	60.69
229.73	54.69
229.964	67.69
230.199	56.69
230.433	65.69
230.667	84.69
230.901	79.69
231.136	74.69
231.37	62.69
231.604	88.69
231.838	74.69
232.072	73.69
232.306	88.69
232.541	77.69
232.775	78.69
233.009	86.69
233.243	74.69
233.477	78.69
233.711	82.69
233.945	74.69
234.179	73.69
234.413	83.69
234.647	83.69
234.881	76.69
235.115	79.69
235.349	74.69
235.583	58.69
235.817	75.69
236.051	75.69
236.285	79.69
236.519	82.69
236.753	66.69
236.987	61.69
237.221	70.69
237.455	74.69
237.689	77.69
237.922	78.69
238.156	76.69
238.39	61.69
238.624	75.69
238.858	74.69
239.091	68.69
239.325	63.69
239.559	66.69
239.793	55.69
240.027	74.69
240.26	76.69
240.494	59.69
240.728	87.69
240.961	83.69
241.195	79.69
241.429	75.69
241.662	72.69
241.896	65.69
242.13	78.69
242.363	96.69
242.597	77.69
242.83	58.69
243.064	76.69
243.298	75.69
243.531	61.69
243.765	68.69
243.998	68.69
244.232	75.69
244.465	65.69
244.699	87.69
244.932	79.69
245.166	66.69
245.399	77.69
245.633	68.69
245.866	79.69
246.099	82.69
246.333	80.69
246.566	74.69
246.8	81.69
247.033	82.69
247.266	66.69
247.5	72.69
247.733	74.69
247.966	80.69
248.2	62.69
248.433	66.69
248.666	78.69
248.899	66.69
249.133	63.69
249.366	76.69
249.599	94.69
249.832	78.69
250.066	79.69
250.299	75.69
250.532	67.69
250.765	66.69
250.998	72.69
251.231	79.69
251.465	81.69
251.698	86.69
251.931	74.69
252.164	79.69
252.397	58.69
252.63	67.69
252.863	82.69
253.096	87.69
253.329	93.69
253.562	83.69
253.795	76.69
254.028	78.69
254.261	71.69
254.494	82.69
254.727	68.69
254.96	61.69
255.193	72.69
255.426	80.69
255.659	79.69
255.892	88.69
256.124	81.69
256.357	83.69
256.59	67.69
256.823	86.69
257.056	81.69
257.289	79.69
257.521	79.69
257.754	83.69
257.987	79.69
258.22	75.69
258.452	74.69
258.685	82.69
258.918	72.69
259.151	70.69
259.383	74.69
259.616	82.69
259.849	72.69
260.081	96.69
260.314	68.69
260.547	83.69
260.779	76.69
261.012	91.69
261.244	86.69
261.477	88.69
261.71	74.69
261.942	88.69
262.175	63.69
262.407	76.69
262.64	76.69
262.872	68.69
263.105	81.69
263.337	88.69
263.57	74.69
263.802	88.69
264.035	91.69
264.267	83.69
264.499	68.69
264.732	58.69
264.964	82.69
265.197	77.69
265.429	79.69
265.661	83.69
265.894	74.69
266.126	82.69
266.358	72.69
266.591	73.69
266.823	72.69
267.055	81.69
267.287	86.69
267.52	87.69
267.752	91.69
267.984	102.69
268.216	77.69
268.448	81.69
268.681	86.69
268.913	81.69
269.145	69.69
269.377	82.69
269.609	79.69
269.841	84.69
270.073	66.69
270.306	81.69
270.538	68.69
270.77	79.69
271.002	89.69
271.234	72.69
271.466	78.69
271.698	88.69
271.93	82.69
272.162	78.69
272.394	78.69
272.626	79.69
272.858	63.69
273.09	78.69
273.322	67.69
273.553	84.69
273.785	82.69
274.017	86.69
274.249	96.69
274.481	83.69
274.713	79.69
274.945	78.69
275.176	89.69
275.408	83.69
275.64	84.69
275.872	76.69
276.104	66.69
276.335	80.69
276.567	72.69
276.799	99.69
277.031	90.69
277.262	91.69
277.494	86.69
277.726	76.69
277.957	87.69
278.189	83.69
278.421	75.69
278.652	77.69
278.884	84.69
279.115	87.69
279.347	72.69
279.579	77.69
279.81	96.69
280.042	82.69
280.273	85.69
280.505	58.69
280.736	95.69
280.968	93.69
281.199	75.69
281.431	84.69
281.662	61.69
281.894	75.69
282.125	75.69
282.356	87.69
282.588	79.69
282.819	86.69
283.051	89.69
283.282	75.69
283.513	86.69
283.745	74.69
283.976	87.69
284.207	76.69
284.439	77.69
284.67	80.69
284.901	97.69
285.132	80.69
285.364	84.69
285.595	76.69
285.826	56.69
286.057	99.69
286.288	102.69
286.52	79.69
286.751	78.69
286.982	87.69
287.213	86.69
287.444	82.69
287.675	71.69
287.906	57.69
288.138	78.69
288.369	80.69
288.6	80.69
288.831	89.69
289.062	82.69
289.293	74.69
289.524	72.69
289.755	75.69
289.986	82.69
290.217	71.69
290.448	66.69
290.679	79.69
290.91	88.69
291.141	78.69
291.371	92.69
291.602	88.69
291.833	87.69
292.064	89.69
292.295	79.69
292.526	80.69
292.757	78.69
292.987	80.69
293.218	67.69
293.449	94.69
293.68	79.69
293.91	72.69
294.141	79.69
294.372	71.69
294.603	81.69
294.833	76.69
295.064	79.69
295.295	74.69
295.525	81.69
295.756	81.69
295.987	81.69
296.217	94.69
296.448	84.69
296.679	82.69
296.909	79.69
297.14	78.69
297.37	82.69
297.601	74.69
297.831	90.69
298.062	82.69
298.292	70.69
298.523	80.69
298.753	77.69
298.984	68.69
299.214	88.69
299.445	76.69
299.675	85.69
299.905	82.69
300.136	76.69
300.366	76.69
300.597	79.69
300.827	104.69
301.057	84.69
301.288	75.69
301.518	82.69
301.748	90.69
301.979	97.69
302.209	70.69
302.439	81.69
302.669	84.69
302.9	91.69
303.13	66.69
303.36	93.69
303.59	78.69
303.82	85.69
304.051	86.69
304.281	86.69
304.511	78.69
304.741	74.69
304.971	87.69
305.201	86.69
305.431	85.69
305.661	90.69
305.891	81.69
306.121	83.69
306.352	87.69
306.582	86.69
306.812	77.69
307.042	74.69
307.272	78.69
307.502	83.69
307.731	88.69
307.961	75.69
308.191	82.69
308.421	73.69
308.651	65.69
308.881	72.69
309.111	74.69
309.341	78.69
309.571	76.69
309.8	71.69
310.03	81.69
310.26	91.69
310.49	78.69
310.72	75.69
310.949	78.69
311.179	75.69
311.409	75.69
311.639	82.69
311.868	74.69
312.098	98.69
312.328	78.69
312.557	80.69
312.787	95.69
313.017	79.69
313.246	82.69
313.476	69.69
313.706	75.69
313.935	72.69
314.165	80.69
314.394	81.69
314.624	64.69
314.853	76.69
315.083	98.69
315.312	104.69
315.542	92.69
315.771	86.69
316.001	89.69
316.23	72.69
316.46	76.69
316.689	94.69
316.919	84.69
317.148	79.69
317.377	83.69
317.607	78.69
317.836	74.69
318.065	89.69
318.295	88.69
318.524	75.69
318.753	86.69
318.983	82.69
319.212	72.69
319.441	83.69
319.67	87.69
319.9	90.69
320.129	84.69
320.358	86.69
320.587	75.69
320.816	73.69
321.046	72.69
321.275	81.69
321.504	75.69
321.733	78.69
321.962	68.69
322.191	64.69
322.42	73.69
322.649	82.69
322.878	94.69
323.108	71.69
323.337	85.69
323.566	70.69
323.795	81.69
324.024	75.69
324.253	68.69
324.482	80.69
324.71	79.69
324.939	88.69
325.168	65.69
325.397	88.69
325.626	100.69
325.855	90.69
326.084	80.69
326.313	81.69
326.542	85.69
326.77	84.69
326.999	84.69
327.228	67.69
327.457	82.69
327.686	62.69
327.914	78.69
328.143	98.69
328.372	68.69
328.6	66.69
328.829	68.69
329.058	71.69
329.287	91.69
329.515	90.69
329.744	78.69
329.972	79.69
330.201	94.69
330.43	78.69
330.658	87.69
330.887	84.69
331.115	88.69
331.344	65.69
331.572	70.69
331.801	75.69
332.03	82.69
332.258	75.69
332.486	83.69
332.715	85.69
332.943	86.69
333.172	77.69
333.4	78.69
333.629	74.69
333.857	93.69
334.085	77.69
334.314	89.69
334.542	64.69
334.771	92.69
334.999	86.69
335.227	71.69
335.455	55.69
335.684	80.69
335.912	84.69
336.14	96.69
336.369	84.69
336.597	80.69
336.825	66.69
337.053	81.69
337.281	92.69
337.51	79.69
337.738	94.69
337.966	81.69
338.194	78.69
338.422	74.69
338.65	94.69
338.878	76.69
339.106	87.69
339.334	87.69
339.562	65.69
339.79	73.69
340.018	84.69
340.246	105.69
340.474	78.69
340.702	80.69
340.93	75.69
341.158	81.69
341.386	88.69
341.614	67.69
341.842	59.69
342.07	92.69
342.298	85.69
342.526	94.69
342.754	82.69
342.981	79.69
343.209	70.69
343.437	85.69
343.665	84.69
343.893	71.69
344.12	94.69
344.348	87.69
344.576	71.69
344.804	81.69
345.031	51.69
345.259	77.69
345.487	83.69
345.714	84.69
345.942	71.69
346.17	90.69
346.397	82.69
346.625	70.69
346.853	94.69
347.08	83.69
347.308	88.69
347.535	92.69
347.763	77.69
347.99	88.69
348.218	72.69
348.445	81.69
348.673	76.69
348.9	84.69
349.128	74.69
349.355	81.69
349.583	63.69
349.81	75.69
350.037	94.69
350.265	67.69
350.492	68.69
350.72	90.69
350.947	77.69
351.174	72.69
351.402	76.69
351.629	71.69
351.856	72.69
352.083	92.69
352.311	87.69
352.538	78.69
352.765	76.69
352.992	85.69
353.22	90.69
353.447	82.69
353.674	84.69
353.901	67.69
354.128	81.69
354.355	84.69
354.583	83.69
354.81	78.69
355.037	76.69
355.264	82.69
355.491	93.69
355.718	82.69
355.945	75.69
356.172	73.69
356.399	69.69
356.626	72.69
356.853	83.69
357.08	88.69
357.307	93.69
357.534	76.69
357.761	78.69
357.988	82.69
358.215	92.69
358.441	85.69
358.668	80.69
358.895	82.69
359.122	84.69
359.349	76.69
359.576	74.69
359.802	72.69
360.029	80.69
360.256	82.69
360.483	91.69
360.709	75.69
360.936	80.69
361.163	93.69
361.39	87.69
361.616	82.69
361.843	91.69
362.07	75.69
362.296	68.69
362.523	84.69
362.749	91.69
362.976	80.69
363.203	74.69
363.429	75.69
363.656	68.69
363.882	87.69
364.109	85.69
364.335	82.69
364.562	81.69
364.788	88.69
365.015	78.69
365.241	82.69
365.468	82.69
365.694	88.69
365.92	79.69
366.147	68.69
366.373	72.69
366.599	69.69
366.826	76.69
367.052	92.69
367.278	91.69
367.505	83.69
367.731	86.69
367.957	79.69
368.184	59.69
368.41	83.69
368.636	74.69
368.862	73.69
369.089	86.69
369.315	72.69
369.541	81.69
369.767	85.69
369.993	86.69
370.219	79.69
370.445	77.69
370.672	77.69
370.898	90.69
371.124	77.69
371.35	81.69
371.576	76.69
371.802	80.69
372.028	84.69
372.254	76.69
372.48	94.69
372.706	84.69
372.932	89.69
373.158	90.69
373.384	77.69
373.61	85.69
373.835	89.69
374.061	86.69
374.287	72.69
374.513	78.69
374.739	91.69
374.965	88.69
375.191	80.69
375.416	78.69
375.642	81.69
375.868	76.69
376.094	74.69
376.319	75.69
376.545	70.69
376.771	92.69
376.997	78.69
377.222	82.69
377.448	83.69
377.674	76.69
377.899	75.69
378.125	81.69
378.35	88.69
378.576	78.69
378.802	90.69
379.027	84.69
379.253	75.69
379.478	87.69
379.704	76.69
379.929	84.69
380.155	82.69
380.38	86.69
380.606	90.69
380.831	87.69
381.057	89.69
381.282	78.69
381.507	79.69
381.733	82.69
381.958	83.69
382.184	81.69
382.409	76.69
382.634	87.69
382.86	68.69
383.085	87.69
383.31	84.69
383.535	73.69
383.761	87.69
383.986	80.69
384.211	86.69
384.436	68.69
384.662	65.69
384.887	85.69
385.112	86.69
385.337	89.69
385.562	75.69
385.787	76.69
386.013	79.69
386.238	68.69
386.463	87.69
386.688	96.69
386.913	72.69
387.138	82.69
387.363	87.69
387.588	80.69
387.813	88.69
388.038	91.69
388.263	90.69
388.488	82.69
388.713	75.69
388.938	72.69
389.163	83.69
389.387	93.69
389.612	82.69
389.837	81.69
390.062	71.69
390.287	70.69
390.512	71.69
390.736	82.69
390.961	80.69
391.186	76.69
391.411	83.69
391.636	86.69
391.86	84.69
392.085	68.69
392.31	75.69
392.534	78.69
392.759	74.69
392.984	67.69
393.208	97.69
393.433	87.69
393.658	85.69
393.882	85.69
394.107	90.69
394.331	83.69
394.556	75.69
394.78	82.69
395.005	91.69
395.229	74.69
395.454	83.69
395.678	84.69
395.903	75.69
396.127	77.69
396.352	75.69
396.576	78.69
396.801	63.69
397.025	65.69
397.249	73.69
397.474	78.69
397.698	75.69
397.922	66.69
398.147	69.69
398.371	79.69
398.595	86.69
398.82	69.69
399.044	81.69
399.268	81.69
399.492	94.69
399.717	69.69
399.941	70.69
400.165	86.69
400.389	75.69
400.613	76.69
400.837	80.69
401.062	70.69
401.286	70.69
401.51	70.69
401.734	66.69
401.958	68.69
402.182	84.69
402.406	65.69
402.63	82.69
402.854	80.69
403.078	71.69
403.302	85.69
403.526	81.69
403.75	83.69
403.974	84.69
404.198	80.69
404.422	67.69
404.645	64.69
404.869	90.69
405.093	76.69
405.317	78.69
405.541	86.69
405.765	80.69
405.988	87.69
406.212	84.69
406.436	86.69
406.66	78.69
406.883	82.69
407.107	78.69
407.331	77.69
407.555	79.69
407.778	78.69
408.002	90.69
408.226	81.69
408.449	76.69
408.673	73.69
408.896	89.69
409.12	77.69
409.344	76.69
409.567	92.69
409.791	74.69
410.014	74.69
410.238	95.69
410.461	71.69
410.685	72.69
410.908	84.69
411.132	73.69
411.355	79.69
411.578	90.69
411.802	82.69
412.025	66.69
412.249	71.69
412.472	74.69
412.695	67.69
412.919	80.69
413.142	69.69
413.365	84.69
413.589	68.69
413.812	79.69
414.035	87.69
414.258	77.69
414.482	69.69
414.705	83.69
414.928	85.69
415.151	87.69
415.374	76.69
415.597	81.69
415.821	83.69
416.044	73.69
416.267	90.69
416.49	78.69
416.713	66.69
416.936	68.69
417.159	87.69
417.382	71.69
417.605	84.69
417.828	78.69
418.051	72.69
418.274	82.69
418.497	75.69
418.72	81.69
418.943	88.69
419.166	66.69
419.389	86.69
419.611	78.69
419.834	82.69
420.057	80.69
420.28	69.69
420.503	68.69
420.726	66.69
420.948	71.69
421.171	84.69
421.394	79.69
421.617	71.69
421.839	72.69
422.062	79.69
422.285	81.69
422.507	92.69
422.73	63.69
422.953	86.69
423.175	73.69
423.398	77.69
423.621	78.69
423.843	83.69
424.066	81.69
424.288	79.69
424.511	68.69
424.733	81.69
424.956	77.69
425.178	68.69
425.401	62.69
425.623	66.69
425.846	69.69
426.068	66.69
426.291	82.69
426.513	84.69
426.735	78.69
426.958	70.69
427.18	72.69
427.402	74.69
427.625	74.69
427.847	76.69
428.069	75.69
428.292	76.69
428.514	72.69
428.736	79.69
428.958	82.69
429.181	75.69
429.403	78.69
429.625	81.69
429.847	81.69
430.069	73.69
430.292	80.69
430.514	83.69
430.736	84.69
430.958	84.69
431.18	74.69
431.402	78.69
431.624	82.69
431.846	79.69
432.068	87.69
432.29	76.69
432.512	91.69
432.734	68.69
432.956	94.69
433.178	88.69
433.4	75.69
433.622	85.69
433.844	78.69
434.066	80.69
434.287	84.69
434.509	77.69
434.731	69.69
434.953	92.69
435.175	77.69
435.397	74.69
435.618	74.69
435.84	78.69
436.062	78.69
436.284	74.69
436.505	68.69
436.727	80.69
436.949	86.69
437.17	73.69
437.392	74.69
437.614	79.69
437.835	80.69
438.057	76.69
438.278	69.69
438.5	74.69
438.721	84.69
438.943	74.69
439.165	70.69
439.386	83.69
439.608	79.69
439.829	82.69
440.05	73.69
440.272	77.69
440.493	83.69
440.715	68.69
440.936	79.69
441.158	70.69
441.379	79.69
441.6	77.69
441.822	72.69
442.043	78.69
442.264	86.69
442.486	81.69
442.707	64.69
442.928	67.69
443.149	82.69
443.371	84.69
443.592	73.69
443.813	79.69
444.034	74.69
444.255	79.69
444.476	83.69
444.698	80.69
444.919	81.69
445.14	148.69
445.361	110.69
445.582	76.69
445.803	78.69
446.024	67.69
446.245	75.69
446.466	68.69
446.687	80.69
446.908	84.69
447.129	83.69
447.35	68.69
447.571	78.69
447.792	82.69
448.013	89.69
448.234	79.69
448.455	76.69
448.675	86.69
448.896	88.69
449.117	95.69
449.338	80.69
449.559	79.69
449.779	71.69
450	75.69
450.221	77.69
450.442	85.69
450.662	75.69
450.883	77.69
451.104	87.69
451.324	54.69
451.545	70.69
451.766	82.69
451.986	81.69
452.207	79.69
452.428	59.69
452.648	67.69
452.869	80.69
453.089	74.69
453.31	79.69
453.53	74.69
453.751	96.69
453.971	86.69
454.192	66.69
454.412	96.69
454.633	91.69
454.853	78.69
455.073	72.69
455.294	66.69
455.514	72.69
455.734	88.69
455.955	72.69
456.175	76.69
456.395	87.69
456.616	71.69
456.836	85.69
457.056	84.69
457.276	76.69
457.497	68.69
457.717	82.69
457.937	80.69
458.157	70.69
458.377	79.69
458.598	63.69
458.818	94.69
459.038	76.69
459.258	75.69
459.478	86.69
459.698	72.69
459.918	77.69
460.138	83.69
460.358	80.69
460.578	83.69
460.798	74.69
461.018	92.69
461.238	82.69
461.458	68.69
461.678	76.69
461.898	83.69
462.118	72.69
462.338	82.69
462.558	70.69
462.777	79.69
462.997	87.69
463.217	69.69
463.437	81.69
463.657	92.69
463.876	74.69
464.096	84.69
464.316	72.69
464.536	77.69
464.755	80.69
464.975	81.69
465.195	66.69
465.414	89.69
465.634	88.69
465.854	73.69
466.073	85.69
466.293	79.69
466.512	81.69
466.732	76.69
466.951	82.69
467.171	69.69
467.391	84.69
467.61	86.69
467.829	73.69
468.049	84.69
468.268	84.69
468.488	82.69
468.707	82.69
468.927	77.69
469.146	84.69
469.365	89.69
469.585	90.69
469.804	66.69
470.023	94.69
470.243	75.69
470.462	92.69
470.681	77.69
470.901	79.69
471.12	66.69
471.339	76.69
471.558	74.69
471.777	64.69
471.997	82.69
472.216	77.69
472.435	75.69
472.654	79.69
472.873	74.69
473.092	80.69
473.311	94.69
473.53	79.69
473.749	83.69
473.968	80.69
474.187	84.69
474.406	82.69
474.625	71.69
474.844	84.69
475.063	90.69
475.282	92.69
475.501	89.69
475.72	82.69
475.939	78.69
476.158	84.69
476.377	72.69
476.596	80.69
476.814	75.69
477.033	73.69
477.252	82.69
477.471	75.69
477.69	71.69
477.908	72.69
478.127	82.69
478.346	96.69
478.564	82.69
478.783	76.69
479.002	87.69
479.22	75.69
479.439	82.69
479.658	82.69
479.876	78.69
480.095	80.69
480.313	57.69
480.532	80.69
480.751	75.69
480.969	83.69
481.188	80.69
481.406	79.69
481.624	86.69
481.843	67.69
482.061	87.69
482.28	72.69
482.498	70.69
482.717	84.69
482.935	79.69
483.153	83.69
483.372	79.69
483.59	72.69
483.808	95.69
484.027	83.69
484.245	79.69
484.463	69.69
484.681	85.69
484.9	86.69
485.118	87.69
485.336	67.69
485.554	82.69
485.772	75.69
485.99	74.69
486.209	74.69
486.427	75.69
486.645	78.69
486.863	75.69
487.081	87.69
487.299	87.69
487.517	82.69
487.735	78.69
487.953	78.69
488.171	87.69
488.389	76.69
488.607	70.69
488.825	79.69
489.043	79.69
489.261	84.69
489.479	73.69
489.696	65.69
489.914	90.69
490.132	87.69
490.35	75.69
490.568	76.69
490.786	76.69
491.003	83.69
491.221	93.69
491.439	75.69
491.657	71.69
491.874	74.69
492.092	86.69
492.31	88.69
492.527	76.69
492.745	77.69
492.963	86.69
493.18	90.69
493.398	73.69
493.615	83.69
493.833	90.69
494.05	76.69
494.268	83.69
494.485	80.69
494.703	75.69
494.92	82.69
495.138	84.69
495.355	88.69
495.573	94.69
495.79	81.69
496.008	86.69
496.225	75.69
496.442	78.69
496.66	80.69
496.877	67.69
497.094	80.69
497.312	65.69
497.529	81.69
497.746	85.69
497.963	92.69
498.181	76.69
498.398	76.69
498.615	77.69
498.832	78.69
499.049	74.69
499.267	77.69
499.484	67.69
499.701	73.69
499.918	83.69
500.135	68.69
500.352	72.69
500.569	78.69
500.786	89.69
501.003	86.69
501.22	82.69
501.437	85.69
501.654	82.69
501.871	83.69
502.088	86.69
502.305	76.69
502.522	75.69
502.739	82.69
502.956	78.69
503.172	67.69
503.389	66.69
503.606	86.69
503.823	82.69
504.04	81.69
504.256	93.69
504.473	80.69
504.69	90.69
504.907	106.69
505.123	82.69
505.34	89.69
505.557	69.69
505.773	86.69
505.99	79.69
506.207	84.69
506.423	73.69
506.64	81.69
506.856	79.69
507.073	74.69
507.289	85.69
507.506	80.69
507.722	64.69
507.939	84.69
508.155	76.69
508.372	70.69
508.588	66.69
508.805	80.69
509.021	78.69
509.238	89.69
509.454	77.69
509.67	79.69
509.887	80.69
510.103	80.69
510.319	86.69
510.536	71.69
510.752	97.69
510.968	72.69
511.184	90.69
511.401	89.69
511.617	77.69
511.833	77.69
512.049	74.69
512.265	73.69
512.481	66.69
512.698	80.69
512.914	89.69
513.13	87.69
513.346	95.69
513.562	79.69
513.778	84.69
513.994	94.69
514.21	63.69
514.426	78.69
514.642	83.69
514.858	77.69
515.074	76.69
515.29	68.69
515.506	82.69
515.721	81.69
515.937	82.69
516.153	58.69
516.369	91.69
516.585	74.69
516.801	88.69
517.016	73.69
517.232	80.69
517.448	74.69
517.664	92.69
517.879	95.69
518.095	75.69
518.311	88.69
518.527	74.69
518.742	82.69
518.958	74.69
519.173	74.69
519.389	75.69
519.605	85.69
519.82	85.69
520.036	76.69
