Data from Background_1_HRD10591_00041.txt Node
Date: Wed Nov 05 14:39:18 EST 2025
User: Yrep
Spectrometer: HR+D1059
Trigger mode: 1
Integration Time (sec): 1.000000E-1
Scans to average: 1
Electric dark correction enabled: true
Nonlinearity correction enabled: false
Boxcar width: 0
XAxis mode: Wavelengths
Number of Pixels in Spectrum: 2048
>>>>>Begin Spectral Data<<<<<
223.165	-16.25
223.4	-16.25
223.635	-16.25
223.869	-26.25
224.104	-24.25
224.338	-5.25
224.573	0.75
224.808	-16.25
225.042	-4.25
225.277	0.75
225.511	-4.25
225.746	-11.25
225.98	10.75
226.215	-1.25
226.449	22.75
226.683	33.75
226.918	11.75
227.152	28.75
227.387	40.75
227.621	49.75
227.856	42.75
228.09	42.75
228.324	35.75
228.559	52.75
228.793	65.75
229.027	70.75
229.262	59.75
229.496	64.75
229.73	59.75
229.964	63.75
230.199	67.75
230.433	69.75
230.667	86.75
230.901	93.75
231.136	90.75
231.37	68.75
231.604	74.75
231.838	84.75
232.072	79.75
232.306	87.75
232.541	83.75
232.775	85.75
233.009	96.75
233.243	85.75
233.477	80.75
233.711	87.75
233.945	78.75
234.179	77.75
234.413	76.75
234.647	68.75
234.881	68.75
235.115	65.75
235.349	84.75
235.583	78.75
235.817	84.75
236.051	72.75
236.285	85.75
236.519	79.75
236.753	80.75
236.987	81.75
237.221	66.75
237.455	73.75
237.689	81.75
237.922	92.75
238.156	68.75
238.39	78.75
238.624	72.75
238.858	83.75
239.091	68.75
239.325	75.75
239.559	77.75
239.793	76.75
240.027	76.75
240.26	79.75
240.494	85.75
240.728	54.75
240.961	75.75
241.195	79.75
241.429	77.75
241.662	83.75
241.896	66.75
242.13	75.75
242.363	80.75
242.597	70.75
242.83	76.75
243.064	65.75
243.298	84.75
243.531	85.75
243.765	69.75
243.998	73.75
244.232	59.75
244.465	81.75
244.699	78.75
244.932	90.75
245.166	76.75
245.399	82.75
245.633	83.75
245.866	83.75
246.099	74.75
246.333	79.75
246.566	80.75
246.8	77.75
247.033	77.75
247.266	71.75
247.5	80.75
247.733	75.75
247.966	69.75
248.2	80.75
248.433	82.75
248.666	80.75
248.899	91.75
249.133	64.75
249.366	90.75
249.599	71.75
249.832	89.75
250.066	82.75
250.299	99.75
250.532	93.75
250.765	87.75
250.998	92.75
251.231	58.75
251.465	76.75
251.698	71.75
251.931	83.75
252.164	81.75
252.397	77.75
252.63	92.75
252.863	83.75
253.096	79.75
253.329	75.75
253.562	77.75
253.795	86.75
254.028	84.75
254.261	97.75
254.494	67.75
254.727	70.75
254.96	79.75
255.193	83.75
255.426	76.75
255.659	82.75
255.892	79.75
256.124	70.75
256.357	85.75
256.59	85.75
256.823	79.75
257.056	78.75
257.289	76.75
257.521	74.75
257.754	75.75
257.987	69.75
258.22	79.75
258.452	80.75
258.685	96.75
258.918	87.75
259.151	92.75
259.383	91.75
259.616	68.75
259.849	77.75
260.081	84.75
260.314	87.75
260.547	80.75
260.779	79.75
261.012	89.75
261.244	85.75
261.477	87.75
261.71	77.75
261.942	93.75
262.175	73.75
262.407	76.75
262.64	69.75
262.872	80.75
263.105	77.75
263.337	86.75
263.57	76.75
263.802	65.75
264.035	70.75
264.267	93.75
264.499	82.75
264.732	78.75
264.964	93.75
265.197	83.75
265.429	93.75
265.661	79.75
265.894	84.75
266.126	75.75
266.358	85.75
266.591	69.75
266.823	81.75
267.055	78.75
267.287	71.75
267.52	89.75
267.752	82.75
267.984	92.75
268.216	92.75
268.448	90.75
268.681	90.75
268.913	81.75
269.145	90.75
269.377	73.75
269.609	78.75
269.841	81.75
270.073	72.75
270.306	74.75
270.538	75.75
270.77	75.75
271.002	76.75
271.234	92.75
271.466	97.75
271.698	95.75
271.93	79.75
272.162	79.75
272.394	75.75
272.626	79.75
272.858	77.75
273.09	91.75
273.322	76.75
273.553	66.75
273.785	106.75
274.017	94.75
274.249	79.75
274.481	94.75
274.713	81.75
274.945	93.75
275.176	87.75
275.408	91.75
275.64	89.75
275.872	88.75
276.104	83.75
276.335	71.75
276.567	81.75
276.799	68.75
277.031	69.75
277.262	79.75
277.494	82.75
277.726	75.75
277.957	88.75
278.189	65.75
278.421	80.75
278.652	94.75
278.884	87.75
279.115	87.75
279.347	91.75
279.579	82.75
279.81	73.75
280.042	93.75
280.273	80.75
280.505	87.75
280.736	83.75
280.968	79.75
281.199	94.75
281.431	86.75
281.662	84.75
281.894	86.75
282.125	83.75
282.356	74.75
282.588	89.75
282.819	79.75
283.051	80.75
283.282	91.75
283.513	96.75
283.745	82.75
283.976	82.75
284.207	97.75
284.439	89.75
284.67	102.75
284.901	89.75
285.132	81.75
285.364	98.75
285.595	83.75
285.826	69.75
286.057	83.75
286.288	79.75
286.52	79.75
286.751	84.75
286.982	80.75
287.213	80.75
287.444	82.75
287.675	84.75
287.906	98.75
288.138	87.75
288.369	89.75
288.6	92.75
288.831	77.75
289.062	85.75
289.293	81.75
289.524	74.75
289.755	77.75
289.986	73.75
290.217	88.75
290.448	75.75
290.679	98.75
290.91	83.75
291.141	80.75
291.371	81.75
291.602	95.75
291.833	103.75
292.064	93.75
292.295	89.75
292.526	85.75
292.757	66.75
292.987	78.75
293.218	70.75
293.449	78.75
293.68	88.75
293.91	90.75
294.141	86.75
294.372	89.75
294.603	94.75
294.833	97.75
295.064	86.75
295.295	87.75
295.525	101.75
295.756	98.75
295.987	89.75
296.217	93.75
296.448	82.75
296.679	87.75
296.909	77.75
297.14	81.75
297.37	85.75
297.601	70.75
297.831	82.75
298.062	67.75
298.292	79.75
298.523	83.75
298.753	87.75
298.984	71.75
299.214	85.75
299.445	72.75
299.675	67.75
299.905	94.75
300.136	89.75
300.366	82.75
300.597	81.75
300.827	88.75
301.057	84.75
301.288	89.75
301.518	72.75
301.748	87.75
301.979	100.75
302.209	81.75
302.439	87.75
302.669	92.75
302.9	102.75
303.13	95.75
303.36	85.75
303.59	79.75
303.82	82.75
304.051	72.75
304.281	74.75
304.511	83.75
304.741	85.75
304.971	71.75
305.201	82.75
305.431	83.75
305.661	88.75
305.891	82.75
306.121	91.75
306.352	82.75
306.582	77.75
306.812	92.75
307.042	66.75
307.272	77.75
307.502	69.75
307.731	86.75
307.961	75.75
308.191	88.75
308.421	100.75
308.651	95.75
308.881	67.75
309.111	94.75
309.341	83.75
309.571	85.75
309.8	83.75
310.03	89.75
310.26	90.75
310.49	75.75
310.72	83.75
310.949	82.75
311.179	82.75
311.409	103.75
311.639	90.75
311.868	91.75
312.098	76.75
312.328	75.75
312.557	87.75
312.787	75.75
313.017	83.75
313.246	86.75
313.476	96.75
313.706	84.75
313.935	78.75
314.165	73.75
314.394	79.75
314.624	68.75
314.853	82.75
315.083	92.75
315.312	92.75
315.542	88.75
315.771	80.75
316.001	83.75
316.23	87.75
316.46	62.75
316.689	99.75
316.919	77.75
317.148	88.75
317.377	84.75
317.607	79.75
317.836	81.75
318.065	87.75
318.295	85.75
318.524	95.75
318.753	82.75
318.983	91.75
319.212	66.75
319.441	82.75
319.67	90.75
319.9	90.75
320.129	88.75
320.358	91.75
320.587	79.75
320.816	85.75
321.046	85.75
321.275	80.75
321.504	84.75
321.733	87.75
321.962	72.75
322.191	80.75
322.42	87.75
322.649	92.75
322.878	94.75
323.108	60.75
323.337	90.75
323.566	84.75
323.795	91.75
324.024	73.75
324.253	83.75
324.482	83.75
324.71	80.75
324.939	90.75
325.168	80.75
325.397	89.75
325.626	92.75
325.855	98.75
326.084	81.75
326.313	88.75
326.542	85.75
326.77	95.75
326.999	92.75
327.228	71.75
327.457	78.75
327.686	83.75
327.914	79.75
328.143	82.75
328.372	80.75
328.6	94.75
328.829	83.75
329.058	76.75
329.287	80.75
329.515	86.75
329.744	91.75
329.972	101.75
330.201	79.75
330.43	73.75
330.658	91.75
330.887	88.75
331.115	82.75
331.344	89.75
331.572	81.75
331.801	78.75
332.03	91.75
332.258	89.75
332.486	90.75
332.715	81.75
332.943	72.75
333.172	87.75
333.4	83.75
333.629	87.75
333.857	98.75
334.085	78.75
334.314	74.75
334.542	73.75
334.771	75.75
334.999	87.75
335.227	78.75
335.455	93.75
335.684	93.75
335.912	77.75
336.14	83.75
336.369	78.75
336.597	90.75
336.825	90.75
337.053	86.75
337.281	89.75
337.51	84.75
337.738	80.75
337.966	82.75
338.194	78.75
338.422	77.75
338.65	75.75
338.878	72.75
339.106	80.75
339.334	77.75
339.562	98.75
339.79	89.75
340.018	79.75
340.246	76.75
340.474	85.75
340.702	79.75
340.93	79.75
341.158	86.75
341.386	92.75
341.614	98.75
341.842	84.75
342.07	80.75
342.298	89.75
342.526	82.75
342.754	65.75
342.981	88.75
343.209	74.75
343.437	104.75
343.665	89.75
343.893	84.75
344.12	79.75
344.348	88.75
344.576	98.75
344.804	87.75
345.031	84.75
345.259	96.75
345.487	93.75
345.714	85.75
345.942	83.75
346.17	76.75
346.397	96.75
346.625	57.75
346.853	80.75
347.08	83.75
347.308	79.75
347.535	85.75
347.763	78.75
347.99	87.75
348.218	91.75
348.445	91.75
348.673	89.75
348.9	74.75
349.128	91.75
349.355	84.75
349.583	111.75
349.81	91.75
350.037	90.75
350.265	90.75
350.492	65.75
350.72	80.75
350.947	63.75
351.174	84.75
351.402	83.75
351.629	95.75
351.856	78.75
352.083	93.75
352.311	81.75
352.538	85.75
352.765	65.75
352.992	85.75
353.22	76.75
353.447	81.75
353.674	96.75
353.901	91.75
354.128	84.75
354.355	80.75
354.583	83.75
354.81	80.75
355.037	83.75
355.264	84.75
355.491	81.75
355.718	76.75
355.945	88.75
356.172	79.75
356.399	87.75
356.626	84.75
356.853	81.75
357.08	80.75
357.307	87.75
357.534	75.75
357.761	97.75
357.988	80.75
358.215	100.75
358.441	85.75
358.668	89.75
358.895	76.75
359.122	88.75
359.349	91.75
359.576	91.75
359.802	75.75
360.029	93.75
360.256	90.75
360.483	92.75
360.709	73.75
360.936	81.75
361.163	77.75
361.39	94.75
361.616	79.75
361.843	77.75
362.07	90.75
362.296	77.75
362.523	79.75
362.749	65.75
362.976	90.75
363.203	89.75
363.429	99.75
363.656	86.75
363.882	82.75
364.109	73.75
364.335	91.75
364.562	86.75
364.788	75.75
365.015	90.75
365.241	83.75
365.468	77.75
365.694	84.75
365.92	98.75
366.147	93.75
366.373	84.75
366.599	77.75
366.826	81.75
367.052	75.75
367.278	77.75
367.505	89.75
367.731	81.75
367.957	99.75
368.184	84.75
368.41	79.75
368.636	69.75
368.862	85.75
369.089	83.75
369.315	83.75
369.541	87.75
369.767	80.75
369.993	90.75
370.219	82.75
370.445	94.75
370.672	76.75
370.898	88.75
371.124	93.75
371.35	81.75
371.576	83.75
371.802	75.75
372.028	82.75
372.254	84.75
372.48	83.75
372.706	88.75
372.932	86.75
373.158	76.75
373.384	84.75
373.61	93.75
373.835	76.75
374.061	88.75
374.287	86.75
374.513	98.75
374.739	75.75
374.965	75.75
375.191	72.75
375.416	70.75
375.642	93.75
375.868	100.75
376.094	95.75
376.319	77.75
376.545	75.75
376.771	84.75
376.997	87.75
377.222	78.75
377.448	79.75
377.674	89.75
377.899	85.75
378.125	72.75
378.35	87.75
378.576	95.75
378.802	85.75
379.027	79.75
379.253	82.75
379.478	89.75
379.704	73.75
379.929	85.75
380.155	87.75
380.38	81.75
380.606	85.75
380.831	91.75
381.057	82.75
381.282	87.75
381.507	92.75
381.733	85.75
381.958	83.75
382.184	84.75
382.409	81.75
382.634	83.75
382.86	96.75
383.085	89.75
383.31	93.75
383.535	88.75
383.761	81.75
383.986	88.75
384.211	86.75
384.436	82.75
384.662	67.75
384.887	83.75
385.112	76.75
385.337	98.75
385.562	90.75
385.787	88.75
386.013	80.75
386.238	72.75
386.463	95.75
386.688	104.75
386.913	75.75
387.138	70.75
387.363	63.75
387.588	94.75
387.813	79.75
388.038	75.75
388.263	95.75
388.488	82.75
388.713	69.75
388.938	78.75
389.163	80.75
389.387	83.75
389.612	90.75
389.837	68.75
390.062	72.75
390.287	92.75
390.512	89.75
390.736	76.75
390.961	79.75
391.186	88.75
391.411	64.75
391.636	89.75
391.86	82.75
392.085	85.75
392.31	77.75
392.534	77.75
392.759	78.75
392.984	91.75
393.208	86.75
393.433	69.75
393.658	84.75
393.882	83.75
394.107	84.75
394.331	93.75
394.556	83.75
394.78	82.75
395.005	91.75
395.229	78.75
395.454	68.75
395.678	84.75
395.903	95.75
396.127	96.75
396.352	79.75
396.576	92.75
396.801	69.75
397.025	81.75
397.249	77.75
397.474	81.75
397.698	74.75
397.922	92.75
398.147	76.75
398.371	79.75
398.595	92.75
398.82	91.75
399.044	90.75
399.268	84.75
399.492	84.75
399.717	91.75
399.941	96.75
400.165	83.75
400.389	84.75
400.613	81.75
400.837	81.75
401.062	81.75
401.286	72.75
401.51	87.75
401.734	75.75
401.958	68.75
402.182	89.75
402.406	76.75
402.63	88.75
402.854	94.75
403.078	89.75
403.302	82.75
403.526	70.75
403.75	99.75
403.974	83.75
404.198	88.75
404.422	89.75
404.645	86.75
404.869	79.75
405.093	92.75
405.317	87.75
405.541	78.75
405.765	97.75
405.988	71.75
406.212	79.75
406.436	95.75
406.66	92.75
406.883	77.75
407.107	75.75
407.331	82.75
407.555	84.75
407.778	82.75
408.002	95.75
408.226	89.75
408.449	85.75
408.673	75.75
408.896	80.75
409.12	96.75
409.344	95.75
409.567	86.75
409.791	83.75
410.014	82.75
410.238	83.75
410.461	75.75
410.685	91.75
410.908	93.75
411.132	80.75
411.355	69.75
411.578	67.75
411.802	94.75
412.025	85.75
412.249	75.75
412.472	84.75
412.695	95.75
412.919	81.75
413.142	70.75
413.365	81.75
413.589	70.75
413.812	79.75
414.035	85.75
414.258	79.75
414.482	83.75
414.705	81.75
414.928	95.75
415.151	84.75
415.374	88.75
415.597	69.75
415.821	83.75
416.044	74.75
416.267	88.75
416.49	82.75
416.713	78.75
416.936	83.75
417.159	85.75
417.382	68.75
417.605	76.75
417.828	77.75
418.051	70.75
418.274	83.75
418.497	87.75
418.72	87.75
418.943	96.75
419.166	62.75
419.389	73.75
419.611	69.75
419.834	95.75
420.057	75.75
420.28	74.75
420.503	79.75
420.726	72.75
420.948	70.75
421.171	85.75
421.394	77.75
421.617	74.75
421.839	71.75
422.062	82.75
422.285	81.75
422.507	80.75
422.73	78.75
422.953	81.75
423.175	77.75
423.398	71.75
423.621	73.75
423.843	91.75
424.066	81.75
424.288	94.75
424.511	81.75
424.733	77.75
424.956	88.75
425.178	91.75
425.401	97.75
425.623	73.75
425.846	87.75
426.068	82.75
426.291	92.75
426.513	83.75
426.735	81.75
426.958	78.75
427.18	84.75
427.402	98.75
427.625	81.75
427.847	79.75
428.069	79.75
428.292	85.75
428.514	72.75
428.736	93.75
428.958	79.75
429.181	83.75
429.403	78.75
429.625	59.75
429.847	90.75
430.069	78.75
430.292	74.75
430.514	68.75
430.736	77.75
430.958	93.75
431.18	85.75
431.402	91.75
431.624	84.75
431.846	85.75
432.068	94.75
432.29	96.75
432.512	101.75
432.734	81.75
432.956	92.75
433.178	94.75
433.4	79.75
433.622	71.75
433.844	71.75
434.066	81.75
434.287	88.75
434.509	70.75
434.731	79.75
434.953	87.75
435.175	87.75
435.397	103.75
435.618	82.75
435.84	86.75
436.062	80.75
436.284	87.75
436.505	77.75
436.727	80.75
436.949	74.75
437.17	89.75
437.392	83.75
437.614	93.75
437.835	77.75
438.057	79.75
438.278	81.75
438.5	71.75
438.721	82.75
438.943	81.75
439.165	77.75
439.386	76.75
439.608	81.75
439.829	70.75
440.05	67.75
440.272	75.75
440.493	85.75
440.715	76.75
440.936	84.75
441.158	86.75
441.379	88.75
441.6	83.75
441.822	79.75
442.043	86.75
442.264	68.75
442.486	79.75
442.707	78.75
442.928	79.75
443.149	81.75
443.371	91.75
443.592	76.75
443.813	95.75
444.034	99.75
444.255	74.75
444.476	70.75
444.698	95.75
444.919	88.75
445.14	145.75
445.361	94.75
445.582	73.75
445.803	73.75
446.024	84.75
446.245	84.75
446.466	84.75
446.687	82.75
446.908	77.75
447.129	93.75
447.35	72.75
447.571	80.75
447.792	83.75
448.013	91.75
448.234	67.75
448.455	84.75
448.675	91.75
448.896	86.75
449.117	80.75
449.338	84.75
449.559	84.75
449.779	87.75
450	90.75
450.221	87.75
450.442	76.75
450.662	96.75
450.883	81.75
451.104	73.75
451.324	80.75
451.545	71.75
451.766	73.75
451.986	82.75
452.207	76.75
452.428	84.75
452.648	85.75
452.869	72.75
453.089	80.75
453.31	79.75
453.53	77.75
453.751	87.75
453.971	80.75
454.192	82.75
454.412	86.75
454.633	80.75
454.853	86.75
455.073	86.75
455.294	91.75
455.514	72.75
455.734	81.75
455.955	90.75
456.175	74.75
456.395	88.75
456.616	79.75
456.836	76.75
457.056	78.75
457.276	76.75
457.497	78.75
457.717	76.75
457.937	79.75
458.157	85.75
458.377	76.75
458.598	91.75
458.818	80.75
459.038	81.75
459.258	75.75
459.478	72.75
459.698	89.75
459.918	85.75
460.138	91.75
460.358	76.75
460.578	101.75
460.798	86.75
461.018	67.75
461.238	89.75
461.458	85.75
461.678	74.75
461.898	85.75
462.118	91.75
462.338	88.75
462.558	90.75
462.777	95.75
462.997	81.75
463.217	86.75
463.437	61.75
463.657	85.75
463.876	68.75
464.096	79.75
464.316	85.75
464.536	87.75
464.755	79.75
464.975	74.75
465.195	83.75
465.414	82.75
465.634	78.75
465.854	77.75
466.073	80.75
466.293	96.75
466.512	85.75
466.732	80.75
466.951	91.75
467.171	85.75
467.391	83.75
467.61	95.75
467.829	71.75
468.049	89.75
468.268	87.75
468.488	83.75
468.707	86.75
468.927	77.75
469.146	91.75
469.365	88.75
469.585	72.75
469.804	82.75
470.023	85.75
470.243	76.75
470.462	93.75
470.681	81.75
470.901	73.75
471.12	87.75
471.339	77.75
471.558	92.75
471.777	77.75
471.997	87.75
472.216	79.75
472.435	78.75
472.654	69.75
472.873	87.75
473.092	71.75
473.311	77.75
473.53	82.75
473.749	77.75
473.968	70.75
474.187	96.75
474.406	75.75
474.625	87.75
474.844	79.75
475.063	82.75
475.282	71.75
475.501	83.75
475.72	78.75
475.939	93.75
476.158	67.75
476.377	88.75
476.596	95.75
476.814	89.75
477.033	74.75
477.252	84.75
477.471	91.75
477.69	83.75
477.908	85.75
478.127	83.75
478.346	93.75
478.564	81.75
478.783	87.75
479.002	77.75
479.22	64.75
479.439	69.75
479.658	91.75
479.876	78.75
480.095	78.75
480.313	104.75
480.532	85.75
480.751	81.75
480.969	78.75
481.188	83.75
481.406	98.75
481.624	88.75
481.843	81.75
482.061	69.75
482.28	78.75
482.498	90.75
482.717	83.75
482.935	85.75
483.153	91.75
483.372	91.75
483.59	97.75
483.808	89.75
484.027	81.75
484.245	90.75
484.463	91.75
484.681	77.75
484.9	77.75
485.118	91.75
485.336	83.75
485.554	80.75
485.772	91.75
485.99	90.75
486.209	88.75
486.427	85.75
486.645	81.75
486.863	85.75
487.081	77.75
487.299	91.75
487.517	90.75
487.735	87.75
487.953	92.75
488.171	92.75
488.389	77.75
488.607	75.75
488.825	69.75
489.043	84.75
489.261	77.75
489.479	89.75
489.696	88.75
489.914	73.75
490.132	87.75
490.35	79.75
490.568	79.75
490.786	93.75
491.003	75.75
491.221	77.75
491.439	75.75
491.657	83.75
491.874	75.75
492.092	80.75
492.31	84.75
492.527	81.75
492.745	88.75
492.963	85.75
493.18	89.75
493.398	83.75
493.615	86.75
493.833	84.75
494.05	75.75
494.268	69.75
494.485	79.75
494.703	79.75
494.92	85.75
495.138	73.75
495.355	82.75
495.573	92.75
495.79	88.75
496.008	86.75
496.225	86.75
496.442	79.75
496.66	73.75
496.877	93.75
497.094	87.75
497.312	73.75
497.529	80.75
497.746	87.75
497.963	100.75
498.181	70.75
498.398	83.75
498.615	71.75
498.832	88.75
499.049	74.75
499.267	80.75
499.484	88.75
499.701	93.75
499.918	75.75
500.135	72.75
500.352	77.75
500.569	82.75
500.786	83.75
501.003	97.75
501.22	94.75
501.437	80.75
501.654	85.75
501.871	99.75
502.088	83.75
502.305	85.75
502.522	90.75
502.739	79.75
502.956	83.75
503.172	88.75
503.389	97.75
503.606	85.75
503.823	93.75
504.04	77.75
504.256	102.75
504.473	70.75
504.69	77.75
504.907	79.75
505.123	69.75
505.34	82.75
505.557	83.75
505.773	88.75
505.99	83.75
506.207	68.75
506.423	93.75
506.64	77.75
506.856	88.75
507.073	81.75
507.289	78.75
507.506	90.75
507.722	89.75
507.939	82.75
508.155	66.75
508.372	87.75
508.588	81.75
508.805	81.75
509.021	72.75
509.238	90.75
509.454	92.75
509.67	62.75
509.887	77.75
510.103	79.75
510.319	91.75
510.536	77.75
510.752	84.75
510.968	93.75
511.184	83.75
511.401	71.75
511.617	76.75
511.833	73.75
512.049	72.75
512.265	93.75
512.481	76.75
512.698	67.75
512.914	100.75
513.13	94.75
513.346	80.75
513.562	84.75
513.778	97.75
513.994	75.75
514.21	91.75
514.426	88.75
514.642	83.75
514.858	96.75
515.074	94.75
515.29	92.75
515.506	92.75
515.721	88.75
515.937	76.75
516.153	87.75
516.369	83.75
516.585	86.75
516.801	89.75
517.016	89.75
517.232	90.75
517.448	83.75
517.664	79.75
517.879	75.75
518.095	90.75
518.311	72.75
518.527	83.75
518.742	80.75
518.958	86.75
519.173	89.75
519.389	85.75
519.605	84.75
519.82	94.75
