Data from Background_1_HRD10591_00038.txt Node
Date: Wed Nov 05 14:39:17 EST 2025
User: Yrep
Spectrometer: HR+D1059
Trigger mode: 1
Integration Time (sec): 1.000000E-1
Scans to average: 1
Electric dark correction enabled: true
Nonlinearity correction enabled: false
Boxcar width: 0
XAxis mode: Wavelengths
Number of Pixels in Spectrum: 2048
>>>>>Begin Spectral Data<<<<<
223.165	-13.38
223.4	-13.38
223.635	-13.38
223.869	-31.38
224.104	-26.38
224.338	-9.38
224.573	-9.38
224.808	-7.38
225.042	0.62
225.277	-19.38
225.511	0.62
225.746	1.62
225.98	15.62
226.215	9.62
226.449	10.62
226.683	18.62
226.918	21.62
227.152	37.62
227.387	36.62
227.621	32.62
227.856	48.62
228.09	40.62
228.324	52.62
228.559	46.62
228.793	65.62
229.027	64.62
229.262	56.62
229.496	79.62
229.73	78.62
229.964	71.62
230.199	67.62
230.433	82.62
230.667	76.62
230.901	65.62
231.136	83.62
231.37	92.62
231.604	78.62
231.838	90.62
232.072	67.62
232.306	76.62
232.541	86.62
232.775	79.62
233.009	77.62
233.243	76.62
233.477	72.62
233.711	76.62
233.945	84.62
234.179	81.62
234.413	91.62
234.647	79.62
234.881	72.62
235.115	87.62
235.349	82.62
235.583	76.62
235.817	69.62
236.051	75.62
236.285	71.62
236.519	82.62
236.753	79.62
236.987	75.62
237.221	78.62
237.455	78.62
237.689	80.62
237.922	73.62
238.156	74.62
238.39	69.62
238.624	63.62
238.858	90.62
239.091	70.62
239.325	75.62
239.559	69.62
239.793	72.62
240.027	70.62
240.26	73.62
240.494	74.62
240.728	62.62
240.961	68.62
241.195	67.62
241.429	69.62
241.662	70.62
241.896	70.62
242.13	65.62
242.363	62.62
242.597	73.62
242.83	73.62
243.064	72.62
243.298	77.62
243.531	71.62
243.765	62.62
243.998	88.62
244.232	61.62
244.465	80.62
244.699	85.62
244.932	79.62
245.166	77.62
245.399	71.62
245.633	78.62
245.866	72.62
246.099	74.62
246.333	64.62
246.566	76.62
246.8	69.62
247.033	78.62
247.266	69.62
247.5	65.62
247.733	84.62
247.966	69.62
248.2	74.62
248.433	74.62
248.666	61.62
248.899	73.62
249.133	78.62
249.366	79.62
249.599	64.62
249.832	77.62
250.066	61.62
250.299	70.62
250.532	75.62
250.765	66.62
250.998	64.62
251.231	77.62
251.465	64.62
251.698	70.62
251.931	76.62
252.164	68.62
252.397	74.62
252.63	84.62
252.863	75.62
253.096	72.62
253.329	89.62
253.562	75.62
253.795	82.62
254.028	75.62
254.261	81.62
254.494	70.62
254.727	101.62
254.96	75.62
255.193	80.62
255.426	65.62
255.659	75.62
255.892	79.62
256.124	70.62
256.357	83.62
256.59	68.62
256.823	87.62
257.056	75.62
257.289	79.62
257.521	71.62
257.754	77.62
257.987	76.62
258.22	77.62
258.452	77.62
258.685	70.62
258.918	81.62
259.151	81.62
259.383	73.62
259.616	73.62
259.849	79.62
260.081	76.62
260.314	89.62
260.547	79.62
260.779	77.62
261.012	83.62
261.244	88.62
261.477	83.62
261.71	87.62
261.942	72.62
262.175	95.62
262.407	75.62
262.64	76.62
262.872	73.62
263.105	77.62
263.337	88.62
263.57	64.62
263.802	90.62
264.035	80.62
264.267	75.62
264.499	62.62
264.732	83.62
264.964	79.62
265.197	91.62
265.429	73.62
265.661	78.62
265.894	71.62
266.126	68.62
266.358	79.62
266.591	79.62
266.823	79.62
267.055	83.62
267.287	79.62
267.52	79.62
267.752	79.62
267.984	88.62
268.216	85.62
268.448	85.62
268.681	78.62
268.913	83.62
269.145	91.62
269.377	94.62
269.609	88.62
269.841	81.62
270.073	84.62
270.306	71.62
270.538	78.62
270.77	87.62
271.002	91.62
271.234	74.62
271.466	79.62
271.698	79.62
271.93	75.62
272.162	92.62
272.394	91.62
272.626	75.62
272.858	87.62
273.09	85.62
273.322	82.62
273.553	68.62
273.785	78.62
274.017	75.62
274.249	76.62
274.481	73.62
274.713	87.62
274.945	84.62
275.176	83.62
275.408	84.62
275.64	89.62
275.872	72.62
276.104	64.62
276.335	83.62
276.567	73.62
276.799	76.62
277.031	81.62
277.262	72.62
277.494	85.62
277.726	80.62
277.957	77.62
278.189	76.62
278.421	77.62
278.652	86.62
278.884	78.62
279.115	98.62
279.347	85.62
279.579	81.62
279.81	86.62
280.042	78.62
280.273	82.62
280.505	70.62
280.736	76.62
280.968	79.62
281.199	95.62
281.431	85.62
281.662	81.62
281.894	79.62
282.125	93.62
282.356	67.62
282.588	69.62
282.819	81.62
283.051	84.62
283.282	83.62
283.513	75.62
283.745	71.62
283.976	82.62
284.207	78.62
284.439	72.62
284.67	89.62
284.901	85.62
285.132	87.62
285.364	97.62
285.595	80.62
285.826	70.62
286.057	68.62
286.288	78.62
286.52	76.62
286.751	85.62
286.982	78.62
287.213	94.62
287.444	87.62
287.675	84.62
287.906	87.62
288.138	78.62
288.369	87.62
288.6	92.62
288.831	79.62
289.062	86.62
289.293	71.62
289.524	87.62
289.755	81.62
289.986	88.62
290.217	83.62
290.448	79.62
290.679	70.62
290.91	86.62
291.141	78.62
291.371	90.62
291.602	93.62
291.833	69.62
292.064	76.62
292.295	73.62
292.526	83.62
292.757	78.62
292.987	89.62
293.218	81.62
293.449	86.62
293.68	90.62
293.91	87.62
294.141	92.62
294.372	83.62
294.603	95.62
294.833	73.62
295.064	86.62
295.295	91.62
295.525	80.62
295.756	92.62
295.987	80.62
296.217	81.62
296.448	68.62
296.679	85.62
296.909	81.62
297.14	86.62
297.37	90.62
297.601	88.62
297.831	64.62
298.062	88.62
298.292	96.62
298.523	93.62
298.753	84.62
298.984	77.62
299.214	89.62
299.445	87.62
299.675	76.62
299.905	72.62
300.136	95.62
300.366	83.62
300.597	81.62
300.827	86.62
301.057	73.62
301.288	94.62
301.518	77.62
301.748	81.62
301.979	95.62
302.209	85.62
302.439	72.62
302.669	75.62
302.9	83.62
303.13	92.62
303.36	76.62
303.59	72.62
303.82	84.62
304.051	72.62
304.281	75.62
304.511	68.62
304.741	84.62
304.971	80.62
305.201	73.62
305.431	90.62
305.661	77.62
305.891	75.62
306.121	83.62
306.352	87.62
306.582	82.62
306.812	103.62
307.042	91.62
307.272	75.62
307.502	79.62
307.731	79.62
307.961	83.62
308.191	75.62
308.421	64.62
308.651	87.62
308.881	73.62
309.111	71.62
309.341	79.62
309.571	79.62
309.8	78.62
310.03	86.62
310.26	87.62
310.49	80.62
310.72	75.62
310.949	88.62
311.179	87.62
311.409	69.62
311.639	80.62
311.868	82.62
312.098	74.62
312.328	89.62
312.557	89.62
312.787	77.62
313.017	81.62
313.246	89.62
313.476	76.62
313.706	89.62
313.935	83.62
314.165	78.62
314.394	90.62
314.624	88.62
314.853	81.62
315.083	96.62
315.312	71.62
315.542	67.62
315.771	73.62
316.001	90.62
316.23	76.62
316.46	82.62
316.689	81.62
316.919	79.62
317.148	79.62
317.377	76.62
317.607	82.62
317.836	91.62
318.065	89.62
318.295	78.62
318.524	89.62
318.753	64.62
318.983	96.62
319.212	89.62
319.441	74.62
319.67	94.62
319.9	76.62
320.129	71.62
320.358	91.62
320.587	84.62
320.816	85.62
321.046	80.62
321.275	81.62
321.504	83.62
321.733	75.62
321.962	74.62
322.191	80.62
322.42	82.62
322.649	90.62
322.878	80.62
323.108	97.62
323.337	80.62
323.566	87.62
323.795	85.62
324.024	74.62
324.253	77.62
324.482	80.62
324.71	83.62
324.939	94.62
325.168	93.62
325.397	96.62
325.626	85.62
325.855	78.62
326.084	84.62
326.313	70.62
326.542	73.62
326.77	80.62
326.999	77.62
327.228	64.62
327.457	81.62
327.686	101.62
327.914	75.62
328.143	80.62
328.372	77.62
328.6	87.62
328.829	91.62
329.058	77.62
329.287	76.62
329.515	78.62
329.744	81.62
329.972	78.62
330.201	85.62
330.43	85.62
330.658	93.62
330.887	94.62
331.115	85.62
331.344	95.62
331.572	77.62
331.801	91.62
332.03	89.62
332.258	92.62
332.486	90.62
332.715	80.62
332.943	102.62
333.172	91.62
333.4	75.62
333.629	81.62
333.857	79.62
334.085	83.62
334.314	65.62
334.542	86.62
334.771	73.62
334.999	84.62
335.227	79.62
335.455	84.62
335.684	79.62
335.912	85.62
336.14	79.62
336.369	82.62
336.597	79.62
336.825	84.62
337.053	95.62
337.281	75.62
337.51	92.62
337.738	91.62
337.966	78.62
338.194	62.62
338.422	70.62
338.65	78.62
338.878	83.62
339.106	92.62
339.334	95.62
339.562	80.62
339.79	73.62
340.018	83.62
340.246	60.62
340.474	78.62
340.702	59.62
340.93	76.62
341.158	87.62
341.386	86.62
341.614	84.62
341.842	65.62
342.07	89.62
342.298	87.62
342.526	91.62
342.754	78.62
342.981	67.62
343.209	80.62
343.437	88.62
343.665	79.62
343.893	95.62
344.12	84.62
344.348	67.62
344.576	79.62
344.804	77.62
345.031	85.62
345.259	77.62
345.487	76.62
345.714	69.62
345.942	73.62
346.17	80.62
346.397	79.62
346.625	85.62
346.853	88.62
347.08	79.62
347.308	86.62
347.535	82.62
347.763	83.62
347.99	86.62
348.218	80.62
348.445	75.62
348.673	80.62
348.9	59.62
349.128	92.62
349.355	85.62
349.583	99.62
349.81	72.62
350.037	80.62
350.265	71.62
350.492	85.62
350.72	93.62
350.947	98.62
351.174	87.62
351.402	81.62
351.629	74.62
351.856	92.62
352.083	79.62
352.311	77.62
352.538	89.62
352.765	82.62
352.992	85.62
353.22	92.62
353.447	83.62
353.674	87.62
353.901	84.62
354.128	82.62
354.355	65.62
354.583	82.62
354.81	79.62
355.037	87.62
355.264	71.62
355.491	70.62
355.718	77.62
355.945	74.62
356.172	75.62
356.399	79.62
356.626	77.62
356.853	78.62
357.08	74.62
357.307	72.62
357.534	70.62
357.761	76.62
357.988	73.62
358.215	84.62
358.441	79.62
358.668	76.62
358.895	88.62
359.122	89.62
359.349	87.62
359.576	95.62
359.802	76.62
360.029	74.62
360.256	79.62
360.483	84.62
360.709	73.62
360.936	79.62
361.163	70.62
361.39	79.62
361.616	80.62
361.843	97.62
362.07	87.62
362.296	89.62
362.523	74.62
362.749	75.62
362.976	71.62
363.203	84.62
363.429	69.62
363.656	87.62
363.882	79.62
364.109	74.62
364.335	95.62
364.562	85.62
364.788	79.62
365.015	73.62
365.241	75.62
365.468	85.62
365.694	69.62
365.92	68.62
366.147	76.62
366.373	77.62
366.599	79.62
366.826	82.62
367.052	75.62
367.278	81.62
367.505	73.62
367.731	82.62
367.957	70.62
368.184	87.62
368.41	68.62
368.636	81.62
368.862	68.62
369.089	70.62
369.315	69.62
369.541	77.62
369.767	77.62
369.993	76.62
370.219	61.62
370.445	67.62
370.672	85.62
370.898	89.62
371.124	81.62
371.35	87.62
371.576	77.62
371.802	65.62
372.028	80.62
372.254	83.62
372.48	91.62
372.706	95.62
372.932	64.62
373.158	89.62
373.384	83.62
373.61	108.62
373.835	79.62
374.061	94.62
374.287	73.62
374.513	85.62
374.739	81.62
374.965	78.62
375.191	78.62
375.416	78.62
375.642	78.62
375.868	76.62
376.094	76.62
376.319	71.62
376.545	101.62
376.771	77.62
376.997	72.62
377.222	77.62
377.448	61.62
377.674	86.62
377.899	72.62
378.125	81.62
378.35	78.62
378.576	70.62
378.802	73.62
379.027	74.62
379.253	67.62
379.478	85.62
379.704	74.62
379.929	84.62
380.155	85.62
380.38	77.62
380.606	76.62
380.831	77.62
381.057	84.62
381.282	83.62
381.507	80.62
381.733	61.62
381.958	72.62
382.184	83.62
382.409	87.62
382.634	88.62
382.86	87.62
383.085	94.62
383.31	92.62
383.535	79.62
383.761	83.62
383.986	69.62
384.211	86.62
384.436	77.62
384.662	76.62
384.887	93.62
385.112	76.62
385.337	65.62
385.562	64.62
385.787	80.62
386.013	91.62
386.238	86.62
386.463	82.62
386.688	79.62
386.913	81.62
387.138	88.62
387.363	68.62
387.588	85.62
387.813	70.62
388.038	65.62
388.263	88.62
388.488	83.62
388.713	80.62
388.938	78.62
389.163	81.62
389.387	86.62
389.612	85.62
389.837	77.62
390.062	69.62
390.287	88.62
390.512	85.62
390.736	87.62
390.961	84.62
391.186	72.62
391.411	84.62
391.636	67.62
391.86	81.62
392.085	69.62
392.31	70.62
392.534	67.62
392.759	77.62
392.984	81.62
393.208	75.62
393.433	84.62
393.658	72.62
393.882	73.62
394.107	72.62
394.331	93.62
394.556	63.62
394.78	87.62
395.005	62.62
395.229	71.62
395.454	75.62
395.678	78.62
395.903	68.62
396.127	74.62
396.352	78.62
396.576	87.62
396.801	72.62
397.025	76.62
397.249	93.62
397.474	80.62
397.698	87.62
397.922	94.62
398.147	85.62
398.371	83.62
398.595	73.62
398.82	69.62
399.044	71.62
399.268	85.62
399.492	81.62
399.717	74.62
399.941	77.62
400.165	77.62
400.389	78.62
400.613	81.62
400.837	72.62
401.062	75.62
401.286	84.62
401.51	88.62
401.734	81.62
401.958	76.62
402.182	85.62
402.406	76.62
402.63	81.62
402.854	83.62
403.078	88.62
403.302	75.62
403.526	92.62
403.75	79.62
403.974	78.62
404.198	80.62
404.422	82.62
404.645	89.62
404.869	76.62
405.093	73.62
405.317	74.62
405.541	69.62
405.765	65.62
405.988	81.62
406.212	95.62
406.436	82.62
406.66	83.62
406.883	81.62
407.107	69.62
407.331	69.62
407.555	72.62
407.778	69.62
408.002	79.62
408.226	67.62
408.449	71.62
408.673	75.62
408.896	86.62
409.12	80.62
409.344	89.62
409.567	78.62
409.791	79.62
410.014	66.62
410.238	78.62
410.461	83.62
410.685	85.62
410.908	86.62
411.132	79.62
411.355	70.62
411.578	85.62
411.802	76.62
412.025	59.62
412.249	63.62
412.472	81.62
412.695	72.62
412.919	76.62
413.142	71.62
413.365	71.62
413.589	77.62
413.812	79.62
414.035	80.62
414.258	93.62
414.482	75.62
414.705	80.62
414.928	84.62
415.151	76.62
415.374	73.62
415.597	79.62
415.821	84.62
416.044	82.62
416.267	66.62
416.49	85.62
416.713	86.62
416.936	73.62
417.159	69.62
417.382	69.62
417.605	73.62
417.828	80.62
418.051	69.62
418.274	79.62
418.497	72.62
418.72	83.62
418.943	75.62
419.166	69.62
419.389	82.62
419.611	81.62
419.834	80.62
420.057	84.62
420.28	79.62
420.503	87.62
420.726	73.62
420.948	66.62
421.171	85.62
421.394	73.62
421.617	81.62
421.839	85.62
422.062	76.62
422.285	83.62
422.507	69.62
422.73	77.62
422.953	75.62
423.175	71.62
423.398	72.62
423.621	67.62
423.843	85.62
424.066	71.62
424.288	77.62
424.511	68.62
424.733	78.62
424.956	69.62
425.178	74.62
425.401	66.62
425.623	65.62
425.846	87.62
426.068	69.62
426.291	79.62
426.513	77.62
426.735	77.62
426.958	82.62
427.18	85.62
427.402	84.62
427.625	85.62
427.847	73.62
428.069	86.62
428.292	77.62
428.514	79.62
428.736	78.62
428.958	79.62
429.181	88.62
429.403	86.62
429.625	68.62
429.847	71.62
430.069	79.62
430.292	71.62
430.514	72.62
430.736	72.62
430.958	78.62
431.18	80.62
431.402	73.62
431.624	75.62
431.846	82.62
432.068	72.62
432.29	59.62
432.512	75.62
432.734	75.62
432.956	83.62
433.178	73.62
433.4	90.62
433.622	72.62
433.844	71.62
434.066	76.62
434.287	90.62
434.509	76.62
434.731	74.62
434.953	69.62
435.175	86.62
435.397	78.62
435.618	89.62
435.84	92.62
436.062	80.62
436.284	72.62
436.505	84.62
436.727	83.62
436.949	79.62
437.17	61.62
437.392	61.62
437.614	73.62
437.835	72.62
438.057	67.62
438.278	76.62
438.5	74.62
438.721	73.62
438.943	75.62
439.165	69.62
439.386	61.62
439.608	79.62
439.829	80.62
440.05	75.62
440.272	68.62
440.493	82.62
440.715	77.62
440.936	75.62
441.158	69.62
441.379	72.62
441.6	80.62
441.822	83.62
442.043	75.62
442.264	84.62
442.486	69.62
442.707	81.62
442.928	89.62
443.149	80.62
443.371	81.62
443.592	78.62
443.813	72.62
444.034	80.62
444.255	70.62
444.476	65.62
444.698	85.62
444.919	57.62
445.14	134.62
445.361	111.62
445.582	72.62
445.803	55.62
446.024	84.62
446.245	77.62
446.466	72.62
446.687	67.62
446.908	70.62
447.129	81.62
447.35	65.62
447.571	64.62
447.792	73.62
448.013	81.62
448.234	91.62
448.455	74.62
448.675	75.62
448.896	80.62
449.117	75.62
449.338	83.62
449.559	83.62
449.779	79.62
450	90.62
450.221	71.62
450.442	86.62
450.662	83.62
450.883	69.62
451.104	77.62
451.324	80.62
451.545	76.62
451.766	91.62
451.986	76.62
452.207	84.62
452.428	77.62
452.648	85.62
452.869	68.62
453.089	67.62
453.31	77.62
453.53	87.62
453.751	74.62
453.971	73.62
454.192	81.62
454.412	66.62
454.633	73.62
454.853	76.62
455.073	84.62
455.294	73.62
455.514	82.62
455.734	75.62
455.955	71.62
456.175	77.62
456.395	77.62
456.616	73.62
456.836	73.62
457.056	69.62
457.276	77.62
457.497	77.62
457.717	78.62
457.937	73.62
458.157	79.62
458.377	72.62
458.598	69.62
458.818	74.62
459.038	56.62
459.258	72.62
459.478	83.62
459.698	79.62
459.918	70.62
460.138	69.62
460.358	81.62
460.578	83.62
460.798	81.62
461.018	87.62
461.238	85.62
461.458	87.62
461.678	70.62
461.898	78.62
462.118	72.62
462.338	80.62
462.558	75.62
462.777	79.62
462.997	78.62
463.217	74.62
463.437	69.62
463.657	69.62
463.876	72.62
464.096	81.62
464.316	64.62
464.536	90.62
464.755	66.62
464.975	73.62
465.195	67.62
465.414	79.62
465.634	68.62
465.854	64.62
466.073	70.62
466.293	89.62
466.512	76.62
466.732	76.62
466.951	79.62
467.171	59.62
467.391	76.62
467.61	73.62
467.829	82.62
468.049	85.62
468.268	87.62
468.488	77.62
468.707	79.62
468.927	82.62
469.146	75.62
469.365	78.62
469.585	73.62
469.804	75.62
470.023	68.62
470.243	76.62
470.462	75.62
470.681	77.62
470.901	87.62
471.12	77.62
471.339	80.62
471.558	73.62
471.777	70.62
471.997	72.62
472.216	95.62
472.435	82.62
472.654	72.62
472.873	92.62
473.092	69.62
473.311	70.62
473.53	83.62
473.749	75.62
473.968	73.62
474.187	80.62
474.406	67.62
474.625	77.62
474.844	88.62
475.063	86.62
475.282	68.62
475.501	78.62
475.72	75.62
475.939	61.62
476.158	63.62
476.377	76.62
476.596	81.62
476.814	74.62
477.033	79.62
477.252	72.62
477.471	70.62
477.69	59.62
477.908	72.62
478.127	73.62
478.346	68.62
478.564	79.62
478.783	69.62
479.002	68.62
479.22	55.62
479.439	65.62
479.658	72.62
479.876	65.62
480.095	79.62
480.313	91.62
480.532	66.62
480.751	78.62
480.969	71.62
481.188	85.62
481.406	76.62
481.624	81.62
481.843	81.62
482.061	69.62
482.28	73.62
482.498	84.62
482.717	85.62
482.935	80.62
483.153	83.62
483.372	73.62
483.59	64.62
483.808	79.62
484.027	73.62
484.245	73.62
484.463	84.62
484.681	95.62
484.9	66.62
485.118	86.62
485.336	80.62
485.554	77.62
485.772	83.62
485.99	87.62
486.209	77.62
486.427	69.62
486.645	78.62
486.863	72.62
487.081	74.62
487.299	91.62
487.517	91.62
487.735	77.62
487.953	75.62
488.171	84.62
488.389	88.62
488.607	64.62
488.825	77.62
489.043	77.62
489.261	79.62
489.479	81.62
489.696	78.62
489.914	75.62
490.132	83.62
490.35	84.62
490.568	74.62
490.786	80.62
491.003	91.62
491.221	58.62
491.439	65.62
491.657	73.62
491.874	76.62
492.092	59.62
492.31	87.62
492.527	93.62
492.745	76.62
492.963	77.62
493.18	74.62
493.398	75.62
493.615	86.62
493.833	82.62
494.05	83.62
494.268	79.62
494.485	79.62
494.703	86.62
494.92	78.62
495.138	74.62
495.355	80.62
495.573	81.62
495.79	85.62
496.008	78.62
496.225	79.62
496.442	75.62
496.66	68.62
496.877	54.62
497.094	78.62
497.312	84.62
497.529	85.62
497.746	88.62
497.963	78.62
498.181	89.62
498.398	80.62
498.615	79.62
498.832	88.62
499.049	82.62
499.267	73.62
499.484	91.62
499.701	77.62
499.918	79.62
500.135	78.62
500.352	87.62
500.569	64.62
500.786	81.62
501.003	84.62
501.22	65.62
501.437	84.62
501.654	66.62
501.871	74.62
502.088	88.62
502.305	69.62
502.522	88.62
502.739	86.62
502.956	68.62
503.172	80.62
503.389	76.62
503.606	73.62
503.823	79.62
504.04	72.62
504.256	85.62
504.473	84.62
504.69	72.62
504.907	67.62
505.123	76.62
505.34	86.62
505.557	83.62
505.773	89.62
505.99	78.62
506.207	72.62
506.423	75.62
506.64	79.62
506.856	69.62
507.073	91.62
507.289	81.62
507.506	79.62
507.722	80.62
507.939	72.62
508.155	80.62
508.372	73.62
508.588	71.62
508.805	88.62
509.021	91.62
509.238	92.62
509.454	92.62
509.67	88.62
509.887	71.62
510.103	69.62
510.319	80.62
510.536	70.62
510.752	85.62
510.968	61.62
511.184	78.62
511.401	69.62
511.617	94.62
511.833	78.62
512.049	85.62
512.265	75.62
512.481	75.62
512.698	75.62
512.914	78.62
513.13	93.62
513.346	80.62
513.562	84.62
513.778	81.62
513.994	69.62
514.21	65.62
514.426	80.62
514.642	83.62
514.858	56.62
515.074	81.62
515.29	79.62
515.506	97.62
515.721	89.62
515.937	78.62
516.153	71.62
516.369	81.62
516.585	73.62
516.801	80.62
517.016	71.62
517.232	76.62
517.448	89.62
517.664	75.62
517.879	81.62
518.095	76.62
518.311	82.62
518.527	79.62
518.742	84.62
518.958	73.62
519.173	86.62
519.389	92.62
519.605	92.62
519.82	80.62
520.036	88.62
520.251	75.62
