Data from Background_1_HRD10591_00058.txt Node
Date: Wed Nov 05 14:39:26 EST 2025
User: Yrep
Spectrometer: HR+D1059
Trigger mode: 1
Integration Time (sec): 1.000000E-1
Scans to average: 1
Electric dark correction enabled: true
Nonlinearity correction enabled: false
Boxcar width: 0
XAxis mode: Wavelengths
Number of Pixels in Spectrum: 2048
>>>>>Begin Spectral Data<<<<<
223.165	-17.56
223.4	-17.56
223.635	-17.56
223.869	-8.56
224.104	-26.56
224.338	-6.56
224.573	-17.56
224.808	-2.56
225.042	-10.56
225.277	0.44
225.511	2.44
225.746	-18.56
225.98	0.44
226.215	22.44
226.449	30.44
226.683	11.44
226.918	17.44
227.152	23.44
227.387	32.44
227.621	33.44
227.856	47.44
228.09	36.44
228.324	55.44
228.559	60.44
228.793	61.44
229.027	59.44
229.262	76.44
229.496	65.44
229.73	59.44
229.964	71.44
230.199	71.44
230.433	82.44
230.667	71.44
230.901	63.44
231.136	72.44
231.37	89.44
231.604	84.44
231.838	75.44
232.072	65.44
232.306	79.44
232.541	89.44
232.775	89.44
233.009	82.44
233.243	85.44
233.477	73.44
233.711	58.44
233.945	83.44
234.179	88.44
234.413	81.44
234.647	97.44
234.881	76.44
235.115	72.44
235.349	86.44
235.583	83.44
235.817	82.44
236.051	79.44
236.285	72.44
236.519	76.44
236.753	75.44
236.987	71.44
237.221	88.44
237.455	75.44
237.689	81.44
237.922	74.44
238.156	65.44
238.39	93.44
238.624	78.44
238.858	79.44
239.091	74.44
239.325	85.44
239.559	71.44
239.793	67.44
240.027	76.44
240.26	67.44
240.494	89.44
240.728	73.44
240.961	64.44
241.195	76.44
241.429	74.44
241.662	85.44
241.896	70.44
242.13	68.44
242.363	86.44
242.597	88.44
242.83	81.44
243.064	94.44
243.298	65.44
243.531	76.44
243.765	71.44
243.998	75.44
244.232	86.44
244.465	82.44
244.699	92.44
244.932	79.44
245.166	66.44
245.399	57.44
245.633	70.44
245.866	75.44
246.099	77.44
246.333	81.44
246.566	62.44
246.8	75.44
247.033	81.44
247.266	71.44
247.5	69.44
247.733	92.44
247.966	79.44
248.2	73.44
248.433	69.44
248.666	83.44
248.899	79.44
249.133	66.44
249.366	79.44
249.599	66.44
249.832	74.44
250.066	82.44
250.299	73.44
250.532	76.44
250.765	72.44
250.998	80.44
251.231	73.44
251.465	88.44
251.698	75.44
251.931	73.44
252.164	80.44
252.397	69.44
252.63	75.44
252.863	66.44
253.096	77.44
253.329	77.44
253.562	73.44
253.795	87.44
254.028	78.44
254.261	89.44
254.494	80.44
254.727	69.44
254.96	62.44
255.193	73.44
255.426	82.44
255.659	73.44
255.892	68.44
256.124	90.44
256.357	74.44
256.59	70.44
256.823	82.44
257.056	83.44
257.289	72.44
257.521	86.44
257.754	87.44
257.987	70.44
258.22	69.44
258.452	79.44
258.685	75.44
258.918	73.44
259.151	77.44
259.383	79.44
259.616	91.44
259.849	89.44
260.081	79.44
260.314	90.44
260.547	76.44
260.779	85.44
261.012	78.44
261.244	76.44
261.477	81.44
261.71	61.44
261.942	80.44
262.175	83.44
262.407	82.44
262.64	77.44
262.872	73.44
263.105	89.44
263.337	89.44
263.57	85.44
263.802	78.44
264.035	77.44
264.267	79.44
264.499	90.44
264.732	75.44
264.964	76.44
265.197	76.44
265.429	72.44
265.661	62.44
265.894	76.44
266.126	77.44
266.358	77.44
266.591	81.44
266.823	86.44
267.055	77.44
267.287	81.44
267.52	79.44
267.752	78.44
267.984	90.44
268.216	77.44
268.448	83.44
268.681	85.44
268.913	79.44
269.145	73.44
269.377	85.44
269.609	98.44
269.841	71.44
270.073	93.44
270.306	87.44
270.538	81.44
270.77	75.44
271.002	75.44
271.234	73.44
271.466	76.44
271.698	85.44
271.93	83.44
272.162	99.44
272.394	76.44
272.626	75.44
272.858	79.44
273.09	75.44
273.322	80.44
273.553	77.44
273.785	68.44
274.017	86.44
274.249	95.44
274.481	82.44
274.713	83.44
274.945	79.44
275.176	86.44
275.408	80.44
275.64	81.44
275.872	73.44
276.104	76.44
276.335	74.44
276.567	83.44
276.799	81.44
277.031	77.44
277.262	73.44
277.494	74.44
277.726	85.44
277.957	74.44
278.189	66.44
278.421	78.44
278.652	78.44
278.884	89.44
279.115	89.44
279.347	85.44
279.579	82.44
279.81	77.44
280.042	83.44
280.273	86.44
280.505	87.44
280.736	98.44
280.968	81.44
281.199	89.44
281.431	79.44
281.662	88.44
281.894	93.44
282.125	83.44
282.356	74.44
282.588	80.44
282.819	69.44
283.051	88.44
283.282	80.44
283.513	86.44
283.745	75.44
283.976	87.44
284.207	72.44
284.439	79.44
284.67	82.44
284.901	95.44
285.132	90.44
285.364	84.44
285.595	86.44
285.826	76.44
286.057	85.44
286.288	68.44
286.52	77.44
286.751	78.44
286.982	80.44
287.213	87.44
287.444	93.44
287.675	90.44
287.906	76.44
288.138	78.44
288.369	82.44
288.6	78.44
288.831	83.44
289.062	88.44
289.293	92.44
289.524	68.44
289.755	71.44
289.986	96.44
290.217	83.44
290.448	90.44
290.679	94.44
290.91	86.44
291.141	74.44
291.371	81.44
291.602	80.44
291.833	85.44
292.064	91.44
292.295	86.44
292.526	71.44
292.757	85.44
292.987	65.44
293.218	73.44
293.449	78.44
293.68	76.44
293.91	101.44
294.141	72.44
294.372	83.44
294.603	85.44
294.833	83.44
295.064	84.44
295.295	66.44
295.525	66.44
295.756	85.44
295.987	80.44
296.217	75.44
296.448	89.44
296.679	73.44
296.909	75.44
297.14	75.44
297.37	87.44
297.601	92.44
297.831	81.44
298.062	86.44
298.292	85.44
298.523	90.44
298.753	91.44
298.984	79.44
299.214	86.44
299.445	82.44
299.675	76.44
299.905	95.44
300.136	71.44
300.366	86.44
300.597	79.44
300.827	89.44
301.057	81.44
301.288	94.44
301.518	87.44
301.748	78.44
301.979	87.44
302.209	77.44
302.439	84.44
302.669	92.44
302.9	70.44
303.13	90.44
303.36	95.44
303.59	93.44
303.82	81.44
304.051	84.44
304.281	66.44
304.511	89.44
304.741	85.44
304.971	88.44
305.201	84.44
305.431	83.44
305.661	91.44
305.891	72.44
306.121	83.44
306.352	89.44
306.582	85.44
306.812	83.44
307.042	71.44
307.272	79.44
307.502	91.44
307.731	91.44
307.961	94.44
308.191	82.44
308.421	78.44
308.651	82.44
308.881	81.44
309.111	61.44
309.341	91.44
309.571	83.44
309.8	89.44
310.03	73.44
310.26	89.44
310.49	82.44
310.72	75.44
310.949	93.44
311.179	75.44
311.409	92.44
311.639	81.44
311.868	79.44
312.098	73.44
312.328	78.44
312.557	99.44
312.787	88.44
313.017	85.44
313.246	72.44
313.476	90.44
313.706	69.44
313.935	89.44
314.165	83.44
314.394	89.44
314.624	82.44
314.853	71.44
315.083	75.44
315.312	99.44
315.542	88.44
315.771	85.44
316.001	85.44
316.23	86.44
316.46	78.44
316.689	83.44
316.919	73.44
317.148	87.44
317.377	73.44
317.607	70.44
317.836	77.44
318.065	61.44
318.295	80.44
318.524	94.44
318.753	79.44
318.983	74.44
319.212	79.44
319.441	77.44
319.67	96.44
319.9	88.44
320.129	83.44
320.358	79.44
320.587	90.44
320.816	79.44
321.046	77.44
321.275	86.44
321.504	85.44
321.733	78.44
321.962	71.44
322.191	89.44
322.42	87.44
322.649	87.44
322.878	73.44
323.108	87.44
323.337	79.44
323.566	83.44
323.795	85.44
324.024	75.44
324.253	91.44
324.482	88.44
324.71	78.44
324.939	80.44
325.168	88.44
325.397	101.44
325.626	70.44
325.855	73.44
326.084	90.44
326.313	85.44
326.542	81.44
326.77	77.44
326.999	76.44
327.228	75.44
327.457	92.44
327.686	75.44
327.914	64.44
328.143	80.44
328.372	82.44
328.6	79.44
328.829	81.44
329.058	71.44
329.287	81.44
329.515	68.44
329.744	85.44
329.972	75.44
330.201	67.44
330.43	66.44
330.658	84.44
330.887	81.44
331.115	85.44
331.344	89.44
331.572	82.44
331.801	67.44
332.03	75.44
332.258	91.44
332.486	79.44
332.715	83.44
332.943	83.44
333.172	86.44
333.4	73.44
333.629	81.44
333.857	89.44
334.085	85.44
334.314	84.44
334.542	82.44
334.771	98.44
334.999	84.44
335.227	67.44
335.455	87.44
335.684	89.44
335.912	71.44
336.14	86.44
336.369	87.44
336.597	76.44
336.825	95.44
337.053	96.44
337.281	82.44
337.51	78.44
337.738	78.44
337.966	91.44
338.194	80.44
338.422	71.44
338.65	86.44
338.878	76.44
339.106	71.44
339.334	88.44
339.562	77.44
339.79	67.44
340.018	83.44
340.246	80.44
340.474	67.44
340.702	96.44
340.93	81.44
341.158	78.44
341.386	89.44
341.614	87.44
341.842	82.44
342.07	87.44
342.298	88.44
342.526	78.44
342.754	73.44
342.981	85.44
343.209	96.44
343.437	91.44
343.665	79.44
343.893	85.44
344.12	74.44
344.348	74.44
344.576	86.44
344.804	80.44
345.031	81.44
345.259	82.44
345.487	91.44
345.714	75.44
345.942	86.44
346.17	78.44
346.397	80.44
346.625	84.44
346.853	87.44
347.08	82.44
347.308	83.44
347.535	76.44
347.763	82.44
347.99	93.44
348.218	73.44
348.445	73.44
348.673	74.44
348.9	75.44
349.128	68.44
349.355	81.44
349.583	83.44
349.81	84.44
350.037	70.44
350.265	86.44
350.492	89.44
350.72	81.44
350.947	71.44
351.174	89.44
351.402	74.44
351.629	91.44
351.856	88.44
352.083	83.44
352.311	84.44
352.538	74.44
352.765	85.44
352.992	97.44
353.22	78.44
353.447	90.44
353.674	96.44
353.901	85.44
354.128	78.44
354.355	78.44
354.583	80.44
354.81	83.44
355.037	85.44
355.264	75.44
355.491	95.44
355.718	82.44
355.945	94.44
356.172	76.44
356.399	86.44
356.626	88.44
356.853	92.44
357.08	83.44
357.307	88.44
357.534	92.44
357.761	86.44
357.988	87.44
358.215	95.44
358.441	82.44
358.668	86.44
358.895	78.44
359.122	87.44
359.349	86.44
359.576	94.44
359.802	86.44
360.029	82.44
360.256	73.44
360.483	79.44
360.709	96.44
360.936	83.44
361.163	92.44
361.39	72.44
361.616	80.44
361.843	65.44
362.07	85.44
362.296	74.44
362.523	78.44
362.749	73.44
362.976	75.44
363.203	80.44
363.429	86.44
363.656	87.44
363.882	63.44
364.109	79.44
364.335	86.44
364.562	78.44
364.788	81.44
365.015	72.44
365.241	89.44
365.468	81.44
365.694	81.44
365.92	82.44
366.147	92.44
366.373	75.44
366.599	74.44
366.826	105.44
367.052	77.44
367.278	84.44
367.505	92.44
367.731	81.44
367.957	85.44
368.184	86.44
368.41	78.44
368.636	79.44
368.862	87.44
369.089	62.44
369.315	89.44
369.541	81.44
369.767	83.44
369.993	77.44
370.219	80.44
370.445	75.44
370.672	92.44
370.898	85.44
371.124	79.44
371.35	85.44
371.576	68.44
371.802	71.44
372.028	85.44
372.254	78.44
372.48	70.44
372.706	89.44
372.932	80.44
373.158	78.44
373.384	87.44
373.61	81.44
373.835	75.44
374.061	76.44
374.287	93.44
374.513	81.44
374.739	86.44
374.965	77.44
375.191	76.44
375.416	87.44
375.642	78.44
375.868	75.44
376.094	90.44
376.319	99.44
376.545	73.44
376.771	67.44
376.997	75.44
377.222	85.44
377.448	88.44
377.674	71.44
377.899	59.44
378.125	80.44
378.35	76.44
378.576	77.44
378.802	71.44
379.027	78.44
379.253	90.44
379.478	70.44
379.704	83.44
379.929	72.44
380.155	70.44
380.38	67.44
380.606	63.44
380.831	84.44
381.057	93.44
381.282	83.44
381.507	74.44
381.733	83.44
381.958	70.44
382.184	72.44
382.409	81.44
382.634	76.44
382.86	92.44
383.085	83.44
383.31	74.44
383.535	75.44
383.761	90.44
383.986	89.44
384.211	86.44
384.436	80.44
384.662	87.44
384.887	82.44
385.112	63.44
385.337	73.44
385.562	79.44
385.787	74.44
386.013	82.44
386.238	71.44
386.463	61.44
386.688	93.44
386.913	71.44
387.138	91.44
387.363	80.44
387.588	77.44
387.813	80.44
388.038	87.44
388.263	79.44
388.488	73.44
388.713	75.44
388.938	68.44
389.163	80.44
389.387	97.44
389.612	82.44
389.837	89.44
390.062	77.44
390.287	72.44
390.512	86.44
390.736	75.44
390.961	84.44
391.186	89.44
391.411	71.44
391.636	74.44
391.86	82.44
392.085	89.44
392.31	85.44
392.534	72.44
392.759	71.44
392.984	85.44
393.208	97.44
393.433	86.44
393.658	85.44
393.882	81.44
394.107	65.44
394.331	81.44
394.556	81.44
394.78	83.44
395.005	77.44
395.229	95.44
395.454	78.44
395.678	97.44
395.903	89.44
396.127	97.44
396.352	93.44
396.576	78.44
396.801	83.44
397.025	88.44
397.249	82.44
397.474	87.44
397.698	72.44
397.922	77.44
398.147	87.44
398.371	77.44
398.595	78.44
398.82	72.44
399.044	63.44
399.268	81.44
399.492	71.44
399.717	72.44
399.941	87.44
400.165	71.44
400.389	86.44
400.613	59.44
400.837	75.44
401.062	77.44
401.286	90.44
401.51	82.44
401.734	83.44
401.958	78.44
402.182	67.44
402.406	78.44
402.63	82.44
402.854	78.44
403.078	65.44
403.302	74.44
403.526	82.44
403.75	82.44
403.974	81.44
404.198	91.44
404.422	68.44
404.645	62.44
404.869	79.44
405.093	80.44
405.317	79.44
405.541	79.44
405.765	86.44
405.988	82.44
406.212	81.44
406.436	74.44
406.66	84.44
406.883	82.44
407.107	75.44
407.331	73.44
407.555	74.44
407.778	70.44
408.002	76.44
408.226	90.44
408.449	65.44
408.673	72.44
408.896	71.44
409.12	77.44
409.344	78.44
409.567	80.44
409.791	70.44
410.014	71.44
410.238	91.44
410.461	82.44
410.685	78.44
410.908	74.44
411.132	82.44
411.355	77.44
411.578	89.44
411.802	78.44
412.025	82.44
412.249	68.44
412.472	73.44
412.695	66.44
412.919	87.44
413.142	71.44
413.365	87.44
413.589	81.44
413.812	82.44
414.035	69.44
414.258	86.44
414.482	88.44
414.705	77.44
414.928	89.44
415.151	72.44
415.374	67.44
415.597	72.44
415.821	76.44
416.044	84.44
416.267	76.44
416.49	81.44
416.713	73.44
416.936	85.44
417.159	72.44
417.382	92.44
417.605	83.44
417.828	88.44
418.051	69.44
418.274	93.44
418.497	84.44
418.72	79.44
418.943	85.44
419.166	73.44
419.389	81.44
419.611	81.44
419.834	67.44
420.057	69.44
420.28	80.44
420.503	81.44
420.726	81.44
420.948	71.44
421.171	78.44
421.394	77.44
421.617	81.44
421.839	75.44
422.062	73.44
422.285	96.44
422.507	91.44
422.73	71.44
422.953	81.44
423.175	71.44
423.398	85.44
423.621	71.44
423.843	86.44
424.066	83.44
424.288	77.44
424.511	86.44
424.733	77.44
424.956	87.44
425.178	88.44
425.401	88.44
425.623	88.44
425.846	70.44
426.068	83.44
426.291	82.44
426.513	81.44
426.735	88.44
426.958	78.44
427.18	93.44
427.402	79.44
427.625	67.44
427.847	72.44
428.069	78.44
428.292	82.44
428.514	83.44
428.736	80.44
428.958	75.44
429.181	66.44
429.403	77.44
429.625	81.44
429.847	89.44
430.069	97.44
430.292	92.44
430.514	85.44
430.736	74.44
430.958	81.44
431.18	86.44
431.402	63.44
431.624	70.44
431.846	81.44
432.068	75.44
432.29	97.44
432.512	92.44
432.734	69.44
432.956	80.44
433.178	80.44
433.4	85.44
433.622	88.44
433.844	82.44
434.066	81.44
434.287	81.44
434.509	79.44
434.731	67.44
434.953	91.44
435.175	85.44
435.397	75.44
435.618	85.44
435.84	79.44
436.062	66.44
436.284	73.44
436.505	79.44
436.727	80.44
436.949	79.44
437.17	94.44
437.392	68.44
437.614	80.44
437.835	72.44
438.057	75.44
438.278	85.44
438.5	80.44
438.721	78.44
438.943	78.44
439.165	84.44
439.386	69.44
439.608	72.44
439.829	75.44
440.05	78.44
440.272	82.44
440.493	81.44
440.715	74.44
440.936	83.44
441.158	78.44
441.379	70.44
441.6	75.44
441.822	76.44
442.043	78.44
442.264	80.44
442.486	74.44
442.707	70.44
442.928	78.44
443.149	65.44
443.371	82.44
443.592	78.44
443.813	80.44
444.034	67.44
444.255	82.44
444.476	90.44
444.698	95.44
444.919	80.44
445.14	152.44
445.361	106.44
445.582	76.44
445.803	63.44
446.024	81.44
446.245	75.44
446.466	75.44
446.687	81.44
446.908	71.44
447.129	81.44
447.35	84.44
447.571	73.44
447.792	89.44
448.013	78.44
448.234	86.44
448.455	90.44
448.675	81.44
448.896	79.44
449.117	78.44
449.338	90.44
449.559	84.44
449.779	77.44
450	73.44
450.221	89.44
450.442	73.44
450.662	78.44
450.883	75.44
451.104	79.44
451.324	73.44
451.545	71.44
451.766	89.44
451.986	88.44
452.207	74.44
452.428	82.44
452.648	76.44
452.869	94.44
453.089	73.44
453.31	83.44
453.53	61.44
453.751	71.44
453.971	80.44
454.192	92.44
454.412	78.44
454.633	67.44
454.853	68.44
455.073	82.44
455.294	74.44
455.514	94.44
455.734	79.44
455.955	80.44
456.175	91.44
456.395	78.44
456.616	78.44
456.836	76.44
457.056	91.44
457.276	80.44
457.497	85.44
457.717	67.44
457.937	64.44
458.157	88.44
458.377	97.44
458.598	86.44
458.818	85.44
459.038	86.44
459.258	84.44
459.478	89.44
459.698	75.44
459.918	80.44
460.138	87.44
460.358	73.44
460.578	89.44
460.798	77.44
461.018	87.44
461.238	86.44
461.458	87.44
461.678	87.44
461.898	62.44
462.118	75.44
462.338	90.44
462.558	77.44
462.777	74.44
462.997	72.44
463.217	75.44
463.437	85.44
463.657	80.44
463.876	66.44
464.096	83.44
464.316	63.44
464.536	84.44
464.755	76.44
464.975	71.44
465.195	66.44
465.414	80.44
465.634	87.44
465.854	65.44
466.073	69.44
466.293	93.44
466.512	85.44
466.732	68.44
466.951	82.44
467.171	68.44
467.391	81.44
467.61	86.44
467.829	68.44
468.049	70.44
468.268	71.44
468.488	101.44
468.707	76.44
468.927	69.44
469.146	76.44
469.365	87.44
469.585	78.44
469.804	79.44
470.023	83.44
470.243	83.44
470.462	72.44
470.681	86.44
470.901	82.44
471.12	87.44
471.339	72.44
471.558	65.44
471.777	73.44
471.997	89.44
472.216	91.44
472.435	68.44
472.654	73.44
472.873	74.44
473.092	95.44
473.311	88.44
473.53	77.44
473.749	80.44
473.968	96.44
474.187	67.44
474.406	90.44
474.625	96.44
474.844	69.44
475.063	80.44
475.282	82.44
475.501	71.44
475.72	85.44
475.939	82.44
476.158	87.44
476.377	79.44
476.596	90.44
476.814	73.44
477.033	78.44
477.252	87.44
477.471	75.44
477.69	84.44
477.908	70.44
478.127	83.44
478.346	88.44
478.564	94.44
478.783	85.44
479.002	90.44
479.22	73.44
479.439	82.44
479.658	82.44
479.876	105.44
480.095	85.44
480.313	91.44
480.532	93.44
480.751	70.44
480.969	68.44
481.188	66.44
481.406	75.44
481.624	87.44
481.843	85.44
482.061	71.44
482.28	71.44
482.498	74.44
482.717	72.44
482.935	74.44
483.153	89.44
483.372	77.44
483.59	88.44
483.808	81.44
484.027	87.44
484.245	72.44
484.463	86.44
484.681	90.44
484.9	72.44
485.118	79.44
485.336	80.44
485.554	78.44
485.772	93.44
485.99	67.44
486.209	79.44
486.427	83.44
486.645	79.44
486.863	71.44
487.081	77.44
487.299	80.44
487.517	89.44
487.735	87.44
487.953	66.44
488.171	79.44
488.389	90.44
488.607	86.44
488.825	76.44
489.043	85.44
489.261	78.44
489.479	63.44
489.696	78.44
489.914	79.44
490.132	79.44
490.35	87.44
490.568	70.44
490.786	85.44
491.003	89.44
491.221	84.44
491.439	107.44
491.657	101.44
491.874	75.44
492.092	74.44
492.31	82.44
492.527	71.44
492.745	79.44
492.963	94.44
493.18	87.44
493.398	80.44
493.615	83.44
493.833	76.44
494.05	70.44
494.268	78.44
494.485	73.44
494.703	77.44
494.92	68.44
495.138	81.44
495.355	84.44
495.573	87.44
495.79	80.44
496.008	92.44
496.225	77.44
496.442	78.44
496.66	84.44
496.877	60.44
497.094	98.44
497.312	79.44
497.529	86.44
497.746	86.44
497.963	77.44
498.181	77.44
498.398	83.44
498.615	70.44
498.832	94.44
499.049	95.44
499.267	76.44
499.484	90.44
499.701	77.44
499.918	79.44
500.135	82.44
500.352	81.44
500.569	76.44
500.786	91.44
501.003	87.44
501.22	77.44
501.437	85.44
501.654	88.44
501.871	84.44
502.088	71.44
502.305	65.44
502.522	83.44
502.739	87.44
502.956	91.44
503.172	89.44
503.389	83.44
503.606	78.44
503.823	81.44
504.04	90.44
504.256	81.44
504.473	81.44
504.69	71.44
504.907	93.44
505.123	81.44
505.34	89.44
505.557	77.44
505.773	75.44
505.99	73.44
506.207	78.44
506.423	86.44
506.64	83.44
506.856	86.44
507.073	90.44
507.289	96.44
507.506	75.44
507.722	86.44
507.939	93.44
508.155	73.44
508.372	72.44
508.588	92.44
508.805	85.44
509.021	79.44
509.238	87.44
509.454	77.44
509.67	83.44
509.887	80.44
510.103	81.44
510.319	76.44
510.536	82.44
510.752	70.44
510.968	97.44
511.184	91.44
511.401	83.44
511.617	85.44
511.833	71.44
512.049	81.44
512.265	86.44
512.481	77.44
512.698	88.44
512.914	81.44
513.13	80.44
513.346	87.44
513.562	83.44
513.778	82.44
513.994	75.44
514.21	86.44
514.426	89.44
514.642	85.44
514.858	81.44
515.074	78.44
515.29	71.44
515.506	85.44
515.721	81.44
515.937	105.44
516.153	84.44
516.369	94.44
516.585	71.44
516.801	75.44
517.016	86.44
517.232	81.44
517.448	81.44
517.664	83.44
517.879	86.44
518.095	90.44
518.311	103.44
518.527	93.44
518.742	95.44
518.958	77.44
519.173	83.44
519.389	79.44
519.605	77.44
519.82	92.44
520.036	83.44
