Data from Background_1_HRD10591_00015.txt Node
Date: Wed Nov 05 14:39:05 EST 2025
User: Yrep
Spectrometer: HR+D1059
Trigger mode: 1
Integration Time (sec): 1.000000E-1
Scans to average: 1
Electric dark correction enabled: true
Nonlinearity correction enabled: false
Boxcar width: 0
XAxis mode: Wavelengths
Number of Pixels in Spectrum: 2048
>>>>>Begin Spectral Data<<<<<
223.165	-18.81
223.4	-18.81
223.635	-18.81
223.869	-15.81
224.104	-24.81
224.338	-12.81
224.573	-12.81
224.808	-20.81
225.042	-7.81
225.277	-12.81
225.511	-6.81
225.746	4.19
225.98	-2.81
226.215	16.19
226.449	32.19
226.683	28.19
226.918	30.19
227.152	25.19
227.387	23.19
227.621	35.19
227.856	46.19
228.09	41.19
228.324	49.19
228.559	50.19
228.793	65.19
229.027	46.19
229.262	70.19
229.496	74.19
229.73	60.19
229.964	68.19
230.199	74.19
230.433	78.19
230.667	84.19
230.901	71.19
231.136	73.19
231.37	78.19
231.604	87.19
231.838	85.19
232.072	65.19
232.306	85.19
232.541	84.19
232.775	72.19
233.009	84.19
233.243	81.19
233.477	69.19
233.711	78.19
233.945	59.19
234.179	86.19
234.413	86.19
234.647	85.19
234.881	69.19
235.115	74.19
235.349	75.19
235.583	81.19
235.817	88.19
236.051	76.19
236.285	66.19
236.519	81.19
236.753	68.19
236.987	79.19
237.221	66.19
237.455	73.19
237.689	80.19
237.922	64.19
238.156	59.19
238.39	71.19
238.624	75.19
238.858	71.19
239.091	81.19
239.325	69.19
239.559	86.19
239.793	80.19
240.027	77.19
240.26	74.19
240.494	86.19
240.728	79.19
240.961	67.19
241.195	61.19
241.429	72.19
241.662	74.19
241.896	80.19
242.13	67.19
242.363	78.19
242.597	69.19
242.83	71.19
243.064	56.19
243.298	76.19
243.531	97.19
243.765	76.19
243.998	80.19
244.232	73.19
244.465	67.19
244.699	78.19
244.932	70.19
245.166	73.19
245.399	74.19
245.633	76.19
245.866	68.19
246.099	76.19
246.333	68.19
246.566	67.19
246.8	74.19
247.033	73.19
247.266	83.19
247.5	84.19
247.733	86.19
247.966	74.19
248.2	72.19
248.433	65.19
248.666	94.19
248.899	84.19
249.133	93.19
249.366	90.19
249.599	74.19
249.832	79.19
250.066	76.19
250.299	79.19
250.532	69.19
250.765	82.19
250.998	74.19
251.231	73.19
251.465	84.19
251.698	87.19
251.931	78.19
252.164	86.19
252.397	78.19
252.63	84.19
252.863	80.19
253.096	95.19
253.329	74.19
253.562	69.19
253.795	72.19
254.028	71.19
254.261	81.19
254.494	97.19
254.727	78.19
254.96	66.19
255.193	78.19
255.426	83.19
255.659	79.19
255.892	80.19
256.124	66.19
256.357	88.19
256.59	77.19
256.823	94.19
257.056	69.19
257.289	84.19
257.521	80.19
257.754	69.19
257.987	76.19
258.22	81.19
258.452	74.19
258.685	79.19
258.918	86.19
259.151	77.19
259.383	83.19
259.616	79.19
259.849	87.19
260.081	78.19
260.314	77.19
260.547	76.19
260.779	67.19
261.012	91.19
261.244	81.19
261.477	86.19
261.71	84.19
261.942	89.19
262.175	92.19
262.407	74.19
262.64	57.19
262.872	72.19
263.105	78.19
263.337	86.19
263.57	94.19
263.802	76.19
264.035	76.19
264.267	76.19
264.499	75.19
264.732	89.19
264.964	84.19
265.197	79.19
265.429	79.19
265.661	78.19
265.894	75.19
266.126	85.19
266.358	80.19
266.591	75.19
266.823	84.19
267.055	67.19
267.287	88.19
267.52	78.19
267.752	71.19
267.984	87.19
268.216	78.19
268.448	89.19
268.681	79.19
268.913	76.19
269.145	80.19
269.377	84.19
269.609	94.19
269.841	89.19
270.073	81.19
270.306	70.19
270.538	64.19
270.77	92.19
271.002	76.19
271.234	88.19
271.466	83.19
271.698	83.19
271.93	73.19
272.162	99.19
272.394	73.19
272.626	86.19
272.858	74.19
273.09	86.19
273.322	85.19
273.553	85.19
273.785	83.19
274.017	77.19
274.249	82.19
274.481	79.19
274.713	82.19
274.945	91.19
275.176	80.19
275.408	82.19
275.64	80.19
275.872	74.19
276.104	79.19
276.335	72.19
276.567	72.19
276.799	83.19
277.031	65.19
277.262	78.19
277.494	79.19
277.726	83.19
277.957	86.19
278.189	72.19
278.421	85.19
278.652	75.19
278.884	96.19
279.115	89.19
279.347	98.19
279.579	75.19
279.81	74.19
280.042	71.19
280.273	74.19
280.505	86.19
280.736	98.19
280.968	86.19
281.199	78.19
281.431	78.19
281.662	91.19
281.894	96.19
282.125	81.19
282.356	99.19
282.588	82.19
282.819	91.19
283.051	84.19
283.282	88.19
283.513	77.19
283.745	74.19
283.976	99.19
284.207	57.19
284.439	77.19
284.67	87.19
284.901	93.19
285.132	73.19
285.364	74.19
285.595	82.19
285.826	85.19
286.057	86.19
286.288	77.19
286.52	89.19
286.751	71.19
286.982	89.19
287.213	86.19
287.444	89.19
287.675	83.19
287.906	88.19
288.138	88.19
288.369	81.19
288.6	102.19
288.831	84.19
289.062	96.19
289.293	98.19
289.524	80.19
289.755	82.19
289.986	90.19
290.217	89.19
290.448	79.19
290.679	93.19
290.91	97.19
291.141	88.19
291.371	88.19
291.602	87.19
291.833	94.19
292.064	87.19
292.295	81.19
292.526	84.19
292.757	78.19
292.987	81.19
293.218	79.19
293.449	90.19
293.68	71.19
293.91	84.19
294.141	81.19
294.372	98.19
294.603	75.19
294.833	99.19
295.064	82.19
295.295	67.19
295.525	98.19
295.756	97.19
295.987	89.19
296.217	87.19
296.448	84.19
296.679	63.19
296.909	83.19
297.14	98.19
297.37	95.19
297.601	85.19
297.831	93.19
298.062	75.19
298.292	94.19
298.523	78.19
298.753	95.19
298.984	69.19
299.214	82.19
299.445	72.19
299.675	86.19
299.905	74.19
300.136	99.19
300.366	87.19
300.597	88.19
300.827	79.19
301.057	81.19
301.288	88.19
301.518	94.19
301.748	88.19
301.979	107.19
302.209	90.19
302.439	88.19
302.669	72.19
302.9	74.19
303.13	75.19
303.36	74.19
303.59	87.19
303.82	82.19
304.051	89.19
304.281	86.19
304.511	86.19
304.741	86.19
304.971	87.19
305.201	80.19
305.431	81.19
305.661	65.19
305.891	86.19
306.121	103.19
306.352	92.19
306.582	78.19
306.812	84.19
307.042	80.19
307.272	80.19
307.502	90.19
307.731	87.19
307.961	88.19
308.191	86.19
308.421	76.19
308.651	76.19
308.881	89.19
309.111	73.19
309.341	84.19
309.571	76.19
309.8	91.19
310.03	78.19
310.26	80.19
310.49	89.19
310.72	82.19
310.949	72.19
311.179	77.19
311.409	82.19
311.639	79.19
311.868	73.19
312.098	79.19
312.328	85.19
312.557	74.19
312.787	86.19
313.017	98.19
313.246	63.19
313.476	74.19
313.706	84.19
313.935	89.19
314.165	82.19
314.394	88.19
314.624	106.19
314.853	79.19
315.083	76.19
315.312	93.19
315.542	80.19
315.771	73.19
316.001	98.19
316.23	80.19
316.46	97.19
316.689	82.19
316.919	88.19
317.148	85.19
317.377	81.19
317.607	75.19
317.836	78.19
318.065	83.19
318.295	82.19
318.524	93.19
318.753	72.19
318.983	91.19
319.212	99.19
319.441	85.19
319.67	103.19
319.9	90.19
320.129	73.19
320.358	78.19
320.587	78.19
320.816	77.19
321.046	76.19
321.275	83.19
321.504	84.19
321.733	74.19
321.962	89.19
322.191	91.19
322.42	92.19
322.649	102.19
322.878	93.19
323.108	90.19
323.337	68.19
323.566	94.19
323.795	86.19
324.024	89.19
324.253	76.19
324.482	92.19
324.71	82.19
324.939	74.19
325.168	86.19
325.397	88.19
325.626	69.19
325.855	84.19
326.084	79.19
326.313	79.19
326.542	78.19
326.77	86.19
326.999	73.19
327.228	84.19
327.457	84.19
327.686	72.19
327.914	90.19
328.143	88.19
328.372	88.19
328.6	76.19
328.829	86.19
329.058	102.19
329.287	96.19
329.515	81.19
329.744	78.19
329.972	58.19
330.201	95.19
330.43	68.19
330.658	75.19
330.887	93.19
331.115	86.19
331.344	81.19
331.572	81.19
331.801	86.19
332.03	87.19
332.258	82.19
332.486	90.19
332.715	82.19
332.943	74.19
333.172	78.19
333.4	85.19
333.629	77.19
333.857	71.19
334.085	90.19
334.314	82.19
334.542	87.19
334.771	81.19
334.999	84.19
335.227	86.19
335.455	76.19
335.684	82.19
335.912	82.19
336.14	91.19
336.369	74.19
336.597	87.19
336.825	90.19
337.053	86.19
337.281	90.19
337.51	75.19
337.738	79.19
337.966	82.19
338.194	91.19
338.422	88.19
338.65	91.19
338.878	82.19
339.106	89.19
339.334	79.19
339.562	94.19
339.79	91.19
340.018	68.19
340.246	101.19
340.474	76.19
340.702	88.19
340.93	93.19
341.158	90.19
341.386	97.19
341.614	76.19
341.842	86.19
342.07	67.19
342.298	76.19
342.526	71.19
342.754	78.19
342.981	90.19
343.209	94.19
343.437	84.19
343.665	92.19
343.893	78.19
344.12	92.19
344.348	91.19
344.576	69.19
344.804	92.19
345.031	96.19
345.259	88.19
345.487	85.19
345.714	92.19
345.942	93.19
346.17	67.19
346.397	79.19
346.625	82.19
346.853	64.19
347.08	80.19
347.308	83.19
347.535	73.19
347.763	83.19
347.99	82.19
348.218	76.19
348.445	79.19
348.673	83.19
348.9	83.19
349.128	76.19
349.355	82.19
349.583	82.19
349.81	86.19
350.037	75.19
350.265	87.19
350.492	89.19
350.72	89.19
350.947	78.19
351.174	88.19
351.402	82.19
351.629	68.19
351.856	92.19
352.083	88.19
352.311	88.19
352.538	86.19
352.765	87.19
352.992	78.19
353.22	87.19
353.447	81.19
353.674	88.19
353.901	80.19
354.128	74.19
354.355	71.19
354.583	79.19
354.81	82.19
355.037	90.19
355.264	81.19
355.491	95.19
355.718	78.19
355.945	81.19
356.172	77.19
356.399	89.19
356.626	86.19
356.853	80.19
357.08	82.19
357.307	97.19
357.534	81.19
357.761	103.19
357.988	100.19
358.215	82.19
358.441	86.19
358.668	87.19
358.895	84.19
359.122	92.19
359.349	83.19
359.576	88.19
359.802	95.19
360.029	74.19
360.256	78.19
360.483	73.19
360.709	86.19
360.936	87.19
361.163	84.19
361.39	90.19
361.616	74.19
361.843	97.19
362.07	86.19
362.296	83.19
362.523	67.19
362.749	76.19
362.976	82.19
363.203	84.19
363.429	84.19
363.656	82.19
363.882	80.19
364.109	85.19
364.335	68.19
364.562	74.19
364.788	73.19
365.015	90.19
365.241	88.19
365.468	71.19
365.694	87.19
365.92	84.19
366.147	100.19
366.373	80.19
366.599	70.19
366.826	98.19
367.052	78.19
367.278	83.19
367.505	82.19
367.731	81.19
367.957	87.19
368.184	84.19
368.41	85.19
368.636	76.19
368.862	84.19
369.089	84.19
369.315	84.19
369.541	75.19
369.767	86.19
369.993	74.19
370.219	71.19
370.445	77.19
370.672	63.19
370.898	74.19
371.124	76.19
371.35	87.19
371.576	82.19
371.802	82.19
372.028	95.19
372.254	93.19
372.48	88.19
372.706	93.19
372.932	87.19
373.158	70.19
373.384	82.19
373.61	93.19
373.835	99.19
374.061	90.19
374.287	100.19
374.513	70.19
374.739	89.19
374.965	83.19
375.191	80.19
375.416	88.19
375.642	92.19
375.868	83.19
376.094	80.19
376.319	67.19
376.545	75.19
376.771	76.19
376.997	86.19
377.222	81.19
377.448	69.19
377.674	82.19
377.899	80.19
378.125	76.19
378.35	78.19
378.576	74.19
378.802	62.19
379.027	81.19
379.253	75.19
379.478	76.19
379.704	67.19
379.929	88.19
380.155	83.19
380.38	95.19
380.606	73.19
380.831	87.19
381.057	84.19
381.282	70.19
381.507	81.19
381.733	86.19
381.958	78.19
382.184	83.19
382.409	68.19
382.634	91.19
382.86	89.19
383.085	92.19
383.31	73.19
383.535	72.19
383.761	57.19
383.986	92.19
384.211	82.19
384.436	88.19
384.662	69.19
384.887	88.19
385.112	82.19
385.337	80.19
385.562	95.19
385.787	84.19
386.013	72.19
386.238	80.19
386.463	94.19
386.688	103.19
386.913	92.19
387.138	79.19
387.363	88.19
387.588	80.19
387.813	86.19
388.038	86.19
388.263	80.19
388.488	75.19
388.713	86.19
388.938	74.19
389.163	69.19
389.387	79.19
389.612	86.19
389.837	83.19
390.062	81.19
390.287	96.19
390.512	71.19
390.736	67.19
390.961	68.19
391.186	74.19
391.411	67.19
391.636	74.19
391.86	80.19
392.085	85.19
392.31	89.19
392.534	87.19
392.759	73.19
392.984	81.19
393.208	83.19
393.433	87.19
393.658	76.19
393.882	82.19
394.107	75.19
394.331	65.19
394.556	83.19
394.78	70.19
395.005	79.19
395.229	69.19
395.454	77.19
395.678	86.19
395.903	92.19
396.127	88.19
396.352	69.19
396.576	66.19
396.801	84.19
397.025	80.19
397.249	93.19
397.474	89.19
397.698	86.19
397.922	93.19
398.147	88.19
398.371	82.19
398.595	68.19
398.82	81.19
399.044	72.19
399.268	89.19
399.492	83.19
399.717	75.19
399.941	89.19
400.165	83.19
400.389	70.19
400.613	98.19
400.837	84.19
401.062	87.19
401.286	102.19
401.51	80.19
401.734	75.19
401.958	82.19
402.182	82.19
402.406	77.19
402.63	68.19
402.854	80.19
403.078	78.19
403.302	88.19
403.526	86.19
403.75	84.19
403.974	90.19
404.198	79.19
404.422	98.19
404.645	94.19
404.869	81.19
405.093	73.19
405.317	77.19
405.541	79.19
405.765	81.19
405.988	93.19
406.212	86.19
406.436	84.19
406.66	70.19
406.883	66.19
407.107	89.19
407.331	78.19
407.555	87.19
407.778	78.19
408.002	83.19
408.226	77.19
408.449	77.19
408.673	86.19
408.896	60.19
409.12	76.19
409.344	86.19
409.567	92.19
409.791	85.19
410.014	78.19
410.238	68.19
410.461	96.19
410.685	79.19
410.908	75.19
411.132	78.19
411.355	70.19
411.578	96.19
411.802	86.19
412.025	74.19
412.249	70.19
412.472	64.19
412.695	89.19
412.919	72.19
413.142	86.19
413.365	85.19
413.589	82.19
413.812	83.19
414.035	98.19
414.258	88.19
414.482	76.19
414.705	76.19
414.928	87.19
415.151	79.19
415.374	85.19
415.597	80.19
415.821	85.19
416.044	82.19
416.267	75.19
416.49	79.19
416.713	94.19
416.936	87.19
417.159	65.19
417.382	82.19
417.605	66.19
417.828	77.19
418.051	78.19
418.274	78.19
418.497	85.19
418.72	73.19
418.943	82.19
419.166	80.19
419.389	78.19
419.611	78.19
419.834	69.19
420.057	68.19
420.28	98.19
420.503	91.19
420.726	86.19
420.948	66.19
421.171	86.19
421.394	66.19
421.617	73.19
421.839	83.19
422.062	78.19
422.285	73.19
422.507	73.19
422.73	66.19
422.953	69.19
423.175	76.19
423.398	80.19
423.621	89.19
423.843	83.19
424.066	86.19
424.288	73.19
424.511	75.19
424.733	89.19
424.956	92.19
425.178	61.19
425.401	84.19
425.623	85.19
425.846	88.19
426.068	95.19
426.291	81.19
426.513	69.19
426.735	83.19
426.958	89.19
427.18	72.19
427.402	89.19
427.625	90.19
427.847	83.19
428.069	65.19
428.292	99.19
428.514	88.19
428.736	86.19
428.958	80.19
429.181	72.19
429.403	86.19
429.625	64.19
429.847	98.19
430.069	90.19
430.292	90.19
430.514	73.19
430.736	86.19
430.958	75.19
431.18	78.19
431.402	70.19
431.624	82.19
431.846	81.19
432.068	78.19
432.29	93.19
432.512	90.19
432.734	69.19
432.956	85.19
433.178	87.19
433.4	78.19
433.622	88.19
433.844	79.19
434.066	96.19
434.287	85.19
434.509	81.19
434.731	76.19
434.953	74.19
435.175	94.19
435.397	86.19
435.618	87.19
435.84	83.19
436.062	78.19
436.284	83.19
436.505	75.19
436.727	82.19
436.949	79.19
437.17	86.19
437.392	82.19
437.614	88.19
437.835	78.19
438.057	83.19
438.278	74.19
438.5	75.19
438.721	87.19
438.943	65.19
439.165	97.19
439.386	72.19
439.608	96.19
439.829	78.19
440.05	77.19
440.272	88.19
440.493	72.19
440.715	78.19
440.936	85.19
441.158	76.19
441.379	75.19
441.6	81.19
441.822	76.19
442.043	87.19
442.264	83.19
442.486	84.19
442.707	79.19
442.928	72.19
443.149	64.19
443.371	88.19
443.592	82.19
443.813	76.19
444.034	73.19
444.255	85.19
444.476	75.19
444.698	92.19
444.919	92.19
445.14	161.19
445.361	114.19
445.582	94.19
445.803	100.19
446.024	89.19
446.245	75.19
446.466	75.19
446.687	83.19
446.908	87.19
447.129	78.19
447.35	80.19
447.571	75.19
447.792	74.19
448.013	74.19
448.234	84.19
448.455	86.19
448.675	88.19
448.896	78.19
449.117	76.19
449.338	72.19
449.559	92.19
449.779	89.19
450	77.19
450.221	90.19
450.442	91.19
450.662	79.19
450.883	88.19
451.104	72.19
451.324	85.19
451.545	74.19
451.766	84.19
451.986	79.19
452.207	86.19
452.428	82.19
452.648	69.19
452.869	75.19
453.089	85.19
453.31	82.19
453.53	72.19
453.751	84.19
453.971	87.19
454.192	84.19
454.412	87.19
454.633	87.19
454.853	72.19
455.073	79.19
455.294	66.19
455.514	84.19
455.734	76.19
455.955	85.19
456.175	86.19
456.395	80.19
456.616	90.19
456.836	69.19
457.056	90.19
457.276	96.19
457.497	81.19
457.717	82.19
457.937	89.19
458.157	81.19
458.377	92.19
458.598	81.19
458.818	77.19
459.038	69.19
459.258	86.19
459.478	80.19
459.698	82.19
459.918	79.19
460.138	94.19
460.358	91.19
460.578	84.19
460.798	77.19
461.018	79.19
461.238	69.19
461.458	79.19
461.678	87.19
461.898	78.19
462.118	81.19
462.338	80.19
462.558	72.19
462.777	77.19
462.997	82.19
463.217	69.19
463.437	89.19
463.657	79.19
463.876	90.19
464.096	82.19
464.316	93.19
464.536	80.19
464.755	71.19
464.975	69.19
465.195	80.19
465.414	91.19
465.634	78.19
465.854	81.19
466.073	84.19
466.293	92.19
466.512	90.19
466.732	85.19
466.951	83.19
467.171	88.19
467.391	81.19
467.61	89.19
467.829	79.19
468.049	80.19
468.268	81.19
468.488	71.19
468.707	85.19
468.927	70.19
469.146	76.19
469.365	85.19
469.585	75.19
469.804	85.19
470.023	68.19
470.243	83.19
470.462	67.19
470.681	85.19
470.901	68.19
471.12	80.19
471.339	80.19
471.558	79.19
471.777	82.19
471.997	95.19
472.216	75.19
472.435	83.19
472.654	72.19
472.873	85.19
473.092	83.19
473.311	78.19
473.53	95.19
473.749	93.19
473.968	90.19
474.187	72.19
474.406	86.19
474.625	70.19
474.844	81.19
475.063	80.19
475.282	61.19
475.501	68.19
475.72	82.19
475.939	78.19
476.158	59.19
476.377	75.19
476.596	82.19
476.814	74.19
477.033	82.19
477.252	76.19
477.471	82.19
477.69	84.19
477.908	86.19
478.127	84.19
478.346	90.19
478.564	72.19
478.783	78.19
479.002	76.19
479.22	75.19
479.439	80.19
479.658	88.19
479.876	86.19
480.095	80.19
480.313	83.19
480.532	78.19
480.751	91.19
480.969	91.19
481.188	84.19
481.406	85.19
481.624	76.19
481.843	75.19
482.061	90.19
482.28	88.19
482.498	71.19
482.717	80.19
482.935	72.19
483.153	80.19
483.372	83.19
483.59	74.19
483.808	87.19
484.027	70.19
484.245	73.19
484.463	63.19
484.681	84.19
484.9	78.19
485.118	69.19
485.336	68.19
485.554	88.19
485.772	79.19
485.99	76.19
486.209	86.19
486.427	88.19
486.645	68.19
486.863	77.19
487.081	70.19
487.299	85.19
487.517	82.19
487.735	80.19
487.953	95.19
488.171	96.19
488.389	81.19
488.607	87.19
488.825	84.19
489.043	80.19
489.261	90.19
489.479	79.19
489.696	95.19
489.914	83.19
490.132	90.19
490.35	95.19
490.568	84.19
490.786	67.19
491.003	79.19
491.221	78.19
491.439	93.19
491.657	84.19
491.874	73.19
492.092	85.19
492.31	81.19
492.527	82.19
492.745	77.19
492.963	82.19
493.18	75.19
493.398	77.19
493.615	82.19
493.833	67.19
494.05	75.19
494.268	82.19
494.485	75.19
494.703	78.19
494.92	72.19
495.138	77.19
495.355	97.19
495.573	90.19
495.79	95.19
496.008	86.19
496.225	87.19
496.442	87.19
496.66	97.19
496.877	75.19
497.094	82.19
497.312	81.19
497.529	73.19
497.746	78.19
497.963	79.19
498.181	95.19
498.398	92.19
498.615	83.19
498.832	80.19
499.049	87.19
499.267	91.19
499.484	82.19
499.701	83.19
499.918	105.19
500.135	89.19
500.352	82.19
500.569	71.19
500.786	94.19
501.003	104.19
501.22	86.19
501.437	91.19
501.654	89.19
501.871	87.19
502.088	76.19
502.305	66.19
502.522	86.19
502.739	65.19
502.956	82.19
503.172	75.19
503.389	82.19
503.606	64.19
503.823	87.19
504.04	85.19
504.256	84.19
504.473	84.19
504.69	92.19
504.907	98.19
505.123	86.19
505.34	97.19
505.557	76.19
505.773	69.19
505.99	82.19
506.207	69.19
506.423	72.19
506.64	74.19
506.856	82.19
507.073	87.19
507.289	74.19
507.506	82.19
507.722	71.19
507.939	73.19
508.155	78.19
508.372	88.19
508.588	76.19
508.805	83.19
509.021	86.19
509.238	78.19
509.454	88.19
509.67	95.19
509.887	80.19
510.103	64.19
510.319	78.19
510.536	76.19
510.752	76.19
510.968	71.19
511.184	86.19
511.401	75.19
511.617	90.19
511.833	72.19
512.049	70.19
512.265	78.19
512.481	83.19
512.698	83.19
512.914	90.19
513.13	89.19
513.346	85.19
513.562	91.19
513.778	91.19
513.994	63.19
514.21	73.19
514.426	82.19
514.642	81.19
514.858	82.19
515.074	84.19
515.29	90.19
515.506	84.19
515.721	104.19
515.937	67.19
516.153	92.19
516.369	91.19
516.585	70.19
516.801	76.19
517.016	93.19
517.232	84.19
517.448	82.19
517.664	74.19
517.879	87.19
518.095	81.19
518.311	80.19
518.527	77.19
518.742	90.19
518.958	99.19
519.173	76.19
519.389	83.19
519.605	68.19
519.82	62.19
