Data from Background_1_HRD10591_00086.txt Node
Date: Wed Nov 05 14:39:40 EST 2025
User: Yrep
Spectrometer: HR+D1059
Trigger mode: 1
Integration Time (sec): 1.000000E-1
Scans to average: 1
Electric dark correction enabled: true
Nonlinearity correction enabled: false
Boxcar width: 0
XAxis mode: Wavelengths
Number of Pixels in Spectrum: 2048
>>>>>Begin Spectral Data<<<<<
223.165	-17.69
223.4	-17.69
223.635	-17.69
223.869	-5.69
224.104	-10.69
224.338	-16.69
224.573	-22.69
224.808	2.31
225.042	-6.69
225.277	0.31
225.511	-7.69
225.746	-1.69
225.98	14.31
226.215	14.31
226.449	5.31
226.683	21.31
226.918	5.31
227.152	26.31
227.387	42.31
227.621	50.31
227.856	55.31
228.09	50.31
228.324	53.31
228.559	52.31
228.793	66.31
229.027	65.31
229.262	60.31
229.496	73.31
229.73	92.31
229.964	73.31
230.199	73.31
230.433	74.31
230.667	90.31
230.901	81.31
231.136	67.31
231.37	74.31
231.604	89.31
231.838	70.31
232.072	56.31
232.306	79.31
232.541	77.31
232.775	91.31
233.009	87.31
233.243	73.31
233.477	77.31
233.711	84.31
233.945	87.31
234.179	74.31
234.413	86.31
234.647	83.31
234.881	76.31
235.115	81.31
235.349	88.31
235.583	76.31
235.817	88.31
236.051	77.31
236.285	78.31
236.519	97.31
236.753	70.31
236.987	63.31
237.221	74.31
237.455	68.31
237.689	75.31
237.922	84.31
238.156	82.31
238.39	82.31
238.624	83.31
238.858	94.31
239.091	83.31
239.325	76.31
239.559	78.31
239.793	64.31
240.027	92.31
240.26	62.31
240.494	74.31
240.728	70.31
240.961	76.31
241.195	78.31
241.429	77.31
241.662	78.31
241.896	77.31
242.13	82.31
242.363	82.31
242.597	71.31
242.83	72.31
243.064	69.31
243.298	82.31
243.531	89.31
243.765	73.31
243.998	78.31
244.232	71.31
244.465	65.31
244.699	79.31
244.932	83.31
245.166	76.31
245.399	69.31
245.633	68.31
245.866	71.31
246.099	77.31
246.333	68.31
246.566	88.31
246.8	90.31
247.033	62.31
247.266	76.31
247.5	88.31
247.733	72.31
247.966	61.31
248.2	71.31
248.433	85.31
248.666	82.31
248.899	85.31
249.133	82.31
249.366	87.31
249.599	79.31
249.832	79.31
250.066	60.31
250.299	62.31
250.532	74.31
250.765	66.31
250.998	76.31
251.231	85.31
251.465	77.31
251.698	78.31
251.931	77.31
252.164	69.31
252.397	69.31
252.63	73.31
252.863	75.31
253.096	95.31
253.329	73.31
253.562	83.31
253.795	81.31
254.028	74.31
254.261	79.31
254.494	72.31
254.727	86.31
254.96	76.31
255.193	70.31
255.426	89.31
255.659	91.31
255.892	85.31
256.124	75.31
256.357	77.31
256.59	73.31
256.823	69.31
257.056	81.31
257.289	89.31
257.521	84.31
257.754	69.31
257.987	84.31
258.22	71.31
258.452	76.31
258.685	82.31
258.918	82.31
259.151	95.31
259.383	71.31
259.616	74.31
259.849	82.31
260.081	87.31
260.314	84.31
260.547	78.31
260.779	85.31
261.012	75.31
261.244	73.31
261.477	81.31
261.71	80.31
261.942	88.31
262.175	83.31
262.407	86.31
262.64	90.31
262.872	73.31
263.105	73.31
263.337	83.31
263.57	73.31
263.802	88.31
264.035	89.31
264.267	96.31
264.499	85.31
264.732	73.31
264.964	87.31
265.197	78.31
265.429	73.31
265.661	88.31
265.894	85.31
266.126	92.31
266.358	84.31
266.591	89.31
266.823	92.31
267.055	75.31
267.287	76.31
267.52	81.31
267.752	92.31
267.984	64.31
268.216	82.31
268.448	85.31
268.681	84.31
268.913	98.31
269.145	78.31
269.377	90.31
269.609	76.31
269.841	93.31
270.073	90.31
270.306	82.31
270.538	83.31
270.77	79.31
271.002	76.31
271.234	74.31
271.466	81.31
271.698	85.31
271.93	82.31
272.162	84.31
272.394	90.31
272.626	84.31
272.858	88.31
273.09	82.31
273.322	74.31
273.553	101.31
273.785	88.31
274.017	82.31
274.249	104.31
274.481	95.31
274.713	89.31
274.945	83.31
275.176	66.31
275.408	82.31
275.64	99.31
275.872	77.31
276.104	71.31
276.335	81.31
276.567	98.31
276.799	94.31
277.031	82.31
277.262	77.31
277.494	98.31
277.726	72.31
277.957	78.31
278.189	79.31
278.421	86.31
278.652	84.31
278.884	80.31
279.115	87.31
279.347	93.31
279.579	74.31
279.81	81.31
280.042	79.31
280.273	86.31
280.505	78.31
280.736	85.31
280.968	88.31
281.199	82.31
281.431	99.31
281.662	98.31
281.894	88.31
282.125	75.31
282.356	74.31
282.588	81.31
282.819	98.31
283.051	85.31
283.282	73.31
283.513	88.31
283.745	84.31
283.976	93.31
284.207	83.31
284.439	97.31
284.67	89.31
284.901	84.31
285.132	84.31
285.364	85.31
285.595	81.31
285.826	88.31
286.057	96.31
286.288	83.31
286.52	68.31
286.751	98.31
286.982	93.31
287.213	86.31
287.444	90.31
287.675	74.31
287.906	79.31
288.138	88.31
288.369	76.31
288.6	83.31
288.831	89.31
289.062	77.31
289.293	84.31
289.524	78.31
289.755	86.31
289.986	82.31
290.217	76.31
290.448	76.31
290.679	78.31
290.91	87.31
291.141	74.31
291.371	69.31
291.602	92.31
291.833	89.31
292.064	84.31
292.295	84.31
292.526	84.31
292.757	76.31
292.987	86.31
293.218	69.31
293.449	90.31
293.68	80.31
293.91	84.31
294.141	79.31
294.372	72.31
294.603	88.31
294.833	82.31
295.064	75.31
295.295	98.31
295.525	93.31
295.756	84.31
295.987	96.31
296.217	84.31
296.448	82.31
296.679	89.31
296.909	84.31
297.14	86.31
297.37	85.31
297.601	89.31
297.831	82.31
298.062	100.31
298.292	79.31
298.523	87.31
298.753	76.31
298.984	91.31
299.214	86.31
299.445	86.31
299.675	83.31
299.905	88.31
300.136	90.31
300.366	80.31
300.597	84.31
300.827	94.31
301.057	86.31
301.288	95.31
301.518	84.31
301.748	81.31
301.979	99.31
302.209	84.31
302.439	76.31
302.669	78.31
302.9	88.31
303.13	76.31
303.36	76.31
303.59	68.31
303.82	98.31
304.051	88.31
304.281	90.31
304.511	80.31
304.741	75.31
304.971	89.31
305.201	75.31
305.431	86.31
305.661	115.31
305.891	86.31
306.121	99.31
306.352	85.31
306.582	89.31
306.812	68.31
307.042	75.31
307.272	78.31
307.502	79.31
307.731	99.31
307.961	99.31
308.191	82.31
308.421	72.31
308.651	81.31
308.881	73.31
309.111	96.31
309.341	72.31
309.571	89.31
309.8	94.31
310.03	84.31
310.26	84.31
310.49	82.31
310.72	85.31
310.949	85.31
311.179	84.31
311.409	84.31
311.639	89.31
311.868	80.31
312.098	78.31
312.328	84.31
312.557	91.31
312.787	82.31
313.017	94.31
313.246	76.31
313.476	88.31
313.706	85.31
313.935	102.31
314.165	79.31
314.394	83.31
314.624	79.31
314.853	92.31
315.083	90.31
315.312	84.31
315.542	76.31
315.771	90.31
316.001	81.31
316.23	79.31
316.46	83.31
316.689	85.31
316.919	85.31
317.148	86.31
317.377	87.31
317.607	83.31
317.836	92.31
318.065	83.31
318.295	93.31
318.524	90.31
318.753	96.31
318.983	82.31
319.212	92.31
319.441	78.31
319.67	88.31
319.9	96.31
320.129	88.31
320.358	86.31
320.587	82.31
320.816	91.31
321.046	82.31
321.275	84.31
321.504	93.31
321.733	91.31
321.962	98.31
322.191	79.31
322.42	85.31
322.649	90.31
322.878	93.31
323.108	86.31
323.337	100.31
323.566	90.31
323.795	94.31
324.024	83.31
324.253	85.31
324.482	83.31
324.71	91.31
324.939	78.31
325.168	90.31
325.397	86.31
325.626	85.31
325.855	89.31
326.084	82.31
326.313	90.31
326.542	94.31
326.77	89.31
326.999	113.31
327.228	85.31
327.457	89.31
327.686	85.31
327.914	82.31
328.143	90.31
328.372	88.31
328.6	71.31
328.829	90.31
329.058	84.31
329.287	70.31
329.515	86.31
329.744	89.31
329.972	86.31
330.201	82.31
330.43	96.31
330.658	99.31
330.887	65.31
331.115	91.31
331.344	92.31
331.572	84.31
331.801	68.31
332.03	85.31
332.258	85.31
332.486	88.31
332.715	84.31
332.943	80.31
333.172	90.31
333.4	83.31
333.629	90.31
333.857	75.31
334.085	74.31
334.314	82.31
334.542	76.31
334.771	93.31
334.999	93.31
335.227	76.31
335.455	73.31
335.684	84.31
335.912	90.31
336.14	89.31
336.369	90.31
336.597	92.31
336.825	94.31
337.053	91.31
337.281	92.31
337.51	88.31
337.738	81.31
337.966	98.31
338.194	79.31
338.422	95.31
338.65	97.31
338.878	96.31
339.106	78.31
339.334	92.31
339.562	80.31
339.79	98.31
340.018	83.31
340.246	84.31
340.474	89.31
340.702	92.31
340.93	98.31
341.158	86.31
341.386	88.31
341.614	88.31
341.842	85.31
342.07	88.31
342.298	86.31
342.526	84.31
342.754	82.31
342.981	97.31
343.209	86.31
343.437	86.31
343.665	89.31
343.893	96.31
344.12	105.31
344.348	92.31
344.576	85.31
344.804	82.31
345.031	91.31
345.259	80.31
345.487	87.31
345.714	85.31
345.942	81.31
346.17	76.31
346.397	80.31
346.625	83.31
346.853	86.31
347.08	80.31
347.308	81.31
347.535	89.31
347.763	74.31
347.99	81.31
348.218	89.31
348.445	88.31
348.673	93.31
348.9	85.31
349.128	87.31
349.355	74.31
349.583	77.31
349.81	79.31
350.037	87.31
350.265	94.31
350.492	86.31
350.72	98.31
350.947	90.31
351.174	74.31
351.402	80.31
351.629	89.31
351.856	74.31
352.083	92.31
352.311	83.31
352.538	73.31
352.765	77.31
352.992	93.31
353.22	73.31
353.447	90.31
353.674	88.31
353.901	76.31
354.128	83.31
354.355	88.31
354.583	66.31
354.81	77.31
355.037	81.31
355.264	89.31
355.491	91.31
355.718	86.31
355.945	80.31
356.172	76.31
356.399	95.31
356.626	88.31
356.853	92.31
357.08	94.31
357.307	82.31
357.534	76.31
357.761	87.31
357.988	89.31
358.215	92.31
358.441	88.31
358.668	74.31
358.895	81.31
359.122	91.31
359.349	86.31
359.576	82.31
359.802	77.31
360.029	88.31
360.256	82.31
360.483	76.31
360.709	93.31
360.936	81.31
361.163	82.31
361.39	80.31
361.616	91.31
361.843	83.31
362.07	82.31
362.296	78.31
362.523	84.31
362.749	72.31
362.976	69.31
363.203	74.31
363.429	84.31
363.656	89.31
363.882	84.31
364.109	81.31
364.335	87.31
364.562	86.31
364.788	85.31
365.015	90.31
365.241	96.31
365.468	90.31
365.694	74.31
365.92	88.31
366.147	77.31
366.373	83.31
366.599	75.31
366.826	81.31
367.052	88.31
367.278	81.31
367.505	83.31
367.731	71.31
367.957	91.31
368.184	76.31
368.41	85.31
368.636	92.31
368.862	86.31
369.089	78.31
369.315	93.31
369.541	83.31
369.767	88.31
369.993	88.31
370.219	77.31
370.445	83.31
370.672	85.31
370.898	82.31
371.124	80.31
371.35	72.31
371.576	83.31
371.802	77.31
372.028	86.31
372.254	68.31
372.48	75.31
372.706	88.31
372.932	86.31
373.158	81.31
373.384	91.31
373.61	76.31
373.835	102.31
374.061	87.31
374.287	86.31
374.513	84.31
374.739	81.31
374.965	83.31
375.191	78.31
375.416	80.31
375.642	89.31
375.868	90.31
376.094	88.31
376.319	74.31
376.545	89.31
376.771	85.31
376.997	91.31
377.222	89.31
377.448	91.31
377.674	84.31
377.899	80.31
378.125	75.31
378.35	84.31
378.576	89.31
378.802	92.31
379.027	70.31
379.253	88.31
379.478	83.31
379.704	77.31
379.929	94.31
380.155	76.31
380.38	74.31
380.606	85.31
380.831	75.31
381.057	91.31
381.282	89.31
381.507	86.31
381.733	78.31
381.958	76.31
382.184	86.31
382.409	89.31
382.634	98.31
382.86	84.31
383.085	79.31
383.31	88.31
383.535	76.31
383.761	96.31
383.986	88.31
384.211	88.31
384.436	73.31
384.662	80.31
384.887	82.31
385.112	72.31
385.337	86.31
385.562	90.31
385.787	93.31
386.013	67.31
386.238	82.31
386.463	76.31
386.688	85.31
386.913	88.31
387.138	88.31
387.363	75.31
387.588	81.31
387.813	73.31
388.038	91.31
388.263	85.31
388.488	69.31
388.713	70.31
388.938	81.31
389.163	79.31
389.387	77.31
389.612	84.31
389.837	80.31
390.062	85.31
390.287	100.31
390.512	65.31
390.736	82.31
390.961	88.31
391.186	74.31
391.411	83.31
391.636	82.31
391.86	75.31
392.085	81.31
392.31	85.31
392.534	76.31
392.759	92.31
392.984	91.31
393.208	84.31
393.433	76.31
393.658	74.31
393.882	88.31
394.107	78.31
394.331	92.31
394.556	76.31
394.78	94.31
395.005	81.31
395.229	88.31
395.454	69.31
395.678	88.31
395.903	100.31
396.127	71.31
396.352	74.31
396.576	76.31
396.801	75.31
397.025	92.31
397.249	84.31
397.474	88.31
397.698	67.31
397.922	74.31
398.147	83.31
398.371	79.31
398.595	74.31
398.82	91.31
399.044	88.31
399.268	92.31
399.492	73.31
399.717	76.31
399.941	79.31
400.165	82.31
400.389	83.31
400.613	82.31
400.837	84.31
401.062	54.31
401.286	81.31
401.51	82.31
401.734	77.31
401.958	85.31
402.182	73.31
402.406	78.31
402.63	77.31
402.854	81.31
403.078	86.31
403.302	77.31
403.526	98.31
403.75	80.31
403.974	73.31
404.198	80.31
404.422	86.31
404.645	69.31
404.869	82.31
405.093	88.31
405.317	84.31
405.541	83.31
405.765	86.31
405.988	77.31
406.212	80.31
406.436	83.31
406.66	90.31
406.883	77.31
407.107	90.31
407.331	81.31
407.555	79.31
407.778	79.31
408.002	82.31
408.226	82.31
408.449	71.31
408.673	86.31
408.896	86.31
409.12	76.31
409.344	84.31
409.567	90.31
409.791	68.31
410.014	88.31
410.238	70.31
410.461	84.31
410.685	85.31
410.908	78.31
411.132	83.31
411.355	72.31
411.578	78.31
411.802	88.31
412.025	88.31
412.249	88.31
412.472	95.31
412.695	89.31
412.919	84.31
413.142	93.31
413.365	88.31
413.589	89.31
413.812	83.31
414.035	83.31
414.258	86.31
414.482	71.31
414.705	90.31
414.928	96.31
415.151	88.31
415.374	78.31
415.597	94.31
415.821	83.31
416.044	72.31
416.267	75.31
416.49	85.31
416.713	90.31
416.936	72.31
417.159	76.31
417.382	70.31
417.605	75.31
417.828	97.31
418.051	88.31
418.274	82.31
418.497	83.31
418.72	82.31
418.943	88.31
419.166	82.31
419.389	74.31
419.611	70.31
419.834	98.31
420.057	76.31
420.28	87.31
420.503	94.31
420.726	67.31
420.948	88.31
421.171	66.31
421.394	84.31
421.617	83.31
421.839	92.31
422.062	75.31
422.285	88.31
422.507	91.31
422.73	83.31
422.953	79.31
423.175	90.31
423.398	92.31
423.621	74.31
423.843	81.31
424.066	61.31
424.288	83.31
424.511	80.31
424.733	84.31
424.956	60.31
425.178	73.31
425.401	77.31
425.623	76.31
425.846	93.31
426.068	81.31
426.291	87.31
426.513	77.31
426.735	70.31
426.958	84.31
427.18	81.31
427.402	74.31
427.625	89.31
427.847	76.31
428.069	88.31
428.292	82.31
428.514	80.31
428.736	86.31
428.958	81.31
429.181	93.31
429.403	81.31
429.625	81.31
429.847	84.31
430.069	84.31
430.292	91.31
430.514	73.31
430.736	78.31
430.958	85.31
431.18	80.31
431.402	79.31
431.624	83.31
431.846	79.31
432.068	95.31
432.29	82.31
432.512	88.31
432.734	81.31
432.956	76.31
433.178	84.31
433.4	82.31
433.622	85.31
433.844	93.31
434.066	85.31
434.287	92.31
434.509	75.31
434.731	81.31
434.953	94.31
435.175	83.31
435.397	88.31
435.618	78.31
435.84	92.31
436.062	91.31
436.284	84.31
436.505	81.31
436.727	84.31
436.949	83.31
437.17	77.31
437.392	85.31
437.614	91.31
437.835	98.31
438.057	71.31
438.278	75.31
438.5	88.31
438.721	92.31
438.943	90.31
439.165	75.31
439.386	91.31
439.608	81.31
439.829	91.31
440.05	97.31
440.272	75.31
440.493	80.31
440.715	69.31
440.936	80.31
441.158	82.31
441.379	86.31
441.6	76.31
441.822	93.31
442.043	86.31
442.264	98.31
442.486	81.31
442.707	79.31
442.928	70.31
443.149	78.31
443.371	88.31
443.592	93.31
443.813	101.31
444.034	66.31
444.255	71.31
444.476	84.31
444.698	70.31
444.919	77.31
445.14	146.31
445.361	112.31
445.582	78.31
445.803	90.31
446.024	79.31
446.245	80.31
446.466	76.31
446.687	79.31
446.908	74.31
447.129	79.31
447.35	65.31
447.571	70.31
447.792	81.31
448.013	80.31
448.234	80.31
448.455	88.31
448.675	86.31
448.896	77.31
449.117	90.31
449.338	79.31
449.559	79.31
449.779	88.31
450	85.31
450.221	77.31
450.442	78.31
450.662	84.31
450.883	96.31
451.104	76.31
451.324	80.31
451.545	88.31
451.766	66.31
451.986	73.31
452.207	92.31
452.428	77.31
452.648	92.31
452.869	69.31
453.089	84.31
453.31	78.31
453.53	85.31
453.751	70.31
453.971	89.31
454.192	78.31
454.412	78.31
454.633	78.31
454.853	79.31
455.073	79.31
455.294	75.31
455.514	77.31
455.734	80.31
455.955	97.31
456.175	87.31
456.395	86.31
456.616	84.31
456.836	75.31
457.056	81.31
457.276	85.31
457.497	81.31
457.717	84.31
457.937	80.31
458.157	73.31
458.377	104.31
458.598	87.31
458.818	80.31
459.038	66.31
459.258	87.31
459.478	84.31
459.698	76.31
459.918	68.31
460.138	94.31
460.358	92.31
460.578	92.31
460.798	71.31
461.018	83.31
461.238	68.31
461.458	81.31
461.678	87.31
461.898	78.31
462.118	73.31
462.338	96.31
462.558	80.31
462.777	75.31
462.997	92.31
463.217	92.31
463.437	79.31
463.657	77.31
463.876	83.31
464.096	78.31
464.316	83.31
464.536	88.31
464.755	71.31
464.975	84.31
465.195	66.31
465.414	76.31
465.634	71.31
465.854	84.31
466.073	74.31
466.293	83.31
466.512	74.31
466.732	82.31
466.951	81.31
467.171	71.31
467.391	87.31
467.61	97.31
467.829	85.31
468.049	80.31
468.268	81.31
468.488	74.31
468.707	81.31
468.927	85.31
469.146	83.31
469.365	95.31
469.585	93.31
469.804	81.31
470.023	87.31
470.243	81.31
470.462	73.31
470.681	75.31
470.901	96.31
471.12	72.31
471.339	73.31
471.558	86.31
471.777	74.31
471.997	75.31
472.216	92.31
472.435	81.31
472.654	98.31
472.873	94.31
473.092	84.31
473.311	80.31
473.53	73.31
473.749	81.31
473.968	77.31
474.187	83.31
474.406	81.31
474.625	90.31
474.844	82.31
475.063	92.31
475.282	77.31
475.501	92.31
475.72	89.31
475.939	80.31
476.158	74.31
476.377	73.31
476.596	75.31
476.814	74.31
477.033	76.31
477.252	82.31
477.471	80.31
477.69	85.31
477.908	93.31
478.127	70.31
478.346	83.31
478.564	80.31
478.783	74.31
479.002	91.31
479.22	103.31
479.439	96.31
479.658	85.31
479.876	88.31
480.095	77.31
480.313	93.31
480.532	80.31
480.751	77.31
480.969	70.31
481.188	88.31
481.406	94.31
481.624	80.31
481.843	83.31
482.061	77.31
482.28	81.31
482.498	76.31
482.717	76.31
482.935	89.31
483.153	74.31
483.372	79.31
483.59	74.31
483.808	85.31
484.027	82.31
484.245	92.31
484.463	85.31
484.681	72.31
484.9	78.31
485.118	80.31
485.336	81.31
485.554	77.31
485.772	81.31
485.99	86.31
486.209	80.31
486.427	88.31
486.645	81.31
486.863	76.31
487.081	72.31
487.299	74.31
487.517	77.31
487.735	80.31
487.953	84.31
488.171	77.31
488.389	94.31
488.607	80.31
488.825	88.31
489.043	82.31
489.261	91.31
489.479	87.31
489.696	74.31
489.914	83.31
490.132	100.31
490.35	83.31
490.568	80.31
490.786	75.31
491.003	78.31
491.221	79.31
491.439	84.31
491.657	89.31
491.874	101.31
492.092	91.31
492.31	82.31
492.527	84.31
492.745	72.31
492.963	90.31
493.18	73.31
493.398	92.31
493.615	88.31
493.833	67.31
494.05	77.31
494.268	76.31
494.485	93.31
494.703	78.31
494.92	68.31
495.138	76.31
495.355	89.31
495.573	80.31
495.79	96.31
496.008	83.31
496.225	79.31
496.442	83.31
496.66	80.31
496.877	83.31
497.094	88.31
497.312	84.31
497.529	75.31
497.746	88.31
497.963	92.31
498.181	83.31
498.398	90.31
498.615	88.31
498.832	78.31
499.049	93.31
499.267	96.31
499.484	82.31
499.701	79.31
499.918	84.31
500.135	96.31
500.352	84.31
500.569	92.31
500.786	101.31
501.003	82.31
501.22	92.31
501.437	101.31
501.654	81.31
501.871	93.31
502.088	81.31
502.305	78.31
502.522	75.31
502.739	75.31
502.956	82.31
503.172	83.31
503.389	82.31
503.606	76.31
503.823	79.31
504.04	80.31
504.256	73.31
504.473	82.31
504.69	85.31
504.907	89.31
505.123	91.31
505.34	80.31
505.557	82.31
505.773	81.31
505.99	93.31
506.207	89.31
506.423	67.31
506.64	68.31
506.856	74.31
507.073	89.31
507.289	88.31
507.506	86.31
507.722	81.31
507.939	88.31
508.155	94.31
508.372	93.31
508.588	93.31
508.805	83.31
509.021	82.31
509.238	77.31
509.454	97.31
509.67	79.31
509.887	82.31
510.103	74.31
510.319	73.31
510.536	90.31
510.752	81.31
510.968	84.31
511.184	89.31
511.401	84.31
511.617	78.31
511.833	81.31
512.049	84.31
512.265	94.31
512.481	86.31
512.698	85.31
512.914	87.31
513.13	89.31
513.346	83.31
513.562	93.31
513.778	97.31
513.994	90.31
514.21	78.31
514.426	81.31
514.642	87.31
514.858	92.31
515.074	82.31
515.29	76.31
515.506	74.31
515.721	78.31
515.937	98.31
516.153	90.31
516.369	89.31
516.585	89.31
516.801	82.31
517.016	81.31
517.232	96.31
517.448	80.31
517.664	85.31
517.879	92.31
518.095	91.31
518.311	94.31
518.527	88.31
518.742	82.31
518.958	91.31
519.173	90.31
519.389	87.31
519.605	75.31
519.82	77.31
520.036	90.31
