Data from Background_1_HRD10591_00003.txt Node
Date: Wed Nov 05 14:38:59 EST 2025
User: Yrep
Spectrometer: HR+D1059
Trigger mode: 1
Integration Time (sec): 1.000000E-1
Scans to average: 1
Electric dark correction enabled: true
Nonlinearity correction enabled: false
Boxcar width: 0
XAxis mode: Wavelengths
Number of Pixels in Spectrum: 2048
>>>>>Begin Spectral Data<<<<<
223.165	-15.25
223.4	-15.25
223.635	-15.25
223.869	-20.25
224.104	-6.25
224.338	-18.25
224.573	-18.25
224.808	-30.25
225.042	-3.25
225.277	11.75
225.511	-0.25
225.746	-0.25
225.98	-0.25
226.215	14.75
226.449	3.75
226.683	20.75
226.918	31.75
227.152	29.75
227.387	42.75
227.621	21.75
227.856	46.75
228.09	52.75
228.324	55.75
228.559	56.75
228.793	59.75
229.027	64.75
229.262	64.75
229.496	69.75
229.73	80.75
229.964	81.75
230.199	64.75
230.433	59.75
230.667	78.75
230.901	83.75
231.136	76.75
231.37	77.75
231.604	73.75
231.838	87.75
232.072	87.75
232.306	79.75
232.541	73.75
232.775	63.75
233.009	71.75
233.243	80.75
233.477	75.75
233.711	83.75
233.945	91.75
234.179	70.75
234.413	72.75
234.647	89.75
234.881	77.75
235.115	83.75
235.349	70.75
235.583	85.75
235.817	85.75
236.051	73.75
236.285	78.75
236.519	88.75
236.753	55.75
236.987	82.75
237.221	75.75
237.455	79.75
237.689	76.75
237.922	83.75
238.156	62.75
238.39	87.75
238.624	70.75
238.858	87.75
239.091	76.75
239.325	68.75
239.559	85.75
239.793	68.75
240.027	84.75
240.26	70.75
240.494	71.75
240.728	80.75
240.961	83.75
241.195	92.75
241.429	83.75
241.662	86.75
241.896	79.75
242.13	74.75
242.363	84.75
242.597	71.75
242.83	66.75
243.064	76.75
243.298	74.75
243.531	65.75
243.765	73.75
243.998	78.75
244.232	61.75
244.465	70.75
244.699	78.75
244.932	77.75
245.166	83.75
245.399	67.75
245.633	67.75
245.866	79.75
246.099	64.75
246.333	71.75
246.566	80.75
246.8	75.75
247.033	61.75
247.266	73.75
247.5	72.75
247.733	73.75
247.966	79.75
248.2	80.75
248.433	85.75
248.666	91.75
248.899	96.75
249.133	77.75
249.366	64.75
249.599	84.75
249.832	66.75
250.066	81.75
250.299	67.75
250.532	75.75
250.765	86.75
250.998	85.75
251.231	79.75
251.465	79.75
251.698	82.75
251.931	84.75
252.164	78.75
252.397	76.75
252.63	83.75
252.863	90.75
253.096	87.75
253.329	88.75
253.562	84.75
253.795	87.75
254.028	95.75
254.261	69.75
254.494	93.75
254.727	84.75
254.96	84.75
255.193	72.75
255.426	75.75
255.659	84.75
255.892	74.75
256.124	86.75
256.357	65.75
256.59	71.75
256.823	75.75
257.056	75.75
257.289	67.75
257.521	85.75
257.754	79.75
257.987	75.75
258.22	99.75
258.452	77.75
258.685	74.75
258.918	83.75
259.151	85.75
259.383	87.75
259.616	79.75
259.849	87.75
260.081	81.75
260.314	80.75
260.547	77.75
260.779	87.75
261.012	78.75
261.244	77.75
261.477	82.75
261.71	82.75
261.942	69.75
262.175	75.75
262.407	86.75
262.64	80.75
262.872	75.75
263.105	88.75
263.337	77.75
263.57	72.75
263.802	70.75
264.035	95.75
264.267	79.75
264.499	85.75
264.732	83.75
264.964	96.75
265.197	75.75
265.429	73.75
265.661	74.75
265.894	78.75
266.126	92.75
266.358	85.75
266.591	68.75
266.823	78.75
267.055	72.75
267.287	105.75
267.52	79.75
267.752	86.75
267.984	71.75
268.216	75.75
268.448	84.75
268.681	69.75
268.913	87.75
269.145	95.75
269.377	84.75
269.609	90.75
269.841	81.75
270.073	84.75
270.306	86.75
270.538	84.75
270.77	79.75
271.002	79.75
271.234	85.75
271.466	84.75
271.698	92.75
271.93	89.75
272.162	68.75
272.394	103.75
272.626	77.75
272.858	75.75
273.09	93.75
273.322	91.75
273.553	78.75
273.785	108.75
274.017	93.75
274.249	76.75
274.481	93.75
274.713	96.75
274.945	80.75
275.176	69.75
275.408	92.75
275.64	73.75
275.872	83.75
276.104	90.75
276.335	78.75
276.567	96.75
276.799	82.75
277.031	88.75
277.262	86.75
277.494	76.75
277.726	75.75
277.957	82.75
278.189	95.75
278.421	85.75
278.652	92.75
278.884	75.75
279.115	84.75
279.347	67.75
279.579	79.75
279.81	87.75
280.042	78.75
280.273	87.75
280.505	77.75
280.736	93.75
280.968	93.75
281.199	92.75
281.431	70.75
281.662	85.75
281.894	87.75
282.125	100.75
282.356	89.75
282.588	66.75
282.819	91.75
283.051	86.75
283.282	75.75
283.513	85.75
283.745	88.75
283.976	84.75
284.207	94.75
284.439	93.75
284.67	74.75
284.901	81.75
285.132	84.75
285.364	93.75
285.595	93.75
285.826	84.75
286.057	87.75
286.288	73.75
286.52	75.75
286.751	75.75
286.982	90.75
287.213	85.75
287.444	89.75
287.675	87.75
287.906	76.75
288.138	82.75
288.369	89.75
288.6	81.75
288.831	75.75
289.062	78.75
289.293	90.75
289.524	88.75
289.755	90.75
289.986	76.75
290.217	87.75
290.448	74.75
290.679	79.75
290.91	101.75
291.141	85.75
291.371	89.75
291.602	85.75
291.833	80.75
292.064	90.75
292.295	78.75
292.526	80.75
292.757	84.75
292.987	68.75
293.218	84.75
293.449	73.75
293.68	74.75
293.91	90.75
294.141	90.75
294.372	88.75
294.603	82.75
294.833	98.75
295.064	82.75
295.295	93.75
295.525	88.75
295.756	80.75
295.987	69.75
296.217	87.75
296.448	82.75
296.679	95.75
296.909	88.75
297.14	81.75
297.37	85.75
297.601	78.75
297.831	94.75
298.062	88.75
298.292	90.75
298.523	83.75
298.753	100.75
298.984	86.75
299.214	87.75
299.445	87.75
299.675	75.75
299.905	83.75
300.136	83.75
300.366	79.75
300.597	90.75
300.827	76.75
301.057	79.75
301.288	80.75
301.518	87.75
301.748	88.75
301.979	97.75
302.209	96.75
302.439	85.75
302.669	75.75
302.9	82.75
303.13	84.75
303.36	91.75
303.59	86.75
303.82	83.75
304.051	83.75
304.281	88.75
304.511	92.75
304.741	85.75
304.971	90.75
305.201	79.75
305.431	83.75
305.661	82.75
305.891	75.75
306.121	91.75
306.352	95.75
306.582	96.75
306.812	85.75
307.042	84.75
307.272	86.75
307.502	86.75
307.731	69.75
307.961	99.75
308.191	100.75
308.421	98.75
308.651	69.75
308.881	75.75
309.111	74.75
309.341	99.75
309.571	80.75
309.8	73.75
310.03	83.75
310.26	76.75
310.49	84.75
310.72	91.75
310.949	92.75
311.179	68.75
311.409	79.75
311.639	74.75
311.868	67.75
312.098	89.75
312.328	83.75
312.557	95.75
312.787	79.75
313.017	78.75
313.246	75.75
313.476	67.75
313.706	82.75
313.935	85.75
314.165	74.75
314.394	88.75
314.624	80.75
314.853	87.75
315.083	80.75
315.312	84.75
315.542	84.75
315.771	81.75
316.001	83.75
316.23	73.75
316.46	82.75
316.689	83.75
316.919	68.75
317.148	80.75
317.377	92.75
317.607	77.75
317.836	85.75
318.065	81.75
318.295	83.75
318.524	74.75
318.753	96.75
318.983	74.75
319.212	87.75
319.441	82.75
319.67	75.75
319.9	83.75
320.129	72.75
320.358	92.75
320.587	87.75
320.816	75.75
321.046	86.75
321.275	97.75
321.504	91.75
321.733	80.75
321.962	67.75
322.191	76.75
322.42	87.75
322.649	83.75
322.878	90.75
323.108	93.75
323.337	84.75
323.566	87.75
323.795	91.75
324.024	81.75
324.253	72.75
324.482	61.75
324.71	80.75
324.939	76.75
325.168	90.75
325.397	85.75
325.626	92.75
325.855	97.75
326.084	79.75
326.313	85.75
326.542	104.75
326.77	82.75
326.999	83.75
327.228	100.75
327.457	87.75
327.686	71.75
327.914	77.75
328.143	91.75
328.372	87.75
328.6	89.75
328.829	95.75
329.058	74.75
329.287	96.75
329.515	87.75
329.744	92.75
329.972	83.75
330.201	78.75
330.43	81.75
330.658	88.75
330.887	83.75
331.115	73.75
331.344	84.75
331.572	79.75
331.801	87.75
332.03	75.75
332.258	90.75
332.486	81.75
332.715	89.75
332.943	85.75
333.172	81.75
333.4	84.75
333.629	75.75
333.857	84.75
334.085	85.75
334.314	72.75
334.542	67.75
334.771	78.75
334.999	83.75
335.227	84.75
335.455	92.75
335.684	85.75
335.912	78.75
336.14	79.75
336.369	81.75
336.597	80.75
336.825	85.75
337.053	91.75
337.281	82.75
337.51	89.75
337.738	69.75
337.966	65.75
338.194	83.75
338.422	78.75
338.65	75.75
338.878	80.75
339.106	81.75
339.334	100.75
339.562	85.75
339.79	87.75
340.018	78.75
340.246	90.75
340.474	90.75
340.702	79.75
340.93	84.75
341.158	82.75
341.386	77.75
341.614	89.75
341.842	92.75
342.07	90.75
342.298	81.75
342.526	63.75
342.754	76.75
342.981	81.75
343.209	76.75
343.437	99.75
343.665	76.75
343.893	86.75
344.12	85.75
344.348	83.75
344.576	88.75
344.804	92.75
345.031	84.75
345.259	100.75
345.487	103.75
345.714	96.75
345.942	84.75
346.17	84.75
346.397	84.75
346.625	74.75
346.853	79.75
347.08	87.75
347.308	96.75
347.535	75.75
347.763	88.75
347.99	77.75
348.218	90.75
348.445	88.75
348.673	66.75
348.9	87.75
349.128	84.75
349.355	81.75
349.583	90.75
349.81	87.75
350.037	70.75
350.265	91.75
350.492	72.75
350.72	85.75
350.947	75.75
351.174	91.75
351.402	85.75
351.629	75.75
351.856	80.75
352.083	84.75
352.311	81.75
352.538	87.75
352.765	86.75
352.992	88.75
353.22	89.75
353.447	90.75
353.674	89.75
353.901	92.75
354.128	89.75
354.355	75.75
354.583	84.75
354.81	86.75
355.037	82.75
355.264	83.75
355.491	80.75
355.718	76.75
355.945	91.75
356.172	67.75
356.399	75.75
356.626	76.75
356.853	87.75
357.08	97.75
357.307	90.75
357.534	83.75
357.761	79.75
357.988	86.75
358.215	81.75
358.441	75.75
358.668	83.75
358.895	87.75
359.122	86.75
359.349	76.75
359.576	95.75
359.802	90.75
360.029	68.75
360.256	79.75
360.483	83.75
360.709	80.75
360.936	96.75
361.163	75.75
361.39	87.75
361.616	79.75
361.843	90.75
362.07	74.75
362.296	78.75
362.523	87.75
362.749	81.75
362.976	80.75
363.203	76.75
363.429	82.75
363.656	87.75
363.882	93.75
364.109	91.75
364.335	75.75
364.562	79.75
364.788	93.75
365.015	93.75
365.241	79.75
365.468	75.75
365.694	84.75
365.92	76.75
366.147	86.75
366.373	78.75
366.599	83.75
366.826	80.75
367.052	79.75
367.278	95.75
367.505	83.75
367.731	83.75
367.957	96.75
368.184	88.75
368.41	76.75
368.636	80.75
368.862	70.75
369.089	72.75
369.315	77.75
369.541	85.75
369.767	91.75
369.993	85.75
370.219	83.75
370.445	82.75
370.672	89.75
370.898	89.75
371.124	65.75
371.35	76.75
371.576	90.75
371.802	99.75
372.028	62.75
372.254	88.75
372.48	68.75
372.706	79.75
372.932	83.75
373.158	88.75
373.384	97.75
373.61	107.75
373.835	68.75
374.061	86.75
374.287	76.75
374.513	77.75
374.739	83.75
374.965	82.75
375.191	68.75
375.416	73.75
375.642	93.75
375.868	97.75
376.094	92.75
376.319	74.75
376.545	78.75
376.771	79.75
376.997	86.75
377.222	71.75
377.448	88.75
377.674	79.75
377.899	93.75
378.125	75.75
378.35	89.75
378.576	83.75
378.802	76.75
379.027	84.75
379.253	95.75
379.478	80.75
379.704	82.75
379.929	91.75
380.155	80.75
380.38	77.75
380.606	80.75
380.831	89.75
381.057	94.75
381.282	80.75
381.507	96.75
381.733	85.75
381.958	79.75
382.184	78.75
382.409	83.75
382.634	89.75
382.86	89.75
383.085	88.75
383.31	71.75
383.535	90.75
383.761	79.75
383.986	92.75
384.211	91.75
384.436	79.75
384.662	62.75
384.887	82.75
385.112	71.75
385.337	89.75
385.562	91.75
385.787	77.75
386.013	79.75
386.238	76.75
386.463	75.75
386.688	95.75
386.913	73.75
387.138	73.75
387.363	81.75
387.588	83.75
387.813	93.75
388.038	64.75
388.263	73.75
388.488	82.75
388.713	62.75
388.938	81.75
389.163	93.75
389.387	88.75
389.612	89.75
389.837	81.75
390.062	76.75
390.287	83.75
390.512	76.75
390.736	81.75
390.961	75.75
391.186	77.75
391.411	81.75
391.636	92.75
391.86	83.75
392.085	84.75
392.31	76.75
392.534	74.75
392.759	83.75
392.984	99.75
393.208	81.75
393.433	76.75
393.658	85.75
393.882	87.75
394.107	77.75
394.331	81.75
394.556	87.75
394.78	79.75
395.005	77.75
395.229	85.75
395.454	71.75
395.678	83.75
395.903	83.75
396.127	89.75
396.352	77.75
396.576	83.75
396.801	78.75
397.025	88.75
397.249	84.75
397.474	85.75
397.698	84.75
397.922	91.75
398.147	75.75
398.371	85.75
398.595	83.75
398.82	82.75
399.044	70.75
399.268	67.75
399.492	75.75
399.717	79.75
399.941	80.75
400.165	87.75
400.389	77.75
400.613	72.75
400.837	88.75
401.062	77.75
401.286	76.75
401.51	84.75
401.734	79.75
401.958	73.75
402.182	85.75
402.406	77.75
402.63	90.75
402.854	84.75
403.078	85.75
403.302	94.75
403.526	68.75
403.75	80.75
403.974	81.75
404.198	67.75
404.422	71.75
404.645	84.75
404.869	76.75
405.093	80.75
405.317	80.75
405.541	91.75
405.765	80.75
405.988	85.75
406.212	94.75
406.436	76.75
406.66	88.75
406.883	65.75
407.107	83.75
407.331	79.75
407.555	82.75
407.778	74.75
408.002	66.75
408.226	79.75
408.449	71.75
408.673	81.75
408.896	97.75
409.12	83.75
409.344	69.75
409.567	69.75
409.791	74.75
410.014	92.75
410.238	89.75
410.461	77.75
410.685	77.75
410.908	72.75
411.132	82.75
411.355	77.75
411.578	89.75
411.802	88.75
412.025	74.75
412.249	78.75
412.472	86.75
412.695	80.75
412.919	84.75
413.142	79.75
413.365	81.75
413.589	70.75
413.812	79.75
414.035	85.75
414.258	91.75
414.482	72.75
414.705	74.75
414.928	79.75
415.151	87.75
415.374	77.75
415.597	84.75
415.821	80.75
416.044	82.75
416.267	83.75
416.49	69.75
416.713	84.75
416.936	81.75
417.159	77.75
417.382	79.75
417.605	79.75
417.828	81.75
418.051	66.75
418.274	81.75
418.497	75.75
418.72	82.75
418.943	89.75
419.166	77.75
419.389	75.75
419.611	76.75
419.834	73.75
420.057	82.75
420.28	72.75
420.503	70.75
420.726	71.75
420.948	83.75
421.171	80.75
421.394	76.75
421.617	74.75
421.839	77.75
422.062	90.75
422.285	83.75
422.507	84.75
422.73	94.75
422.953	82.75
423.175	74.75
423.398	84.75
423.621	74.75
423.843	73.75
424.066	69.75
424.288	83.75
424.511	71.75
424.733	83.75
424.956	71.75
425.178	60.75
425.401	75.75
425.623	79.75
425.846	67.75
426.068	78.75
426.291	75.75
426.513	72.75
426.735	89.75
426.958	80.75
427.18	82.75
427.402	83.75
427.625	74.75
427.847	85.75
428.069	76.75
428.292	87.75
428.514	75.75
428.736	72.75
428.958	75.75
429.181	93.75
429.403	78.75
429.625	79.75
429.847	66.75
430.069	79.75
430.292	88.75
430.514	71.75
430.736	84.75
430.958	92.75
431.18	80.75
431.402	82.75
431.624	85.75
431.846	77.75
432.068	73.75
432.29	86.75
432.512	89.75
432.734	89.75
432.956	74.75
433.178	89.75
433.4	67.75
433.622	80.75
433.844	87.75
434.066	92.75
434.287	88.75
434.509	78.75
434.731	84.75
434.953	78.75
435.175	77.75
435.397	76.75
435.618	79.75
435.84	69.75
436.062	78.75
436.284	93.75
436.505	77.75
436.727	79.75
436.949	77.75
437.17	89.75
437.392	100.75
437.614	73.75
437.835	81.75
438.057	79.75
438.278	80.75
438.5	78.75
438.721	91.75
438.943	80.75
439.165	79.75
439.386	81.75
439.608	85.75
439.829	90.75
440.05	81.75
440.272	83.75
440.493	76.75
440.715	89.75
440.936	86.75
441.158	91.75
441.379	86.75
441.6	70.75
441.822	81.75
442.043	93.75
442.264	71.75
442.486	79.75
442.707	84.75
442.928	85.75
443.149	74.75
443.371	79.75
443.592	80.75
443.813	79.75
444.034	82.75
444.255	82.75
444.476	80.75
444.698	84.75
444.919	82.75
445.14	132.75
445.361	87.75
445.582	71.75
445.803	84.75
446.024	85.75
446.245	88.75
446.466	77.75
446.687	84.75
446.908	81.75
447.129	92.75
447.35	71.75
447.571	75.75
447.792	91.75
448.013	73.75
448.234	86.75
448.455	90.75
448.675	90.75
448.896	77.75
449.117	77.75
449.338	76.75
449.559	93.75
449.779	75.75
450	95.75
450.221	89.75
450.442	71.75
450.662	84.75
450.883	80.75
451.104	85.75
451.324	76.75
451.545	72.75
451.766	89.75
451.986	82.75
452.207	91.75
452.428	83.75
452.648	91.75
452.869	83.75
453.089	74.75
453.31	79.75
453.53	87.75
453.751	91.75
453.971	78.75
454.192	80.75
454.412	81.75
454.633	81.75
454.853	85.75
455.073	78.75
455.294	78.75
455.514	81.75
455.734	79.75
455.955	82.75
456.175	78.75
456.395	83.75
456.616	77.75
456.836	81.75
457.056	69.75
457.276	89.75
457.497	86.75
457.717	73.75
457.937	75.75
458.157	75.75
458.377	77.75
458.598	79.75
458.818	75.75
459.038	80.75
459.258	91.75
459.478	81.75
459.698	91.75
459.918	75.75
460.138	84.75
460.358	86.75
460.578	71.75
460.798	79.75
461.018	83.75
461.238	87.75
461.458	66.75
461.678	89.75
461.898	95.75
462.118	84.75
462.338	79.75
462.558	79.75
462.777	89.75
462.997	85.75
463.217	69.75
463.437	83.75
463.657	77.75
463.876	83.75
464.096	75.75
464.316	84.75
464.536	85.75
464.755	84.75
464.975	67.75
465.195	87.75
465.414	81.75
465.634	98.75
465.854	90.75
466.073	61.75
466.293	79.75
466.512	97.75
466.732	75.75
466.951	76.75
467.171	88.75
467.391	100.75
467.61	82.75
467.829	79.75
468.049	70.75
468.268	79.75
468.488	91.75
468.707	83.75
468.927	84.75
469.146	88.75
469.365	87.75
469.585	82.75
469.804	83.75
470.023	80.75
470.243	95.75
470.462	80.75
470.681	75.75
470.901	82.75
471.12	87.75
471.339	79.75
471.558	66.75
471.777	88.75
471.997	85.75
472.216	93.75
472.435	79.75
472.654	84.75
472.873	80.75
473.092	83.75
473.311	95.75
473.53	79.75
473.749	78.75
473.968	86.75
474.187	77.75
474.406	91.75
474.625	83.75
474.844	92.75
475.063	82.75
475.282	76.75
475.501	87.75
475.72	80.75
475.939	88.75
476.158	67.75
476.377	90.75
476.596	73.75
476.814	81.75
477.033	85.75
477.252	90.75
477.471	82.75
477.69	88.75
477.908	84.75
478.127	78.75
478.346	83.75
478.564	90.75
478.783	74.75
479.002	65.75
479.22	75.75
479.439	83.75
479.658	96.75
479.876	93.75
480.095	83.75
480.313	88.75
480.532	77.75
480.751	81.75
480.969	75.75
481.188	98.75
481.406	89.75
481.624	91.75
481.843	88.75
482.061	94.75
482.28	95.75
482.498	81.75
482.717	88.75
482.935	90.75
483.153	77.75
483.372	96.75
483.59	81.75
483.808	81.75
484.027	70.75
484.245	95.75
484.463	71.75
484.681	91.75
484.9	91.75
485.118	90.75
485.336	74.75
485.554	68.75
485.772	90.75
485.99	93.75
486.209	82.75
486.427	83.75
486.645	89.75
486.863	80.75
487.081	88.75
487.299	89.75
487.517	70.75
487.735	82.75
487.953	84.75
488.171	82.75
488.389	87.75
488.607	71.75
488.825	89.75
489.043	92.75
489.261	82.75
489.479	84.75
489.696	81.75
489.914	80.75
490.132	85.75
490.35	92.75
490.568	85.75
490.786	82.75
491.003	71.75
491.221	85.75
491.439	75.75
491.657	87.75
491.874	98.75
492.092	83.75
492.31	92.75
492.527	65.75
492.745	59.75
492.963	77.75
493.18	96.75
493.398	68.75
493.615	75.75
493.833	77.75
494.05	82.75
494.268	77.75
494.485	77.75
494.703	81.75
494.92	88.75
495.138	81.75
495.355	84.75
495.573	81.75
495.79	77.75
496.008	86.75
496.225	95.75
496.442	87.75
496.66	86.75
496.877	94.75
497.094	80.75
497.312	79.75
497.529	73.75
497.746	85.75
497.963	89.75
498.181	81.75
498.398	77.75
498.615	93.75
498.832	83.75
499.049	87.75
499.267	82.75
499.484	89.75
499.701	96.75
499.918	103.75
500.135	83.75
500.352	70.75
500.569	93.75
500.786	83.75
501.003	89.75
501.22	91.75
501.437	93.75
501.654	83.75
501.871	83.75
502.088	74.75
502.305	75.75
502.522	88.75
502.739	77.75
502.956	83.75
503.172	87.75
503.389	83.75
503.606	92.75
503.823	73.75
504.04	86.75
504.256	99.75
504.473	83.75
504.69	83.75
504.907	97.75
505.123	84.75
505.34	106.75
505.557	84.75
505.773	91.75
505.99	91.75
506.207	85.75
506.423	96.75
506.64	87.75
506.856	80.75
507.073	92.75
507.289	93.75
507.506	94.75
507.722	91.75
507.939	89.75
508.155	99.75
508.372	91.75
508.588	86.75
508.805	87.75
509.021	87.75
509.238	79.75
509.454	77.75
509.67	85.75
509.887	85.75
510.103	80.75
510.319	80.75
510.536	92.75
510.752	95.75
510.968	91.75
511.184	94.75
511.401	95.75
511.617	84.75
511.833	77.75
512.049	78.75
512.265	75.75
512.481	80.75
512.698	79.75
512.914	92.75
513.13	82.75
513.346	83.75
513.562	77.75
513.778	82.75
513.994	87.75
514.21	97.75
514.426	78.75
514.642	83.75
514.858	83.75
515.074	79.75
515.29	77.75
515.506	77.75
515.721	87.75
515.937	90.75
516.153	93.75
516.369	90.75
516.585	83.75
516.801	94.75
517.016	93.75
517.232	69.75
517.448	94.75
517.664	69.75
517.879	80.75
518.095	74.75
518.311	81.75
518.527	79.75
518.742	80.75
518.958	79.75
519.173	83.75
519.389	80.75
519.605	81.75
519.82	91.75
520.036	73.75
