Data from Background_1_HRD10591_00094.txt Node
Date: Wed Nov 05 14:39:44 EST 2025
User: Yrep
Spectrometer: HR+D1059
Trigger mode: 1
Integration Time (sec): 1.000000E-1
Scans to average: 1
Electric dark correction enabled: true
Nonlinearity correction enabled: false
Boxcar width: 0
XAxis mode: Wavelengths
Number of Pixels in Spectrum: 2048
>>>>>Begin Spectral Data<<<<<
223.165	-19.25
223.4	-19.25
223.635	-19.25
223.869	-21.25
224.104	-20.25
224.338	-17.25
224.573	0.75
224.808	4.75
225.042	-19.25
225.277	-5.25
225.511	-12.25
225.746	-4.25
225.98	13.75
226.215	16.75
226.449	15.75
226.683	24.75
226.918	19.75
227.152	22.75
227.387	27.75
227.621	33.75
227.856	46.75
228.09	31.75
228.324	54.75
228.559	58.75
228.793	55.75
229.027	78.75
229.262	64.75
229.496	62.75
229.73	80.75
229.964	96.75
230.199	78.75
230.433	76.75
230.667	89.75
230.901	84.75
231.136	82.75
231.37	64.75
231.604	74.75
231.838	67.75
232.072	93.75
232.306	79.75
232.541	75.75
232.775	91.75
233.009	89.75
233.243	90.75
233.477	88.75
233.711	86.75
233.945	75.75
234.179	93.75
234.413	97.75
234.647	78.75
234.881	90.75
235.115	72.75
235.349	77.75
235.583	64.75
235.817	84.75
236.051	78.75
236.285	85.75
236.519	76.75
236.753	74.75
236.987	74.75
237.221	82.75
237.455	74.75
237.689	91.75
237.922	77.75
238.156	82.75
238.39	88.75
238.624	71.75
238.858	79.75
239.091	78.75
239.325	78.75
239.559	81.75
239.793	92.75
240.027	90.75
240.26	66.75
240.494	74.75
240.728	71.75
240.961	72.75
241.195	82.75
241.429	87.75
241.662	81.75
241.896	76.75
242.13	75.75
242.363	85.75
242.597	81.75
242.83	74.75
243.064	68.75
243.298	65.75
243.531	76.75
243.765	62.75
243.998	65.75
244.232	80.75
244.465	83.75
244.699	80.75
244.932	80.75
245.166	66.75
245.399	85.75
245.633	72.75
245.866	85.75
246.099	83.75
246.333	82.75
246.566	68.75
246.8	87.75
247.033	72.75
247.266	73.75
247.5	65.75
247.733	70.75
247.966	77.75
248.2	83.75
248.433	74.75
248.666	86.75
248.899	78.75
249.133	85.75
249.366	87.75
249.599	94.75
249.832	86.75
250.066	73.75
250.299	85.75
250.532	81.75
250.765	81.75
250.998	84.75
251.231	88.75
251.465	87.75
251.698	90.75
251.931	78.75
252.164	77.75
252.397	79.75
252.63	80.75
252.863	75.75
253.096	72.75
253.329	82.75
253.562	69.75
253.795	96.75
254.028	69.75
254.261	81.75
254.494	91.75
254.727	70.75
254.96	70.75
255.193	85.75
255.426	86.75
255.659	90.75
255.892	84.75
256.124	79.75
256.357	80.75
256.59	86.75
256.823	74.75
257.056	73.75
257.289	83.75
257.521	74.75
257.754	86.75
257.987	85.75
258.22	83.75
258.452	83.75
258.685	87.75
258.918	88.75
259.151	82.75
259.383	91.75
259.616	76.75
259.849	94.75
260.081	89.75
260.314	83.75
260.547	74.75
260.779	92.75
261.012	82.75
261.244	81.75
261.477	94.75
261.71	77.75
261.942	75.75
262.175	93.75
262.407	80.75
262.64	63.75
262.872	82.75
263.105	84.75
263.337	100.75
263.57	78.75
263.802	110.75
264.035	94.75
264.267	84.75
264.499	76.75
264.732	100.75
264.964	78.75
265.197	87.75
265.429	79.75
265.661	90.75
265.894	66.75
266.126	82.75
266.358	86.75
266.591	86.75
266.823	80.75
267.055	71.75
267.287	97.75
267.52	79.75
267.752	93.75
267.984	83.75
268.216	76.75
268.448	88.75
268.681	68.75
268.913	81.75
269.145	72.75
269.377	82.75
269.609	64.75
269.841	80.75
270.073	85.75
270.306	74.75
270.538	90.75
270.77	97.75
271.002	96.75
271.234	83.75
271.466	94.75
271.698	83.75
271.93	93.75
272.162	84.75
272.394	94.75
272.626	71.75
272.858	79.75
273.09	90.75
273.322	77.75
273.553	86.75
273.785	95.75
274.017	84.75
274.249	81.75
274.481	89.75
274.713	82.75
274.945	80.75
275.176	76.75
275.408	80.75
275.64	82.75
275.872	83.75
276.104	77.75
276.335	94.75
276.567	88.75
276.799	74.75
277.031	72.75
277.262	76.75
277.494	90.75
277.726	89.75
277.957	93.75
278.189	71.75
278.421	81.75
278.652	72.75
278.884	88.75
279.115	95.75
279.347	95.75
279.579	85.75
279.81	87.75
280.042	78.75
280.273	84.75
280.505	77.75
280.736	82.75
280.968	88.75
281.199	79.75
281.431	82.75
281.662	79.75
281.894	82.75
282.125	78.75
282.356	75.75
282.588	89.75
282.819	84.75
283.051	86.75
283.282	80.75
283.513	85.75
283.745	79.75
283.976	93.75
284.207	82.75
284.439	73.75
284.67	93.75
284.901	85.75
285.132	84.75
285.364	73.75
285.595	93.75
285.826	83.75
286.057	83.75
286.288	90.75
286.52	96.75
286.751	71.75
286.982	78.75
287.213	85.75
287.444	100.75
287.675	76.75
287.906	77.75
288.138	86.75
288.369	94.75
288.6	81.75
288.831	86.75
289.062	83.75
289.293	74.75
289.524	71.75
289.755	71.75
289.986	89.75
290.217	85.75
290.448	83.75
290.679	84.75
290.91	85.75
291.141	81.75
291.371	92.75
291.602	86.75
291.833	87.75
292.064	76.75
292.295	82.75
292.526	88.75
292.757	94.75
292.987	82.75
293.218	83.75
293.449	90.75
293.68	82.75
293.91	89.75
294.141	80.75
294.372	87.75
294.603	67.75
294.833	88.75
295.064	88.75
295.295	81.75
295.525	88.75
295.756	80.75
295.987	79.75
296.217	82.75
296.448	82.75
296.679	83.75
296.909	78.75
297.14	94.75
297.37	82.75
297.601	72.75
297.831	93.75
298.062	80.75
298.292	86.75
298.523	71.75
298.753	79.75
298.984	89.75
299.214	82.75
299.445	84.75
299.675	82.75
299.905	75.75
300.136	85.75
300.366	74.75
300.597	92.75
300.827	76.75
301.057	90.75
301.288	81.75
301.518	80.75
301.748	78.75
301.979	74.75
302.209	78.75
302.439	83.75
302.669	87.75
302.9	81.75
303.13	75.75
303.36	93.75
303.59	74.75
303.82	92.75
304.051	82.75
304.281	79.75
304.511	73.75
304.741	76.75
304.971	81.75
305.201	82.75
305.431	100.75
305.661	71.75
305.891	82.75
306.121	90.75
306.352	84.75
306.582	64.75
306.812	86.75
307.042	75.75
307.272	91.75
307.502	97.75
307.731	82.75
307.961	82.75
308.191	85.75
308.421	94.75
308.651	91.75
308.881	88.75
309.111	71.75
309.341	82.75
309.571	84.75
309.8	82.75
310.03	78.75
310.26	68.75
310.49	59.75
310.72	81.75
310.949	76.75
311.179	82.75
311.409	88.75
311.639	92.75
311.868	71.75
312.098	84.75
312.328	80.75
312.557	68.75
312.787	78.75
313.017	85.75
313.246	96.75
313.476	79.75
313.706	94.75
313.935	76.75
314.165	71.75
314.394	86.75
314.624	76.75
314.853	86.75
315.083	76.75
315.312	75.75
315.542	97.75
315.771	74.75
316.001	78.75
316.23	88.75
316.46	72.75
316.689	76.75
316.919	90.75
317.148	94.75
317.377	84.75
317.607	74.75
317.836	80.75
318.065	80.75
318.295	82.75
318.524	75.75
318.753	79.75
318.983	93.75
319.212	76.75
319.441	81.75
319.67	88.75
319.9	82.75
320.129	74.75
320.358	81.75
320.587	99.75
320.816	80.75
321.046	86.75
321.275	78.75
321.504	76.75
321.733	81.75
321.962	82.75
322.191	84.75
322.42	80.75
322.649	77.75
322.878	66.75
323.108	78.75
323.337	88.75
323.566	88.75
323.795	86.75
324.024	81.75
324.253	83.75
324.482	81.75
324.71	80.75
324.939	65.75
325.168	79.75
325.397	87.75
325.626	65.75
325.855	68.75
326.084	92.75
326.313	79.75
326.542	77.75
326.77	75.75
326.999	80.75
327.228	82.75
327.457	79.75
327.686	94.75
327.914	79.75
328.143	83.75
328.372	74.75
328.6	84.75
328.829	92.75
329.058	95.75
329.287	83.75
329.515	86.75
329.744	72.75
329.972	80.75
330.201	82.75
330.43	76.75
330.658	86.75
330.887	94.75
331.115	68.75
331.344	88.75
331.572	83.75
331.801	86.75
332.03	95.75
332.258	86.75
332.486	91.75
332.715	95.75
332.943	79.75
333.172	76.75
333.4	74.75
333.629	74.75
333.857	72.75
334.085	82.75
334.314	82.75
334.542	79.75
334.771	77.75
334.999	95.75
335.227	92.75
335.455	89.75
335.684	90.75
335.912	87.75
336.14	83.75
336.369	80.75
336.597	73.75
336.825	70.75
337.053	91.75
337.281	69.75
337.51	75.75
337.738	98.75
337.966	84.75
338.194	90.75
338.422	91.75
338.65	74.75
338.878	89.75
339.106	93.75
339.334	74.75
339.562	79.75
339.79	72.75
340.018	76.75
340.246	90.75
340.474	92.75
340.702	86.75
340.93	80.75
341.158	82.75
341.386	74.75
341.614	77.75
341.842	86.75
342.07	88.75
342.298	88.75
342.526	86.75
342.754	83.75
342.981	86.75
343.209	91.75
343.437	85.75
343.665	76.75
343.893	76.75
344.12	88.75
344.348	79.75
344.576	82.75
344.804	97.75
345.031	83.75
345.259	83.75
345.487	77.75
345.714	71.75
345.942	91.75
346.17	107.75
346.397	93.75
346.625	76.75
346.853	72.75
347.08	75.75
347.308	90.75
347.535	78.75
347.763	83.75
347.99	80.75
348.218	92.75
348.445	73.75
348.673	83.75
348.9	87.75
349.128	93.75
349.355	92.75
349.583	90.75
349.81	74.75
350.037	84.75
350.265	76.75
350.492	97.75
350.72	78.75
350.947	105.75
351.174	86.75
351.402	75.75
351.629	73.75
351.856	75.75
352.083	84.75
352.311	76.75
352.538	78.75
352.765	86.75
352.992	95.75
353.22	70.75
353.447	95.75
353.674	78.75
353.901	76.75
354.128	88.75
354.355	76.75
354.583	89.75
354.81	79.75
355.037	82.75
355.264	104.75
355.491	81.75
355.718	73.75
355.945	78.75
356.172	73.75
356.399	85.75
356.626	88.75
356.853	88.75
357.08	80.75
357.307	88.75
357.534	85.75
357.761	80.75
357.988	88.75
358.215	74.75
358.441	94.75
358.668	80.75
358.895	88.75
359.122	73.75
359.349	80.75
359.576	81.75
359.802	76.75
360.029	86.75
360.256	79.75
360.483	73.75
360.709	70.75
360.936	80.75
361.163	80.75
361.39	84.75
361.616	87.75
361.843	75.75
362.07	87.75
362.296	81.75
362.523	86.75
362.749	82.75
362.976	84.75
363.203	83.75
363.429	89.75
363.656	84.75
363.882	74.75
364.109	90.75
364.335	83.75
364.562	76.75
364.788	87.75
365.015	78.75
365.241	79.75
365.468	84.75
365.694	82.75
365.92	89.75
366.147	82.75
366.373	79.75
366.599	78.75
366.826	91.75
367.052	86.75
367.278	85.75
367.505	73.75
367.731	91.75
367.957	88.75
368.184	57.75
368.41	82.75
368.636	74.75
368.862	89.75
369.089	90.75
369.315	85.75
369.541	86.75
369.767	78.75
369.993	79.75
370.219	82.75
370.445	90.75
370.672	64.75
370.898	79.75
371.124	91.75
371.35	74.75
371.576	75.75
371.802	82.75
372.028	72.75
372.254	80.75
372.48	90.75
372.706	70.75
372.932	86.75
373.158	80.75
373.384	77.75
373.61	91.75
373.835	78.75
374.061	83.75
374.287	73.75
374.513	74.75
374.739	71.75
374.965	72.75
375.191	95.75
375.416	84.75
375.642	76.75
375.868	71.75
376.094	94.75
376.319	79.75
376.545	63.75
376.771	78.75
376.997	77.75
377.222	74.75
377.448	66.75
377.674	82.75
377.899	86.75
378.125	81.75
378.35	88.75
378.576	75.75
378.802	82.75
379.027	85.75
379.253	99.75
379.478	82.75
379.704	76.75
379.929	78.75
380.155	80.75
380.38	78.75
380.606	82.75
380.831	83.75
381.057	93.75
381.282	74.75
381.507	83.75
381.733	90.75
381.958	68.75
382.184	74.75
382.409	78.75
382.634	96.75
382.86	86.75
383.085	80.75
383.31	74.75
383.535	79.75
383.761	78.75
383.986	86.75
384.211	72.75
384.436	90.75
384.662	87.75
384.887	80.75
385.112	80.75
385.337	74.75
385.562	93.75
385.787	79.75
386.013	78.75
386.238	81.75
386.463	90.75
386.688	82.75
386.913	84.75
387.138	79.75
387.363	86.75
387.588	90.75
387.813	90.75
388.038	71.75
388.263	92.75
388.488	72.75
388.713	76.75
388.938	65.75
389.163	67.75
389.387	77.75
389.612	75.75
389.837	80.75
390.062	86.75
390.287	85.75
390.512	72.75
390.736	87.75
390.961	77.75
391.186	86.75
391.411	92.75
391.636	74.75
391.86	83.75
392.085	82.75
392.31	74.75
392.534	83.75
392.759	78.75
392.984	93.75
393.208	83.75
393.433	84.75
393.658	87.75
393.882	90.75
394.107	76.75
394.331	87.75
394.556	73.75
394.78	82.75
395.005	84.75
395.229	80.75
395.454	90.75
395.678	79.75
395.903	90.75
396.127	72.75
396.352	77.75
396.576	78.75
396.801	84.75
397.025	79.75
397.249	86.75
397.474	82.75
397.698	85.75
397.922	93.75
398.147	83.75
398.371	79.75
398.595	81.75
398.82	83.75
399.044	102.75
399.268	77.75
399.492	89.75
399.717	78.75
399.941	77.75
400.165	82.75
400.389	75.75
400.613	76.75
400.837	82.75
401.062	79.75
401.286	78.75
401.51	94.75
401.734	76.75
401.958	90.75
402.182	82.75
402.406	82.75
402.63	95.75
402.854	71.75
403.078	68.75
403.302	86.75
403.526	79.75
403.75	70.75
403.974	83.75
404.198	81.75
404.422	79.75
404.645	82.75
404.869	73.75
405.093	85.75
405.317	79.75
405.541	67.75
405.765	74.75
405.988	72.75
406.212	86.75
406.436	78.75
406.66	75.75
406.883	92.75
407.107	82.75
407.331	81.75
407.555	79.75
407.778	94.75
408.002	74.75
408.226	83.75
408.449	75.75
408.673	96.75
408.896	80.75
409.12	83.75
409.344	79.75
409.567	90.75
409.791	78.75
410.014	87.75
410.238	72.75
410.461	76.75
410.685	89.75
410.908	82.75
411.132	80.75
411.355	61.75
411.578	74.75
411.802	70.75
412.025	70.75
412.249	75.75
412.472	79.75
412.695	79.75
412.919	65.75
413.142	68.75
413.365	93.75
413.589	77.75
413.812	81.75
414.035	81.75
414.258	67.75
414.482	74.75
414.705	66.75
414.928	78.75
415.151	87.75
415.374	80.75
415.597	96.75
415.821	71.75
416.044	76.75
416.267	86.75
416.49	72.75
416.713	69.75
416.936	86.75
417.159	87.75
417.382	80.75
417.605	74.75
417.828	57.75
418.051	64.75
418.274	86.75
418.497	81.75
418.72	86.75
418.943	84.75
419.166	73.75
419.389	70.75
419.611	79.75
419.834	83.75
420.057	79.75
420.28	86.75
420.503	70.75
420.726	80.75
420.948	83.75
421.171	83.75
421.394	84.75
421.617	98.75
421.839	76.75
422.062	90.75
422.285	84.75
422.507	84.75
422.73	83.75
422.953	77.75
423.175	76.75
423.398	83.75
423.621	79.75
423.843	102.75
424.066	72.75
424.288	84.75
424.511	88.75
424.733	66.75
424.956	83.75
425.178	74.75
425.401	78.75
425.623	81.75
425.846	88.75
426.068	73.75
426.291	94.75
426.513	80.75
426.735	68.75
426.958	70.75
427.18	82.75
427.402	81.75
427.625	78.75
427.847	87.75
428.069	86.75
428.292	87.75
428.514	81.75
428.736	75.75
428.958	81.75
429.181	85.75
429.403	89.75
429.625	83.75
429.847	76.75
430.069	79.75
430.292	84.75
430.514	78.75
430.736	86.75
430.958	81.75
431.18	74.75
431.402	80.75
431.624	70.75
431.846	100.75
432.068	74.75
432.29	80.75
432.512	89.75
432.734	81.75
432.956	95.75
433.178	87.75
433.4	89.75
433.622	93.75
433.844	93.75
434.066	85.75
434.287	70.75
434.509	82.75
434.731	81.75
434.953	75.75
435.175	82.75
435.397	64.75
435.618	78.75
435.84	87.75
436.062	82.75
436.284	86.75
436.505	75.75
436.727	81.75
436.949	77.75
437.17	83.75
437.392	76.75
437.614	96.75
437.835	93.75
438.057	96.75
438.278	83.75
438.5	72.75
438.721	76.75
438.943	87.75
439.165	65.75
439.386	58.75
439.608	80.75
439.829	81.75
440.05	93.75
440.272	83.75
440.493	82.75
440.715	74.75
440.936	68.75
441.158	75.75
441.379	81.75
441.6	93.75
441.822	87.75
442.043	86.75
442.264	80.75
442.486	66.75
442.707	72.75
442.928	69.75
443.149	70.75
443.371	60.75
443.592	70.75
443.813	81.75
444.034	86.75
444.255	92.75
444.476	78.75
444.698	71.75
444.919	65.75
445.14	149.75
445.361	129.75
445.582	70.75
445.803	82.75
446.024	74.75
446.245	83.75
446.466	76.75
446.687	88.75
446.908	71.75
447.129	78.75
447.35	87.75
447.571	89.75
447.792	84.75
448.013	86.75
448.234	76.75
448.455	84.75
448.675	73.75
448.896	74.75
449.117	79.75
449.338	77.75
449.559	84.75
449.779	74.75
450	68.75
450.221	86.75
450.442	89.75
450.662	89.75
450.883	76.75
451.104	63.75
451.324	68.75
451.545	83.75
451.766	80.75
451.986	70.75
452.207	91.75
452.428	77.75
452.648	93.75
452.869	83.75
453.089	92.75
453.31	80.75
453.53	84.75
453.751	88.75
453.971	68.75
454.192	65.75
454.412	78.75
454.633	73.75
454.853	72.75
455.073	74.75
455.294	79.75
455.514	74.75
455.734	76.75
455.955	86.75
456.175	75.75
456.395	77.75
456.616	78.75
456.836	74.75
457.056	76.75
457.276	82.75
457.497	74.75
457.717	78.75
457.937	88.75
458.157	82.75
458.377	66.75
458.598	69.75
458.818	91.75
459.038	82.75
459.258	82.75
459.478	77.75
459.698	86.75
459.918	68.75
460.138	74.75
460.358	82.75
460.578	78.75
460.798	77.75
461.018	83.75
461.238	86.75
461.458	80.75
461.678	90.75
461.898	81.75
462.118	99.75
462.338	81.75
462.558	77.75
462.777	86.75
462.997	84.75
463.217	78.75
463.437	78.75
463.657	79.75
463.876	76.75
464.096	67.75
464.316	86.75
464.536	80.75
464.755	94.75
464.975	89.75
465.195	83.75
465.414	85.75
465.634	78.75
465.854	71.75
466.073	91.75
466.293	75.75
466.512	77.75
466.732	73.75
466.951	79.75
467.171	78.75
467.391	96.75
467.61	84.75
467.829	85.75
468.049	80.75
468.268	81.75
468.488	72.75
468.707	81.75
468.927	68.75
469.146	63.75
469.365	88.75
469.585	85.75
469.804	64.75
470.023	78.75
470.243	82.75
470.462	72.75
470.681	90.75
470.901	76.75
471.12	72.75
471.339	73.75
471.558	76.75
471.777	87.75
471.997	80.75
472.216	87.75
472.435	73.75
472.654	78.75
472.873	85.75
473.092	93.75
473.311	84.75
473.53	81.75
473.749	73.75
473.968	73.75
474.187	73.75
474.406	87.75
474.625	91.75
474.844	81.75
475.063	71.75
475.282	91.75
475.501	87.75
475.72	66.75
475.939	60.75
476.158	74.75
476.377	77.75
476.596	87.75
476.814	76.75
477.033	70.75
477.252	89.75
477.471	78.75
477.69	79.75
477.908	79.75
478.127	87.75
478.346	84.75
478.564	96.75
478.783	72.75
479.002	85.75
479.22	81.75
479.439	83.75
479.658	73.75
479.876	83.75
480.095	78.75
480.313	74.75
480.532	86.75
480.751	94.75
480.969	75.75
481.188	81.75
481.406	68.75
481.624	91.75
481.843	84.75
482.061	74.75
482.28	90.75
482.498	98.75
482.717	76.75
482.935	80.75
483.153	81.75
483.372	74.75
483.59	79.75
483.808	76.75
484.027	76.75
484.245	84.75
484.463	84.75
484.681	86.75
484.9	68.75
485.118	83.75
485.336	84.75
485.554	80.75
485.772	88.75
485.99	72.75
486.209	72.75
486.427	77.75
486.645	91.75
486.863	83.75
487.081	100.75
487.299	74.75
487.517	87.75
487.735	74.75
487.953	75.75
488.171	82.75
488.389	103.75
488.607	85.75
488.825	85.75
489.043	80.75
489.261	84.75
489.479	89.75
489.696	93.75
489.914	82.75
490.132	84.75
490.35	92.75
490.568	84.75
490.786	72.75
491.003	85.75
491.221	98.75
491.439	77.75
491.657	90.75
491.874	67.75
492.092	78.75
492.31	86.75
492.527	84.75
492.745	78.75
492.963	80.75
493.18	71.75
493.398	83.75
493.615	80.75
493.833	78.75
494.05	75.75
494.268	94.75
494.485	92.75
494.703	75.75
494.92	80.75
495.138	82.75
495.355	76.75
495.573	79.75
495.79	83.75
496.008	83.75
496.225	72.75
496.442	73.75
496.66	88.75
496.877	80.75
497.094	95.75
497.312	96.75
497.529	82.75
497.746	71.75
497.963	81.75
498.181	72.75
498.398	78.75
498.615	88.75
498.832	87.75
499.049	83.75
499.267	76.75
499.484	88.75
499.701	74.75
499.918	88.75
500.135	84.75
500.352	92.75
500.569	68.75
500.786	62.75
501.003	84.75
501.22	82.75
501.437	74.75
501.654	86.75
501.871	79.75
502.088	75.75
502.305	91.75
502.522	80.75
502.739	80.75
502.956	82.75
503.172	78.75
503.389	84.75
503.606	85.75
503.823	68.75
504.04	82.75
504.256	100.75
504.473	86.75
504.69	88.75
504.907	81.75
505.123	82.75
505.34	87.75
505.557	88.75
505.773	73.75
505.99	79.75
506.207	86.75
506.423	88.75
506.64	81.75
506.856	73.75
507.073	73.75
507.289	78.75
507.506	88.75
507.722	84.75
507.939	86.75
508.155	83.75
508.372	86.75
508.588	84.75
508.805	84.75
509.021	77.75
509.238	84.75
509.454	78.75
509.67	59.75
509.887	91.75
510.103	78.75
510.319	94.75
510.536	68.75
510.752	73.75
510.968	82.75
511.184	72.75
511.401	86.75
511.617	84.75
511.833	80.75
512.049	77.75
512.265	78.75
512.481	90.75
512.698	80.75
512.914	82.75
513.13	91.75
513.346	86.75
513.562	87.75
513.778	79.75
513.994	75.75
514.21	77.75
514.426	94.75
514.642	99.75
514.858	83.75
515.074	79.75
515.29	77.75
515.506	81.75
515.721	67.75
515.937	87.75
516.153	90.75
516.369	78.75
516.585	87.75
516.801	87.75
517.016	91.75
517.232	79.75
517.448	90.75
517.664	71.75
517.879	74.75
518.095	82.75
518.311	79.75
518.527	78.75
518.742	94.75
518.958	80.75
519.173	76.75
519.389	71.75
519.605	78.75
519.82	81.75
520.036	93.75
