Data from Background_1_HRD10591_00055.txt Node
Date: Wed Nov 05 14:39:25 EST 2025
User: Yrep
Spectrometer: HR+D1059
Trigger mode: 1
Integration Time (sec): 1.000000E-1
Scans to average: 1
Electric dark correction enabled: true
Nonlinearity correction enabled: false
Boxcar width: 0
XAxis mode: Wavelengths
Number of Pixels in Spectrum: 2048
>>>>>Begin Spectral Data<<<<<
223.165	-13.62
223.4	-13.62
223.635	-13.62
223.869	-20.62
224.104	-30.62
224.338	-30.62
224.573	-11.62
224.808	-20.62
225.042	-5.62
225.277	-5.62
225.511	-7.62
225.746	8.38
225.98	3.38
226.215	21.38
226.449	15.38
226.683	19.38
226.918	47.38
227.152	31.38
227.387	23.38
227.621	38.38
227.856	40.38
228.09	43.38
228.324	51.38
228.559	28.38
228.793	64.38
229.027	62.38
229.262	65.38
229.496	62.38
229.73	71.38
229.964	78.38
230.199	81.38
230.433	70.38
230.667	79.38
230.901	88.38
231.136	69.38
231.37	71.38
231.604	87.38
231.838	82.38
232.072	55.38
232.306	75.38
232.541	75.38
232.775	66.38
233.009	77.38
233.243	77.38
233.477	80.38
233.711	89.38
233.945	98.38
234.179	87.38
234.413	99.38
234.647	81.38
234.881	83.38
235.115	90.38
235.349	75.38
235.583	84.38
235.817	74.38
236.051	81.38
236.285	77.38
236.519	62.38
236.753	81.38
236.987	63.38
237.221	72.38
237.455	66.38
237.689	74.38
237.922	76.38
238.156	77.38
238.39	63.38
238.624	73.38
238.858	71.38
239.091	76.38
239.325	72.38
239.559	81.38
239.793	69.38
240.027	66.38
240.26	74.38
240.494	76.38
240.728	91.38
240.961	68.38
241.195	63.38
241.429	83.38
241.662	69.38
241.896	83.38
242.13	63.38
242.363	81.38
242.597	78.38
242.83	73.38
243.064	77.38
243.298	69.38
243.531	73.38
243.765	61.38
243.998	75.38
244.232	85.38
244.465	81.38
244.699	83.38
244.932	67.38
245.166	73.38
245.399	69.38
245.633	81.38
245.866	87.38
246.099	80.38
246.333	69.38
246.566	75.38
246.8	83.38
247.033	79.38
247.266	83.38
247.5	75.38
247.733	80.38
247.966	73.38
248.2	71.38
248.433	61.38
248.666	72.38
248.899	85.38
249.133	84.38
249.366	72.38
249.599	67.38
249.832	76.38
250.066	69.38
250.299	70.38
250.532	85.38
250.765	80.38
250.998	63.38
251.231	71.38
251.465	87.38
251.698	89.38
251.931	79.38
252.164	84.38
252.397	64.38
252.63	77.38
252.863	74.38
253.096	76.38
253.329	83.38
253.562	72.38
253.795	68.38
254.028	89.38
254.261	72.38
254.494	75.38
254.727	79.38
254.96	76.38
255.193	83.38
255.426	73.38
255.659	95.38
255.892	82.38
256.124	63.38
256.357	81.38
256.59	82.38
256.823	76.38
257.056	85.38
257.289	76.38
257.521	83.38
257.754	77.38
257.987	65.38
258.22	75.38
258.452	80.38
258.685	93.38
258.918	86.38
259.151	79.38
259.383	84.38
259.616	77.38
259.849	87.38
260.081	84.38
260.314	87.38
260.547	76.38
260.779	77.38
261.012	91.38
261.244	75.38
261.477	84.38
261.71	72.38
261.942	81.38
262.175	57.38
262.407	79.38
262.64	81.38
262.872	85.38
263.105	80.38
263.337	78.38
263.57	93.38
263.802	77.38
264.035	72.38
264.267	77.38
264.499	80.38
264.732	83.38
264.964	76.38
265.197	72.38
265.429	86.38
265.661	82.38
265.894	79.38
266.126	80.38
266.358	69.38
266.591	83.38
266.823	75.38
267.055	79.38
267.287	87.38
267.52	84.38
267.752	73.38
267.984	79.38
268.216	74.38
268.448	93.38
268.681	79.38
268.913	87.38
269.145	75.38
269.377	64.38
269.609	80.38
269.841	77.38
270.073	77.38
270.306	72.38
270.538	75.38
270.77	76.38
271.002	94.38
271.234	93.38
271.466	84.38
271.698	81.38
271.93	75.38
272.162	74.38
272.394	70.38
272.626	92.38
272.858	77.38
273.09	83.38
273.322	67.38
273.553	76.38
273.785	97.38
274.017	73.38
274.249	93.38
274.481	68.38
274.713	85.38
274.945	96.38
275.176	77.38
275.408	90.38
275.64	78.38
275.872	81.38
276.104	91.38
276.335	79.38
276.567	100.38
276.799	91.38
277.031	83.38
277.262	80.38
277.494	93.38
277.726	74.38
277.957	84.38
278.189	84.38
278.421	83.38
278.652	89.38
278.884	79.38
279.115	94.38
279.347	70.38
279.579	83.38
279.81	77.38
280.042	76.38
280.273	84.38
280.505	85.38
280.736	67.38
280.968	82.38
281.199	79.38
281.431	74.38
281.662	83.38
281.894	73.38
282.125	71.38
282.356	64.38
282.588	71.38
282.819	93.38
283.051	78.38
283.282	76.38
283.513	89.38
283.745	77.38
283.976	85.38
284.207	91.38
284.439	78.38
284.67	63.38
284.901	77.38
285.132	76.38
285.364	82.38
285.595	85.38
285.826	74.38
286.057	94.38
286.288	69.38
286.52	80.38
286.751	85.38
286.982	85.38
287.213	72.38
287.444	89.38
287.675	80.38
287.906	90.38
288.138	95.38
288.369	71.38
288.6	81.38
288.831	83.38
289.062	86.38
289.293	89.38
289.524	95.38
289.755	79.38
289.986	64.38
290.217	79.38
290.448	79.38
290.679	78.38
290.91	84.38
291.141	89.38
291.371	75.38
291.602	80.38
291.833	88.38
292.064	87.38
292.295	79.38
292.526	74.38
292.757	76.38
292.987	73.38
293.218	93.38
293.449	78.38
293.68	86.38
293.91	84.38
294.141	84.38
294.372	88.38
294.603	83.38
294.833	75.38
295.064	75.38
295.295	86.38
295.525	65.38
295.756	88.38
295.987	93.38
296.217	79.38
296.448	76.38
296.679	85.38
296.909	75.38
297.14	70.38
297.37	82.38
297.601	73.38
297.831	83.38
298.062	73.38
298.292	72.38
298.523	83.38
298.753	84.38
298.984	89.38
299.214	71.38
299.445	82.38
299.675	79.38
299.905	72.38
300.136	76.38
300.366	82.38
300.597	84.38
300.827	80.38
301.057	80.38
301.288	80.38
301.518	82.38
301.748	72.38
301.979	91.38
302.209	85.38
302.439	79.38
302.669	81.38
302.9	85.38
303.13	90.38
303.36	79.38
303.59	94.38
303.82	67.38
304.051	77.38
304.281	86.38
304.511	87.38
304.741	89.38
304.971	80.38
305.201	87.38
305.431	87.38
305.661	88.38
305.891	91.38
306.121	83.38
306.352	74.38
306.582	80.38
306.812	86.38
307.042	76.38
307.272	79.38
307.502	82.38
307.731	91.38
307.961	73.38
308.191	73.38
308.421	75.38
308.651	78.38
308.881	84.38
309.111	86.38
309.341	77.38
309.571	79.38
309.8	94.38
310.03	86.38
310.26	89.38
310.49	90.38
310.72	85.38
310.949	73.38
311.179	80.38
311.409	88.38
311.639	88.38
311.868	84.38
312.098	78.38
312.328	77.38
312.557	60.38
312.787	74.38
313.017	89.38
313.246	90.38
313.476	83.38
313.706	87.38
313.935	81.38
314.165	92.38
314.394	75.38
314.624	85.38
314.853	75.38
315.083	82.38
315.312	83.38
315.542	82.38
315.771	77.38
316.001	80.38
316.23	78.38
316.46	83.38
316.689	85.38
316.919	84.38
317.148	77.38
317.377	94.38
317.607	84.38
317.836	78.38
318.065	89.38
318.295	78.38
318.524	85.38
318.753	97.38
318.983	80.38
319.212	84.38
319.441	92.38
319.67	89.38
319.9	76.38
320.129	76.38
320.358	78.38
320.587	93.38
320.816	83.38
321.046	82.38
321.275	85.38
321.504	92.38
321.733	83.38
321.962	89.38
322.191	75.38
322.42	72.38
322.649	98.38
322.878	86.38
323.108	88.38
323.337	97.38
323.566	89.38
323.795	81.38
324.024	95.38
324.253	82.38
324.482	71.38
324.71	76.38
324.939	83.38
325.168	82.38
325.397	76.38
325.626	85.38
325.855	82.38
326.084	96.38
326.313	77.38
326.542	81.38
326.77	107.38
326.999	92.38
327.228	97.38
327.457	77.38
327.686	83.38
327.914	80.38
328.143	85.38
328.372	98.38
328.6	96.38
328.829	78.38
329.058	79.38
329.287	75.38
329.515	83.38
329.744	76.38
329.972	83.38
330.201	75.38
330.43	84.38
330.658	83.38
330.887	82.38
331.115	81.38
331.344	85.38
331.572	95.38
331.801	82.38
332.03	83.38
332.258	91.38
332.486	93.38
332.715	85.38
332.943	84.38
333.172	88.38
333.4	79.38
333.629	72.38
333.857	99.38
334.085	89.38
334.314	80.38
334.542	89.38
334.771	80.38
334.999	78.38
335.227	92.38
335.455	86.38
335.684	74.38
335.912	83.38
336.14	92.38
336.369	85.38
336.597	83.38
336.825	73.38
337.053	80.38
337.281	64.38
337.51	88.38
337.738	77.38
337.966	85.38
338.194	87.38
338.422	85.38
338.65	89.38
338.878	75.38
339.106	83.38
339.334	87.38
339.562	92.38
339.79	76.38
340.018	80.38
340.246	89.38
340.474	80.38
340.702	77.38
340.93	73.38
341.158	94.38
341.386	77.38
341.614	77.38
341.842	76.38
342.07	74.38
342.298	74.38
342.526	75.38
342.754	88.38
342.981	73.38
343.209	77.38
343.437	76.38
343.665	85.38
343.893	79.38
344.12	83.38
344.348	79.38
344.576	82.38
344.804	81.38
345.031	74.38
345.259	104.38
345.487	67.38
345.714	86.38
345.942	84.38
346.17	91.38
346.397	89.38
346.625	80.38
346.853	85.38
347.08	68.38
347.308	83.38
347.535	89.38
347.763	85.38
347.99	89.38
348.218	85.38
348.445	93.38
348.673	81.38
348.9	79.38
349.128	75.38
349.355	92.38
349.583	87.38
349.81	72.38
350.037	80.38
350.265	99.38
350.492	66.38
350.72	75.38
350.947	88.38
351.174	83.38
351.402	77.38
351.629	75.38
351.856	96.38
352.083	87.38
352.311	93.38
352.538	83.38
352.765	90.38
352.992	107.38
353.22	81.38
353.447	94.38
353.674	92.38
353.901	84.38
354.128	95.38
354.355	73.38
354.583	81.38
354.81	82.38
355.037	84.38
355.264	80.38
355.491	88.38
355.718	98.38
355.945	84.38
356.172	79.38
356.399	83.38
356.626	59.38
356.853	81.38
357.08	87.38
357.307	75.38
357.534	80.38
357.761	88.38
357.988	98.38
358.215	93.38
358.441	75.38
358.668	87.38
358.895	88.38
359.122	90.38
359.349	75.38
359.576	75.38
359.802	78.38
360.029	88.38
360.256	92.38
360.483	72.38
360.709	69.38
360.936	85.38
361.163	92.38
361.39	71.38
361.616	87.38
361.843	69.38
362.07	81.38
362.296	89.38
362.523	60.38
362.749	84.38
362.976	79.38
363.203	104.38
363.429	65.38
363.656	76.38
363.882	87.38
364.109	85.38
364.335	83.38
364.562	72.38
364.788	94.38
365.015	92.38
365.241	76.38
365.468	82.38
365.694	67.38
365.92	91.38
366.147	82.38
366.373	84.38
366.599	66.38
366.826	88.38
367.052	79.38
367.278	85.38
367.505	71.38
367.731	92.38
367.957	78.38
368.184	87.38
368.41	84.38
368.636	78.38
368.862	91.38
369.089	76.38
369.315	76.38
369.541	84.38
369.767	96.38
369.993	89.38
370.219	81.38
370.445	79.38
370.672	89.38
370.898	81.38
371.124	91.38
371.35	80.38
371.576	69.38
371.802	79.38
372.028	99.38
372.254	96.38
372.48	59.38
372.706	79.38
372.932	103.38
373.158	84.38
373.384	78.38
373.61	71.38
373.835	89.38
374.061	74.38
374.287	73.38
374.513	86.38
374.739	95.38
374.965	80.38
375.191	83.38
375.416	77.38
375.642	90.38
375.868	80.38
376.094	80.38
376.319	73.38
376.545	83.38
376.771	84.38
376.997	96.38
377.222	80.38
377.448	78.38
377.674	70.38
377.899	81.38
378.125	69.38
378.35	92.38
378.576	85.38
378.802	63.38
379.027	75.38
379.253	74.38
379.478	81.38
379.704	76.38
379.929	89.38
380.155	96.38
380.38	75.38
380.606	72.38
380.831	81.38
381.057	81.38
381.282	77.38
381.507	77.38
381.733	84.38
381.958	74.38
382.184	84.38
382.409	93.38
382.634	90.38
382.86	85.38
383.085	81.38
383.31	82.38
383.535	78.38
383.761	96.38
383.986	90.38
384.211	69.38
384.436	86.38
384.662	91.38
384.887	72.38
385.112	87.38
385.337	91.38
385.562	79.38
385.787	87.38
386.013	81.38
386.238	72.38
386.463	75.38
386.688	96.38
386.913	88.38
387.138	80.38
387.363	70.38
387.588	88.38
387.813	87.38
388.038	93.38
388.263	73.38
388.488	67.38
388.713	95.38
388.938	72.38
389.163	83.38
389.387	67.38
389.612	77.38
389.837	61.38
390.062	85.38
390.287	81.38
390.512	84.38
390.736	79.38
390.961	81.38
391.186	68.38
391.411	73.38
391.636	87.38
391.86	76.38
392.085	78.38
392.31	81.38
392.534	75.38
392.759	79.38
392.984	89.38
393.208	84.38
393.433	77.38
393.658	76.38
393.882	63.38
394.107	81.38
394.331	94.38
394.556	85.38
394.78	84.38
395.005	81.38
395.229	71.38
395.454	78.38
395.678	65.38
395.903	78.38
396.127	88.38
396.352	80.38
396.576	74.38
396.801	77.38
397.025	78.38
397.249	91.38
397.474	76.38
397.698	89.38
397.922	63.38
398.147	92.38
398.371	74.38
398.595	83.38
398.82	95.38
399.044	75.38
399.268	86.38
399.492	83.38
399.717	96.38
399.941	96.38
400.165	82.38
400.389	74.38
400.613	74.38
400.837	87.38
401.062	83.38
401.286	73.38
401.51	75.38
401.734	76.38
401.958	87.38
402.182	89.38
402.406	77.38
402.63	77.38
402.854	78.38
403.078	83.38
403.302	68.38
403.526	84.38
403.75	65.38
403.974	80.38
404.198	87.38
404.422	72.38
404.645	77.38
404.869	82.38
405.093	88.38
405.317	76.38
405.541	89.38
405.765	82.38
405.988	70.38
406.212	77.38
406.436	68.38
406.66	78.38
406.883	73.38
407.107	82.38
407.331	78.38
407.555	71.38
407.778	93.38
408.002	94.38
408.226	79.38
408.449	73.38
408.673	69.38
408.896	79.38
409.12	86.38
409.344	87.38
409.567	91.38
409.791	93.38
410.014	63.38
410.238	67.38
410.461	88.38
410.685	85.38
410.908	69.38
411.132	83.38
411.355	67.38
411.578	79.38
411.802	88.38
412.025	84.38
412.249	87.38
412.472	93.38
412.695	82.38
412.919	77.38
413.142	81.38
413.365	87.38
413.589	95.38
413.812	85.38
414.035	75.38
414.258	89.38
414.482	76.38
414.705	78.38
414.928	85.38
415.151	103.38
415.374	82.38
415.597	75.38
415.821	79.38
416.044	75.38
416.267	81.38
416.49	80.38
416.713	83.38
416.936	90.38
417.159	80.38
417.382	93.38
417.605	64.38
417.828	87.38
418.051	80.38
418.274	82.38
418.497	83.38
418.72	88.38
418.943	70.38
419.166	87.38
419.389	86.38
419.611	93.38
419.834	68.38
420.057	84.38
420.28	76.38
420.503	82.38
420.726	85.38
420.948	87.38
421.171	93.38
421.394	77.38
421.617	86.38
421.839	82.38
422.062	63.38
422.285	81.38
422.507	65.38
422.73	79.38
422.953	81.38
423.175	67.38
423.398	75.38
423.621	82.38
423.843	84.38
424.066	78.38
424.288	86.38
424.511	79.38
424.733	96.38
424.956	73.38
425.178	71.38
425.401	74.38
425.623	69.38
425.846	67.38
426.068	89.38
426.291	83.38
426.513	91.38
426.735	94.38
426.958	85.38
427.18	84.38
427.402	72.38
427.625	77.38
427.847	84.38
428.069	89.38
428.292	75.38
428.514	84.38
428.736	85.38
428.958	74.38
429.181	82.38
429.403	70.38
429.625	81.38
429.847	75.38
430.069	73.38
430.292	75.38
430.514	99.38
430.736	81.38
430.958	85.38
431.18	83.38
431.402	68.38
431.624	80.38
431.846	87.38
432.068	74.38
432.29	67.38
432.512	84.38
432.734	86.38
432.956	83.38
433.178	96.38
433.4	67.38
433.622	83.38
433.844	78.38
434.066	70.38
434.287	63.38
434.509	89.38
434.731	87.38
434.953	80.38
435.175	76.38
435.397	85.38
435.618	84.38
435.84	84.38
436.062	80.38
436.284	77.38
436.505	77.38
436.727	70.38
436.949	79.38
437.17	82.38
437.392	80.38
437.614	84.38
437.835	82.38
438.057	75.38
438.278	77.38
438.5	77.38
438.721	89.38
438.943	60.38
439.165	77.38
439.386	80.38
439.608	80.38
439.829	82.38
440.05	81.38
440.272	85.38
440.493	71.38
440.715	77.38
440.936	73.38
441.158	81.38
441.379	82.38
441.6	87.38
441.822	83.38
442.043	73.38
442.264	95.38
442.486	73.38
442.707	93.38
442.928	76.38
443.149	80.38
443.371	97.38
443.592	69.38
443.813	91.38
444.034	71.38
444.255	76.38
444.476	86.38
444.698	84.38
444.919	71.38
445.14	174.38
445.361	103.38
445.582	71.38
445.803	82.38
446.024	68.38
446.245	91.38
446.466	81.38
446.687	82.38
446.908	83.38
447.129	82.38
447.35	79.38
447.571	87.38
447.792	88.38
448.013	88.38
448.234	83.38
448.455	79.38
448.675	67.38
448.896	68.38
449.117	89.38
449.338	90.38
449.559	91.38
449.779	78.38
450	80.38
450.221	81.38
450.442	81.38
450.662	88.38
450.883	77.38
451.104	77.38
451.324	87.38
451.545	86.38
451.766	76.38
451.986	92.38
452.207	82.38
452.428	91.38
452.648	90.38
452.869	91.38
453.089	72.38
453.31	94.38
453.53	74.38
453.751	84.38
453.971	67.38
454.192	76.38
454.412	71.38
454.633	74.38
454.853	74.38
455.073	80.38
455.294	81.38
455.514	81.38
455.734	85.38
455.955	90.38
456.175	79.38
456.395	77.38
456.616	77.38
456.836	79.38
457.056	86.38
457.276	84.38
457.497	81.38
457.717	77.38
457.937	53.38
458.157	82.38
458.377	80.38
458.598	80.38
458.818	74.38
459.038	67.38
459.258	61.38
459.478	72.38
459.698	86.38
459.918	88.38
460.138	83.38
460.358	81.38
460.578	82.38
460.798	80.38
461.018	83.38
461.238	68.38
461.458	75.38
461.678	81.38
461.898	82.38
462.118	81.38
462.338	71.38
462.558	67.38
462.777	78.38
462.997	87.38
463.217	77.38
463.437	76.38
463.657	89.38
463.876	68.38
464.096	68.38
464.316	83.38
464.536	96.38
464.755	78.38
464.975	73.38
465.195	93.38
465.414	79.38
465.634	80.38
465.854	52.38
466.073	73.38
466.293	81.38
466.512	72.38
466.732	89.38
466.951	84.38
467.171	71.38
467.391	77.38
467.61	76.38
467.829	66.38
468.049	92.38
468.268	86.38
468.488	83.38
468.707	84.38
468.927	77.38
469.146	89.38
469.365	93.38
469.585	82.38
469.804	76.38
470.023	65.38
470.243	83.38
470.462	70.38
470.681	71.38
470.901	74.38
471.12	93.38
471.339	83.38
471.558	77.38
471.777	83.38
471.997	79.38
472.216	104.38
472.435	75.38
472.654	77.38
472.873	70.38
473.092	69.38
473.311	96.38
473.53	91.38
473.749	67.38
473.968	97.38
474.187	89.38
474.406	79.38
474.625	86.38
474.844	80.38
475.063	62.38
475.282	84.38
475.501	87.38
475.72	98.38
475.939	75.38
476.158	87.38
476.377	78.38
476.596	81.38
476.814	74.38
477.033	77.38
477.252	73.38
477.471	87.38
477.69	71.38
477.908	77.38
478.127	91.38
478.346	70.38
478.564	67.38
478.783	84.38
479.002	76.38
479.22	75.38
479.439	83.38
479.658	69.38
479.876	54.38
480.095	87.38
480.313	70.38
480.532	88.38
480.751	77.38
480.969	82.38
481.188	67.38
481.406	68.38
481.624	71.38
481.843	81.38
482.061	70.38
482.28	81.38
482.498	79.38
482.717	84.38
482.935	83.38
483.153	82.38
483.372	90.38
483.59	89.38
483.808	82.38
484.027	91.38
484.245	84.38
484.463	75.38
484.681	95.38
484.9	81.38
485.118	97.38
485.336	79.38
485.554	78.38
485.772	98.38
485.99	83.38
486.209	89.38
486.427	76.38
486.645	88.38
486.863	79.38
487.081	90.38
487.299	84.38
487.517	83.38
487.735	73.38
487.953	91.38
488.171	87.38
488.389	92.38
488.607	87.38
488.825	96.38
489.043	79.38
489.261	74.38
489.479	69.38
489.696	71.38
489.914	80.38
490.132	80.38
490.35	75.38
490.568	76.38
490.786	82.38
491.003	79.38
491.221	75.38
491.439	76.38
491.657	84.38
491.874	85.38
492.092	85.38
492.31	92.38
492.527	96.38
492.745	74.38
492.963	87.38
493.18	97.38
493.398	79.38
493.615	69.38
493.833	83.38
494.05	80.38
494.268	74.38
494.485	75.38
494.703	84.38
494.92	84.38
495.138	77.38
495.355	75.38
495.573	77.38
495.79	88.38
496.008	85.38
496.225	85.38
496.442	83.38
496.66	80.38
496.877	80.38
497.094	87.38
497.312	69.38
497.529	84.38
497.746	87.38
497.963	90.38
498.181	76.38
498.398	86.38
498.615	84.38
498.832	94.38
499.049	83.38
499.267	83.38
499.484	84.38
499.701	72.38
499.918	86.38
500.135	73.38
500.352	79.38
500.569	91.38
500.786	81.38
501.003	78.38
501.22	72.38
501.437	73.38
501.654	74.38
501.871	83.38
502.088	57.38
502.305	77.38
502.522	84.38
502.739	75.38
502.956	74.38
503.172	88.38
503.389	82.38
503.606	73.38
503.823	87.38
504.04	66.38
504.256	81.38
504.473	77.38
504.69	78.38
504.907	81.38
505.123	67.38
505.34	70.38
505.557	78.38
505.773	81.38
505.99	80.38
506.207	83.38
506.423	75.38
506.64	88.38
506.856	96.38
507.073	65.38
507.289	69.38
507.506	77.38
507.722	88.38
507.939	90.38
508.155	77.38
508.372	80.38
508.588	89.38
508.805	88.38
509.021	86.38
509.238	72.38
509.454	74.38
509.67	80.38
509.887	81.38
510.103	83.38
510.319	78.38
510.536	95.38
510.752	75.38
510.968	73.38
511.184	90.38
511.401	71.38
511.617	73.38
511.833	76.38
512.049	86.38
512.265	80.38
512.481	81.38
512.698	73.38
512.914	67.38
513.13	80.38
513.346	95.38
513.562	79.38
513.778	83.38
513.994	81.38
514.21	84.38
514.426	89.38
514.642	96.38
514.858	87.38
515.074	79.38
515.29	80.38
515.506	79.38
515.721	80.38
515.937	69.38
516.153	88.38
516.369	77.38
516.585	88.38
516.801	70.38
517.016	87.38
517.232	89.38
517.448	70.38
517.664	84.38
517.879	93.38
518.095	85.38
518.311	72.38
518.527	71.38
518.742	80.38
518.958	83.38
519.173	92.38
519.389	71.38
519.605	89.38
519.82	67.38
520.036	88.38
