Data from Background_1_HRD10591_00020.txt Node
Date: Wed Nov 05 14:39:08 EST 2025
User: Yrep
Spectrometer: HR+D1059
Trigger mode: 1
Integration Time (sec): 1.000000E-1
Scans to average: 1
Electric dark correction enabled: true
Nonlinearity correction enabled: false
Boxcar width: 0
XAxis mode: Wavelengths
Number of Pixels in Spectrum: 2048
>>>>>Begin Spectral Data<<<<<
223.165	-8.12
223.4	-8.12
223.635	-8.12
223.869	-15.12
224.104	-15.12
224.338	-32.12
224.573	-19.12
224.808	-19.12
225.042	1.88
225.277	-5.12
225.511	-8.12
225.746	3.88
225.98	10.88
226.215	19.88
226.449	16.88
226.683	11.88
226.918	27.88
227.152	28.88
227.387	25.88
227.621	38.88
227.856	37.88
228.09	50.88
228.324	41.88
228.559	39.88
228.793	63.88
229.027	46.88
229.262	64.88
229.496	53.88
229.73	90.88
229.964	66.88
230.199	76.88
230.433	75.88
230.667	79.88
230.901	79.88
231.136	77.88
231.37	83.88
231.604	92.88
231.838	83.88
232.072	73.88
232.306	73.88
232.541	64.88
232.775	91.88
233.009	72.88
233.243	90.88
233.477	65.88
233.711	79.88
233.945	79.88
234.179	85.88
234.413	71.88
234.647	84.88
234.881	82.88
235.115	73.88
235.349	89.88
235.583	78.88
235.817	69.88
236.051	85.88
236.285	83.88
236.519	72.88
236.753	80.88
236.987	80.88
237.221	59.88
237.455	67.88
237.689	66.88
237.922	82.88
238.156	83.88
238.39	64.88
238.624	83.88
238.858	66.88
239.091	65.88
239.325	72.88
239.559	74.88
239.793	80.88
240.027	74.88
240.26	67.88
240.494	70.88
240.728	85.88
240.961	65.88
241.195	87.88
241.429	72.88
241.662	70.88
241.896	69.88
242.13	86.88
242.363	82.88
242.597	79.88
242.83	86.88
243.064	81.88
243.298	90.88
243.531	73.88
243.765	82.88
243.998	70.88
244.232	64.88
244.465	75.88
244.699	77.88
244.932	75.88
245.166	82.88
245.399	87.88
245.633	63.88
245.866	61.88
246.099	77.88
246.333	79.88
246.566	84.88
246.8	68.88
247.033	83.88
247.266	77.88
247.5	75.88
247.733	75.88
247.966	66.88
248.2	87.88
248.433	73.88
248.666	74.88
248.899	85.88
249.133	87.88
249.366	101.88
249.599	81.88
249.832	72.88
250.066	78.88
250.299	65.88
250.532	81.88
250.765	80.88
250.998	68.88
251.231	73.88
251.465	85.88
251.698	88.88
251.931	75.88
252.164	74.88
252.397	67.88
252.63	81.88
252.863	71.88
253.096	83.88
253.329	69.88
253.562	90.88
253.795	91.88
254.028	92.88
254.261	84.88
254.494	74.88
254.727	82.88
254.96	83.88
255.193	75.88
255.426	76.88
255.659	75.88
255.892	80.88
256.124	68.88
256.357	77.88
256.59	72.88
256.823	86.88
257.056	86.88
257.289	72.88
257.521	77.88
257.754	75.88
257.987	90.88
258.22	64.88
258.452	82.88
258.685	73.88
258.918	80.88
259.151	85.88
259.383	77.88
259.616	93.88
259.849	80.88
260.081	75.88
260.314	62.88
260.547	82.88
260.779	60.88
261.012	91.88
261.244	65.88
261.477	86.88
261.71	61.88
261.942	91.88
262.175	93.88
262.407	79.88
262.64	88.88
262.872	85.88
263.105	80.88
263.337	85.88
263.57	87.88
263.802	80.88
264.035	71.88
264.267	75.88
264.499	70.88
264.732	83.88
264.964	77.88
265.197	79.88
265.429	80.88
265.661	85.88
265.894	69.88
266.126	80.88
266.358	85.88
266.591	68.88
266.823	77.88
267.055	79.88
267.287	88.88
267.52	85.88
267.752	88.88
267.984	88.88
268.216	80.88
268.448	83.88
268.681	85.88
268.913	80.88
269.145	79.88
269.377	75.88
269.609	72.88
269.841	88.88
270.073	66.88
270.306	57.88
270.538	86.88
270.77	81.88
271.002	80.88
271.234	79.88
271.466	91.88
271.698	78.88
271.93	87.88
272.162	85.88
272.394	91.88
272.626	77.88
272.858	95.88
273.09	89.88
273.322	74.88
273.553	78.88
273.785	73.88
274.017	80.88
274.249	87.88
274.481	78.88
274.713	78.88
274.945	78.88
275.176	72.88
275.408	72.88
275.64	83.88
275.872	77.88
276.104	70.88
276.335	73.88
276.567	71.88
276.799	71.88
277.031	72.88
277.262	82.88
277.494	80.88
277.726	73.88
277.957	81.88
278.189	73.88
278.421	77.88
278.652	101.88
278.884	84.88
279.115	75.88
279.347	95.88
279.579	90.88
279.81	78.88
280.042	82.88
280.273	75.88
280.505	75.88
280.736	71.88
280.968	90.88
281.199	83.88
281.431	81.88
281.662	88.88
281.894	87.88
282.125	85.88
282.356	88.88
282.588	80.88
282.819	77.88
283.051	94.88
283.282	80.88
283.513	73.88
283.745	91.88
283.976	78.88
284.207	87.88
284.439	83.88
284.67	78.88
284.901	88.88
285.132	74.88
285.364	89.88
285.595	73.88
285.826	65.88
286.057	73.88
286.288	75.88
286.52	73.88
286.751	71.88
286.982	96.88
287.213	74.88
287.444	82.88
287.675	84.88
287.906	79.88
288.138	85.88
288.369	75.88
288.6	82.88
288.831	96.88
289.062	84.88
289.293	84.88
289.524	74.88
289.755	81.88
289.986	77.88
290.217	77.88
290.448	77.88
290.679	85.88
290.91	74.88
291.141	80.88
291.371	82.88
291.602	81.88
291.833	67.88
292.064	73.88
292.295	74.88
292.526	85.88
292.757	82.88
292.987	82.88
293.218	66.88
293.449	67.88
293.68	64.88
293.91	96.88
294.141	73.88
294.372	90.88
294.603	94.88
294.833	96.88
295.064	86.88
295.295	84.88
295.525	65.88
295.756	72.88
295.987	93.88
296.217	87.88
296.448	94.88
296.679	75.88
296.909	89.88
297.14	69.88
297.37	73.88
297.601	77.88
297.831	57.88
298.062	80.88
298.292	85.88
298.523	75.88
298.753	85.88
298.984	73.88
299.214	78.88
299.445	93.88
299.675	75.88
299.905	82.88
300.136	81.88
300.366	90.88
300.597	82.88
300.827	80.88
301.057	82.88
301.288	73.88
301.518	85.88
301.748	93.88
301.979	89.88
302.209	92.88
302.439	75.88
302.669	71.88
302.9	82.88
303.13	93.88
303.36	73.88
303.59	74.88
303.82	78.88
304.051	90.88
304.281	87.88
304.511	77.88
304.741	94.88
304.971	89.88
305.201	85.88
305.431	91.88
305.661	67.88
305.891	86.88
306.121	61.88
306.352	79.88
306.582	69.88
306.812	85.88
307.042	91.88
307.272	85.88
307.502	71.88
307.731	82.88
307.961	83.88
308.191	74.88
308.421	67.88
308.651	76.88
308.881	79.88
309.111	85.88
309.341	91.88
309.571	85.88
309.8	85.88
310.03	101.88
310.26	89.88
310.49	79.88
310.72	78.88
310.949	71.88
311.179	81.88
311.409	91.88
311.639	78.88
311.868	85.88
312.098	87.88
312.328	78.88
312.557	79.88
312.787	76.88
313.017	72.88
313.246	102.88
313.476	97.88
313.706	81.88
313.935	82.88
314.165	86.88
314.394	73.88
314.624	76.88
314.853	88.88
315.083	84.88
315.312	82.88
315.542	74.88
315.771	89.88
316.001	83.88
316.23	79.88
316.46	77.88
316.689	75.88
316.919	80.88
317.148	86.88
317.377	94.88
317.607	90.88
317.836	75.88
318.065	80.88
318.295	75.88
318.524	66.88
318.753	84.88
318.983	82.88
319.212	88.88
319.441	86.88
319.67	75.88
319.9	92.88
320.129	94.88
320.358	80.88
320.587	85.88
320.816	81.88
321.046	84.88
321.275	87.88
321.504	82.88
321.733	83.88
321.962	81.88
322.191	85.88
322.42	94.88
322.649	65.88
322.878	74.88
323.108	87.88
323.337	91.88
323.566	80.88
323.795	92.88
324.024	83.88
324.253	85.88
324.482	80.88
324.71	76.88
324.939	84.88
325.168	83.88
325.397	80.88
325.626	72.88
325.855	83.88
326.084	79.88
326.313	73.88
326.542	82.88
326.77	71.88
326.999	87.88
327.228	78.88
327.457	87.88
327.686	77.88
327.914	78.88
328.143	84.88
328.372	83.88
328.6	83.88
328.829	70.88
329.058	73.88
329.287	98.88
329.515	87.88
329.744	80.88
329.972	97.88
330.201	77.88
330.43	84.88
330.658	81.88
330.887	74.88
331.115	89.88
331.344	78.88
331.572	77.88
331.801	81.88
332.03	80.88
332.258	89.88
332.486	67.88
332.715	75.88
332.943	84.88
333.172	75.88
333.4	82.88
333.629	72.88
333.857	73.88
334.085	93.88
334.314	90.88
334.542	72.88
334.771	69.88
334.999	69.88
335.227	78.88
335.455	77.88
335.684	73.88
335.912	88.88
336.14	95.88
336.369	88.88
336.597	78.88
336.825	73.88
337.053	87.88
337.281	79.88
337.51	78.88
337.738	91.88
337.966	81.88
338.194	73.88
338.422	91.88
338.65	90.88
338.878	86.88
339.106	76.88
339.334	92.88
339.562	83.88
339.79	78.88
340.018	88.88
340.246	82.88
340.474	88.88
340.702	72.88
340.93	91.88
341.158	85.88
341.386	87.88
341.614	78.88
341.842	75.88
342.07	84.88
342.298	77.88
342.526	85.88
342.754	90.88
342.981	78.88
343.209	60.88
343.437	97.88
343.665	96.88
343.893	91.88
344.12	85.88
344.348	89.88
344.576	73.88
344.804	86.88
345.031	82.88
345.259	85.88
345.487	89.88
345.714	68.88
345.942	75.88
346.17	75.88
346.397	93.88
346.625	82.88
346.853	85.88
347.08	89.88
347.308	82.88
347.535	85.88
347.763	97.88
347.99	86.88
348.218	73.88
348.445	91.88
348.673	75.88
348.9	81.88
349.128	87.88
349.355	63.88
349.583	87.88
349.81	88.88
350.037	61.88
350.265	81.88
350.492	87.88
350.72	74.88
350.947	82.88
351.174	98.88
351.402	73.88
351.629	78.88
351.856	75.88
352.083	82.88
352.311	89.88
352.538	76.88
352.765	82.88
352.992	91.88
353.22	69.88
353.447	78.88
353.674	87.88
353.901	89.88
354.128	76.88
354.355	79.88
354.583	90.88
354.81	81.88
355.037	71.88
355.264	65.88
355.491	61.88
355.718	84.88
355.945	91.88
356.172	93.88
356.399	89.88
356.626	89.88
356.853	75.88
357.08	80.88
357.307	81.88
357.534	71.88
357.761	81.88
357.988	74.88
358.215	73.88
358.441	70.88
358.668	69.88
358.895	89.88
359.122	81.88
359.349	81.88
359.576	61.88
359.802	81.88
360.029	76.88
360.256	70.88
360.483	82.88
360.709	74.88
360.936	67.88
361.163	88.88
361.39	81.88
361.616	73.88
361.843	85.88
362.07	77.88
362.296	83.88
362.523	85.88
362.749	74.88
362.976	92.88
363.203	87.88
363.429	72.88
363.656	73.88
363.882	88.88
364.109	92.88
364.335	85.88
364.562	85.88
364.788	65.88
365.015	68.88
365.241	79.88
365.468	81.88
365.694	81.88
365.92	93.88
366.147	77.88
366.373	79.88
366.599	84.88
366.826	75.88
367.052	68.88
367.278	88.88
367.505	87.88
367.731	69.88
367.957	88.88
368.184	85.88
368.41	69.88
368.636	78.88
368.862	90.88
369.089	62.88
369.315	90.88
369.541	81.88
369.767	68.88
369.993	78.88
370.219	86.88
370.445	77.88
370.672	83.88
370.898	80.88
371.124	75.88
371.35	87.88
371.576	77.88
371.802	76.88
372.028	89.88
372.254	78.88
372.48	82.88
372.706	79.88
372.932	95.88
373.158	86.88
373.384	72.88
373.61	74.88
373.835	70.88
374.061	66.88
374.287	82.88
374.513	86.88
374.739	80.88
374.965	68.88
375.191	95.88
375.416	85.88
375.642	86.88
375.868	67.88
376.094	77.88
376.319	78.88
376.545	65.88
376.771	71.88
376.997	85.88
377.222	87.88
377.448	90.88
377.674	92.88
377.899	75.88
378.125	77.88
378.35	98.88
378.576	82.88
378.802	72.88
379.027	83.88
379.253	89.88
379.478	93.88
379.704	92.88
379.929	89.88
380.155	86.88
380.38	67.88
380.606	84.88
380.831	85.88
381.057	74.88
381.282	77.88
381.507	87.88
381.733	86.88
381.958	84.88
382.184	81.88
382.409	87.88
382.634	90.88
382.86	77.88
383.085	86.88
383.31	91.88
383.535	97.88
383.761	74.88
383.986	69.88
384.211	73.88
384.436	73.88
384.662	85.88
384.887	83.88
385.112	74.88
385.337	83.88
385.562	70.88
385.787	81.88
386.013	87.88
386.238	73.88
386.463	83.88
386.688	90.88
386.913	91.88
387.138	82.88
387.363	79.88
387.588	92.88
387.813	75.88
388.038	69.88
388.263	66.88
388.488	77.88
388.713	74.88
388.938	95.88
389.163	96.88
389.387	77.88
389.612	79.88
389.837	67.88
390.062	74.88
390.287	88.88
390.512	82.88
390.736	80.88
390.961	77.88
391.186	79.88
391.411	71.88
391.636	74.88
391.86	85.88
392.085	75.88
392.31	81.88
392.534	69.88
392.759	88.88
392.984	85.88
393.208	71.88
393.433	80.88
393.658	66.88
393.882	72.88
394.107	77.88
394.331	78.88
394.556	78.88
394.78	85.88
395.005	90.88
395.229	89.88
395.454	79.88
395.678	85.88
395.903	82.88
396.127	61.88
396.352	69.88
396.576	72.88
396.801	66.88
397.025	91.88
397.249	81.88
397.474	89.88
397.698	71.88
397.922	70.88
398.147	86.88
398.371	78.88
398.595	81.88
398.82	82.88
399.044	89.88
399.268	77.88
399.492	87.88
399.717	86.88
399.941	78.88
400.165	75.88
400.389	86.88
400.613	83.88
400.837	78.88
401.062	84.88
401.286	77.88
401.51	83.88
401.734	73.88
401.958	79.88
402.182	68.88
402.406	90.88
402.63	73.88
402.854	87.88
403.078	76.88
403.302	81.88
403.526	77.88
403.75	70.88
403.974	71.88
404.198	70.88
404.422	82.88
404.645	76.88
404.869	73.88
405.093	78.88
405.317	80.88
405.541	80.88
405.765	83.88
405.988	74.88
406.212	81.88
406.436	83.88
406.66	88.88
406.883	73.88
407.107	70.88
407.331	75.88
407.555	82.88
407.778	69.88
408.002	82.88
408.226	69.88
408.449	78.88
408.673	87.88
408.896	83.88
409.12	93.88
409.344	77.88
409.567	77.88
409.791	76.88
410.014	87.88
410.238	77.88
410.461	75.88
410.685	91.88
410.908	72.88
411.132	81.88
411.355	88.88
411.578	76.88
411.802	96.88
412.025	80.88
412.249	69.88
412.472	82.88
412.695	88.88
412.919	88.88
413.142	75.88
413.365	96.88
413.589	90.88
413.812	82.88
414.035	82.88
414.258	72.88
414.482	78.88
414.705	82.88
414.928	81.88
415.151	72.88
415.374	70.88
415.597	85.88
415.821	70.88
416.044	66.88
416.267	85.88
416.49	80.88
416.713	83.88
416.936	78.88
417.159	76.88
417.382	80.88
417.605	76.88
417.828	84.88
418.051	79.88
418.274	77.88
418.497	68.88
418.72	82.88
418.943	77.88
419.166	67.88
419.389	85.88
419.611	88.88
419.834	85.88
420.057	73.88
420.28	81.88
420.503	79.88
420.726	77.88
420.948	63.88
421.171	72.88
421.394	85.88
421.617	77.88
421.839	83.88
422.062	81.88
422.285	89.88
422.507	85.88
422.73	86.88
422.953	83.88
423.175	75.88
423.398	88.88
423.621	84.88
423.843	78.88
424.066	79.88
424.288	81.88
424.511	82.88
424.733	103.88
424.956	71.88
425.178	81.88
425.401	65.88
425.623	70.88
425.846	71.88
426.068	78.88
426.291	74.88
426.513	74.88
426.735	91.88
426.958	79.88
427.18	78.88
427.402	74.88
427.625	81.88
427.847	73.88
428.069	83.88
428.292	74.88
428.514	72.88
428.736	76.88
428.958	63.88
429.181	81.88
429.403	75.88
429.625	81.88
429.847	67.88
430.069	82.88
430.292	81.88
430.514	80.88
430.736	88.88
430.958	85.88
431.18	70.88
431.402	77.88
431.624	72.88
431.846	89.88
432.068	81.88
432.29	81.88
432.512	77.88
432.734	82.88
432.956	77.88
433.178	83.88
433.4	71.88
433.622	81.88
433.844	70.88
434.066	80.88
434.287	77.88
434.509	78.88
434.731	92.88
434.953	76.88
435.175	84.88
435.397	85.88
435.618	79.88
435.84	81.88
436.062	76.88
436.284	87.88
436.505	80.88
436.727	69.88
436.949	87.88
437.17	87.88
437.392	75.88
437.614	82.88
437.835	81.88
438.057	87.88
438.278	77.88
438.5	89.88
438.721	82.88
438.943	71.88
439.165	86.88
439.386	82.88
439.608	71.88
439.829	87.88
440.05	88.88
440.272	82.88
440.493	80.88
440.715	86.88
440.936	88.88
441.158	72.88
441.379	89.88
441.6	75.88
441.822	89.88
442.043	86.88
442.264	77.88
442.486	81.88
442.707	96.88
442.928	94.88
443.149	90.88
443.371	76.88
443.592	84.88
443.813	93.88
444.034	85.88
444.255	85.88
444.476	73.88
444.698	74.88
444.919	76.88
445.14	154.88
445.361	137.88
445.582	73.88
445.803	76.88
446.024	67.88
446.245	80.88
446.466	85.88
446.687	84.88
446.908	80.88
447.129	74.88
447.35	93.88
447.571	67.88
447.792	86.88
448.013	91.88
448.234	74.88
448.455	70.88
448.675	83.88
448.896	80.88
449.117	89.88
449.338	69.88
449.559	89.88
449.779	79.88
450	77.88
450.221	82.88
450.442	70.88
450.662	66.88
450.883	75.88
451.104	78.88
451.324	82.88
451.545	91.88
451.766	85.88
451.986	67.88
452.207	78.88
452.428	82.88
452.648	65.88
452.869	87.88
453.089	81.88
453.31	81.88
453.53	69.88
453.751	73.88
453.971	85.88
454.192	71.88
454.412	67.88
454.633	78.88
454.853	88.88
455.073	80.88
455.294	78.88
455.514	94.88
455.734	75.88
455.955	82.88
456.175	83.88
456.395	85.88
456.616	85.88
456.836	80.88
457.056	73.88
457.276	83.88
457.497	89.88
457.717	74.88
457.937	86.88
458.157	82.88
458.377	81.88
458.598	87.88
458.818	82.88
459.038	83.88
459.258	67.88
459.478	77.88
459.698	82.88
459.918	80.88
460.138	87.88
460.358	77.88
460.578	86.88
460.798	79.88
461.018	89.88
461.238	72.88
461.458	80.88
461.678	79.88
461.898	94.88
462.118	88.88
462.338	77.88
462.558	94.88
462.777	74.88
462.997	74.88
463.217	78.88
463.437	84.88
463.657	71.88
463.876	65.88
464.096	80.88
464.316	88.88
464.536	81.88
464.755	77.88
464.975	83.88
465.195	89.88
465.414	73.88
465.634	67.88
465.854	83.88
466.073	85.88
466.293	75.88
466.512	69.88
466.732	90.88
466.951	96.88
467.171	89.88
467.391	80.88
467.61	81.88
467.829	71.88
468.049	85.88
468.268	76.88
468.488	85.88
468.707	86.88
468.927	60.88
469.146	83.88
469.365	77.88
469.585	77.88
469.804	77.88
470.023	71.88
470.243	78.88
470.462	72.88
470.681	82.88
470.901	89.88
471.12	73.88
471.339	79.88
471.558	86.88
471.777	82.88
471.997	67.88
472.216	70.88
472.435	73.88
472.654	74.88
472.873	83.88
473.092	78.88
473.311	75.88
473.53	77.88
473.749	101.88
473.968	72.88
474.187	84.88
474.406	73.88
474.625	97.88
474.844	88.88
475.063	67.88
475.282	75.88
475.501	75.88
475.72	79.88
475.939	81.88
476.158	77.88
476.377	70.88
476.596	79.88
476.814	79.88
477.033	80.88
477.252	79.88
477.471	89.88
477.69	88.88
477.908	101.88
478.127	82.88
478.346	80.88
478.564	84.88
478.783	66.88
479.002	75.88
479.22	66.88
479.439	78.88
479.658	81.88
479.876	92.88
480.095	91.88
480.313	91.88
480.532	73.88
480.751	82.88
480.969	78.88
481.188	78.88
481.406	64.88
481.624	82.88
481.843	78.88
482.061	76.88
482.28	75.88
482.498	71.88
482.717	83.88
482.935	81.88
483.153	80.88
483.372	73.88
483.59	77.88
483.808	75.88
484.027	85.88
484.245	66.88
484.463	67.88
484.681	83.88
484.9	80.88
485.118	80.88
485.336	83.88
485.554	73.88
485.772	86.88
485.99	86.88
486.209	90.88
486.427	90.88
486.645	73.88
486.863	87.88
487.081	80.88
487.299	76.88
487.517	80.88
487.735	74.88
487.953	79.88
488.171	91.88
488.389	76.88
488.607	69.88
488.825	82.88
489.043	71.88
489.261	84.88
489.479	83.88
489.696	79.88
489.914	87.88
490.132	83.88
490.35	73.88
490.568	63.88
490.786	78.88
491.003	77.88
491.221	59.88
491.439	73.88
491.657	76.88
491.874	77.88
492.092	74.88
492.31	94.88
492.527	87.88
492.745	78.88
492.963	82.88
493.18	76.88
493.398	84.88
493.615	78.88
493.833	79.88
494.05	85.88
494.268	86.88
494.485	93.88
494.703	87.88
494.92	91.88
495.138	82.88
495.355	92.88
495.573	94.88
495.79	86.88
496.008	78.88
496.225	81.88
496.442	86.88
496.66	85.88
496.877	76.88
497.094	87.88
497.312	76.88
497.529	75.88
497.746	81.88
497.963	82.88
498.181	86.88
498.398	91.88
498.615	94.88
498.832	77.88
499.049	73.88
499.267	89.88
499.484	68.88
499.701	85.88
499.918	78.88
500.135	82.88
500.352	75.88
500.569	80.88
500.786	71.88
501.003	80.88
501.22	81.88
501.437	75.88
501.654	70.88
501.871	77.88
502.088	87.88
502.305	70.88
502.522	75.88
502.739	93.88
502.956	81.88
503.172	82.88
503.389	82.88
503.606	68.88
503.823	80.88
504.04	78.88
504.256	82.88
504.473	82.88
504.69	68.88
504.907	93.88
505.123	87.88
505.34	90.88
505.557	61.88
505.773	69.88
505.99	82.88
506.207	81.88
506.423	75.88
506.64	89.88
506.856	80.88
507.073	72.88
507.289	87.88
507.506	83.88
507.722	82.88
507.939	89.88
508.155	93.88
508.372	96.88
508.588	88.88
508.805	85.88
509.021	70.88
509.238	91.88
509.454	83.88
509.67	81.88
509.887	72.88
510.103	78.88
510.319	79.88
510.536	79.88
510.752	78.88
510.968	75.88
511.184	81.88
511.401	98.88
511.617	94.88
511.833	81.88
512.049	77.88
512.265	87.88
512.481	78.88
512.698	87.88
512.914	73.88
513.13	71.88
513.346	80.88
513.562	77.88
513.778	73.88
513.994	90.88
514.21	78.88
514.426	94.88
514.642	101.88
514.858	80.88
515.074	74.88
515.29	85.88
515.506	99.88
515.721	75.88
515.937	82.88
516.153	86.88
516.369	74.88
516.585	92.88
516.801	83.88
517.016	78.88
517.232	82.88
517.448	88.88
517.664	82.88
517.879	80.88
518.095	76.88
518.311	91.88
518.527	82.88
518.742	94.88
518.958	91.88
519.173	76.88
519.389	86.88
519.605	79.88
519.82	76.88
520.036	86.88
