Data from Background_1_HRD10591_00028.txt Node
Date: Wed Nov 05 14:39:12 EST 2025
User: Yrep
Spectrometer: HR+D1059
Trigger mode: 1
Integration Time (sec): 1.000000E-1
Scans to average: 1
Electric dark correction enabled: true
Nonlinearity correction enabled: false
Boxcar width: 0
XAxis mode: Wavelengths
Number of Pixels in Spectrum: 2048
>>>>>Begin Spectral Data<<<<<
223.165	-18
223.4	-18
223.635	-18
223.869	-7
224.104	-20
224.338	-31
224.573	-24
224.808	-20
225.042	-6
225.277	9
225.511	5
225.746	-4
225.98	3
226.215	19
226.449	13
226.683	34
226.918	29
227.152	18
227.387	39
227.621	43
227.856	49
228.09	49
228.324	38
228.559	56
228.793	60
229.027	76
229.262	58
229.496	76
229.73	76
229.964	78
230.199	75
230.433	84
230.667	80
230.901	93
231.136	80
231.37	75
231.604	73
231.838	80
232.072	67
232.306	78
232.541	84
232.775	82
233.009	72
233.243	79
233.477	70
233.711	79
233.945	64
234.179	78
234.413	76
234.647	90
234.881	80
235.115	77
235.349	80
235.583	81
235.817	76
236.051	77
236.285	78
236.519	78
236.753	90
236.987	84
237.221	85
237.455	74
237.689	76
237.922	81
238.156	71
238.39	60
238.624	84
238.858	68
239.091	81
239.325	73
239.559	76
239.793	81
240.027	91
240.26	80
240.494	72
240.728	68
240.961	72
241.195	66
241.429	76
241.662	83
241.896	74
242.13	74
242.363	88
242.597	73
242.83	71
243.064	71
243.298	73
243.531	84
243.765	74
243.998	77
244.232	75
244.465	80
244.699	79
244.932	88
245.166	77
245.399	77
245.633	76
245.866	72
246.099	83
246.333	84
246.566	89
246.8	90
247.033	86
247.266	89
247.5	71
247.733	104
247.966	78
248.2	86
248.433	87
248.666	68
248.899	96
249.133	76
249.366	84
249.599	83
249.832	86
250.066	78
250.299	68
250.532	81
250.765	91
250.998	88
251.231	84
251.465	81
251.698	79
251.931	72
252.164	71
252.397	96
252.63	80
252.863	75
253.096	77
253.329	85
253.562	70
253.795	72
254.028	96
254.261	84
254.494	80
254.727	74
254.96	79
255.193	76
255.426	83
255.659	68
255.892	75
256.124	80
256.357	93
256.59	96
256.823	84
257.056	81
257.289	68
257.521	81
257.754	80
257.987	78
258.22	79
258.452	82
258.685	68
258.918	86
259.151	79
259.383	96
259.616	66
259.849	80
260.081	80
260.314	65
260.547	92
260.779	93
261.012	82
261.244	82
261.477	92
261.71	70
261.942	89
262.175	80
262.407	74
262.64	65
262.872	82
263.105	85
263.337	83
263.57	85
263.802	89
264.035	78
264.267	84
264.499	73
264.732	88
264.964	88
265.197	82
265.429	69
265.661	80
265.894	78
266.126	73
266.358	88
266.591	92
266.823	89
267.055	87
267.287	91
267.52	74
267.752	83
267.984	81
268.216	70
268.448	70
268.681	82
268.913	81
269.145	81
269.377	90
269.609	86
269.841	86
270.073	92
270.306	85
270.538	95
270.77	86
271.002	80
271.234	88
271.466	90
271.698	81
271.93	71
272.162	85
272.394	71
272.626	82
272.858	84
273.09	90
273.322	90
273.553	76
273.785	88
274.017	82
274.249	84
274.481	74
274.713	85
274.945	87
275.176	85
275.408	52
275.64	82
275.872	84
276.104	86
276.335	80
276.567	79
276.799	74
277.031	88
277.262	83
277.494	86
277.726	80
277.957	82
278.189	91
278.421	96
278.652	86
278.884	69
279.115	94
279.347	83
279.579	88
279.81	84
280.042	85
280.273	63
280.505	94
280.736	75
280.968	83
281.199	92
281.431	86
281.662	84
281.894	84
282.125	97
282.356	74
282.588	76
282.819	79
283.051	76
283.282	68
283.513	70
283.745	78
283.976	78
284.207	84
284.439	84
284.67	87
284.901	82
285.132	97
285.364	92
285.595	91
285.826	91
286.057	88
286.288	67
286.52	79
286.751	86
286.982	98
287.213	75
287.444	106
287.675	101
287.906	89
288.138	74
288.369	81
288.6	91
288.831	81
289.062	88
289.293	90
289.524	84
289.755	84
289.986	92
290.217	97
290.448	82
290.679	93
290.91	72
291.141	78
291.371	73
291.602	78
291.833	83
292.064	80
292.295	83
292.526	78
292.757	94
292.987	79
293.218	94
293.449	92
293.68	79
293.91	76
294.141	89
294.372	92
294.603	90
294.833	84
295.064	91
295.295	82
295.525	78
295.756	83
295.987	85
296.217	83
296.448	69
296.679	81
296.909	93
297.14	75
297.37	93
297.601	94
297.831	78
298.062	102
298.292	94
298.523	99
298.753	76
298.984	99
299.214	91
299.445	83
299.675	91
299.905	74
300.136	74
300.366	71
300.597	75
300.827	76
301.057	85
301.288	85
301.518	81
301.748	97
301.979	103
302.209	81
302.439	79
302.669	97
302.9	85
303.13	92
303.36	90
303.59	83
303.82	84
304.051	83
304.281	85
304.511	87
304.741	87
304.971	73
305.201	101
305.431	85
305.661	99
305.891	94
306.121	76
306.352	83
306.582	76
306.812	87
307.042	82
307.272	100
307.502	89
307.731	93
307.961	84
308.191	68
308.421	97
308.651	92
308.881	94
309.111	73
309.341	68
309.571	84
309.8	85
310.03	89
310.26	80
310.49	75
310.72	82
310.949	84
311.179	84
311.409	88
311.639	82
311.868	82
312.098	74
312.328	80
312.557	85
312.787	79
313.017	91
313.246	76
313.476	88
313.706	69
313.935	84
314.165	90
314.394	86
314.624	79
314.853	74
315.083	77
315.312	77
315.542	80
315.771	81
316.001	84
316.23	80
316.46	77
316.689	85
316.919	86
317.148	88
317.377	76
317.607	79
317.836	99
318.065	85
318.295	82
318.524	80
318.753	82
318.983	85
319.212	92
319.441	85
319.67	96
319.9	94
320.129	79
320.358	87
320.587	102
320.816	78
321.046	92
321.275	93
321.504	95
321.733	94
321.962	90
322.191	94
322.42	88
322.649	101
322.878	84
323.108	96
323.337	88
323.566	96
323.795	91
324.024	90
324.253	83
324.482	92
324.71	96
324.939	92
325.168	85
325.397	84
325.626	84
325.855	85
326.084	88
326.313	68
326.542	75
326.77	99
326.999	77
327.228	80
327.457	69
327.686	100
327.914	78
328.143	89
328.372	82
328.6	93
328.829	76
329.058	83
329.287	80
329.515	82
329.744	86
329.972	81
330.201	92
330.43	78
330.658	77
330.887	72
331.115	85
331.344	96
331.572	90
331.801	83
332.03	88
332.258	84
332.486	92
332.715	84
332.943	82
333.172	100
333.4	80
333.629	86
333.857	106
334.085	90
334.314	84
334.542	91
334.771	81
334.999	92
335.227	95
335.455	84
335.684	91
335.912	90
336.14	91
336.369	93
336.597	104
336.825	85
337.053	91
337.281	88
337.51	80
337.738	84
337.966	92
338.194	80
338.422	85
338.65	88
338.878	93
339.106	92
339.334	74
339.562	79
339.79	91
340.018	66
340.246	84
340.474	94
340.702	101
340.93	91
341.158	77
341.386	76
341.614	96
341.842	80
342.07	94
342.298	85
342.526	76
342.754	98
342.981	92
343.209	85
343.437	97
343.665	86
343.893	93
344.12	96
344.348	93
344.576	83
344.804	77
345.031	90
345.259	82
345.487	71
345.714	83
345.942	84
346.17	91
346.397	86
346.625	77
346.853	92
347.08	76
347.308	98
347.535	77
347.763	101
347.99	95
348.218	87
348.445	96
348.673	86
348.9	85
349.128	78
349.355	80
349.583	88
349.81	69
350.037	90
350.265	84
350.492	105
350.72	83
350.947	86
351.174	97
351.402	84
351.629	87
351.856	90
352.083	97
352.311	91
352.538	94
352.765	85
352.992	84
353.22	90
353.447	78
353.674	96
353.901	96
354.128	82
354.355	88
354.583	82
354.81	91
355.037	83
355.264	84
355.491	96
355.718	83
355.945	76
356.172	90
356.399	71
356.626	71
356.853	94
357.08	78
357.307	96
357.534	86
357.761	83
357.988	72
358.215	84
358.441	86
358.668	67
358.895	86
359.122	78
359.349	87
359.576	86
359.802	82
360.029	89
360.256	88
360.483	79
360.709	76
360.936	88
361.163	86
361.39	90
361.616	91
361.843	83
362.07	81
362.296	95
362.523	82
362.749	95
362.976	89
363.203	74
363.429	76
363.656	86
363.882	89
364.109	91
364.335	90
364.562	93
364.788	75
365.015	80
365.241	76
365.468	87
365.694	80
365.92	86
366.147	88
366.373	89
366.599	76
366.826	90
367.052	100
367.278	83
367.505	73
367.731	81
367.957	75
368.184	95
368.41	102
368.636	82
368.862	78
369.089	83
369.315	88
369.541	77
369.767	93
369.993	94
370.219	85
370.445	97
370.672	79
370.898	82
371.124	85
371.35	77
371.576	88
371.802	91
372.028	89
372.254	92
372.48	70
372.706	83
372.932	88
373.158	94
373.384	84
373.61	78
373.835	77
374.061	84
374.287	77
374.513	86
374.739	90
374.965	96
375.191	80
375.416	82
375.642	89
375.868	83
376.094	83
376.319	78
376.545	86
376.771	81
376.997	80
377.222	94
377.448	101
377.674	75
377.899	92
378.125	83
378.35	102
378.576	88
378.802	84
379.027	73
379.253	86
379.478	80
379.704	77
379.929	89
380.155	89
380.38	78
380.606	83
380.831	77
381.057	78
381.282	96
381.507	87
381.733	91
381.958	92
382.184	79
382.409	85
382.634	88
382.86	80
383.085	85
383.31	78
383.535	98
383.761	81
383.986	78
384.211	80
384.436	93
384.662	89
384.887	99
385.112	72
385.337	86
385.562	80
385.787	66
386.013	85
386.238	83
386.463	89
386.688	105
386.913	82
387.138	82
387.363	86
387.588	82
387.813	76
388.038	83
388.263	78
388.488	84
388.713	81
388.938	70
389.163	79
389.387	80
389.612	81
389.837	86
390.062	73
390.287	80
390.512	80
390.736	82
390.961	73
391.186	91
391.411	80
391.636	88
391.86	86
392.085	86
392.31	79
392.534	81
392.759	75
392.984	91
393.208	82
393.433	78
393.658	78
393.882	74
394.107	90
394.331	82
394.556	82
394.78	86
395.005	73
395.229	78
395.454	86
395.678	68
395.903	84
396.127	85
396.352	82
396.576	83
396.801	88
397.025	84
397.249	84
397.474	92
397.698	93
397.922	85
398.147	75
398.371	88
398.595	86
398.82	81
399.044	75
399.268	81
399.492	77
399.717	98
399.941	89
400.165	88
400.389	86
400.613	83
400.837	75
401.062	85
401.286	99
401.51	83
401.734	79
401.958	76
402.182	75
402.406	74
402.63	84
402.854	94
403.078	68
403.302	89
403.526	81
403.75	98
403.974	72
404.198	80
404.422	78
404.645	90
404.869	92
405.093	103
405.317	76
405.541	93
405.765	69
405.988	72
406.212	73
406.436	80
406.66	92
406.883	91
407.107	76
407.331	73
407.555	88
407.778	78
408.002	79
408.226	83
408.449	91
408.673	77
408.896	86
409.12	74
409.344	84
409.567	83
409.791	79
410.014	98
410.238	78
410.461	85
410.685	74
410.908	79
411.132	81
411.355	84
411.578	85
411.802	67
412.025	83
412.249	74
412.472	89
412.695	93
412.919	74
413.142	77
413.365	84
413.589	85
413.812	85
414.035	89
414.258	86
414.482	76
414.705	86
414.928	80
415.151	73
415.374	75
415.597	94
415.821	76
416.044	73
416.267	71
416.49	80
416.713	87
416.936	74
417.159	94
417.382	83
417.605	92
417.828	70
418.051	85
418.274	96
418.497	78
418.72	86
418.943	85
419.166	75
419.389	85
419.611	81
419.834	78
420.057	66
420.28	90
420.503	88
420.726	72
420.948	84
421.171	84
421.394	68
421.617	81
421.839	90
422.062	84
422.285	92
422.507	94
422.73	73
422.953	75
423.175	73
423.398	80
423.621	83
423.843	79
424.066	70
424.288	97
424.511	81
424.733	81
424.956	89
425.178	90
425.401	82
425.623	86
425.846	87
426.068	96
426.291	82
426.513	93
426.735	93
426.958	91
427.18	89
427.402	80
427.625	81
427.847	85
428.069	85
428.292	71
428.514	85
428.736	72
428.958	81
429.181	83
429.403	92
429.625	64
429.847	78
430.069	73
430.292	83
430.514	88
430.736	79
430.958	82
431.18	70
431.402	86
431.624	88
431.846	86
432.068	86
432.29	88
432.512	84
432.734	88
432.956	88
433.178	89
433.4	82
433.622	94
433.844	81
434.066	88
434.287	76
434.509	83
434.731	75
434.953	85
435.175	75
435.397	84
435.618	77
435.84	76
436.062	87
436.284	65
436.505	82
436.727	90
436.949	85
437.17	95
437.392	70
437.614	91
437.835	95
438.057	78
438.278	80
438.5	87
438.721	83
438.943	80
439.165	75
439.386	92
439.608	80
439.829	81
440.05	83
440.272	88
440.493	64
440.715	87
440.936	83
441.158	88
441.379	80
441.6	83
441.822	66
442.043	77
442.264	74
442.486	85
442.707	81
442.928	81
443.149	82
443.371	81
443.592	91
443.813	69
444.034	76
444.255	80
444.476	91
444.698	88
444.919	91
445.14	152
445.361	99
445.582	85
445.803	88
446.024	90
446.245	88
446.466	77
446.687	81
446.908	74
447.129	89
447.35	91
447.571	70
447.792	90
448.013	84
448.234	89
448.455	86
448.675	100
448.896	77
449.117	90
449.338	79
449.559	77
449.779	76
450	73
450.221	89
450.442	96
450.662	66
450.883	80
451.104	86
451.324	64
451.545	80
451.766	77
451.986	87
452.207	89
452.428	88
452.648	77
452.869	88
453.089	77
453.31	85
453.53	88
453.751	86
453.971	93
454.192	92
454.412	82
454.633	80
454.853	86
455.073	78
455.294	71
455.514	80
455.734	78
455.955	65
456.175	80
456.395	73
456.616	88
456.836	86
457.056	84
457.276	74
457.497	77
457.717	78
457.937	80
458.157	101
458.377	80
458.598	80
458.818	81
459.038	75
459.258	74
459.478	86
459.698	93
459.918	80
460.138	84
460.358	75
460.578	84
460.798	88
461.018	93
461.238	81
461.458	86
461.678	67
461.898	95
462.118	85
462.338	88
462.558	78
462.777	79
462.997	89
463.217	85
463.437	80
463.657	73
463.876	84
464.096	80
464.316	81
464.536	89
464.755	81
464.975	77
465.195	82
465.414	88
465.634	73
465.854	71
466.073	92
466.293	102
466.512	90
466.732	82
466.951	72
467.171	76
467.391	88
467.61	78
467.829	90
468.049	95
468.268	82
468.488	88
468.707	75
468.927	88
469.146	75
469.365	76
469.585	81
469.804	85
470.023	86
470.243	86
470.462	84
470.681	84
470.901	73
471.12	88
471.339	84
471.558	85
471.777	86
471.997	67
472.216	75
472.435	85
472.654	80
472.873	93
473.092	90
473.311	82
473.53	88
473.749	75
473.968	73
474.187	93
474.406	74
474.625	88
474.844	96
475.063	70
475.282	93
475.501	88
475.72	101
475.939	97
476.158	80
476.377	82
476.596	83
476.814	84
477.033	77
477.252	85
477.471	76
477.69	78
477.908	83
478.127	76
478.346	83
478.564	80
478.783	87
479.002	68
479.22	79
479.439	84
479.658	61
479.876	91
480.095	92
480.313	90
480.532	89
480.751	96
480.969	88
481.188	84
481.406	80
481.624	90
481.843	84
482.061	86
482.28	80
482.498	70
482.717	86
482.935	89
483.153	90
483.372	76
483.59	84
483.808	81
484.027	80
484.245	89
484.463	82
484.681	80
484.9	90
485.118	76
485.336	84
485.554	84
485.772	87
485.99	89
486.209	68
486.427	93
486.645	88
486.863	80
487.081	88
487.299	92
487.517	82
487.735	87
487.953	90
488.171	99
488.389	87
488.607	68
488.825	78
489.043	78
489.261	91
489.479	80
489.696	88
489.914	86
490.132	80
490.35	81
490.568	92
490.786	74
491.003	89
491.221	79
491.439	94
491.657	74
491.874	92
492.092	101
492.31	77
492.527	84
492.745	72
492.963	77
493.18	79
493.398	80
493.615	90
493.833	86
494.05	91
494.268	85
494.485	86
494.703	80
494.92	83
495.138	77
495.355	98
495.573	85
495.79	70
496.008	77
496.225	88
496.442	98
496.66	88
496.877	89
497.094	76
497.312	90
497.529	81
497.746	86
497.963	74
498.181	78
498.398	85
498.615	80
498.832	80
499.049	80
499.267	82
499.484	99
499.701	80
499.918	81
500.135	91
500.352	68
500.569	84
500.786	85
501.003	103
501.22	68
501.437	89
501.654	76
501.871	87
502.088	91
502.305	84
502.522	80
502.739	79
502.956	94
503.172	90
503.389	77
503.606	74
503.823	92
504.04	69
504.256	76
504.473	79
504.69	99
504.907	84
505.123	78
505.34	78
505.557	77
505.773	91
505.99	86
506.207	81
506.423	71
506.64	82
506.856	81
507.073	84
507.289	81
507.506	82
507.722	87
507.939	98
508.155	75
508.372	72
508.588	85
508.805	84
509.021	75
509.238	82
509.454	84
509.67	73
509.887	92
510.103	88
510.319	81
510.536	83
510.752	82
510.968	70
511.184	85
511.401	92
511.617	86
511.833	102
512.049	74
512.265	81
512.481	87
512.698	85
512.914	83
513.13	80
513.346	85
513.562	65
513.778	95
513.994	93
514.21	94
514.426	100
514.642	85
514.858	91
515.074	85
515.29	95
515.506	85
515.721	97
515.937	92
516.153	74
516.369	80
516.585	89
516.801	90
517.016	79
517.232	95
517.448	98
517.664	75
517.879	90
518.095	74
518.311	71
518.527	84
518.742	85
518.958	80
519.173	70
519.389	83
519.605	84
519.82	83
520.036	94
520.251	82
520.467	80
520.682	82
520.898	83
521.113	92
521.329	80
521.544	91
521.76	86
521.975	76
522.19	91
522.406	73
522.621	91
522.836	98
523.052	86
523.267	86
523.482	88
523.698	84
523.913	89
524.128	84
524.343	87
524.559	98
524.774	77
524.989	94
525.204	81
525.419	97
525.634	92
525.849	77
526.064	83
526.28	81
526.495	85
526.71	86
526.925	81
527.14	88
527.355	85
527.57	82
527.785	75
527.999	91
528.214	81
528.429	96
528.644	79
528.859	96
529.074	70
529.289	84
529.503	83
529.718	93
529.933	67
530.148	86
530.363	92
530.577	91
530.792	90
531.007	81
531.221	90
531.436	96
531.651	87
531.865	86
532.08	80
532.295	107
532.509	86
532.724	89
532.938	89
533.153	89
533.367	89
533.582	88
533.796	73
534.011	85
534.225	88
534.44	88
534.654	80
534.868	87
535.083	91
535.297	87
535.511	81
535.726	96
535.94	77
536.154	84
536.369	81
536.583	92
536.797	68
537.011	82
537.225	95
537.44	95
537.654	89
537.868	89
538.082	78
538.296	81
538.51	93
538.724	90
538.938	76
539.153	79
539.367	76
539.581	92
539.795	83
540.009	86
540.222	94
540.436	88
540.65	96
540.864	88
541.078	90
541.292	81
541.506	84
541.72	103
541.934	82
542.147	92
542.361	85
542.575	96
542.789	94
543.002	81
543.216	74
543.43	81
543.644	88
543.857	86
544.071	80
544.285	89
544.498	83
544.712	93
544.925	90
545.139	86
545.352	85
545.566	79
545.779	84
545.993	85
546.206	90
546.42	96
546.633	85
546.847	96
547.06	92
547.274	66
547.487	88
547.7	67
547.914	88
548.127	96
548.34	82
548.554	68
548.767	80
548.98	69
549.193	85
549.407	79
549.62	84
549.833	87
550.046	82
550.259	92
550.473	91
550.686	77
550.899	84
551.112	96
551.325	60
551.538	67
551.751	82
551.964	98
552.177	90
552.39	85
552.603	86
552.816	98
553.029	96
553.242	78
553.455	83
553.667	107
553.88	73
554.093	84
554.306	100
554.519	89
554.732	89
554.944	90
555.157	78
555.37	76
555.583	89
555.795	88
556.008	71
556.221	93
556.433	95
556.646	80
556.859	73
557.071	99
557.284	76
557.496	100
557.709	85
557.921	83
558.134	81
558.346	75
558.559	81
558.771	80
558.984	84
559.196	91
559.409	82
559.621	77
559.833	80
560.046	90
560.258	78
560.47	84
560.683	90
560.895	78
561.107	76
561.32	93
561.532	85
561.744	81
561.956	80
562.168	85
562.381	94
562.593	72
562.805	82
563.017	90
563.229	96
563.441	109
563.653	65
563.865	83
564.077	80
564.289	80
564.501	80
564.713	91
564.925	87
565.137	95
565.349	85
565.561	92
565.773	89
565.985	75
566.197	84
566.408	79
566.62	80
566.832	89
567.044	96
567.255	88
567.467	81
567.679	98
567.891	87
568.102	74
568.314	83
568.526	92
568.737	88
568.949	97
569.161	89
569.372	89
569.584	94
569.795	80
570.007	86
570.218	93
570.43	87
570.641	81
570.853	84
571.064	92
571.276	94
571.487	78
571.698	94
571.91	85
572.121	108
572.333	92
572.544	83
572.755	88
572.966	102
573.178	108
573.389	92
573.6	91
573.811	86
574.023	95
574.234	97
574.445	58
574.656	83
574.867	86
575.078	71
575.289	96
575.501	93
575.712	80
575.923	80
576.134	90
576.345	88
576.556	81
576.767	86
576.978	74
577.188	106
577.399	94
577.61	86
577.821	83
578.032	66
578.243	100
578.454	87
578.665	86
578.875	86
579.086	92
579.297	87
579.508	92
579.718	88
579.929	86
580.14	80
580.35	78
580.561	82
580.772	86
580.982	78
581.193	94
581.403	84
581.614	89
581.825	92
582.035	79
582.246	84
582.456	78
582.667	78
582.877	87
583.087	100
583.298	88
583.508	92
583.719	92
583.929	96
584.139	80
584.35	86
584.56	74
584.77	90
584.981	81
585.191	84
585.401	92
585.611	90
585.821	89
586.032	87
586.242	96
586.452	87
586.662	85
586.872	81
587.082	83
587.292	87
587.502	81
587.713	76
587.923	91
588.133	91
588.343	88
588.553	91
588.762	92
588.972	88
589.182	66
589.392	90
589.602	84
589.812	84
590.022	88
590.232	78
