Data from Background_1_HRD10591_00054.txt Node
Date: Wed Nov 05 14:39:24 EST 2025
User: Yrep
Spectrometer: HR+D1059
Trigger mode: 1
Integration Time (sec): 1.000000E-1
Scans to average: 1
Electric dark correction enabled: true
Nonlinearity correction enabled: false
Boxcar width: 0
XAxis mode: Wavelengths
Number of Pixels in Spectrum: 2048
>>>>>Begin Spectral Data<<<<<
223.165	-9.38
223.4	-9.38
223.635	-9.38
223.869	-16.38
224.104	-17.38
224.338	-14.38
224.573	-12.38
224.808	-14.38
225.042	-0.38
225.277	-9.38
225.511	-4.38
225.746	9.62
225.98	2.62
226.215	-3.38
226.449	27.62
226.683	36.62
226.918	3.62
227.152	21.62
227.387	41.62
227.621	46.62
227.856	50.62
228.09	37.62
228.324	62.62
228.559	64.62
228.793	50.62
229.027	61.62
229.262	69.62
229.496	65.62
229.73	59.62
229.964	75.62
230.199	76.62
230.433	73.62
230.667	77.62
230.901	76.62
231.136	93.62
231.37	75.62
231.604	91.62
231.838	73.62
232.072	98.62
232.306	90.62
232.541	79.62
232.775	86.62
233.009	82.62
233.243	90.62
233.477	81.62
233.711	88.62
233.945	74.62
234.179	73.62
234.413	83.62
234.647	85.62
234.881	73.62
235.115	84.62
235.349	82.62
235.583	74.62
235.817	80.62
236.051	92.62
236.285	80.62
236.519	77.62
236.753	77.62
236.987	79.62
237.221	78.62
237.455	68.62
237.689	68.62
237.922	78.62
238.156	70.62
238.39	82.62
238.624	66.62
238.858	83.62
239.091	72.62
239.325	96.62
239.559	83.62
239.793	76.62
240.027	79.62
240.26	66.62
240.494	90.62
240.728	76.62
240.961	72.62
241.195	84.62
241.429	72.62
241.662	73.62
241.896	84.62
242.13	74.62
242.363	66.62
242.597	76.62
242.83	66.62
243.064	80.62
243.298	79.62
243.531	86.62
243.765	67.62
243.998	78.62
244.232	85.62
244.465	69.62
244.699	73.62
244.932	78.62
245.166	90.62
245.399	72.62
245.633	81.62
245.866	71.62
246.099	72.62
246.333	71.62
246.566	73.62
246.8	78.62
247.033	82.62
247.266	76.62
247.5	82.62
247.733	90.62
247.966	88.62
248.2	86.62
248.433	78.62
248.666	83.62
248.899	80.62
249.133	81.62
249.366	77.62
249.599	74.62
249.832	74.62
250.066	85.62
250.299	85.62
250.532	100.62
250.765	67.62
250.998	81.62
251.231	92.62
251.465	77.62
251.698	92.62
251.931	83.62
252.164	86.62
252.397	85.62
252.63	79.62
252.863	72.62
253.096	86.62
253.329	92.62
253.562	79.62
253.795	73.62
254.028	72.62
254.261	74.62
254.494	88.62
254.727	83.62
254.96	70.62
255.193	84.62
255.426	93.62
255.659	90.62
255.892	77.62
256.124	81.62
256.357	77.62
256.59	74.62
256.823	73.62
257.056	95.62
257.289	79.62
257.521	77.62
257.754	80.62
257.987	93.62
258.22	97.62
258.452	93.62
258.685	80.62
258.918	72.62
259.151	85.62
259.383	93.62
259.616	72.62
259.849	77.62
260.081	91.62
260.314	85.62
260.547	72.62
260.779	89.62
261.012	76.62
261.244	82.62
261.477	86.62
261.71	92.62
261.942	88.62
262.175	85.62
262.407	89.62
262.64	94.62
262.872	73.62
263.105	92.62
263.337	61.62
263.57	85.62
263.802	81.62
264.035	92.62
264.267	97.62
264.499	90.62
264.732	83.62
264.964	90.62
265.197	94.62
265.429	82.62
265.661	97.62
265.894	74.62
266.126	83.62
266.358	87.62
266.591	88.62
266.823	82.62
267.055	72.62
267.287	88.62
267.52	88.62
267.752	84.62
267.984	91.62
268.216	68.62
268.448	92.62
268.681	80.62
268.913	77.62
269.145	85.62
269.377	88.62
269.609	90.62
269.841	80.62
270.073	70.62
270.306	88.62
270.538	73.62
270.77	84.62
271.002	81.62
271.234	77.62
271.466	85.62
271.698	83.62
271.93	89.62
272.162	80.62
272.394	85.62
272.626	69.62
272.858	79.62
273.09	81.62
273.322	80.62
273.553	86.62
273.785	89.62
274.017	99.62
274.249	92.62
274.481	85.62
274.713	86.62
274.945	97.62
275.176	87.62
275.408	99.62
275.64	84.62
275.872	83.62
276.104	98.62
276.335	61.62
276.567	78.62
276.799	88.62
277.031	88.62
277.262	80.62
277.494	70.62
277.726	78.62
277.957	77.62
278.189	100.62
278.421	92.62
278.652	77.62
278.884	89.62
279.115	85.62
279.347	94.62
279.579	74.62
279.81	76.62
280.042	86.62
280.273	74.62
280.505	78.62
280.736	104.62
280.968	93.62
281.199	78.62
281.431	80.62
281.662	86.62
281.894	93.62
282.125	86.62
282.356	76.62
282.588	80.62
282.819	75.62
283.051	81.62
283.282	70.62
283.513	95.62
283.745	76.62
283.976	86.62
284.207	90.62
284.439	96.62
284.67	80.62
284.901	95.62
285.132	89.62
285.364	100.62
285.595	94.62
285.826	81.62
286.057	82.62
286.288	88.62
286.52	76.62
286.751	77.62
286.982	93.62
287.213	90.62
287.444	84.62
287.675	93.62
287.906	85.62
288.138	68.62
288.369	80.62
288.6	83.62
288.831	82.62
289.062	101.62
289.293	81.62
289.524	89.62
289.755	83.62
289.986	76.62
290.217	81.62
290.448	94.62
290.679	102.62
290.91	98.62
291.141	65.62
291.371	84.62
291.602	80.62
291.833	90.62
292.064	95.62
292.295	92.62
292.526	76.62
292.757	80.62
292.987	78.62
293.218	88.62
293.449	91.62
293.68	77.62
293.91	68.62
294.141	71.62
294.372	85.62
294.603	83.62
294.833	83.62
295.064	84.62
295.295	76.62
295.525	84.62
295.756	80.62
295.987	74.62
296.217	90.62
296.448	88.62
296.679	84.62
296.909	74.62
297.14	79.62
297.37	93.62
297.601	82.62
297.831	86.62
298.062	79.62
298.292	93.62
298.523	90.62
298.753	96.62
298.984	98.62
299.214	82.62
299.445	83.62
299.675	91.62
299.905	78.62
300.136	90.62
300.366	84.62
300.597	80.62
300.827	75.62
301.057	90.62
301.288	91.62
301.518	94.62
301.748	90.62
301.979	105.62
302.209	89.62
302.439	93.62
302.669	73.62
302.9	79.62
303.13	91.62
303.36	93.62
303.59	80.62
303.82	91.62
304.051	97.62
304.281	94.62
304.511	106.62
304.741	82.62
304.971	74.62
305.201	92.62
305.431	84.62
305.661	79.62
305.891	88.62
306.121	88.62
306.352	89.62
306.582	77.62
306.812	91.62
307.042	82.62
307.272	84.62
307.502	96.62
307.731	80.62
307.961	83.62
308.191	86.62
308.421	80.62
308.651	77.62
308.881	91.62
309.111	80.62
309.341	80.62
309.571	85.62
309.8	90.62
310.03	92.62
310.26	86.62
310.49	75.62
310.72	77.62
310.949	90.62
311.179	74.62
311.409	85.62
311.639	85.62
311.868	80.62
312.098	93.62
312.328	82.62
312.557	92.62
312.787	95.62
313.017	94.62
313.246	83.62
313.476	85.62
313.706	77.62
313.935	79.62
314.165	85.62
314.394	84.62
314.624	77.62
314.853	92.62
315.083	106.62
315.312	89.62
315.542	94.62
315.771	96.62
316.001	77.62
316.23	74.62
316.46	87.62
316.689	81.62
316.919	98.62
317.148	83.62
317.377	86.62
317.607	93.62
317.836	76.62
318.065	90.62
318.295	98.62
318.524	90.62
318.753	92.62
318.983	88.62
319.212	98.62
319.441	86.62
319.67	82.62
319.9	96.62
320.129	94.62
320.358	100.62
320.587	84.62
320.816	88.62
321.046	68.62
321.275	94.62
321.504	81.62
321.733	84.62
321.962	89.62
322.191	93.62
322.42	91.62
322.649	85.62
322.878	84.62
323.108	85.62
323.337	92.62
323.566	82.62
323.795	93.62
324.024	87.62
324.253	92.62
324.482	82.62
324.71	76.62
324.939	85.62
325.168	80.62
325.397	90.62
325.626	82.62
325.855	85.62
326.084	84.62
326.313	72.62
326.542	69.62
326.77	101.62
326.999	78.62
327.228	94.62
327.457	89.62
327.686	70.62
327.914	74.62
328.143	88.62
328.372	92.62
328.6	81.62
328.829	90.62
329.058	90.62
329.287	93.62
329.515	86.62
329.744	67.62
329.972	98.62
330.201	83.62
330.43	93.62
330.658	89.62
330.887	83.62
331.115	80.62
331.344	71.62
331.572	88.62
331.801	88.62
332.03	79.62
332.258	90.62
332.486	72.62
332.715	84.62
332.943	78.62
333.172	90.62
333.4	88.62
333.629	86.62
333.857	82.62
334.085	91.62
334.314	94.62
334.542	89.62
334.771	93.62
334.999	94.62
335.227	86.62
335.455	92.62
335.684	90.62
335.912	79.62
336.14	83.62
336.369	80.62
336.597	79.62
336.825	89.62
337.053	86.62
337.281	83.62
337.51	83.62
337.738	94.62
337.966	63.62
338.194	77.62
338.422	97.62
338.65	85.62
338.878	99.62
339.106	84.62
339.334	88.62
339.562	77.62
339.79	91.62
340.018	93.62
340.246	91.62
340.474	88.62
340.702	84.62
340.93	82.62
341.158	80.62
341.386	83.62
341.614	72.62
341.842	76.62
342.07	81.62
342.298	86.62
342.526	88.62
342.754	82.62
342.981	90.62
343.209	85.62
343.437	81.62
343.665	83.62
343.893	71.62
344.12	88.62
344.348	64.62
344.576	78.62
344.804	96.62
345.031	86.62
345.259	88.62
345.487	81.62
345.714	82.62
345.942	77.62
346.17	81.62
346.397	93.62
346.625	80.62
346.853	88.62
347.08	71.62
347.308	81.62
347.535	86.62
347.763	80.62
347.99	78.62
348.218	95.62
348.445	88.62
348.673	91.62
348.9	85.62
349.128	82.62
349.355	80.62
349.583	86.62
349.81	88.62
350.037	72.62
350.265	76.62
350.492	92.62
350.72	94.62
350.947	96.62
351.174	86.62
351.402	85.62
351.629	97.62
351.856	88.62
352.083	77.62
352.311	86.62
352.538	81.62
352.765	83.62
352.992	82.62
353.22	85.62
353.447	93.62
353.674	98.62
353.901	88.62
354.128	94.62
354.355	77.62
354.583	80.62
354.81	94.62
355.037	92.62
355.264	97.62
355.491	92.62
355.718	80.62
355.945	72.62
356.172	90.62
356.399	76.62
356.626	85.62
356.853	76.62
357.08	94.62
357.307	86.62
357.534	82.62
357.761	70.62
357.988	82.62
358.215	87.62
358.441	72.62
358.668	67.62
358.895	82.62
359.122	98.62
359.349	97.62
359.576	95.62
359.802	64.62
360.029	95.62
360.256	92.62
360.483	94.62
360.709	90.62
360.936	97.62
361.163	73.62
361.39	94.62
361.616	100.62
361.843	86.62
362.07	90.62
362.296	95.62
362.523	77.62
362.749	91.62
362.976	87.62
363.203	85.62
363.429	70.62
363.656	81.62
363.882	78.62
364.109	76.62
364.335	81.62
364.562	91.62
364.788	82.62
365.015	89.62
365.241	84.62
365.468	83.62
365.694	80.62
365.92	79.62
366.147	80.62
366.373	77.62
366.599	69.62
366.826	82.62
367.052	71.62
367.278	94.62
367.505	89.62
367.731	96.62
367.957	84.62
368.184	90.62
368.41	85.62
368.636	80.62
368.862	89.62
369.089	74.62
369.315	74.62
369.541	91.62
369.767	94.62
369.993	88.62
370.219	82.62
370.445	81.62
370.672	75.62
370.898	82.62
371.124	81.62
371.35	93.62
371.576	84.62
371.802	78.62
372.028	75.62
372.254	74.62
372.48	83.62
372.706	86.62
372.932	81.62
373.158	89.62
373.384	94.62
373.61	76.62
373.835	92.62
374.061	68.62
374.287	99.62
374.513	82.62
374.739	76.62
374.965	84.62
375.191	61.62
375.416	78.62
375.642	82.62
375.868	85.62
376.094	89.62
376.319	88.62
376.545	88.62
376.771	77.62
376.997	80.62
377.222	82.62
377.448	84.62
377.674	84.62
377.899	76.62
378.125	82.62
378.35	78.62
378.576	84.62
378.802	75.62
379.027	82.62
379.253	86.62
379.478	94.62
379.704	96.62
379.929	84.62
380.155	84.62
380.38	83.62
380.606	76.62
380.831	89.62
381.057	89.62
381.282	90.62
381.507	70.62
381.733	83.62
381.958	94.62
382.184	94.62
382.409	81.62
382.634	80.62
382.86	81.62
383.085	84.62
383.31	79.62
383.535	78.62
383.761	74.62
383.986	84.62
384.211	87.62
384.436	82.62
384.662	83.62
384.887	69.62
385.112	80.62
385.337	81.62
385.562	71.62
385.787	81.62
386.013	90.62
386.238	85.62
386.463	80.62
386.688	77.62
386.913	83.62
387.138	89.62
387.363	90.62
387.588	106.62
387.813	89.62
388.038	86.62
388.263	70.62
388.488	74.62
388.713	69.62
388.938	94.62
389.163	80.62
389.387	80.62
389.612	85.62
389.837	88.62
390.062	82.62
390.287	80.62
390.512	91.62
390.736	90.62
390.961	77.62
391.186	79.62
391.411	77.62
391.636	64.62
391.86	76.62
392.085	81.62
392.31	74.62
392.534	92.62
392.759	88.62
392.984	84.62
393.208	81.62
393.433	82.62
393.658	85.62
393.882	92.62
394.107	91.62
394.331	86.62
394.556	80.62
394.78	91.62
395.005	82.62
395.229	87.62
395.454	86.62
395.678	80.62
395.903	82.62
396.127	72.62
396.352	81.62
396.576	77.62
396.801	84.62
397.025	78.62
397.249	89.62
397.474	80.62
397.698	71.62
397.922	81.62
398.147	90.62
398.371	88.62
398.595	88.62
398.82	77.62
399.044	71.62
399.268	85.62
399.492	80.62
399.717	93.62
399.941	92.62
400.165	82.62
400.389	78.62
400.613	83.62
400.837	81.62
401.062	76.62
401.286	80.62
401.51	74.62
401.734	83.62
401.958	78.62
402.182	85.62
402.406	92.62
402.63	71.62
402.854	100.62
403.078	88.62
403.302	79.62
403.526	74.62
403.75	82.62
403.974	84.62
404.198	88.62
404.422	77.62
404.645	83.62
404.869	78.62
405.093	74.62
405.317	76.62
405.541	87.62
405.765	84.62
405.988	76.62
406.212	92.62
406.436	89.62
406.66	97.62
406.883	76.62
407.107	76.62
407.331	77.62
407.555	63.62
407.778	78.62
408.002	83.62
408.226	79.62
408.449	81.62
408.673	84.62
408.896	77.62
409.12	92.62
409.344	88.62
409.567	67.62
409.791	80.62
410.014	90.62
410.238	88.62
410.461	77.62
410.685	78.62
410.908	75.62
411.132	74.62
411.355	91.62
411.578	80.62
411.802	90.62
412.025	83.62
412.249	86.62
412.472	67.62
412.695	84.62
412.919	78.62
413.142	77.62
413.365	81.62
413.589	84.62
413.812	89.62
414.035	68.62
414.258	76.62
414.482	93.62
414.705	86.62
414.928	89.62
415.151	68.62
415.374	84.62
415.597	81.62
415.821	89.62
416.044	99.62
416.267	91.62
416.49	74.62
416.713	75.62
416.936	81.62
417.159	80.62
417.382	86.62
417.605	89.62
417.828	89.62
418.051	73.62
418.274	84.62
418.497	79.62
418.72	76.62
418.943	86.62
419.166	79.62
419.389	85.62
419.611	83.62
419.834	85.62
420.057	96.62
420.28	96.62
420.503	89.62
420.726	78.62
420.948	88.62
421.171	76.62
421.394	80.62
421.617	78.62
421.839	76.62
422.062	74.62
422.285	83.62
422.507	79.62
422.73	85.62
422.953	70.62
423.175	78.62
423.398	83.62
423.621	80.62
423.843	100.62
424.066	77.62
424.288	78.62
424.511	87.62
424.733	84.62
424.956	81.62
425.178	99.62
425.401	78.62
425.623	77.62
425.846	86.62
426.068	85.62
426.291	86.62
426.513	81.62
426.735	77.62
426.958	77.62
427.18	84.62
427.402	68.62
427.625	74.62
427.847	84.62
428.069	76.62
428.292	77.62
428.514	90.62
428.736	86.62
428.958	68.62
429.181	83.62
429.403	82.62
429.625	75.62
429.847	90.62
430.069	87.62
430.292	77.62
430.514	85.62
430.736	80.62
430.958	100.62
431.18	69.62
431.402	74.62
431.624	90.62
431.846	71.62
432.068	84.62
432.29	92.62
432.512	72.62
432.734	85.62
432.956	99.62
433.178	68.62
433.4	70.62
433.622	88.62
433.844	90.62
434.066	75.62
434.287	77.62
434.509	73.62
434.731	70.62
434.953	68.62
435.175	60.62
435.397	80.62
435.618	82.62
435.84	94.62
436.062	78.62
436.284	85.62
436.505	77.62
436.727	76.62
436.949	88.62
437.17	81.62
437.392	73.62
437.614	73.62
437.835	71.62
438.057	72.62
438.278	86.62
438.5	99.62
438.721	84.62
438.943	99.62
439.165	68.62
439.386	81.62
439.608	84.62
439.829	83.62
440.05	82.62
440.272	77.62
440.493	77.62
440.715	86.62
440.936	93.62
441.158	80.62
441.379	84.62
441.6	64.62
441.822	74.62
442.043	80.62
442.264	89.62
442.486	76.62
442.707	70.62
442.928	81.62
443.149	65.62
443.371	74.62
443.592	83.62
443.813	94.62
444.034	74.62
444.255	93.62
444.476	71.62
444.698	76.62
444.919	77.62
445.14	151.62
445.361	121.62
445.582	82.62
445.803	81.62
446.024	73.62
446.245	88.62
446.466	74.62
446.687	68.62
446.908	92.62
447.129	68.62
447.35	81.62
447.571	77.62
447.792	83.62
448.013	89.62
448.234	88.62
448.455	88.62
448.675	69.62
448.896	72.62
449.117	84.62
449.338	88.62
449.559	69.62
449.779	83.62
450	70.62
450.221	89.62
450.442	92.62
450.662	79.62
450.883	88.62
451.104	76.62
451.324	85.62
451.545	87.62
451.766	96.62
451.986	83.62
452.207	89.62
452.428	80.62
452.648	92.62
452.869	91.62
453.089	88.62
453.31	75.62
453.53	86.62
453.751	85.62
453.971	70.62
454.192	87.62
454.412	80.62
454.633	75.62
454.853	77.62
455.073	76.62
455.294	92.62
455.514	85.62
455.734	82.62
455.955	78.62
456.175	85.62
456.395	59.62
456.616	82.62
456.836	81.62
457.056	85.62
457.276	74.62
457.497	89.62
457.717	77.62
457.937	86.62
458.157	78.62
458.377	91.62
458.598	70.62
458.818	78.62
459.038	77.62
459.258	76.62
459.478	86.62
459.698	78.62
459.918	82.62
460.138	91.62
460.358	92.62
460.578	76.62
460.798	81.62
461.018	72.62
461.238	74.62
461.458	101.62
461.678	77.62
461.898	66.62
462.118	93.62
462.338	88.62
462.558	84.62
462.777	88.62
462.997	78.62
463.217	91.62
463.437	78.62
463.657	94.62
463.876	89.62
464.096	86.62
464.316	76.62
464.536	86.62
464.755	89.62
464.975	85.62
465.195	89.62
465.414	80.62
465.634	84.62
465.854	80.62
466.073	84.62
466.293	94.62
466.512	88.62
466.732	89.62
466.951	96.62
467.171	81.62
467.391	76.62
467.61	79.62
467.829	78.62
468.049	83.62
468.268	96.62
468.488	81.62
468.707	74.62
468.927	94.62
469.146	88.62
469.365	76.62
469.585	85.62
469.804	93.62
470.023	102.62
470.243	78.62
470.462	95.62
470.681	74.62
470.901	74.62
471.12	81.62
471.339	76.62
471.558	87.62
471.777	87.62
471.997	70.62
472.216	78.62
472.435	80.62
472.654	81.62
472.873	83.62
473.092	68.62
473.311	90.62
473.53	95.62
473.749	76.62
473.968	84.62
474.187	85.62
474.406	87.62
474.625	84.62
474.844	72.62
475.063	74.62
475.282	69.62
475.501	71.62
475.72	99.62
475.939	91.62
476.158	91.62
476.377	86.62
476.596	82.62
476.814	77.62
477.033	91.62
477.252	77.62
477.471	85.62
477.69	81.62
477.908	90.62
478.127	80.62
478.346	81.62
478.564	82.62
478.783	89.62
479.002	83.62
479.22	96.62
479.439	94.62
479.658	85.62
479.876	93.62
480.095	83.62
480.313	91.62
480.532	96.62
480.751	75.62
480.969	67.62
481.188	84.62
481.406	75.62
481.624	65.62
481.843	78.62
482.061	74.62
482.28	87.62
482.498	79.62
482.717	74.62
482.935	94.62
483.153	97.62
483.372	89.62
483.59	73.62
483.808	90.62
484.027	76.62
484.245	98.62
484.463	78.62
484.681	85.62
484.9	84.62
485.118	72.62
485.336	77.62
485.554	92.62
485.772	91.62
485.99	74.62
486.209	78.62
486.427	83.62
486.645	86.62
486.863	93.62
487.081	85.62
487.299	98.62
487.517	94.62
487.735	78.62
487.953	88.62
488.171	98.62
488.389	82.62
488.607	72.62
488.825	84.62
489.043	80.62
489.261	86.62
489.479	70.62
489.696	93.62
489.914	84.62
490.132	80.62
490.35	73.62
490.568	81.62
490.786	78.62
491.003	76.62
491.221	76.62
491.439	90.62
491.657	84.62
491.874	71.62
492.092	74.62
492.31	83.62
492.527	80.62
492.745	76.62
492.963	82.62
493.18	82.62
493.398	81.62
493.615	79.62
493.833	80.62
494.05	92.62
494.268	84.62
494.485	82.62
494.703	88.62
494.92	94.62
495.138	83.62
495.355	86.62
495.573	89.62
495.79	78.62
496.008	80.62
496.225	75.62
496.442	77.62
496.66	73.62
496.877	86.62
497.094	85.62
497.312	77.62
497.529	73.62
497.746	96.62
497.963	82.62
498.181	95.62
498.398	82.62
498.615	92.62
498.832	88.62
499.049	97.62
499.267	97.62
499.484	82.62
499.701	68.62
499.918	96.62
500.135	85.62
500.352	91.62
500.569	88.62
500.786	80.62
501.003	74.62
501.22	81.62
501.437	90.62
501.654	80.62
501.871	77.62
502.088	93.62
502.305	85.62
502.522	76.62
502.739	69.62
502.956	68.62
503.172	88.62
503.389	82.62
503.606	79.62
503.823	88.62
504.04	88.62
504.256	87.62
504.473	87.62
504.69	88.62
504.907	84.62
505.123	84.62
505.34	85.62
505.557	77.62
505.773	88.62
505.99	86.62
506.207	83.62
506.423	83.62
506.64	100.62
506.856	85.62
507.073	89.62
507.289	84.62
507.506	76.62
507.722	73.62
507.939	80.62
508.155	88.62
508.372	101.62
508.588	77.62
508.805	83.62
509.021	91.62
509.238	91.62
509.454	89.62
509.67	75.62
509.887	88.62
510.103	83.62
510.319	65.62
510.536	80.62
510.752	84.62
510.968	89.62
511.184	81.62
511.401	83.62
511.617	85.62
511.833	71.62
512.049	79.62
512.265	79.62
512.481	90.62
512.698	84.62
512.914	97.62
513.13	88.62
513.346	86.62
513.562	87.62
513.778	82.62
513.994	65.62
514.21	84.62
514.426	86.62
514.642	75.62
514.858	98.62
515.074	100.62
515.29	80.62
515.506	78.62
515.721	76.62
515.937	91.62
516.153	89.62
516.369	90.62
516.585	82.62
516.801	75.62
517.016	94.62
517.232	81.62
517.448	86.62
517.664	77.62
517.879	82.62
518.095	88.62
518.311	95.62
518.527	87.62
518.742	83.62
518.958	87.62
519.173	80.62
519.389	77.62
519.605	88.62
519.82	66.62
520.036	100.62
