Data from Background_1_HRD10591_00005.txt Node
Date: Wed Nov 05 14:39:00 EST 2025
User: Yrep
Spectrometer: HR+D1059
Trigger mode: 1
Integration Time (sec): 1.000000E-1
Scans to average: 1
Electric dark correction enabled: true
Nonlinearity correction enabled: false
Boxcar width: 0
XAxis mode: Wavelengths
Number of Pixels in Spectrum: 2048
>>>>>Begin Spectral Data<<<<<
223.165	-15.75
223.4	-15.75
223.635	-15.75
223.869	-12.75
224.104	-7.75
224.338	-19.75
224.573	-12.75
224.808	-12.75
225.042	-15.75
225.277	-5.75
225.511	-7.75
225.746	1.25
225.98	7.25
226.215	9.25
226.449	10.25
226.683	24.25
226.918	29.25
227.152	29.25
227.387	22.25
227.621	40.25
227.856	38.25
228.09	46.25
228.324	39.25
228.559	47.25
228.793	54.25
229.027	66.25
229.262	56.25
229.496	68.25
229.73	85.25
229.964	67.25
230.199	75.25
230.433	75.25
230.667	79.25
230.901	78.25
231.136	82.25
231.37	82.25
231.604	88.25
231.838	95.25
232.072	82.25
232.306	86.25
232.541	87.25
232.775	90.25
233.009	78.25
233.243	86.25
233.477	88.25
233.711	80.25
233.945	89.25
234.179	78.25
234.413	74.25
234.647	92.25
234.881	79.25
235.115	82.25
235.349	68.25
235.583	68.25
235.817	66.25
236.051	79.25
236.285	83.25
236.519	63.25
236.753	63.25
236.987	74.25
237.221	72.25
237.455	55.25
237.689	76.25
237.922	85.25
238.156	66.25
238.39	73.25
238.624	62.25
238.858	74.25
239.091	74.25
239.325	90.25
239.559	80.25
239.793	72.25
240.027	77.25
240.26	74.25
240.494	78.25
240.728	63.25
240.961	82.25
241.195	81.25
241.429	83.25
241.662	77.25
241.896	74.25
242.13	64.25
242.363	84.25
242.597	84.25
242.83	77.25
243.064	70.25
243.298	90.25
243.531	76.25
243.765	82.25
243.998	77.25
244.232	78.25
244.465	77.25
244.699	83.25
244.932	74.25
245.166	89.25
245.399	84.25
245.633	72.25
245.866	89.25
246.099	66.25
246.333	72.25
246.566	89.25
246.8	65.25
247.033	76.25
247.266	76.25
247.5	71.25
247.733	79.25
247.966	65.25
248.2	71.25
248.433	88.25
248.666	93.25
248.899	82.25
249.133	71.25
249.366	88.25
249.599	84.25
249.832	84.25
250.066	79.25
250.299	68.25
250.532	84.25
250.765	90.25
250.998	80.25
251.231	69.25
251.465	85.25
251.698	88.25
251.931	80.25
252.164	88.25
252.397	76.25
252.63	66.25
252.863	86.25
253.096	77.25
253.329	91.25
253.562	82.25
253.795	88.25
254.028	90.25
254.261	83.25
254.494	84.25
254.727	83.25
254.96	83.25
255.193	80.25
255.426	74.25
255.659	79.25
255.892	92.25
256.124	84.25
256.357	68.25
256.59	86.25
256.823	78.25
257.056	84.25
257.289	74.25
257.521	77.25
257.754	76.25
257.987	78.25
258.22	83.25
258.452	83.25
258.685	81.25
258.918	77.25
259.151	72.25
259.383	86.25
259.616	72.25
259.849	82.25
260.081	82.25
260.314	86.25
260.547	83.25
260.779	67.25
261.012	63.25
261.244	70.25
261.477	70.25
261.71	82.25
261.942	73.25
262.175	83.25
262.407	84.25
262.64	75.25
262.872	87.25
263.105	76.25
263.337	88.25
263.57	90.25
263.802	87.25
264.035	94.25
264.267	89.25
264.499	80.25
264.732	96.25
264.964	97.25
265.197	87.25
265.429	74.25
265.661	80.25
265.894	78.25
266.126	91.25
266.358	89.25
266.591	75.25
266.823	82.25
267.055	73.25
267.287	91.25
267.52	74.25
267.752	90.25
267.984	85.25
268.216	74.25
268.448	85.25
268.681	102.25
268.913	83.25
269.145	90.25
269.377	83.25
269.609	81.25
269.841	87.25
270.073	83.25
270.306	98.25
270.538	91.25
270.77	84.25
271.002	79.25
271.234	74.25
271.466	78.25
271.698	86.25
271.93	88.25
272.162	80.25
272.394	76.25
272.626	84.25
272.858	90.25
273.09	78.25
273.322	72.25
273.553	73.25
273.785	86.25
274.017	87.25
274.249	75.25
274.481	84.25
274.713	85.25
274.945	70.25
275.176	84.25
275.408	82.25
275.64	77.25
275.872	81.25
276.104	75.25
276.335	92.25
276.567	72.25
276.799	89.25
277.031	78.25
277.262	91.25
277.494	74.25
277.726	76.25
277.957	78.25
278.189	83.25
278.421	76.25
278.652	87.25
278.884	84.25
279.115	73.25
279.347	84.25
279.579	82.25
279.81	75.25
280.042	81.25
280.273	83.25
280.505	86.25
280.736	77.25
280.968	78.25
281.199	84.25
281.431	88.25
281.662	95.25
281.894	80.25
282.125	91.25
282.356	78.25
282.588	79.25
282.819	81.25
283.051	86.25
283.282	91.25
283.513	102.25
283.745	80.25
283.976	86.25
284.207	89.25
284.439	78.25
284.67	85.25
284.901	91.25
285.132	91.25
285.364	73.25
285.595	82.25
285.826	71.25
286.057	74.25
286.288	87.25
286.52	73.25
286.751	98.25
286.982	88.25
287.213	79.25
287.444	82.25
287.675	79.25
287.906	83.25
288.138	85.25
288.369	76.25
288.6	84.25
288.831	89.25
289.062	82.25
289.293	67.25
289.524	90.25
289.755	68.25
289.986	92.25
290.217	82.25
290.448	84.25
290.679	72.25
290.91	84.25
291.141	102.25
291.371	91.25
291.602	88.25
291.833	87.25
292.064	76.25
292.295	86.25
292.526	93.25
292.757	85.25
292.987	89.25
293.218	85.25
293.449	76.25
293.68	97.25
293.91	91.25
294.141	76.25
294.372	76.25
294.603	74.25
294.833	90.25
295.064	84.25
295.295	74.25
295.525	65.25
295.756	92.25
295.987	74.25
296.217	78.25
296.448	97.25
296.679	88.25
296.909	104.25
297.14	88.25
297.37	90.25
297.601	83.25
297.831	76.25
298.062	91.25
298.292	75.25
298.523	75.25
298.753	87.25
298.984	95.25
299.214	80.25
299.445	88.25
299.675	78.25
299.905	85.25
300.136	69.25
300.366	88.25
300.597	87.25
300.827	81.25
301.057	77.25
301.288	84.25
301.518	89.25
301.748	92.25
301.979	98.25
302.209	79.25
302.439	89.25
302.669	66.25
302.9	77.25
303.13	83.25
303.36	88.25
303.59	96.25
303.82	89.25
304.051	92.25
304.281	83.25
304.511	89.25
304.741	80.25
304.971	81.25
305.201	89.25
305.431	85.25
305.661	87.25
305.891	82.25
306.121	84.25
306.352	87.25
306.582	93.25
306.812	73.25
307.042	91.25
307.272	91.25
307.502	78.25
307.731	90.25
307.961	63.25
308.191	83.25
308.421	92.25
308.651	90.25
308.881	87.25
309.111	90.25
309.341	82.25
309.571	75.25
309.8	89.25
310.03	72.25
310.26	80.25
310.49	82.25
310.72	86.25
310.949	74.25
311.179	68.25
311.409	78.25
311.639	94.25
311.868	98.25
312.098	84.25
312.328	96.25
312.557	88.25
312.787	77.25
313.017	90.25
313.246	86.25
313.476	82.25
313.706	86.25
313.935	95.25
314.165	93.25
314.394	94.25
314.624	90.25
314.853	95.25
315.083	79.25
315.312	87.25
315.542	88.25
315.771	84.25
316.001	75.25
316.23	80.25
316.46	85.25
316.689	74.25
316.919	80.25
317.148	83.25
317.377	96.25
317.607	91.25
317.836	78.25
318.065	67.25
318.295	83.25
318.524	90.25
318.753	94.25
318.983	81.25
319.212	78.25
319.441	86.25
319.67	73.25
319.9	88.25
320.129	90.25
320.358	79.25
320.587	88.25
320.816	83.25
321.046	66.25
321.275	93.25
321.504	87.25
321.733	96.25
321.962	88.25
322.191	81.25
322.42	79.25
322.649	80.25
322.878	84.25
323.108	72.25
323.337	66.25
323.566	79.25
323.795	86.25
324.024	76.25
324.253	87.25
324.482	88.25
324.71	79.25
324.939	72.25
325.168	89.25
325.397	86.25
325.626	79.25
325.855	82.25
326.084	86.25
326.313	90.25
326.542	83.25
326.77	91.25
326.999	86.25
327.228	80.25
327.457	90.25
327.686	92.25
327.914	95.25
328.143	88.25
328.372	91.25
328.6	90.25
328.829	77.25
329.058	82.25
329.287	74.25
329.515	76.25
329.744	82.25
329.972	72.25
330.201	81.25
330.43	96.25
330.658	89.25
330.887	82.25
331.115	79.25
331.344	66.25
331.572	82.25
331.801	96.25
332.03	89.25
332.258	73.25
332.486	84.25
332.715	72.25
332.943	68.25
333.172	84.25
333.4	77.25
333.629	79.25
333.857	88.25
334.085	95.25
334.314	84.25
334.542	93.25
334.771	92.25
334.999	77.25
335.227	75.25
335.455	72.25
335.684	78.25
335.912	88.25
336.14	87.25
336.369	84.25
336.597	95.25
336.825	82.25
337.053	79.25
337.281	76.25
337.51	79.25
337.738	82.25
337.966	78.25
338.194	85.25
338.422	87.25
338.65	104.25
338.878	82.25
339.106	84.25
339.334	80.25
339.562	80.25
339.79	98.25
340.018	85.25
340.246	86.25
340.474	82.25
340.702	82.25
340.93	76.25
341.158	81.25
341.386	79.25
341.614	77.25
341.842	69.25
342.07	82.25
342.298	88.25
342.526	76.25
342.754	94.25
342.981	104.25
343.209	59.25
343.437	83.25
343.665	70.25
343.893	81.25
344.12	87.25
344.348	76.25
344.576	84.25
344.804	79.25
345.031	76.25
345.259	68.25
345.487	83.25
345.714	91.25
345.942	84.25
346.17	84.25
346.397	75.25
346.625	101.25
346.853	94.25
347.08	90.25
347.308	82.25
347.535	73.25
347.763	92.25
347.99	78.25
348.218	96.25
348.445	85.25
348.673	78.25
348.9	92.25
349.128	85.25
349.355	84.25
349.583	78.25
349.81	95.25
350.037	73.25
350.265	78.25
350.492	84.25
350.72	86.25
350.947	92.25
351.174	74.25
351.402	82.25
351.629	83.25
351.856	81.25
352.083	76.25
352.311	91.25
352.538	78.25
352.765	96.25
352.992	82.25
353.22	74.25
353.447	74.25
353.674	77.25
353.901	88.25
354.128	96.25
354.355	87.25
354.583	91.25
354.81	80.25
355.037	90.25
355.264	79.25
355.491	87.25
355.718	97.25
355.945	69.25
356.172	87.25
356.399	79.25
356.626	91.25
356.853	82.25
357.08	82.25
357.307	89.25
357.534	102.25
357.761	85.25
357.988	89.25
358.215	67.25
358.441	87.25
358.668	85.25
358.895	83.25
359.122	92.25
359.349	79.25
359.576	77.25
359.802	74.25
360.029	88.25
360.256	102.25
360.483	83.25
360.709	74.25
360.936	91.25
361.163	85.25
361.39	74.25
361.616	63.25
361.843	96.25
362.07	81.25
362.296	68.25
362.523	76.25
362.749	79.25
362.976	77.25
363.203	86.25
363.429	77.25
363.656	91.25
363.882	83.25
364.109	90.25
364.335	92.25
364.562	81.25
364.788	83.25
365.015	84.25
365.241	95.25
365.468	81.25
365.694	88.25
365.92	95.25
366.147	96.25
366.373	76.25
366.599	84.25
366.826	81.25
367.052	82.25
367.278	99.25
367.505	81.25
367.731	87.25
367.957	74.25
368.184	78.25
368.41	88.25
368.636	84.25
368.862	79.25
369.089	76.25
369.315	73.25
369.541	88.25
369.767	79.25
369.993	88.25
370.219	83.25
370.445	93.25
370.672	94.25
370.898	71.25
371.124	76.25
371.35	79.25
371.576	81.25
371.802	97.25
372.028	86.25
372.254	77.25
372.48	78.25
372.706	78.25
372.932	81.25
373.158	78.25
373.384	76.25
373.61	84.25
373.835	82.25
374.061	82.25
374.287	83.25
374.513	91.25
374.739	84.25
374.965	87.25
375.191	74.25
375.416	97.25
375.642	70.25
375.868	84.25
376.094	83.25
376.319	79.25
376.545	76.25
376.771	81.25
376.997	89.25
377.222	95.25
377.448	73.25
377.674	73.25
377.899	83.25
378.125	80.25
378.35	86.25
378.576	91.25
378.802	82.25
379.027	74.25
379.253	84.25
379.478	93.25
379.704	86.25
379.929	84.25
380.155	80.25
380.38	84.25
380.606	91.25
380.831	65.25
381.057	80.25
381.282	76.25
381.507	91.25
381.733	79.25
381.958	82.25
382.184	81.25
382.409	76.25
382.634	77.25
382.86	74.25
383.085	88.25
383.31	81.25
383.535	73.25
383.761	93.25
383.986	90.25
384.211	71.25
384.436	79.25
384.662	91.25
384.887	69.25
385.112	80.25
385.337	83.25
385.562	82.25
385.787	80.25
386.013	87.25
386.238	109.25
386.463	90.25
386.688	83.25
386.913	86.25
387.138	80.25
387.363	83.25
387.588	89.25
387.813	80.25
388.038	86.25
388.263	78.25
388.488	88.25
388.713	73.25
388.938	78.25
389.163	83.25
389.387	78.25
389.612	82.25
389.837	75.25
390.062	68.25
390.287	100.25
390.512	79.25
390.736	79.25
390.961	83.25
391.186	79.25
391.411	85.25
391.636	71.25
391.86	86.25
392.085	77.25
392.31	74.25
392.534	74.25
392.759	84.25
392.984	92.25
393.208	79.25
393.433	81.25
393.658	79.25
393.882	79.25
394.107	88.25
394.331	77.25
394.556	76.25
394.78	85.25
395.005	84.25
395.229	66.25
395.454	82.25
395.678	79.25
395.903	90.25
396.127	82.25
396.352	86.25
396.576	86.25
396.801	80.25
397.025	92.25
397.249	87.25
397.474	89.25
397.698	75.25
397.922	78.25
398.147	75.25
398.371	73.25
398.595	83.25
398.82	78.25
399.044	81.25
399.268	71.25
399.492	82.25
399.717	79.25
399.941	83.25
400.165	76.25
400.389	99.25
400.613	67.25
400.837	75.25
401.062	78.25
401.286	77.25
401.51	95.25
401.734	92.25
401.958	75.25
402.182	63.25
402.406	69.25
402.63	76.25
402.854	79.25
403.078	85.25
403.302	86.25
403.526	73.25
403.75	86.25
403.974	81.25
404.198	69.25
404.422	77.25
404.645	80.25
404.869	83.25
405.093	76.25
405.317	78.25
405.541	70.25
405.765	79.25
405.988	75.25
406.212	85.25
406.436	76.25
406.66	74.25
406.883	80.25
407.107	86.25
407.331	86.25
407.555	87.25
407.778	73.25
408.002	82.25
408.226	62.25
408.449	82.25
408.673	74.25
408.896	84.25
409.12	69.25
409.344	74.25
409.567	84.25
409.791	67.25
410.014	68.25
410.238	73.25
410.461	72.25
410.685	93.25
410.908	83.25
411.132	74.25
411.355	89.25
411.578	71.25
411.802	82.25
412.025	78.25
412.249	86.25
412.472	82.25
412.695	72.25
412.919	80.25
413.142	84.25
413.365	80.25
413.589	76.25
413.812	79.25
414.035	96.25
414.258	67.25
414.482	83.25
414.705	73.25
414.928	84.25
415.151	87.25
415.374	76.25
415.597	89.25
415.821	86.25
416.044	86.25
416.267	61.25
416.49	84.25
416.713	96.25
416.936	68.25
417.159	76.25
417.382	75.25
417.605	81.25
417.828	82.25
418.051	79.25
418.274	85.25
418.497	88.25
418.72	66.25
418.943	74.25
419.166	86.25
419.389	80.25
419.611	87.25
419.834	80.25
420.057	82.25
420.28	68.25
420.503	86.25
420.726	98.25
420.948	80.25
421.171	89.25
421.394	80.25
421.617	97.25
421.839	86.25
422.062	78.25
422.285	65.25
422.507	74.25
422.73	80.25
422.953	83.25
423.175	76.25
423.398	83.25
423.621	82.25
423.843	87.25
424.066	83.25
424.288	80.25
424.511	82.25
424.733	85.25
424.956	74.25
425.178	77.25
425.401	78.25
425.623	79.25
425.846	71.25
426.068	81.25
426.291	73.25
426.513	80.25
426.735	85.25
426.958	93.25
427.18	80.25
427.402	86.25
427.625	81.25
427.847	79.25
428.069	78.25
428.292	67.25
428.514	86.25
428.736	75.25
428.958	67.25
429.181	71.25
429.403	90.25
429.625	72.25
429.847	81.25
430.069	61.25
430.292	81.25
430.514	72.25
430.736	75.25
430.958	95.25
431.18	91.25
431.402	81.25
431.624	91.25
431.846	86.25
432.068	99.25
432.29	78.25
432.512	89.25
432.734	96.25
432.956	75.25
433.178	74.25
433.4	84.25
433.622	99.25
433.844	84.25
434.066	78.25
434.287	72.25
434.509	67.25
434.731	76.25
434.953	75.25
435.175	78.25
435.397	79.25
435.618	70.25
435.84	92.25
436.062	79.25
436.284	98.25
436.505	91.25
436.727	72.25
436.949	75.25
437.17	96.25
437.392	72.25
437.614	74.25
437.835	79.25
438.057	75.25
438.278	74.25
438.5	76.25
438.721	74.25
438.943	64.25
439.165	94.25
439.386	71.25
439.608	83.25
439.829	81.25
440.05	87.25
440.272	94.25
440.493	68.25
440.715	79.25
440.936	73.25
441.158	95.25
441.379	94.25
441.6	87.25
441.822	94.25
442.043	87.25
442.264	62.25
442.486	78.25
442.707	77.25
442.928	81.25
443.149	82.25
443.371	92.25
443.592	93.25
443.813	97.25
444.034	80.25
444.255	76.25
444.476	78.25
444.698	78.25
444.919	84.25
445.14	151.25
445.361	108.25
445.582	89.25
445.803	88.25
446.024	86.25
446.245	80.25
446.466	81.25
446.687	83.25
446.908	75.25
447.129	92.25
447.35	91.25
447.571	88.25
447.792	97.25
448.013	87.25
448.234	66.25
448.455	84.25
448.675	66.25
448.896	78.25
449.117	82.25
449.338	80.25
449.559	91.25
449.779	88.25
450	83.25
450.221	66.25
450.442	79.25
450.662	76.25
450.883	61.25
451.104	74.25
451.324	80.25
451.545	74.25
451.766	79.25
451.986	82.25
452.207	79.25
452.428	93.25
452.648	77.25
452.869	84.25
453.089	90.25
453.31	74.25
453.53	81.25
453.751	83.25
453.971	79.25
454.192	83.25
454.412	79.25
454.633	77.25
454.853	71.25
455.073	67.25
455.294	83.25
455.514	78.25
455.734	83.25
455.955	85.25
456.175	74.25
456.395	80.25
456.616	67.25
456.836	74.25
457.056	78.25
457.276	88.25
457.497	92.25
457.717	82.25
457.937	83.25
458.157	74.25
458.377	75.25
458.598	75.25
458.818	83.25
459.038	81.25
459.258	71.25
459.478	82.25
459.698	82.25
459.918	79.25
460.138	87.25
460.358	83.25
460.578	62.25
460.798	84.25
461.018	88.25
461.238	76.25
461.458	76.25
461.678	79.25
461.898	67.25
462.118	76.25
462.338	76.25
462.558	77.25
462.777	80.25
462.997	77.25
463.217	89.25
463.437	82.25
463.657	78.25
463.876	81.25
464.096	75.25
464.316	86.25
464.536	78.25
464.755	74.25
464.975	81.25
465.195	89.25
465.414	90.25
465.634	83.25
465.854	90.25
466.073	76.25
466.293	83.25
466.512	82.25
466.732	74.25
466.951	74.25
467.171	87.25
467.391	72.25
467.61	83.25
467.829	82.25
468.049	94.25
468.268	72.25
468.488	86.25
468.707	81.25
468.927	83.25
469.146	78.25
469.365	86.25
469.585	92.25
469.804	76.25
470.023	96.25
470.243	90.25
470.462	68.25
470.681	74.25
470.901	69.25
471.12	84.25
471.339	85.25
471.558	86.25
471.777	72.25
471.997	84.25
472.216	104.25
472.435	76.25
472.654	79.25
472.873	94.25
473.092	99.25
473.311	74.25
473.53	64.25
473.749	69.25
473.968	92.25
474.187	72.25
474.406	85.25
474.625	79.25
474.844	97.25
475.063	94.25
475.282	66.25
475.501	80.25
475.72	78.25
475.939	79.25
476.158	72.25
476.377	92.25
476.596	70.25
476.814	100.25
477.033	84.25
477.252	82.25
477.471	73.25
477.69	83.25
477.908	67.25
478.127	83.25
478.346	76.25
478.564	70.25
478.783	87.25
479.002	72.25
479.22	94.25
479.439	79.25
479.658	99.25
479.876	79.25
480.095	88.25
480.313	83.25
480.532	78.25
480.751	92.25
480.969	87.25
481.188	76.25
481.406	94.25
481.624	92.25
481.843	78.25
482.061	85.25
482.28	82.25
482.498	94.25
482.717	86.25
482.935	99.25
483.153	66.25
483.372	93.25
483.59	78.25
483.808	83.25
484.027	82.25
484.245	76.25
484.463	76.25
484.681	82.25
484.9	98.25
485.118	95.25
485.336	78.25
485.554	78.25
485.772	79.25
485.99	85.25
486.209	77.25
486.427	105.25
486.645	81.25
486.863	81.25
487.081	87.25
487.299	80.25
487.517	76.25
487.735	76.25
487.953	83.25
488.171	77.25
488.389	83.25
488.607	92.25
488.825	78.25
489.043	88.25
489.261	83.25
489.479	76.25
489.696	69.25
489.914	79.25
490.132	71.25
490.35	92.25
490.568	80.25
490.786	72.25
491.003	71.25
491.221	73.25
491.439	83.25
491.657	79.25
491.874	86.25
492.092	102.25
492.31	86.25
492.527	74.25
492.745	72.25
492.963	91.25
493.18	71.25
493.398	90.25
493.615	83.25
493.833	78.25
494.05	70.25
494.268	86.25
494.485	89.25
494.703	89.25
494.92	69.25
495.138	91.25
495.355	82.25
495.573	70.25
495.79	63.25
496.008	88.25
496.225	76.25
496.442	92.25
496.66	77.25
496.877	60.25
497.094	68.25
497.312	86.25
497.529	72.25
497.746	99.25
497.963	77.25
498.181	81.25
498.398	82.25
498.615	80.25
498.832	68.25
499.049	87.25
499.267	94.25
499.484	67.25
499.701	92.25
499.918	78.25
500.135	100.25
500.352	94.25
500.569	93.25
500.786	80.25
501.003	81.25
501.22	78.25
501.437	91.25
501.654	74.25
501.871	70.25
502.088	80.25
502.305	76.25
502.522	79.25
502.739	90.25
502.956	92.25
503.172	87.25
503.389	92.25
503.606	88.25
503.823	81.25
504.04	66.25
504.256	94.25
504.473	109.25
504.69	73.25
504.907	85.25
505.123	79.25
505.34	84.25
505.557	80.25
505.773	79.25
505.99	87.25
506.207	79.25
506.423	76.25
506.64	81.25
506.856	86.25
507.073	79.25
507.289	90.25
507.506	86.25
507.722	94.25
507.939	76.25
508.155	87.25
508.372	72.25
508.588	83.25
508.805	74.25
509.021	77.25
509.238	96.25
509.454	91.25
509.67	80.25
509.887	81.25
510.103	85.25
510.319	90.25
510.536	83.25
510.752	81.25
510.968	91.25
511.184	91.25
511.401	99.25
511.617	76.25
511.833	77.25
512.049	76.25
512.265	75.25
512.481	94.25
512.698	87.25
512.914	80.25
513.13	76.25
513.346	85.25
513.562	71.25
513.778	86.25
513.994	86.25
514.21	91.25
514.426	78.25
514.642	85.25
514.858	94.25
515.074	75.25
515.29	77.25
515.506	91.25
515.721	72.25
515.937	90.25
516.153	89.25
516.369	86.25
516.585	88.25
516.801	83.25
517.016	65.25
517.232	70.25
517.448	90.25
517.664	86.25
517.879	82.25
518.095	82.25
518.311	91.25
518.527	90.25
518.742	85.25
518.958	81.25
519.173	88.25
519.389	84.25
519.605	91.25
519.82	102.25
520.036	88.25
