Data from Background_1_HRD10591_00023.txt Node
Date: Wed Nov 05 14:39:10 EST 2025
User: Yrep
Spectrometer: HR+D1059
Trigger mode: 1
Integration Time (sec): 1.000000E-1
Scans to average: 1
Electric dark correction enabled: true
Nonlinearity correction enabled: false
Boxcar width: 0
XAxis mode: Wavelengths
Number of Pixels in Spectrum: 2048
>>>>>Begin Spectral Data<<<<<
223.165	-6.75
223.4	-6.75
223.635	-6.75
223.869	-26.75
224.104	-22.75
224.338	-17.75
224.573	-8.75
224.808	-7.75
225.042	-7.75
225.277	-7.75
225.511	-0.75
225.746	4.25
225.98	4.25
226.215	9.25
226.449	8.25
226.683	25.25
226.918	23.25
227.152	32.25
227.387	43.25
227.621	43.25
227.856	48.25
228.09	39.25
228.324	45.25
228.559	53.25
228.793	59.25
229.027	73.25
229.262	57.25
229.496	71.25
229.73	81.25
229.964	70.25
230.199	69.25
230.433	69.25
230.667	76.25
230.901	75.25
231.136	81.25
231.37	81.25
231.604	75.25
231.838	89.25
232.072	96.25
232.306	80.25
232.541	72.25
232.775	77.25
233.009	81.25
233.243	85.25
233.477	80.25
233.711	79.25
233.945	80.25
234.179	69.25
234.413	82.25
234.647	91.25
234.881	88.25
235.115	80.25
235.349	94.25
235.583	64.25
235.817	88.25
236.051	72.25
236.285	82.25
236.519	84.25
236.753	73.25
236.987	66.25
237.221	75.25
237.455	76.25
237.689	67.25
237.922	82.25
238.156	67.25
238.39	73.25
238.624	78.25
238.858	75.25
239.091	72.25
239.325	84.25
239.559	81.25
239.793	72.25
240.027	81.25
240.26	84.25
240.494	83.25
240.728	64.25
240.961	80.25
241.195	73.25
241.429	87.25
241.662	90.25
241.896	76.25
242.13	71.25
242.363	77.25
242.597	90.25
242.83	84.25
243.064	79.25
243.298	70.25
243.531	80.25
243.765	82.25
243.998	76.25
244.232	65.25
244.465	77.25
244.699	83.25
244.932	87.25
245.166	80.25
245.399	60.25
245.633	74.25
245.866	80.25
246.099	68.25
246.333	91.25
246.566	84.25
246.8	89.25
247.033	83.25
247.266	90.25
247.5	74.25
247.733	76.25
247.966	74.25
248.2	66.25
248.433	85.25
248.666	75.25
248.899	66.25
249.133	77.25
249.366	90.25
249.599	82.25
249.832	91.25
250.066	78.25
250.299	90.25
250.532	91.25
250.765	75.25
250.998	67.25
251.231	68.25
251.465	68.25
251.698	88.25
251.931	78.25
252.164	78.25
252.397	69.25
252.63	82.25
252.863	70.25
253.096	89.25
253.329	73.25
253.562	79.25
253.795	72.25
254.028	92.25
254.261	89.25
254.494	92.25
254.727	79.25
254.96	73.25
255.193	70.25
255.426	81.25
255.659	75.25
255.892	98.25
256.124	84.25
256.357	71.25
256.59	74.25
256.823	77.25
257.056	80.25
257.289	86.25
257.521	64.25
257.754	76.25
257.987	78.25
258.22	104.25
258.452	104.25
258.685	97.25
258.918	83.25
259.151	89.25
259.383	71.25
259.616	87.25
259.849	67.25
260.081	89.25
260.314	80.25
260.547	80.25
260.779	79.25
261.012	85.25
261.244	90.25
261.477	76.25
261.71	72.25
261.942	77.25
262.175	69.25
262.407	75.25
262.64	87.25
262.872	90.25
263.105	82.25
263.337	74.25
263.57	77.25
263.802	75.25
264.035	81.25
264.267	82.25
264.499	100.25
264.732	85.25
264.964	96.25
265.197	93.25
265.429	95.25
265.661	81.25
265.894	98.25
266.126	86.25
266.358	81.25
266.591	87.25
266.823	76.25
267.055	76.25
267.287	73.25
267.52	82.25
267.752	88.25
267.984	86.25
268.216	74.25
268.448	95.25
268.681	98.25
268.913	88.25
269.145	86.25
269.377	88.25
269.609	77.25
269.841	80.25
270.073	94.25
270.306	91.25
270.538	85.25
270.77	75.25
271.002	88.25
271.234	89.25
271.466	88.25
271.698	96.25
271.93	69.25
272.162	78.25
272.394	86.25
272.626	85.25
272.858	78.25
273.09	95.25
273.322	80.25
273.553	73.25
273.785	91.25
274.017	79.25
274.249	85.25
274.481	86.25
274.713	85.25
274.945	85.25
275.176	93.25
275.408	89.25
275.64	82.25
275.872	82.25
276.104	77.25
276.335	84.25
276.567	82.25
276.799	81.25
277.031	84.25
277.262	96.25
277.494	82.25
277.726	92.25
277.957	79.25
278.189	79.25
278.421	77.25
278.652	75.25
278.884	85.25
279.115	76.25
279.347	78.25
279.579	84.25
279.81	96.25
280.042	77.25
280.273	83.25
280.505	76.25
280.736	82.25
280.968	80.25
281.199	79.25
281.431	89.25
281.662	92.25
281.894	87.25
282.125	75.25
282.356	90.25
282.588	92.25
282.819	90.25
283.051	90.25
283.282	81.25
283.513	77.25
283.745	81.25
283.976	81.25
284.207	83.25
284.439	85.25
284.67	84.25
284.901	79.25
285.132	65.25
285.364	80.25
285.595	88.25
285.826	102.25
286.057	84.25
286.288	91.25
286.52	79.25
286.751	79.25
286.982	89.25
287.213	71.25
287.444	84.25
287.675	89.25
287.906	83.25
288.138	81.25
288.369	70.25
288.6	81.25
288.831	61.25
289.062	85.25
289.293	99.25
289.524	71.25
289.755	71.25
289.986	87.25
290.217	73.25
290.448	89.25
290.679	91.25
290.91	82.25
291.141	90.25
291.371	92.25
291.602	79.25
291.833	83.25
292.064	76.25
292.295	87.25
292.526	93.25
292.757	90.25
292.987	91.25
293.218	75.25
293.449	85.25
293.68	99.25
293.91	93.25
294.141	80.25
294.372	90.25
294.603	82.25
294.833	95.25
295.064	78.25
295.295	91.25
295.525	85.25
295.756	79.25
295.987	93.25
296.217	86.25
296.448	94.25
296.679	88.25
296.909	85.25
297.14	92.25
297.37	92.25
297.601	89.25
297.831	99.25
298.062	87.25
298.292	93.25
298.523	77.25
298.753	79.25
298.984	95.25
299.214	92.25
299.445	87.25
299.675	72.25
299.905	89.25
300.136	87.25
300.366	91.25
300.597	83.25
300.827	88.25
301.057	94.25
301.288	75.25
301.518	73.25
301.748	68.25
301.979	97.25
302.209	90.25
302.439	82.25
302.669	69.25
302.9	89.25
303.13	83.25
303.36	89.25
303.59	95.25
303.82	88.25
304.051	93.25
304.281	100.25
304.511	90.25
304.741	92.25
304.971	95.25
305.201	88.25
305.431	93.25
305.661	84.25
305.891	89.25
306.121	74.25
306.352	84.25
306.582	95.25
306.812	78.25
307.042	73.25
307.272	85.25
307.502	93.25
307.731	81.25
307.961	80.25
308.191	85.25
308.421	98.25
308.651	95.25
308.881	87.25
309.111	80.25
309.341	81.25
309.571	75.25
309.8	89.25
310.03	77.25
310.26	96.25
310.49	94.25
310.72	83.25
310.949	81.25
311.179	96.25
311.409	79.25
311.639	84.25
311.868	74.25
312.098	87.25
312.328	76.25
312.557	80.25
312.787	83.25
313.017	87.25
313.246	90.25
313.476	88.25
313.706	80.25
313.935	79.25
314.165	76.25
314.394	90.25
314.624	93.25
314.853	79.25
315.083	83.25
315.312	85.25
315.542	93.25
315.771	83.25
316.001	82.25
316.23	91.25
316.46	78.25
316.689	95.25
316.919	93.25
317.148	91.25
317.377	83.25
317.607	93.25
317.836	77.25
318.065	77.25
318.295	80.25
318.524	85.25
318.753	86.25
318.983	87.25
319.212	87.25
319.441	92.25
319.67	98.25
319.9	78.25
320.129	104.25
320.358	82.25
320.587	73.25
320.816	91.25
321.046	83.25
321.275	87.25
321.504	88.25
321.733	88.25
321.962	83.25
322.191	89.25
322.42	92.25
322.649	96.25
322.878	94.25
323.108	95.25
323.337	83.25
323.566	81.25
323.795	84.25
324.024	88.25
324.253	77.25
324.482	80.25
324.71	84.25
324.939	102.25
325.168	85.25
325.397	83.25
325.626	86.25
325.855	89.25
326.084	78.25
326.313	79.25
326.542	85.25
326.77	90.25
326.999	85.25
327.228	90.25
327.457	77.25
327.686	82.25
327.914	85.25
328.143	89.25
328.372	78.25
328.6	75.25
328.829	93.25
329.058	63.25
329.287	86.25
329.515	90.25
329.744	87.25
329.972	98.25
330.201	89.25
330.43	98.25
330.658	79.25
330.887	103.25
331.115	83.25
331.344	97.25
331.572	100.25
331.801	85.25
332.03	86.25
332.258	77.25
332.486	90.25
332.715	86.25
332.943	77.25
333.172	91.25
333.4	77.25
333.629	88.25
333.857	90.25
334.085	98.25
334.314	86.25
334.542	70.25
334.771	94.25
334.999	79.25
335.227	85.25
335.455	84.25
335.684	83.25
335.912	79.25
336.14	96.25
336.369	83.25
336.597	84.25
336.825	67.25
337.053	90.25
337.281	99.25
337.51	92.25
337.738	77.25
337.966	73.25
338.194	73.25
338.422	68.25
338.65	87.25
338.878	79.25
339.106	76.25
339.334	83.25
339.562	93.25
339.79	74.25
340.018	84.25
340.246	89.25
340.474	74.25
340.702	79.25
340.93	77.25
341.158	96.25
341.386	98.25
341.614	87.25
341.842	89.25
342.07	87.25
342.298	84.25
342.526	75.25
342.754	94.25
342.981	83.25
343.209	81.25
343.437	85.25
343.665	89.25
343.893	68.25
344.12	81.25
344.348	98.25
344.576	87.25
344.804	83.25
345.031	73.25
345.259	91.25
345.487	95.25
345.714	88.25
345.942	89.25
346.17	102.25
346.397	85.25
346.625	88.25
346.853	83.25
347.08	87.25
347.308	84.25
347.535	92.25
347.763	83.25
347.99	80.25
348.218	85.25
348.445	88.25
348.673	88.25
348.9	91.25
349.128	79.25
349.355	81.25
349.583	82.25
349.81	108.25
350.037	91.25
350.265	88.25
350.492	87.25
350.72	81.25
350.947	83.25
351.174	81.25
351.402	91.25
351.629	77.25
351.856	84.25
352.083	77.25
352.311	83.25
352.538	90.25
352.765	102.25
352.992	82.25
353.22	86.25
353.447	75.25
353.674	87.25
353.901	78.25
354.128	73.25
354.355	92.25
354.583	84.25
354.81	83.25
355.037	85.25
355.264	71.25
355.491	75.25
355.718	83.25
355.945	91.25
356.172	99.25
356.399	89.25
356.626	70.25
356.853	89.25
357.08	81.25
357.307	82.25
357.534	79.25
357.761	79.25
357.988	91.25
358.215	95.25
358.441	88.25
358.668	83.25
358.895	91.25
359.122	95.25
359.349	91.25
359.576	93.25
359.802	80.25
360.029	70.25
360.256	72.25
360.483	82.25
360.709	83.25
360.936	78.25
361.163	90.25
361.39	94.25
361.616	88.25
361.843	101.25
362.07	87.25
362.296	75.25
362.523	83.25
362.749	83.25
362.976	88.25
363.203	95.25
363.429	83.25
363.656	83.25
363.882	76.25
364.109	92.25
364.335	80.25
364.562	75.25
364.788	76.25
365.015	77.25
365.241	90.25
365.468	89.25
365.694	84.25
365.92	95.25
366.147	91.25
366.373	83.25
366.599	71.25
366.826	82.25
367.052	89.25
367.278	95.25
367.505	84.25
367.731	92.25
367.957	92.25
368.184	71.25
368.41	87.25
368.636	80.25
368.862	81.25
369.089	84.25
369.315	78.25
369.541	81.25
369.767	68.25
369.993	93.25
370.219	75.25
370.445	92.25
370.672	98.25
370.898	92.25
371.124	99.25
371.35	84.25
371.576	83.25
371.802	93.25
372.028	81.25
372.254	99.25
372.48	84.25
372.706	72.25
372.932	88.25
373.158	71.25
373.384	92.25
373.61	92.25
373.835	96.25
374.061	77.25
374.287	82.25
374.513	80.25
374.739	91.25
374.965	81.25
375.191	84.25
375.416	81.25
375.642	89.25
375.868	66.25
376.094	83.25
376.319	83.25
376.545	82.25
376.771	94.25
376.997	83.25
377.222	88.25
377.448	91.25
377.674	91.25
377.899	82.25
378.125	75.25
378.35	91.25
378.576	90.25
378.802	92.25
379.027	87.25
379.253	95.25
379.478	89.25
379.704	87.25
379.929	82.25
380.155	75.25
380.38	80.25
380.606	79.25
380.831	77.25
381.057	91.25
381.282	77.25
381.507	59.25
381.733	87.25
381.958	75.25
382.184	79.25
382.409	67.25
382.634	90.25
382.86	90.25
383.085	74.25
383.31	83.25
383.535	88.25
383.761	81.25
383.986	83.25
384.211	84.25
384.436	85.25
384.662	76.25
384.887	87.25
385.112	81.25
385.337	73.25
385.562	83.25
385.787	77.25
386.013	82.25
386.238	84.25
386.463	77.25
386.688	109.25
386.913	77.25
387.138	82.25
387.363	75.25
387.588	79.25
387.813	86.25
388.038	83.25
388.263	89.25
388.488	77.25
388.713	80.25
388.938	94.25
389.163	81.25
389.387	92.25
389.612	80.25
389.837	73.25
390.062	88.25
390.287	80.25
390.512	78.25
390.736	88.25
390.961	105.25
391.186	73.25
391.411	90.25
391.636	94.25
391.86	88.25
392.085	83.25
392.31	82.25
392.534	83.25
392.759	94.25
392.984	84.25
393.208	96.25
393.433	79.25
393.658	75.25
393.882	82.25
394.107	81.25
394.331	87.25
394.556	86.25
394.78	86.25
395.005	80.25
395.229	99.25
395.454	69.25
395.678	87.25
395.903	87.25
396.127	76.25
396.352	83.25
396.576	77.25
396.801	70.25
397.025	92.25
397.249	96.25
397.474	78.25
397.698	83.25
397.922	89.25
398.147	95.25
398.371	85.25
398.595	86.25
398.82	83.25
399.044	81.25
399.268	80.25
399.492	75.25
399.717	72.25
399.941	79.25
400.165	77.25
400.389	75.25
400.613	78.25
400.837	62.25
401.062	87.25
401.286	89.25
401.51	77.25
401.734	70.25
401.958	76.25
402.182	84.25
402.406	82.25
402.63	79.25
402.854	75.25
403.078	85.25
403.302	81.25
403.526	74.25
403.75	81.25
403.974	72.25
404.198	90.25
404.422	85.25
404.645	75.25
404.869	82.25
405.093	83.25
405.317	85.25
405.541	74.25
405.765	79.25
405.988	75.25
406.212	82.25
406.436	81.25
406.66	100.25
406.883	89.25
407.107	86.25
407.331	85.25
407.555	75.25
407.778	88.25
408.002	87.25
408.226	91.25
408.449	86.25
408.673	88.25
408.896	76.25
409.12	81.25
409.344	73.25
409.567	86.25
409.791	75.25
410.014	83.25
410.238	88.25
410.461	84.25
410.685	85.25
410.908	77.25
411.132	88.25
411.355	87.25
411.578	78.25
411.802	79.25
412.025	94.25
412.249	77.25
412.472	85.25
412.695	80.25
412.919	83.25
413.142	85.25
413.365	76.25
413.589	77.25
413.812	76.25
414.035	88.25
414.258	84.25
414.482	78.25
414.705	89.25
414.928	89.25
415.151	75.25
415.374	75.25
415.597	65.25
415.821	75.25
416.044	70.25
416.267	92.25
416.49	71.25
416.713	92.25
416.936	94.25
417.159	87.25
417.382	87.25
417.605	85.25
417.828	94.25
418.051	86.25
418.274	85.25
418.497	92.25
418.72	80.25
418.943	80.25
419.166	87.25
419.389	91.25
419.611	76.25
419.834	90.25
420.057	65.25
420.28	88.25
420.503	87.25
420.726	82.25
420.948	89.25
421.171	75.25
421.394	75.25
421.617	80.25
421.839	75.25
422.062	69.25
422.285	82.25
422.507	79.25
422.73	84.25
422.953	77.25
423.175	84.25
423.398	76.25
423.621	83.25
423.843	63.25
424.066	68.25
424.288	81.25
424.511	72.25
424.733	84.25
424.956	71.25
425.178	90.25
425.401	82.25
425.623	69.25
425.846	79.25
426.068	74.25
426.291	78.25
426.513	76.25
426.735	85.25
426.958	77.25
427.18	73.25
427.402	83.25
427.625	84.25
427.847	84.25
428.069	88.25
428.292	78.25
428.514	85.25
428.736	85.25
428.958	80.25
429.181	89.25
429.403	77.25
429.625	82.25
429.847	82.25
430.069	76.25
430.292	79.25
430.514	72.25
430.736	91.25
430.958	74.25
431.18	76.25
431.402	77.25
431.624	79.25
431.846	92.25
432.068	77.25
432.29	87.25
432.512	82.25
432.734	82.25
432.956	88.25
433.178	88.25
433.4	84.25
433.622	84.25
433.844	80.25
434.066	67.25
434.287	77.25
434.509	68.25
434.731	70.25
434.953	76.25
435.175	86.25
435.397	82.25
435.618	74.25
435.84	81.25
436.062	79.25
436.284	79.25
436.505	85.25
436.727	85.25
436.949	90.25
437.17	85.25
437.392	87.25
437.614	79.25
437.835	80.25
438.057	83.25
438.278	84.25
438.5	80.25
438.721	94.25
438.943	80.25
439.165	79.25
439.386	79.25
439.608	71.25
439.829	64.25
440.05	85.25
440.272	87.25
440.493	74.25
440.715	93.25
440.936	90.25
441.158	92.25
441.379	85.25
441.6	71.25
441.822	87.25
442.043	83.25
442.264	89.25
442.486	80.25
442.707	80.25
442.928	77.25
443.149	73.25
443.371	80.25
443.592	77.25
443.813	87.25
444.034	81.25
444.255	80.25
444.476	71.25
444.698	89.25
444.919	81.25
445.14	155.25
445.361	114.25
445.582	61.25
445.803	89.25
446.024	85.25
446.245	89.25
446.466	72.25
446.687	69.25
446.908	90.25
447.129	91.25
447.35	89.25
447.571	68.25
447.792	82.25
448.013	84.25
448.234	89.25
448.455	84.25
448.675	81.25
448.896	81.25
449.117	72.25
449.338	82.25
449.559	80.25
449.779	81.25
450	81.25
450.221	85.25
450.442	88.25
450.662	85.25
450.883	79.25
451.104	80.25
451.324	84.25
451.545	71.25
451.766	81.25
451.986	73.25
452.207	83.25
452.428	81.25
452.648	87.25
452.869	89.25
453.089	78.25
453.31	68.25
453.53	61.25
453.751	72.25
453.971	83.25
454.192	81.25
454.412	87.25
454.633	69.25
454.853	65.25
455.073	91.25
455.294	69.25
455.514	75.25
455.734	89.25
455.955	83.25
456.175	84.25
456.395	87.25
456.616	85.25
456.836	63.25
457.056	85.25
457.276	71.25
457.497	84.25
457.717	76.25
457.937	75.25
458.157	81.25
458.377	64.25
458.598	83.25
458.818	89.25
459.038	72.25
459.258	72.25
459.478	76.25
459.698	88.25
459.918	83.25
460.138	82.25
460.358	81.25
460.578	91.25
460.798	80.25
461.018	91.25
461.238	73.25
461.458	82.25
461.678	98.25
461.898	90.25
462.118	94.25
462.338	70.25
462.558	81.25
462.777	98.25
462.997	96.25
463.217	69.25
463.437	75.25
463.657	83.25
463.876	84.25
464.096	80.25
464.316	83.25
464.536	77.25
464.755	84.25
464.975	95.25
465.195	83.25
465.414	88.25
465.634	83.25
465.854	66.25
466.073	81.25
466.293	77.25
466.512	80.25
466.732	81.25
466.951	70.25
467.171	79.25
467.391	85.25
467.61	79.25
467.829	81.25
468.049	77.25
468.268	82.25
468.488	80.25
468.707	74.25
468.927	91.25
469.146	76.25
469.365	97.25
469.585	81.25
469.804	82.25
470.023	75.25
470.243	79.25
470.462	91.25
470.681	72.25
470.901	88.25
471.12	87.25
471.339	82.25
471.558	87.25
471.777	91.25
471.997	90.25
472.216	92.25
472.435	81.25
472.654	86.25
472.873	101.25
473.092	88.25
473.311	75.25
473.53	76.25
473.749	76.25
473.968	89.25
474.187	97.25
474.406	64.25
474.625	78.25
474.844	95.25
475.063	87.25
475.282	65.25
475.501	69.25
475.72	74.25
475.939	81.25
476.158	83.25
476.377	87.25
476.596	82.25
476.814	77.25
477.033	67.25
477.252	75.25
477.471	93.25
477.69	78.25
477.908	86.25
478.127	81.25
478.346	83.25
478.564	85.25
478.783	69.25
479.002	81.25
479.22	76.25
479.439	87.25
479.658	79.25
479.876	79.25
480.095	83.25
480.313	89.25
480.532	85.25
480.751	79.25
480.969	77.25
481.188	65.25
481.406	80.25
481.624	87.25
481.843	78.25
482.061	84.25
482.28	84.25
482.498	85.25
482.717	77.25
482.935	79.25
483.153	79.25
483.372	92.25
483.59	69.25
483.808	83.25
484.027	90.25
484.245	82.25
484.463	77.25
484.681	90.25
484.9	86.25
485.118	79.25
485.336	81.25
485.554	85.25
485.772	76.25
485.99	85.25
486.209	94.25
486.427	82.25
486.645	86.25
486.863	96.25
487.081	72.25
487.299	93.25
487.517	92.25
487.735	81.25
487.953	81.25
488.171	96.25
488.389	88.25
488.607	85.25
488.825	86.25
489.043	87.25
489.261	90.25
489.479	98.25
489.696	82.25
489.914	92.25
490.132	96.25
490.35	78.25
490.568	74.25
490.786	91.25
491.003	81.25
491.221	87.25
491.439	82.25
491.657	84.25
491.874	81.25
492.092	85.25
492.31	93.25
492.527	90.25
492.745	79.25
492.963	79.25
493.18	83.25
493.398	69.25
493.615	74.25
493.833	89.25
494.05	90.25
494.268	81.25
494.485	84.25
494.703	74.25
494.92	78.25
495.138	76.25
495.355	89.25
495.573	87.25
495.79	96.25
496.008	83.25
496.225	86.25
496.442	84.25
496.66	84.25
496.877	74.25
497.094	84.25
497.312	94.25
497.529	83.25
497.746	78.25
497.963	79.25
498.181	72.25
498.398	77.25
498.615	87.25
498.832	79.25
499.049	74.25
499.267	81.25
499.484	71.25
499.701	85.25
499.918	77.25
500.135	90.25
500.352	72.25
500.569	85.25
500.786	85.25
501.003	81.25
501.22	77.25
501.437	72.25
501.654	75.25
501.871	79.25
502.088	89.25
502.305	69.25
502.522	91.25
502.739	75.25
502.956	73.25
503.172	84.25
503.389	89.25
503.606	91.25
503.823	92.25
504.04	85.25
504.256	91.25
504.473	83.25
504.69	78.25
504.907	85.25
505.123	85.25
505.34	83.25
505.557	89.25
505.773	75.25
505.99	89.25
506.207	81.25
506.423	89.25
506.64	80.25
506.856	83.25
507.073	95.25
507.289	78.25
507.506	81.25
507.722	79.25
507.939	96.25
508.155	79.25
508.372	85.25
508.588	74.25
508.805	89.25
509.021	100.25
509.238	80.25
509.454	68.25
509.67	71.25
509.887	85.25
510.103	93.25
510.319	91.25
510.536	75.25
510.752	73.25
510.968	76.25
511.184	75.25
511.401	81.25
511.617	89.25
511.833	87.25
512.049	61.25
512.265	92.25
512.481	81.25
512.698	87.25
512.914	77.25
513.13	91.25
513.346	75.25
513.562	88.25
513.778	91.25
513.994	83.25
514.21	87.25
514.426	65.25
514.642	69.25
514.858	100.25
515.074	90.25
515.29	85.25
515.506	86.25
515.721	73.25
515.937	86.25
516.153	79.25
516.369	80.25
516.585	91.25
516.801	89.25
517.016	80.25
517.232	68.25
517.448	81.25
517.664	84.25
517.879	95.25
518.095	79.25
518.311	75.25
518.527	84.25
518.742	81.25
518.958	76.25
519.173	85.25
519.389	74.25
519.605	91.25
519.82	73.25
520.036	88.25
