Data from Background_1_HRD10591_00027.txt Node
Date: Wed Nov 05 14:39:11 EST 2025
User: Yrep
Spectrometer: HR+D1059
Trigger mode: 1
Integration Time (sec): 1.000000E-1
Scans to average: 1
Electric dark correction enabled: true
Nonlinearity correction enabled: false
Boxcar width: 0
XAxis mode: Wavelengths
Number of Pixels in Spectrum: 2048
>>>>>Begin Spectral Data<<<<<
223.165	-14.25
223.4	-14.25
223.635	-14.25
223.869	-11.25
224.104	-26.25
224.338	-22.25
224.573	-8.25
224.808	-12.25
225.042	-13.25
225.277	-1.25
225.511	-0.25
225.746	-2.25
225.98	0.75
226.215	10.75
226.449	19.75
226.683	15.75
226.918	30.75
227.152	33.75
227.387	34.75
227.621	38.75
227.856	45.75
228.09	42.75
228.324	51.75
228.559	47.75
228.793	58.75
229.027	65.75
229.262	58.75
229.496	64.75
229.73	58.75
229.964	63.75
230.199	64.75
230.433	72.75
230.667	90.75
230.901	79.75
231.136	86.75
231.37	66.75
231.604	81.75
231.838	61.75
232.072	64.75
232.306	80.75
232.541	81.75
232.775	82.75
233.009	87.75
233.243	78.75
233.477	88.75
233.711	79.75
233.945	78.75
234.179	74.75
234.413	75.75
234.647	93.75
234.881	88.75
235.115	65.75
235.349	82.75
235.583	65.75
235.817	64.75
236.051	74.75
236.285	70.75
236.519	87.75
236.753	82.75
236.987	69.75
237.221	65.75
237.455	83.75
237.689	69.75
237.922	74.75
238.156	63.75
238.39	69.75
238.624	66.75
238.858	84.75
239.091	78.75
239.325	76.75
239.559	77.75
239.793	76.75
240.027	71.75
240.26	73.75
240.494	67.75
240.728	75.75
240.961	62.75
241.195	82.75
241.429	76.75
241.662	78.75
241.896	61.75
242.13	65.75
242.363	65.75
242.597	65.75
242.83	73.75
243.064	66.75
243.298	64.75
243.531	72.75
243.765	74.75
243.998	76.75
244.232	92.75
244.465	90.75
244.699	76.75
244.932	72.75
245.166	89.75
245.399	79.75
245.633	78.75
245.866	77.75
246.099	68.75
246.333	62.75
246.566	75.75
246.8	78.75
247.033	86.75
247.266	82.75
247.5	73.75
247.733	73.75
247.966	77.75
248.2	66.75
248.433	72.75
248.666	82.75
248.899	75.75
249.133	72.75
249.366	88.75
249.599	83.75
249.832	73.75
250.066	92.75
250.299	75.75
250.532	66.75
250.765	71.75
250.998	69.75
251.231	63.75
251.465	86.75
251.698	103.75
251.931	72.75
252.164	75.75
252.397	75.75
252.63	82.75
252.863	79.75
253.096	84.75
253.329	64.75
253.562	74.75
253.795	77.75
254.028	81.75
254.261	77.75
254.494	77.75
254.727	76.75
254.96	66.75
255.193	73.75
255.426	71.75
255.659	58.75
255.892	82.75
256.124	83.75
256.357	74.75
256.59	78.75
256.823	77.75
257.056	65.75
257.289	73.75
257.521	92.75
257.754	80.75
257.987	64.75
258.22	75.75
258.452	83.75
258.685	68.75
258.918	81.75
259.151	81.75
259.383	71.75
259.616	87.75
259.849	81.75
260.081	78.75
260.314	79.75
260.547	79.75
260.779	75.75
261.012	77.75
261.244	77.75
261.477	75.75
261.71	71.75
261.942	83.75
262.175	71.75
262.407	88.75
262.64	82.75
262.872	77.75
263.105	76.75
263.337	71.75
263.57	78.75
263.802	82.75
264.035	82.75
264.267	80.75
264.499	76.75
264.732	76.75
264.964	85.75
265.197	83.75
265.429	66.75
265.661	77.75
265.894	81.75
266.126	80.75
266.358	90.75
266.591	85.75
266.823	82.75
267.055	67.75
267.287	84.75
267.52	84.75
267.752	62.75
267.984	84.75
268.216	81.75
268.448	70.75
268.681	82.75
268.913	80.75
269.145	82.75
269.377	95.75
269.609	69.75
269.841	74.75
270.073	80.75
270.306	73.75
270.538	83.75
270.77	82.75
271.002	76.75
271.234	88.75
271.466	74.75
271.698	75.75
271.93	83.75
272.162	83.75
272.394	83.75
272.626	83.75
272.858	85.75
273.09	78.75
273.322	80.75
273.553	76.75
273.785	79.75
274.017	81.75
274.249	68.75
274.481	77.75
274.713	83.75
274.945	91.75
275.176	86.75
275.408	73.75
275.64	73.75
275.872	70.75
276.104	74.75
276.335	84.75
276.567	79.75
276.799	84.75
277.031	79.75
277.262	85.75
277.494	70.75
277.726	74.75
277.957	75.75
278.189	78.75
278.421	81.75
278.652	81.75
278.884	89.75
279.115	74.75
279.347	72.75
279.579	64.75
279.81	81.75
280.042	94.75
280.273	71.75
280.505	70.75
280.736	82.75
280.968	85.75
281.199	73.75
281.431	71.75
281.662	82.75
281.894	75.75
282.125	79.75
282.356	67.75
282.588	81.75
282.819	79.75
283.051	71.75
283.282	73.75
283.513	97.75
283.745	80.75
283.976	73.75
284.207	93.75
284.439	73.75
284.67	103.75
284.901	83.75
285.132	83.75
285.364	81.75
285.595	87.75
285.826	78.75
286.057	74.75
286.288	83.75
286.52	70.75
286.751	80.75
286.982	73.75
287.213	74.75
287.444	89.75
287.675	87.75
287.906	80.75
288.138	73.75
288.369	90.75
288.6	73.75
288.831	74.75
289.062	84.75
289.293	73.75
289.524	82.75
289.755	79.75
289.986	85.75
290.217	77.75
290.448	94.75
290.679	77.75
290.91	79.75
291.141	75.75
291.371	89.75
291.602	88.75
291.833	89.75
292.064	80.75
292.295	77.75
292.526	92.75
292.757	74.75
292.987	75.75
293.218	92.75
293.449	74.75
293.68	78.75
293.91	71.75
294.141	97.75
294.372	69.75
294.603	83.75
294.833	81.75
295.064	87.75
295.295	73.75
295.525	88.75
295.756	79.75
295.987	73.75
296.217	74.75
296.448	76.75
296.679	79.75
296.909	64.75
297.14	74.75
297.37	89.75
297.601	90.75
297.831	78.75
298.062	87.75
298.292	81.75
298.523	89.75
298.753	81.75
298.984	86.75
299.214	79.75
299.445	84.75
299.675	89.75
299.905	94.75
300.136	81.75
300.366	69.75
300.597	79.75
300.827	75.75
301.057	82.75
301.288	73.75
301.518	84.75
301.748	78.75
301.979	87.75
302.209	88.75
302.439	89.75
302.669	84.75
302.9	79.75
303.13	73.75
303.36	83.75
303.59	86.75
303.82	76.75
304.051	85.75
304.281	99.75
304.511	95.75
304.741	72.75
304.971	88.75
305.201	76.75
305.431	80.75
305.661	77.75
305.891	82.75
306.121	82.75
306.352	89.75
306.582	79.75
306.812	79.75
307.042	105.75
307.272	87.75
307.502	76.75
307.731	79.75
307.961	77.75
308.191	102.75
308.421	83.75
308.651	103.75
308.881	80.75
309.111	77.75
309.341	81.75
309.571	79.75
309.8	86.75
310.03	73.75
310.26	60.75
310.49	69.75
310.72	84.75
310.949	89.75
311.179	89.75
311.409	83.75
311.639	88.75
311.868	97.75
312.098	89.75
312.328	89.75
312.557	80.75
312.787	73.75
313.017	88.75
313.246	75.75
313.476	83.75
313.706	72.75
313.935	86.75
314.165	85.75
314.394	84.75
314.624	91.75
314.853	93.75
315.083	81.75
315.312	89.75
315.542	78.75
315.771	83.75
316.001	98.75
316.23	96.75
316.46	78.75
316.689	85.75
316.919	82.75
317.148	64.75
317.377	94.75
317.607	94.75
317.836	101.75
318.065	77.75
318.295	79.75
318.524	89.75
318.753	81.75
318.983	66.75
319.212	85.75
319.441	80.75
319.67	71.75
319.9	77.75
320.129	72.75
320.358	85.75
320.587	82.75
320.816	84.75
321.046	87.75
321.275	89.75
321.504	89.75
321.733	81.75
321.962	76.75
322.191	85.75
322.42	93.75
322.649	89.75
322.878	91.75
323.108	76.75
323.337	74.75
323.566	80.75
323.795	91.75
324.024	77.75
324.253	78.75
324.482	79.75
324.71	85.75
324.939	81.75
325.168	96.75
325.397	82.75
325.626	85.75
325.855	84.75
326.084	81.75
326.313	84.75
326.542	80.75
326.77	78.75
326.999	79.75
327.228	76.75
327.457	85.75
327.686	80.75
327.914	91.75
328.143	96.75
328.372	78.75
328.6	91.75
328.829	92.75
329.058	85.75
329.287	85.75
329.515	66.75
329.744	76.75
329.972	70.75
330.201	79.75
330.43	80.75
330.658	80.75
330.887	73.75
331.115	80.75
331.344	69.75
331.572	84.75
331.801	95.75
332.03	89.75
332.258	95.75
332.486	75.75
332.715	74.75
332.943	90.75
333.172	99.75
333.4	78.75
333.629	68.75
333.857	68.75
334.085	69.75
334.314	89.75
334.542	79.75
334.771	88.75
334.999	69.75
335.227	84.75
335.455	94.75
335.684	94.75
335.912	83.75
336.14	93.75
336.369	76.75
336.597	86.75
336.825	91.75
337.053	86.75
337.281	86.75
337.51	76.75
337.738	75.75
337.966	87.75
338.194	74.75
338.422	86.75
338.65	79.75
338.878	74.75
339.106	70.75
339.334	87.75
339.562	81.75
339.79	81.75
340.018	74.75
340.246	72.75
340.474	78.75
340.702	90.75
340.93	81.75
341.158	89.75
341.386	78.75
341.614	81.75
341.842	81.75
342.07	87.75
342.298	72.75
342.526	85.75
342.754	81.75
342.981	66.75
343.209	76.75
343.437	87.75
343.665	79.75
343.893	81.75
344.12	86.75
344.348	81.75
344.576	80.75
344.804	66.75
345.031	79.75
345.259	86.75
345.487	73.75
345.714	91.75
345.942	67.75
346.17	70.75
346.397	81.75
346.625	85.75
346.853	86.75
347.08	83.75
347.308	79.75
347.535	82.75
347.763	86.75
347.99	88.75
348.218	96.75
348.445	76.75
348.673	77.75
348.9	91.75
349.128	73.75
349.355	85.75
349.583	86.75
349.81	79.75
350.037	71.75
350.265	80.75
350.492	79.75
350.72	72.75
350.947	81.75
351.174	87.75
351.402	82.75
351.629	78.75
351.856	90.75
352.083	77.75
352.311	87.75
352.538	83.75
352.765	79.75
352.992	63.75
353.22	73.75
353.447	87.75
353.674	90.75
353.901	83.75
354.128	72.75
354.355	74.75
354.583	73.75
354.81	76.75
355.037	85.75
355.264	97.75
355.491	74.75
355.718	85.75
355.945	91.75
356.172	85.75
356.399	85.75
356.626	78.75
356.853	87.75
357.08	81.75
357.307	87.75
357.534	82.75
357.761	102.75
357.988	90.75
358.215	78.75
358.441	75.75
358.668	82.75
358.895	85.75
359.122	86.75
359.349	67.75
359.576	73.75
359.802	75.75
360.029	79.75
360.256	80.75
360.483	83.75
360.709	73.75
360.936	88.75
361.163	68.75
361.39	95.75
361.616	82.75
361.843	87.75
362.07	66.75
362.296	73.75
362.523	81.75
362.749	64.75
362.976	85.75
363.203	101.75
363.429	67.75
363.656	83.75
363.882	76.75
364.109	77.75
364.335	87.75
364.562	79.75
364.788	86.75
365.015	64.75
365.241	78.75
365.468	90.75
365.694	68.75
365.92	86.75
366.147	82.75
366.373	65.75
366.599	85.75
366.826	76.75
367.052	79.75
367.278	94.75
367.505	91.75
367.731	85.75
367.957	81.75
368.184	77.75
368.41	70.75
368.636	81.75
368.862	93.75
369.089	81.75
369.315	77.75
369.541	82.75
369.767	83.75
369.993	72.75
370.219	71.75
370.445	78.75
370.672	72.75
370.898	63.75
371.124	59.75
371.35	85.75
371.576	70.75
371.802	73.75
372.028	91.75
372.254	82.75
372.48	75.75
372.706	83.75
372.932	86.75
373.158	85.75
373.384	90.75
373.61	94.75
373.835	74.75
374.061	82.75
374.287	91.75
374.513	74.75
374.739	90.75
374.965	74.75
375.191	75.75
375.416	91.75
375.642	78.75
375.868	75.75
376.094	89.75
376.319	74.75
376.545	73.75
376.771	71.75
376.997	77.75
377.222	82.75
377.448	68.75
377.674	89.75
377.899	76.75
378.125	64.75
378.35	62.75
378.576	76.75
378.802	79.75
379.027	81.75
379.253	91.75
379.478	71.75
379.704	89.75
379.929	89.75
380.155	83.75
380.38	66.75
380.606	75.75
380.831	86.75
381.057	95.75
381.282	86.75
381.507	77.75
381.733	80.75
381.958	89.75
382.184	79.75
382.409	84.75
382.634	69.75
382.86	77.75
383.085	84.75
383.31	91.75
383.535	84.75
383.761	74.75
383.986	81.75
384.211	81.75
384.436	75.75
384.662	79.75
384.887	88.75
385.112	75.75
385.337	90.75
385.562	77.75
385.787	87.75
386.013	68.75
386.238	90.75
386.463	80.75
386.688	89.75
386.913	78.75
387.138	81.75
387.363	93.75
387.588	88.75
387.813	97.75
388.038	78.75
388.263	85.75
388.488	73.75
388.713	73.75
388.938	80.75
389.163	73.75
389.387	89.75
389.612	95.75
389.837	77.75
390.062	105.75
390.287	67.75
390.512	67.75
390.736	60.75
390.961	80.75
391.186	81.75
391.411	86.75
391.636	83.75
391.86	85.75
392.085	93.75
392.31	73.75
392.534	66.75
392.759	66.75
392.984	85.75
393.208	79.75
393.433	79.75
393.658	81.75
393.882	87.75
394.107	90.75
394.331	89.75
394.556	99.75
394.78	81.75
395.005	85.75
395.229	77.75
395.454	88.75
395.678	77.75
395.903	87.75
396.127	80.75
396.352	73.75
396.576	66.75
396.801	81.75
397.025	88.75
397.249	80.75
397.474	86.75
397.698	83.75
397.922	76.75
398.147	76.75
398.371	66.75
398.595	79.75
398.82	73.75
399.044	67.75
399.268	69.75
399.492	94.75
399.717	87.75
399.941	87.75
400.165	77.75
400.389	79.75
400.613	81.75
400.837	82.75
401.062	83.75
401.286	87.75
401.51	81.75
401.734	78.75
401.958	80.75
402.182	57.75
402.406	87.75
402.63	82.75
402.854	85.75
403.078	79.75
403.302	81.75
403.526	75.75
403.75	71.75
403.974	74.75
404.198	80.75
404.422	77.75
404.645	62.75
404.869	79.75
405.093	85.75
405.317	82.75
405.541	63.75
405.765	71.75
405.988	75.75
406.212	75.75
406.436	71.75
406.66	77.75
406.883	65.75
407.107	81.75
407.331	76.75
407.555	92.75
407.778	74.75
408.002	75.75
408.226	78.75
408.449	92.75
408.673	87.75
408.896	96.75
409.12	91.75
409.344	79.75
409.567	76.75
409.791	70.75
410.014	74.75
410.238	83.75
410.461	87.75
410.685	82.75
410.908	73.75
411.132	75.75
411.355	75.75
411.578	90.75
411.802	83.75
412.025	83.75
412.249	63.75
412.472	95.75
412.695	77.75
412.919	70.75
413.142	82.75
413.365	62.75
413.589	83.75
413.812	77.75
414.035	87.75
414.258	82.75
414.482	81.75
414.705	90.75
414.928	61.75
415.151	61.75
415.374	77.75
415.597	86.75
415.821	74.75
416.044	85.75
416.267	68.75
416.49	74.75
416.713	81.75
416.936	75.75
417.159	80.75
417.382	71.75
417.605	84.75
417.828	79.75
418.051	77.75
418.274	89.75
418.497	92.75
418.72	80.75
418.943	79.75
419.166	94.75
419.389	86.75
419.611	87.75
419.834	70.75
420.057	80.75
420.28	79.75
420.503	77.75
420.726	72.75
420.948	90.75
421.171	71.75
421.394	86.75
421.617	73.75
421.839	75.75
422.062	77.75
422.285	66.75
422.507	77.75
422.73	65.75
422.953	87.75
423.175	72.75
423.398	87.75
423.621	78.75
423.843	84.75
424.066	81.75
424.288	73.75
424.511	69.75
424.733	91.75
424.956	89.75
425.178	86.75
425.401	89.75
425.623	73.75
425.846	87.75
426.068	75.75
426.291	85.75
426.513	65.75
426.735	73.75
426.958	85.75
427.18	85.75
427.402	98.75
427.625	67.75
427.847	77.75
428.069	83.75
428.292	67.75
428.514	86.75
428.736	77.75
428.958	77.75
429.181	76.75
429.403	92.75
429.625	81.75
429.847	83.75
430.069	70.75
430.292	94.75
430.514	79.75
430.736	65.75
430.958	75.75
431.18	83.75
431.402	87.75
431.624	73.75
431.846	82.75
432.068	68.75
432.29	76.75
432.512	76.75
432.734	78.75
432.956	83.75
433.178	89.75
433.4	85.75
433.622	72.75
433.844	81.75
434.066	75.75
434.287	85.75
434.509	66.75
434.731	65.75
434.953	85.75
435.175	93.75
435.397	66.75
435.618	80.75
435.84	72.75
436.062	91.75
436.284	71.75
436.505	77.75
436.727	71.75
436.949	77.75
437.17	65.75
437.392	85.75
437.614	93.75
437.835	79.75
438.057	71.75
438.278	78.75
438.5	87.75
438.721	80.75
438.943	70.75
439.165	74.75
439.386	78.75
439.608	80.75
439.829	73.75
440.05	76.75
440.272	79.75
440.493	70.75
440.715	78.75
440.936	88.75
441.158	90.75
441.379	71.75
441.6	70.75
441.822	79.75
442.043	86.75
442.264	75.75
442.486	73.75
442.707	80.75
442.928	74.75
443.149	59.75
443.371	73.75
443.592	74.75
443.813	89.75
444.034	78.75
444.255	74.75
444.476	83.75
444.698	66.75
444.919	73.75
445.14	161.75
445.361	118.75
445.582	82.75
445.803	77.75
446.024	72.75
446.245	74.75
446.466	80.75
446.687	85.75
446.908	67.75
447.129	79.75
447.35	78.75
447.571	81.75
447.792	94.75
448.013	81.75
448.234	71.75
448.455	83.75
448.675	63.75
448.896	73.75
449.117	80.75
449.338	75.75
449.559	78.75
449.779	91.75
450	87.75
450.221	77.75
450.442	79.75
450.662	82.75
450.883	65.75
451.104	71.75
451.324	79.75
451.545	87.75
451.766	89.75
451.986	83.75
452.207	72.75
452.428	82.75
452.648	73.75
452.869	67.75
453.089	73.75
453.31	80.75
453.53	75.75
453.751	87.75
453.971	83.75
454.192	78.75
454.412	80.75
454.633	87.75
454.853	78.75
455.073	75.75
455.294	84.75
455.514	82.75
455.734	78.75
455.955	73.75
456.175	77.75
456.395	81.75
456.616	81.75
456.836	88.75
457.056	70.75
457.276	77.75
457.497	93.75
457.717	79.75
457.937	98.75
458.157	81.75
458.377	79.75
458.598	88.75
458.818	87.75
459.038	85.75
459.258	79.75
459.478	93.75
459.698	82.75
459.918	86.75
460.138	67.75
460.358	80.75
460.578	97.75
460.798	76.75
461.018	78.75
461.238	82.75
461.458	81.75
461.678	78.75
461.898	89.75
462.118	76.75
462.338	78.75
462.558	86.75
462.777	84.75
462.997	73.75
463.217	60.75
463.437	77.75
463.657	70.75
463.876	87.75
464.096	81.75
464.316	80.75
464.536	82.75
464.755	72.75
464.975	71.75
465.195	90.75
465.414	79.75
465.634	82.75
465.854	74.75
466.073	97.75
466.293	88.75
466.512	83.75
466.732	73.75
466.951	86.75
467.171	84.75
467.391	96.75
467.61	74.75
467.829	94.75
468.049	79.75
468.268	73.75
468.488	82.75
468.707	83.75
468.927	72.75
469.146	83.75
469.365	87.75
469.585	71.75
469.804	79.75
470.023	78.75
470.243	75.75
470.462	83.75
470.681	61.75
470.901	93.75
471.12	82.75
471.339	86.75
471.558	81.75
471.777	81.75
471.997	76.75
472.216	88.75
472.435	86.75
472.654	66.75
472.873	72.75
473.092	91.75
473.311	82.75
473.53	80.75
473.749	68.75
473.968	72.75
474.187	87.75
474.406	80.75
474.625	73.75
474.844	63.75
475.063	78.75
475.282	96.75
475.501	81.75
475.72	80.75
475.939	91.75
476.158	83.75
476.377	86.75
476.596	92.75
476.814	78.75
477.033	87.75
477.252	75.75
477.471	82.75
477.69	91.75
477.908	95.75
478.127	80.75
478.346	67.75
478.564	58.75
478.783	74.75
479.002	87.75
479.22	63.75
479.439	79.75
479.658	73.75
479.876	80.75
480.095	80.75
480.313	79.75
480.532	66.75
480.751	72.75
480.969	80.75
481.188	67.75
481.406	75.75
481.624	78.75
481.843	76.75
482.061	78.75
482.28	68.75
482.498	67.75
482.717	78.75
482.935	73.75
483.153	82.75
483.372	67.75
483.59	87.75
483.808	80.75
484.027	78.75
484.245	67.75
484.463	80.75
484.681	68.75
484.9	77.75
485.118	66.75
485.336	77.75
485.554	79.75
485.772	73.75
485.99	84.75
486.209	78.75
486.427	62.75
486.645	79.75
486.863	73.75
487.081	69.75
487.299	80.75
487.517	68.75
487.735	86.75
487.953	87.75
488.171	89.75
488.389	78.75
488.607	71.75
488.825	79.75
489.043	77.75
489.261	74.75
489.479	90.75
489.696	83.75
489.914	91.75
490.132	81.75
490.35	69.75
490.568	91.75
490.786	84.75
491.003	94.75
491.221	76.75
491.439	78.75
491.657	78.75
491.874	94.75
492.092	83.75
492.31	78.75
492.527	80.75
492.745	86.75
492.963	77.75
493.18	71.75
493.398	80.75
493.615	80.75
493.833	73.75
494.05	83.75
494.268	70.75
494.485	77.75
494.703	80.75
494.92	79.75
495.138	68.75
495.355	89.75
495.573	73.75
495.79	80.75
496.008	78.75
496.225	85.75
496.442	91.75
496.66	74.75
496.877	77.75
497.094	90.75
497.312	101.75
497.529	85.75
497.746	76.75
497.963	83.75
498.181	73.75
498.398	81.75
498.615	81.75
498.832	90.75
499.049	75.75
499.267	78.75
499.484	88.75
499.701	95.75
499.918	89.75
500.135	88.75
500.352	90.75
500.569	99.75
500.786	87.75
501.003	77.75
501.22	81.75
501.437	80.75
501.654	69.75
501.871	75.75
502.088	79.75
502.305	88.75
502.522	87.75
502.739	88.75
502.956	73.75
503.172	85.75
503.389	80.75
503.606	77.75
503.823	77.75
504.04	88.75
504.256	93.75
504.473	81.75
504.69	73.75
504.907	77.75
505.123	77.75
505.34	78.75
505.557	69.75
505.773	64.75
505.99	82.75
506.207	78.75
506.423	68.75
506.64	78.75
506.856	85.75
507.073	89.75
507.289	74.75
507.506	88.75
507.722	76.75
507.939	63.75
508.155	79.75
508.372	80.75
508.588	71.75
508.805	83.75
509.021	81.75
509.238	74.75
509.454	88.75
509.67	80.75
509.887	72.75
510.103	76.75
510.319	76.75
510.536	83.75
510.752	77.75
510.968	87.75
511.184	80.75
511.401	77.75
511.617	85.75
511.833	83.75
512.049	73.75
512.265	90.75
512.481	85.75
512.698	84.75
512.914	83.75
513.13	84.75
513.346	77.75
513.562	86.75
513.778	68.75
513.994	75.75
514.21	80.75
514.426	88.75
514.642	78.75
514.858	77.75
515.074	88.75
515.29	89.75
515.506	80.75
515.721	78.75
515.937	89.75
516.153	82.75
516.369	73.75
516.585	81.75
516.801	77.75
517.016	81.75
517.232	85.75
517.448	80.75
517.664	83.75
517.879	82.75
518.095	86.75
518.311	85.75
518.527	78.75
518.742	74.75
518.958	90.75
519.173	84.75
519.389	84.75
519.605	73.75
519.82	82.75
520.036	84.75
