Data from Background_1_HRD10591_00049.txt Node
Date: Wed Nov 05 14:39:22 EST 2025
User: Yrep
Spectrometer: HR+D1059
Trigger mode: 1
Integration Time (sec): 1.000000E-1
Scans to average: 1
Electric dark correction enabled: true
Nonlinearity correction enabled: false
Boxcar width: 0
XAxis mode: Wavelengths
Number of Pixels in Spectrum: 2048
>>>>>Begin Spectral Data<<<<<
223.165	-11.38
223.4	-11.38
223.635	-11.38
223.869	-21.38
224.104	-15.38
224.338	-21.38
224.573	-22.38
224.808	-20.38
225.042	-5.38
225.277	-4.38
225.511	11.62
225.746	8.62
225.98	9.62
226.215	-2.38
226.449	5.62
226.683	23.62
226.918	31.62
227.152	33.62
227.387	35.62
227.621	33.62
227.856	38.62
228.09	41.62
228.324	40.62
228.559	65.62
228.793	68.62
229.027	60.62
229.262	54.62
229.496	64.62
229.73	55.62
229.964	74.62
230.199	75.62
230.433	62.62
230.667	75.62
230.901	64.62
231.136	75.62
231.37	79.62
231.604	84.62
231.838	78.62
232.072	75.62
232.306	70.62
232.541	78.62
232.775	91.62
233.009	82.62
233.243	63.62
233.477	66.62
233.711	85.62
233.945	81.62
234.179	73.62
234.413	82.62
234.647	79.62
234.881	77.62
235.115	84.62
235.349	80.62
235.583	85.62
235.817	72.62
236.051	72.62
236.285	78.62
236.519	66.62
236.753	75.62
236.987	86.62
237.221	79.62
237.455	84.62
237.689	89.62
237.922	71.62
238.156	72.62
238.39	75.62
238.624	64.62
238.858	64.62
239.091	76.62
239.325	82.62
239.559	70.62
239.793	72.62
240.027	82.62
240.26	81.62
240.494	80.62
240.728	78.62
240.961	81.62
241.195	79.62
241.429	60.62
241.662	70.62
241.896	80.62
242.13	80.62
242.363	80.62
242.597	72.62
242.83	60.62
243.064	83.62
243.298	82.62
243.531	76.62
243.765	77.62
243.998	68.62
244.232	73.62
244.465	80.62
244.699	66.62
244.932	72.62
245.166	59.62
245.399	88.62
245.633	79.62
245.866	73.62
246.099	85.62
246.333	82.62
246.566	64.62
246.8	80.62
247.033	77.62
247.266	78.62
247.5	68.62
247.733	78.62
247.966	74.62
248.2	62.62
248.433	72.62
248.666	66.62
248.899	75.62
249.133	71.62
249.366	83.62
249.599	78.62
249.832	74.62
250.066	92.62
250.299	63.62
250.532	78.62
250.765	81.62
250.998	85.62
251.231	69.62
251.465	89.62
251.698	71.62
251.931	79.62
252.164	76.62
252.397	74.62
252.63	72.62
252.863	78.62
253.096	76.62
253.329	80.62
253.562	76.62
253.795	83.62
254.028	86.62
254.261	77.62
254.494	74.62
254.727	78.62
254.96	83.62
255.193	72.62
255.426	77.62
255.659	86.62
255.892	88.62
256.124	82.62
256.357	77.62
256.59	82.62
256.823	56.62
257.056	74.62
257.289	69.62
257.521	70.62
257.754	85.62
257.987	80.62
258.22	82.62
258.452	62.62
258.685	90.62
258.918	73.62
259.151	77.62
259.383	88.62
259.616	76.62
259.849	82.62
260.081	84.62
260.314	84.62
260.547	84.62
260.779	75.62
261.012	89.62
261.244	72.62
261.477	81.62
261.71	88.62
261.942	71.62
262.175	69.62
262.407	89.62
262.64	86.62
262.872	87.62
263.105	88.62
263.337	91.62
263.57	90.62
263.802	84.62
264.035	79.62
264.267	75.62
264.499	88.62
264.732	82.62
264.964	87.62
265.197	82.62
265.429	73.62
265.661	70.62
265.894	63.62
266.126	93.62
266.358	73.62
266.591	91.62
266.823	66.62
267.055	76.62
267.287	77.62
267.52	74.62
267.752	70.62
267.984	69.62
268.216	78.62
268.448	89.62
268.681	87.62
268.913	83.62
269.145	85.62
269.377	67.62
269.609	69.62
269.841	96.62
270.073	70.62
270.306	75.62
270.538	87.62
270.77	74.62
271.002	80.62
271.234	73.62
271.466	82.62
271.698	93.62
271.93	82.62
272.162	73.62
272.394	68.62
272.626	74.62
272.858	84.62
273.09	85.62
273.322	91.62
273.553	81.62
273.785	77.62
274.017	80.62
274.249	59.62
274.481	81.62
274.713	100.62
274.945	81.62
275.176	80.62
275.408	83.62
275.64	79.62
275.872	74.62
276.104	85.62
276.335	82.62
276.567	76.62
276.799	80.62
277.031	81.62
277.262	74.62
277.494	78.62
277.726	83.62
277.957	82.62
278.189	82.62
278.421	73.62
278.652	78.62
278.884	86.62
279.115	76.62
279.347	90.62
279.579	83.62
279.81	78.62
280.042	80.62
280.273	81.62
280.505	72.62
280.736	86.62
280.968	74.62
281.199	86.62
281.431	94.62
281.662	81.62
281.894	86.62
282.125	78.62
282.356	86.62
282.588	82.62
282.819	78.62
283.051	86.62
283.282	88.62
283.513	89.62
283.745	93.62
283.976	84.62
284.207	80.62
284.439	78.62
284.67	75.62
284.901	71.62
285.132	86.62
285.364	83.62
285.595	94.62
285.826	81.62
286.057	72.62
286.288	68.62
286.52	82.62
286.751	72.62
286.982	77.62
287.213	72.62
287.444	86.62
287.675	83.62
287.906	74.62
288.138	81.62
288.369	85.62
288.6	82.62
288.831	73.62
289.062	70.62
289.293	79.62
289.524	80.62
289.755	90.62
289.986	84.62
290.217	71.62
290.448	81.62
290.679	88.62
290.91	74.62
291.141	91.62
291.371	97.62
291.602	86.62
291.833	84.62
292.064	92.62
292.295	94.62
292.526	82.62
292.757	87.62
292.987	82.62
293.218	70.62
293.449	89.62
293.68	88.62
293.91	72.62
294.141	75.62
294.372	81.62
294.603	85.62
294.833	90.62
295.064	69.62
295.295	86.62
295.525	81.62
295.756	72.62
295.987	72.62
296.217	76.62
296.448	84.62
296.679	75.62
296.909	104.62
297.14	78.62
297.37	86.62
297.601	74.62
297.831	95.62
298.062	95.62
298.292	80.62
298.523	93.62
298.753	58.62
298.984	77.62
299.214	84.62
299.445	76.62
299.675	80.62
299.905	100.62
300.136	86.62
300.366	75.62
300.597	98.62
300.827	78.62
301.057	73.62
301.288	76.62
301.518	83.62
301.748	78.62
301.979	96.62
302.209	94.62
302.439	87.62
302.669	88.62
302.9	73.62
303.13	94.62
303.36	89.62
303.59	76.62
303.82	81.62
304.051	80.62
304.281	84.62
304.511	88.62
304.741	73.62
304.971	75.62
305.201	89.62
305.431	88.62
305.661	83.62
305.891	76.62
306.121	76.62
306.352	80.62
306.582	85.62
306.812	87.62
307.042	61.62
307.272	72.62
307.502	80.62
307.731	82.62
307.961	87.62
308.191	80.62
308.421	73.62
308.651	77.62
308.881	79.62
309.111	83.62
309.341	80.62
309.571	74.62
309.8	91.62
310.03	76.62
310.26	85.62
310.49	59.62
310.72	91.62
310.949	80.62
311.179	84.62
311.409	76.62
311.639	80.62
311.868	85.62
312.098	83.62
312.328	79.62
312.557	84.62
312.787	83.62
313.017	83.62
313.246	92.62
313.476	80.62
313.706	71.62
313.935	72.62
314.165	85.62
314.394	81.62
314.624	90.62
314.853	84.62
315.083	92.62
315.312	91.62
315.542	71.62
315.771	85.62
316.001	82.62
316.23	81.62
316.46	74.62
316.689	58.62
316.919	79.62
317.148	100.62
317.377	91.62
317.607	66.62
317.836	66.62
318.065	78.62
318.295	85.62
318.524	83.62
318.753	96.62
318.983	63.62
319.212	74.62
319.441	79.62
319.67	93.62
319.9	84.62
320.129	95.62
320.358	91.62
320.587	70.62
320.816	95.62
321.046	85.62
321.275	88.62
321.504	91.62
321.733	72.62
321.962	75.62
322.191	80.62
322.42	76.62
322.649	88.62
322.878	88.62
323.108	81.62
323.337	77.62
323.566	74.62
323.795	75.62
324.024	63.62
324.253	84.62
324.482	82.62
324.71	81.62
324.939	92.62
325.168	84.62
325.397	73.62
325.626	77.62
325.855	86.62
326.084	73.62
326.313	72.62
326.542	73.62
326.77	78.62
326.999	77.62
327.228	86.62
327.457	73.62
327.686	76.62
327.914	81.62
328.143	96.62
328.372	86.62
328.6	97.62
328.829	74.62
329.058	90.62
329.287	83.62
329.515	90.62
329.744	96.62
329.972	84.62
330.201	90.62
330.43	82.62
330.658	80.62
330.887	74.62
331.115	86.62
331.344	103.62
331.572	92.62
331.801	79.62
332.03	84.62
332.258	65.62
332.486	92.62
332.715	101.62
332.943	95.62
333.172	75.62
333.4	87.62
333.629	64.62
333.857	81.62
334.085	88.62
334.314	87.62
334.542	89.62
334.771	88.62
334.999	96.62
335.227	84.62
335.455	76.62
335.684	78.62
335.912	90.62
336.14	85.62
336.369	72.62
336.597	77.62
336.825	82.62
337.053	85.62
337.281	79.62
337.51	80.62
337.738	73.62
337.966	85.62
338.194	76.62
338.422	82.62
338.65	77.62
338.878	92.62
339.106	84.62
339.334	70.62
339.562	88.62
339.79	66.62
340.018	76.62
340.246	90.62
340.474	76.62
340.702	61.62
340.93	91.62
341.158	82.62
341.386	92.62
341.614	79.62
341.842	80.62
342.07	91.62
342.298	88.62
342.526	78.62
342.754	81.62
342.981	78.62
343.209	87.62
343.437	96.62
343.665	82.62
343.893	79.62
344.12	78.62
344.348	84.62
344.576	79.62
344.804	72.62
345.031	78.62
345.259	82.62
345.487	89.62
345.714	89.62
345.942	87.62
346.17	77.62
346.397	80.62
346.625	65.62
346.853	80.62
347.08	96.62
347.308	80.62
347.535	95.62
347.763	73.62
347.99	80.62
348.218	88.62
348.445	84.62
348.673	89.62
348.9	77.62
349.128	78.62
349.355	62.62
349.583	69.62
349.81	81.62
350.037	102.62
350.265	84.62
350.492	84.62
350.72	73.62
350.947	88.62
351.174	91.62
351.402	68.62
351.629	90.62
351.856	85.62
352.083	73.62
352.311	81.62
352.538	73.62
352.765	67.62
352.992	88.62
353.22	72.62
353.447	69.62
353.674	89.62
353.901	82.62
354.128	88.62
354.355	80.62
354.583	88.62
354.81	79.62
355.037	65.62
355.264	69.62
355.491	79.62
355.718	81.62
355.945	78.62
356.172	68.62
356.399	94.62
356.626	64.62
356.853	73.62
357.08	74.62
357.307	75.62
357.534	75.62
357.761	87.62
357.988	90.62
358.215	87.62
358.441	88.62
358.668	78.62
358.895	84.62
359.122	62.62
359.349	67.62
359.576	78.62
359.802	86.62
360.029	90.62
360.256	73.62
360.483	88.62
360.709	81.62
360.936	88.62
361.163	86.62
361.39	77.62
361.616	69.62
361.843	86.62
362.07	78.62
362.296	79.62
362.523	79.62
362.749	76.62
362.976	76.62
363.203	87.62
363.429	70.62
363.656	75.62
363.882	79.62
364.109	103.62
364.335	80.62
364.562	77.62
364.788	74.62
365.015	85.62
365.241	65.62
365.468	85.62
365.694	96.62
365.92	77.62
366.147	87.62
366.373	88.62
366.599	83.62
366.826	77.62
367.052	80.62
367.278	79.62
367.505	92.62
367.731	84.62
367.957	96.62
368.184	72.62
368.41	79.62
368.636	84.62
368.862	79.62
369.089	83.62
369.315	93.62
369.541	85.62
369.767	86.62
369.993	68.62
370.219	65.62
370.445	72.62
370.672	86.62
370.898	73.62
371.124	78.62
371.35	74.62
371.576	64.62
371.802	78.62
372.028	102.62
372.254	92.62
372.48	84.62
372.706	71.62
372.932	73.62
373.158	74.62
373.384	78.62
373.61	96.62
373.835	72.62
374.061	76.62
374.287	82.62
374.513	92.62
374.739	79.62
374.965	86.62
375.191	70.62
375.416	80.62
375.642	72.62
375.868	94.62
376.094	92.62
376.319	80.62
376.545	72.62
376.771	77.62
376.997	75.62
377.222	69.62
377.448	73.62
377.674	81.62
377.899	78.62
378.125	78.62
378.35	76.62
378.576	71.62
378.802	85.62
379.027	81.62
379.253	68.62
379.478	89.62
379.704	92.62
379.929	82.62
380.155	88.62
380.38	79.62
380.606	75.62
380.831	66.62
381.057	90.62
381.282	87.62
381.507	76.62
381.733	88.62
381.958	85.62
382.184	79.62
382.409	77.62
382.634	80.62
382.86	80.62
383.085	79.62
383.31	85.62
383.535	94.62
383.761	76.62
383.986	76.62
384.211	80.62
384.436	95.62
384.662	74.62
384.887	67.62
385.112	77.62
385.337	83.62
385.562	90.62
385.787	78.62
386.013	68.62
386.238	76.62
386.463	74.62
386.688	80.62
386.913	65.62
387.138	76.62
387.363	77.62
387.588	72.62
387.813	72.62
388.038	76.62
388.263	88.62
388.488	76.62
388.713	72.62
388.938	67.62
389.163	78.62
389.387	82.62
389.612	85.62
389.837	90.62
390.062	82.62
390.287	82.62
390.512	72.62
390.736	77.62
390.961	72.62
391.186	91.62
391.411	77.62
391.636	84.62
391.86	100.62
392.085	86.62
392.31	96.62
392.534	73.62
392.759	79.62
392.984	78.62
393.208	86.62
393.433	87.62
393.658	74.62
393.882	72.62
394.107	74.62
394.331	83.62
394.556	78.62
394.78	73.62
395.005	72.62
395.229	76.62
395.454	67.62
395.678	72.62
395.903	73.62
396.127	67.62
396.352	78.62
396.576	82.62
396.801	80.62
397.025	89.62
397.249	81.62
397.474	78.62
397.698	86.62
397.922	85.62
398.147	74.62
398.371	71.62
398.595	76.62
398.82	79.62
399.044	74.62
399.268	73.62
399.492	72.62
399.717	68.62
399.941	73.62
400.165	77.62
400.389	75.62
400.613	74.62
400.837	82.62
401.062	92.62
401.286	71.62
401.51	72.62
401.734	75.62
401.958	76.62
402.182	76.62
402.406	70.62
402.63	90.62
402.854	77.62
403.078	89.62
403.302	82.62
403.526	69.62
403.75	74.62
403.974	62.62
404.198	68.62
404.422	60.62
404.645	80.62
404.869	82.62
405.093	72.62
405.317	70.62
405.541	77.62
405.765	92.62
405.988	80.62
406.212	79.62
406.436	73.62
406.66	72.62
406.883	82.62
407.107	69.62
407.331	73.62
407.555	77.62
407.778	77.62
408.002	73.62
408.226	84.62
408.449	82.62
408.673	80.62
408.896	84.62
409.12	66.62
409.344	56.62
409.567	84.62
409.791	68.62
410.014	75.62
410.238	76.62
410.461	78.62
410.685	70.62
410.908	77.62
411.132	72.62
411.355	70.62
411.578	77.62
411.802	74.62
412.025	71.62
412.249	74.62
412.472	74.62
412.695	89.62
412.919	67.62
413.142	86.62
413.365	85.62
413.589	84.62
413.812	70.62
414.035	82.62
414.258	84.62
414.482	74.62
414.705	82.62
414.928	90.62
415.151	85.62
415.374	74.62
415.597	82.62
415.821	62.62
416.044	70.62
416.267	78.62
416.49	83.62
416.713	79.62
416.936	63.62
417.159	68.62
417.382	82.62
417.605	80.62
417.828	82.62
418.051	64.62
418.274	76.62
418.497	74.62
418.72	83.62
418.943	82.62
419.166	80.62
419.389	79.62
419.611	78.62
419.834	74.62
420.057	93.62
420.28	78.62
420.503	97.62
420.726	91.62
420.948	75.62
421.171	86.62
421.394	78.62
421.617	65.62
421.839	76.62
422.062	82.62
422.285	79.62
422.507	80.62
422.73	87.62
422.953	91.62
423.175	72.62
423.398	78.62
423.621	76.62
423.843	73.62
424.066	74.62
424.288	72.62
424.511	67.62
424.733	85.62
424.956	80.62
425.178	76.62
425.401	72.62
425.623	95.62
425.846	70.62
426.068	75.62
426.291	70.62
426.513	80.62
426.735	78.62
426.958	88.62
427.18	74.62
427.402	74.62
427.625	86.62
427.847	77.62
428.069	75.62
428.292	68.62
428.514	67.62
428.736	80.62
428.958	82.62
429.181	80.62
429.403	81.62
429.625	86.62
429.847	72.62
430.069	74.62
430.292	83.62
430.514	76.62
430.736	78.62
430.958	75.62
431.18	66.62
431.402	71.62
431.624	78.62
431.846	74.62
432.068	90.62
432.29	81.62
432.512	67.62
432.734	77.62
432.956	85.62
433.178	63.62
433.4	82.62
433.622	80.62
433.844	71.62
434.066	75.62
434.287	82.62
434.509	73.62
434.731	76.62
434.953	81.62
435.175	65.62
435.397	69.62
435.618	72.62
435.84	67.62
436.062	64.62
436.284	74.62
436.505	81.62
436.727	77.62
436.949	70.62
437.17	79.62
437.392	89.62
437.614	74.62
437.835	78.62
438.057	73.62
438.278	76.62
438.5	65.62
438.721	92.62
438.943	78.62
439.165	66.62
439.386	74.62
439.608	79.62
439.829	82.62
440.05	79.62
440.272	79.62
440.493	85.62
440.715	73.62
440.936	75.62
441.158	90.62
441.379	86.62
441.6	91.62
441.822	74.62
442.043	77.62
442.264	92.62
442.486	69.62
442.707	81.62
442.928	81.62
443.149	74.62
443.371	78.62
443.592	73.62
443.813	80.62
444.034	70.62
444.255	79.62
444.476	76.62
444.698	88.62
444.919	74.62
445.14	142.62
445.361	114.62
445.582	73.62
445.803	87.62
446.024	80.62
446.245	83.62
446.466	76.62
446.687	76.62
446.908	76.62
447.129	66.62
447.35	87.62
447.571	77.62
447.792	81.62
448.013	82.62
448.234	87.62
448.455	94.62
448.675	73.62
448.896	73.62
449.117	53.62
449.338	76.62
449.559	84.62
449.779	79.62
450	75.62
450.221	81.62
450.442	80.62
450.662	89.62
450.883	79.62
451.104	71.62
451.324	71.62
451.545	74.62
451.766	74.62
451.986	80.62
452.207	78.62
452.428	86.62
452.648	101.62
452.869	70.62
453.089	53.62
453.31	72.62
453.53	75.62
453.751	76.62
453.971	85.62
454.192	79.62
454.412	73.62
454.633	78.62
454.853	80.62
455.073	86.62
455.294	81.62
455.514	90.62
455.734	79.62
455.955	64.62
456.175	80.62
456.395	89.62
456.616	80.62
456.836	67.62
457.056	73.62
457.276	91.62
457.497	81.62
457.717	78.62
457.937	72.62
458.157	76.62
458.377	69.62
458.598	87.62
458.818	84.62
459.038	75.62
459.258	75.62
459.478	72.62
459.698	86.62
459.918	80.62
460.138	70.62
460.358	66.62
460.578	84.62
460.798	92.62
461.018	83.62
461.238	76.62
461.458	69.62
461.678	73.62
461.898	87.62
462.118	74.62
462.338	61.62
462.558	78.62
462.777	80.62
462.997	82.62
463.217	83.62
463.437	80.62
463.657	67.62
463.876	67.62
464.096	81.62
464.316	67.62
464.536	74.62
464.755	78.62
464.975	77.62
465.195	79.62
465.414	86.62
465.634	79.62
465.854	76.62
466.073	82.62
466.293	84.62
466.512	88.62
466.732	71.62
466.951	86.62
467.171	93.62
467.391	85.62
467.61	82.62
467.829	76.62
468.049	78.62
468.268	65.62
468.488	77.62
468.707	74.62
468.927	77.62
469.146	76.62
469.365	75.62
469.585	79.62
469.804	73.62
470.023	85.62
470.243	75.62
470.462	70.62
470.681	54.62
470.901	72.62
471.12	69.62
471.339	73.62
471.558	74.62
471.777	64.62
471.997	76.62
472.216	83.62
472.435	75.62
472.654	92.62
472.873	78.62
473.092	88.62
473.311	80.62
473.53	80.62
473.749	81.62
473.968	76.62
474.187	97.62
474.406	74.62
474.625	94.62
474.844	97.62
475.063	85.62
475.282	73.62
475.501	90.62
475.72	82.62
475.939	89.62
476.158	76.62
476.377	76.62
476.596	63.62
476.814	67.62
477.033	84.62
477.252	74.62
477.471	85.62
477.69	80.62
477.908	79.62
478.127	73.62
478.346	64.62
478.564	83.62
478.783	78.62
479.002	62.62
479.22	65.62
479.439	84.62
479.658	76.62
479.876	77.62
480.095	61.62
480.313	78.62
480.532	77.62
480.751	79.62
480.969	83.62
481.188	86.62
481.406	79.62
481.624	94.62
481.843	84.62
482.061	81.62
482.28	84.62
482.498	88.62
482.717	93.62
482.935	75.62
483.153	86.62
483.372	94.62
483.59	72.62
483.808	75.62
484.027	85.62
484.245	80.62
484.463	76.62
484.681	84.62
484.9	95.62
485.118	59.62
485.336	88.62
485.554	81.62
485.772	88.62
485.99	81.62
486.209	87.62
486.427	92.62
486.645	92.62
486.863	79.62
487.081	76.62
487.299	79.62
487.517	78.62
487.735	94.62
487.953	85.62
488.171	89.62
488.389	78.62
488.607	82.62
488.825	87.62
489.043	80.62
489.261	87.62
489.479	88.62
489.696	83.62
489.914	76.62
490.132	87.62
490.35	72.62
490.568	69.62
490.786	85.62
491.003	81.62
491.221	80.62
491.439	88.62
491.657	76.62
491.874	84.62
492.092	66.62
492.31	80.62
492.527	65.62
492.745	74.62
492.963	80.62
493.18	74.62
493.398	75.62
493.615	84.62
493.833	80.62
494.05	84.62
494.268	76.62
494.485	80.62
494.703	86.62
494.92	86.62
495.138	77.62
495.355	89.62
495.573	86.62
495.79	65.62
496.008	75.62
496.225	85.62
496.442	85.62
496.66	79.62
496.877	80.62
497.094	98.62
497.312	93.62
497.529	66.62
497.746	77.62
497.963	95.62
498.181	71.62
498.398	71.62
498.615	86.62
498.832	93.62
499.049	76.62
499.267	84.62
499.484	82.62
499.701	76.62
499.918	90.62
500.135	70.62
500.352	75.62
500.569	86.62
500.786	71.62
501.003	81.62
501.22	87.62
501.437	80.62
501.654	68.62
501.871	87.62
502.088	81.62
502.305	75.62
502.522	84.62
502.739	82.62
502.956	78.62
503.172	81.62
503.389	73.62
503.606	89.62
503.823	92.62
504.04	87.62
504.256	82.62
504.473	80.62
504.69	77.62
504.907	87.62
505.123	88.62
505.34	77.62
505.557	90.62
505.773	85.62
505.99	83.62
506.207	80.62
506.423	92.62
506.64	93.62
506.856	89.62
507.073	84.62
507.289	94.62
507.506	82.62
507.722	80.62
507.939	80.62
508.155	82.62
508.372	86.62
508.588	72.62
508.805	78.62
509.021	82.62
509.238	88.62
509.454	78.62
509.67	83.62
509.887	80.62
510.103	97.62
510.319	86.62
510.536	88.62
510.752	78.62
510.968	83.62
511.184	88.62
511.401	85.62
511.617	84.62
511.833	78.62
512.049	65.62
512.265	85.62
512.481	85.62
512.698	84.62
512.914	80.62
513.13	78.62
513.346	93.62
513.562	90.62
513.778	94.62
513.994	85.62
514.21	84.62
514.426	82.62
514.642	78.62
514.858	80.62
515.074	80.62
515.29	72.62
515.506	90.62
515.721	96.62
515.937	73.62
516.153	78.62
516.369	77.62
516.585	77.62
516.801	77.62
517.016	84.62
517.232	81.62
517.448	79.62
517.664	76.62
517.879	74.62
518.095	84.62
518.311	80.62
518.527	85.62
518.742	81.62
518.958	67.62
519.173	89.62
519.389	83.62
519.605	71.62
519.82	79.62
520.036	70.62
