Data from Background_1_HRD10591_00029.txt Node
Date: Wed Nov 05 14:39:12 EST 2025
User: Yrep
Spectrometer: HR+D1059
Trigger mode: 1
Integration Time (sec): 1.000000E-1
Scans to average: 1
Electric dark correction enabled: true
Nonlinearity correction enabled: false
Boxcar width: 0
XAxis mode: Wavelengths
Number of Pixels in Spectrum: 2048
>>>>>Begin Spectral Data<<<<<
223.165	-13.88
223.4	-13.88
223.635	-13.88
223.869	-23.88
224.104	-18.88
224.338	-11.88
224.573	-17.88
224.808	-7.88
225.042	-2.88
225.277	-4.88
225.511	4.12
225.746	-0.88
225.98	5.12
226.215	24.12
226.449	19.12
226.683	13.12
226.918	16.12
227.152	21.12
227.387	30.12
227.621	52.12
227.856	45.12
228.09	49.12
228.324	57.12
228.559	62.12
228.793	85.12
229.027	71.12
229.262	61.12
229.496	56.12
229.73	84.12
229.964	68.12
230.199	59.12
230.433	76.12
230.667	78.12
230.901	96.12
231.136	71.12
231.37	82.12
231.604	83.12
231.838	77.12
232.072	78.12
232.306	84.12
232.541	88.12
232.775	91.12
233.009	97.12
233.243	106.12
233.477	74.12
233.711	78.12
233.945	87.12
234.179	84.12
234.413	86.12
234.647	96.12
234.881	71.12
235.115	100.12
235.349	97.12
235.583	80.12
235.817	89.12
236.051	88.12
236.285	89.12
236.519	92.12
236.753	70.12
236.987	90.12
237.221	86.12
237.455	76.12
237.689	82.12
237.922	85.12
238.156	71.12
238.39	72.12
238.624	68.12
238.858	79.12
239.091	80.12
239.325	81.12
239.559	76.12
239.793	79.12
240.027	73.12
240.26	79.12
240.494	69.12
240.728	78.12
240.961	76.12
241.195	82.12
241.429	78.12
241.662	90.12
241.896	71.12
242.13	80.12
242.363	96.12
242.597	87.12
242.83	74.12
243.064	81.12
243.298	75.12
243.531	64.12
243.765	88.12
243.998	76.12
244.232	78.12
244.465	88.12
244.699	82.12
244.932	70.12
245.166	88.12
245.399	92.12
245.633	83.12
245.866	84.12
246.099	85.12
246.333	69.12
246.566	81.12
246.8	79.12
247.033	79.12
247.266	90.12
247.5	82.12
247.733	67.12
247.966	72.12
248.2	85.12
248.433	78.12
248.666	76.12
248.899	87.12
249.133	87.12
249.366	77.12
249.599	85.12
249.832	90.12
250.066	93.12
250.299	71.12
250.532	83.12
250.765	86.12
250.998	78.12
251.231	82.12
251.465	90.12
251.698	82.12
251.931	76.12
252.164	95.12
252.397	93.12
252.63	72.12
252.863	75.12
253.096	80.12
253.329	98.12
253.562	78.12
253.795	76.12
254.028	88.12
254.261	88.12
254.494	81.12
254.727	91.12
254.96	79.12
255.193	77.12
255.426	78.12
255.659	86.12
255.892	86.12
256.124	83.12
256.357	87.12
256.59	78.12
256.823	70.12
257.056	82.12
257.289	72.12
257.521	72.12
257.754	88.12
257.987	92.12
258.22	92.12
258.452	81.12
258.685	82.12
258.918	89.12
259.151	99.12
259.383	85.12
259.616	87.12
259.849	78.12
260.081	90.12
260.314	80.12
260.547	95.12
260.779	80.12
261.012	72.12
261.244	75.12
261.477	74.12
261.71	82.12
261.942	90.12
262.175	81.12
262.407	74.12
262.64	90.12
262.872	80.12
263.105	74.12
263.337	83.12
263.57	73.12
263.802	82.12
264.035	77.12
264.267	92.12
264.499	80.12
264.732	89.12
264.964	72.12
265.197	70.12
265.429	87.12
265.661	96.12
265.894	76.12
266.126	89.12
266.358	76.12
266.591	79.12
266.823	79.12
267.055	82.12
267.287	96.12
267.52	72.12
267.752	90.12
267.984	80.12
268.216	87.12
268.448	83.12
268.681	75.12
268.913	83.12
269.145	91.12
269.377	86.12
269.609	80.12
269.841	81.12
270.073	78.12
270.306	92.12
270.538	89.12
270.77	72.12
271.002	97.12
271.234	87.12
271.466	80.12
271.698	88.12
271.93	89.12
272.162	86.12
272.394	89.12
272.626	82.12
272.858	87.12
273.09	100.12
273.322	90.12
273.553	91.12
273.785	95.12
274.017	80.12
274.249	92.12
274.481	82.12
274.713	86.12
274.945	80.12
275.176	85.12
275.408	78.12
275.64	73.12
275.872	84.12
276.104	82.12
276.335	83.12
276.567	87.12
276.799	78.12
277.031	71.12
277.262	90.12
277.494	68.12
277.726	78.12
277.957	80.12
278.189	77.12
278.421	72.12
278.652	86.12
278.884	90.12
279.115	96.12
279.347	92.12
279.579	76.12
279.81	80.12
280.042	88.12
280.273	87.12
280.505	85.12
280.736	93.12
280.968	84.12
281.199	78.12
281.431	80.12
281.662	93.12
281.894	88.12
282.125	81.12
282.356	94.12
282.588	84.12
282.819	68.12
283.051	89.12
283.282	100.12
283.513	95.12
283.745	82.12
283.976	93.12
284.207	80.12
284.439	83.12
284.67	99.12
284.901	74.12
285.132	78.12
285.364	81.12
285.595	87.12
285.826	78.12
286.057	81.12
286.288	90.12
286.52	79.12
286.751	92.12
286.982	83.12
287.213	84.12
287.444	91.12
287.675	76.12
287.906	94.12
288.138	86.12
288.369	83.12
288.6	81.12
288.831	92.12
289.062	94.12
289.293	83.12
289.524	84.12
289.755	85.12
289.986	77.12
290.217	83.12
290.448	91.12
290.679	82.12
290.91	101.12
291.141	93.12
291.371	98.12
291.602	92.12
291.833	102.12
292.064	92.12
292.295	92.12
292.526	98.12
292.757	86.12
292.987	77.12
293.218	100.12
293.449	89.12
293.68	90.12
293.91	78.12
294.141	88.12
294.372	78.12
294.603	84.12
294.833	76.12
295.064	87.12
295.295	70.12
295.525	89.12
295.756	94.12
295.987	78.12
296.217	88.12
296.448	87.12
296.679	87.12
296.909	81.12
297.14	99.12
297.37	94.12
297.601	74.12
297.831	83.12
298.062	87.12
298.292	94.12
298.523	83.12
298.753	78.12
298.984	65.12
299.214	92.12
299.445	94.12
299.675	92.12
299.905	92.12
300.136	104.12
300.366	92.12
300.597	92.12
300.827	99.12
301.057	92.12
301.288	94.12
301.518	73.12
301.748	99.12
301.979	103.12
302.209	102.12
302.439	85.12
302.669	86.12
302.9	79.12
303.13	87.12
303.36	76.12
303.59	91.12
303.82	81.12
304.051	82.12
304.281	97.12
304.511	84.12
304.741	86.12
304.971	87.12
305.201	95.12
305.431	91.12
305.661	91.12
305.891	90.12
306.121	104.12
306.352	82.12
306.582	91.12
306.812	99.12
307.042	78.12
307.272	80.12
307.502	91.12
307.731	84.12
307.961	107.12
308.191	93.12
308.421	86.12
308.651	94.12
308.881	91.12
309.111	84.12
309.341	82.12
309.571	103.12
309.8	82.12
310.03	84.12
310.26	94.12
310.49	93.12
310.72	91.12
310.949	94.12
311.179	91.12
311.409	79.12
311.639	78.12
311.868	69.12
312.098	78.12
312.328	88.12
312.557	93.12
312.787	84.12
313.017	75.12
313.246	83.12
313.476	94.12
313.706	100.12
313.935	98.12
314.165	87.12
314.394	87.12
314.624	78.12
314.853	87.12
315.083	89.12
315.312	85.12
315.542	72.12
315.771	74.12
316.001	80.12
316.23	94.12
316.46	88.12
316.689	81.12
316.919	72.12
317.148	72.12
317.377	76.12
317.607	75.12
317.836	79.12
318.065	100.12
318.295	78.12
318.524	80.12
318.753	82.12
318.983	90.12
319.212	81.12
319.441	88.12
319.67	80.12
319.9	86.12
320.129	80.12
320.358	67.12
320.587	82.12
320.816	100.12
321.046	82.12
321.275	72.12
321.504	91.12
321.733	87.12
321.962	74.12
322.191	80.12
322.42	70.12
322.649	94.12
322.878	88.12
323.108	96.12
323.337	83.12
323.566	94.12
323.795	76.12
324.024	84.12
324.253	85.12
324.482	79.12
324.71	82.12
324.939	98.12
325.168	92.12
325.397	84.12
325.626	79.12
325.855	92.12
326.084	80.12
326.313	90.12
326.542	73.12
326.77	98.12
326.999	93.12
327.228	76.12
327.457	81.12
327.686	79.12
327.914	84.12
328.143	88.12
328.372	87.12
328.6	86.12
328.829	94.12
329.058	74.12
329.287	91.12
329.515	95.12
329.744	88.12
329.972	88.12
330.201	83.12
330.43	87.12
330.658	93.12
330.887	78.12
331.115	93.12
331.344	99.12
331.572	99.12
331.801	85.12
332.03	94.12
332.258	94.12
332.486	87.12
332.715	83.12
332.943	78.12
333.172	96.12
333.4	91.12
333.629	82.12
333.857	76.12
334.085	88.12
334.314	88.12
334.542	95.12
334.771	95.12
334.999	91.12
335.227	92.12
335.455	79.12
335.684	89.12
335.912	86.12
336.14	103.12
336.369	97.12
336.597	85.12
336.825	92.12
337.053	86.12
337.281	86.12
337.51	86.12
337.738	83.12
337.966	96.12
338.194	80.12
338.422	94.12
338.65	84.12
338.878	86.12
339.106	77.12
339.334	93.12
339.562	90.12
339.79	86.12
340.018	88.12
340.246	90.12
340.474	68.12
340.702	84.12
340.93	86.12
341.158	96.12
341.386	80.12
341.614	94.12
341.842	86.12
342.07	85.12
342.298	85.12
342.526	77.12
342.754	77.12
342.981	94.12
343.209	79.12
343.437	84.12
343.665	85.12
343.893	82.12
344.12	84.12
344.348	80.12
344.576	81.12
344.804	85.12
345.031	82.12
345.259	70.12
345.487	85.12
345.714	90.12
345.942	86.12
346.17	92.12
346.397	79.12
346.625	82.12
346.853	62.12
347.08	80.12
347.308	87.12
347.535	95.12
347.763	87.12
347.99	87.12
348.218	71.12
348.445	96.12
348.673	80.12
348.9	81.12
349.128	86.12
349.355	86.12
349.583	91.12
349.81	92.12
350.037	81.12
350.265	90.12
350.492	92.12
350.72	67.12
350.947	83.12
351.174	86.12
351.402	82.12
351.629	81.12
351.856	86.12
352.083	101.12
352.311	72.12
352.538	81.12
352.765	77.12
352.992	98.12
353.22	85.12
353.447	86.12
353.674	85.12
353.901	84.12
354.128	84.12
354.355	72.12
354.583	84.12
354.81	78.12
355.037	72.12
355.264	76.12
355.491	98.12
355.718	84.12
355.945	86.12
356.172	87.12
356.399	85.12
356.626	81.12
356.853	82.12
357.08	93.12
357.307	95.12
357.534	84.12
357.761	97.12
357.988	87.12
358.215	80.12
358.441	83.12
358.668	82.12
358.895	88.12
359.122	88.12
359.349	81.12
359.576	83.12
359.802	98.12
360.029	90.12
360.256	97.12
360.483	94.12
360.709	79.12
360.936	95.12
361.163	90.12
361.39	82.12
361.616	80.12
361.843	94.12
362.07	75.12
362.296	72.12
362.523	84.12
362.749	90.12
362.976	92.12
363.203	90.12
363.429	78.12
363.656	76.12
363.882	85.12
364.109	84.12
364.335	82.12
364.562	99.12
364.788	77.12
365.015	78.12
365.241	100.12
365.468	108.12
365.694	92.12
365.92	82.12
366.147	78.12
366.373	83.12
366.599	91.12
366.826	91.12
367.052	102.12
367.278	104.12
367.505	85.12
367.731	87.12
367.957	94.12
368.184	94.12
368.41	80.12
368.636	82.12
368.862	87.12
369.089	90.12
369.315	74.12
369.541	81.12
369.767	91.12
369.993	94.12
370.219	89.12
370.445	84.12
370.672	81.12
370.898	84.12
371.124	77.12
371.35	79.12
371.576	90.12
371.802	86.12
372.028	95.12
372.254	93.12
372.48	94.12
372.706	84.12
372.932	85.12
373.158	91.12
373.384	84.12
373.61	107.12
373.835	87.12
374.061	82.12
374.287	80.12
374.513	78.12
374.739	90.12
374.965	77.12
375.191	76.12
375.416	87.12
375.642	83.12
375.868	95.12
376.094	100.12
376.319	75.12
376.545	79.12
376.771	81.12
376.997	88.12
377.222	70.12
377.448	86.12
377.674	78.12
377.899	78.12
378.125	88.12
378.35	88.12
378.576	80.12
378.802	94.12
379.027	100.12
379.253	97.12
379.478	79.12
379.704	77.12
379.929	88.12
380.155	84.12
380.38	94.12
380.606	91.12
380.831	76.12
381.057	93.12
381.282	86.12
381.507	95.12
381.733	91.12
381.958	68.12
382.184	92.12
382.409	100.12
382.634	102.12
382.86	82.12
383.085	81.12
383.31	76.12
383.535	87.12
383.761	86.12
383.986	87.12
384.211	87.12
384.436	87.12
384.662	85.12
384.887	90.12
385.112	87.12
385.337	84.12
385.562	87.12
385.787	98.12
386.013	87.12
386.238	78.12
386.463	81.12
386.688	95.12
386.913	78.12
387.138	79.12
387.363	83.12
387.588	79.12
387.813	84.12
388.038	73.12
388.263	76.12
388.488	83.12
388.713	81.12
388.938	86.12
389.163	80.12
389.387	72.12
389.612	78.12
389.837	82.12
390.062	97.12
390.287	94.12
390.512	95.12
390.736	95.12
390.961	75.12
391.186	79.12
391.411	90.12
391.636	88.12
391.86	94.12
392.085	83.12
392.31	100.12
392.534	79.12
392.759	80.12
392.984	80.12
393.208	97.12
393.433	73.12
393.658	82.12
393.882	83.12
394.107	98.12
394.331	77.12
394.556	85.12
394.78	92.12
395.005	76.12
395.229	74.12
395.454	87.12
395.678	84.12
395.903	82.12
396.127	92.12
396.352	75.12
396.576	78.12
396.801	80.12
397.025	76.12
397.249	87.12
397.474	74.12
397.698	82.12
397.922	97.12
398.147	69.12
398.371	91.12
398.595	80.12
398.82	82.12
399.044	82.12
399.268	87.12
399.492	78.12
399.717	80.12
399.941	71.12
400.165	74.12
400.389	74.12
400.613	91.12
400.837	85.12
401.062	90.12
401.286	86.12
401.51	94.12
401.734	78.12
401.958	86.12
402.182	86.12
402.406	81.12
402.63	87.12
402.854	81.12
403.078	84.12
403.302	85.12
403.526	90.12
403.75	90.12
403.974	63.12
404.198	76.12
404.422	84.12
404.645	81.12
404.869	79.12
405.093	84.12
405.317	96.12
405.541	82.12
405.765	88.12
405.988	91.12
406.212	91.12
406.436	78.12
406.66	94.12
406.883	70.12
407.107	79.12
407.331	82.12
407.555	78.12
407.778	91.12
408.002	97.12
408.226	79.12
408.449	80.12
408.673	72.12
408.896	73.12
409.12	83.12
409.344	92.12
409.567	81.12
409.791	83.12
410.014	80.12
410.238	91.12
410.461	89.12
410.685	77.12
410.908	79.12
411.132	84.12
411.355	79.12
411.578	83.12
411.802	78.12
412.025	83.12
412.249	85.12
412.472	88.12
412.695	91.12
412.919	83.12
413.142	76.12
413.365	93.12
413.589	85.12
413.812	78.12
414.035	92.12
414.258	81.12
414.482	92.12
414.705	82.12
414.928	81.12
415.151	82.12
415.374	87.12
415.597	91.12
415.821	73.12
416.044	77.12
416.267	98.12
416.49	80.12
416.713	74.12
416.936	78.12
417.159	81.12
417.382	74.12
417.605	79.12
417.828	76.12
418.051	90.12
418.274	78.12
418.497	80.12
418.72	71.12
418.943	79.12
419.166	91.12
419.389	91.12
419.611	85.12
419.834	90.12
420.057	84.12
420.28	74.12
420.503	68.12
420.726	101.12
420.948	95.12
421.171	62.12
421.394	79.12
421.617	86.12
421.839	89.12
422.062	86.12
422.285	82.12
422.507	80.12
422.73	64.12
422.953	82.12
423.175	80.12
423.398	90.12
423.621	83.12
423.843	77.12
424.066	82.12
424.288	92.12
424.511	94.12
424.733	92.12
424.956	83.12
425.178	68.12
425.401	76.12
425.623	86.12
425.846	78.12
426.068	75.12
426.291	92.12
426.513	73.12
426.735	80.12
426.958	87.12
427.18	97.12
427.402	85.12
427.625	96.12
427.847	83.12
428.069	88.12
428.292	88.12
428.514	83.12
428.736	80.12
428.958	76.12
429.181	83.12
429.403	79.12
429.625	71.12
429.847	82.12
430.069	90.12
430.292	91.12
430.514	83.12
430.736	61.12
430.958	86.12
431.18	75.12
431.402	80.12
431.624	84.12
431.846	84.12
432.068	83.12
432.29	102.12
432.512	80.12
432.734	70.12
432.956	78.12
433.178	74.12
433.4	79.12
433.622	86.12
433.844	80.12
434.066	85.12
434.287	88.12
434.509	86.12
434.731	80.12
434.953	86.12
435.175	83.12
435.397	83.12
435.618	94.12
435.84	83.12
436.062	77.12
436.284	90.12
436.505	75.12
436.727	93.12
436.949	76.12
437.17	70.12
437.392	87.12
437.614	73.12
437.835	80.12
438.057	83.12
438.278	71.12
438.5	86.12
438.721	78.12
438.943	94.12
439.165	83.12
439.386	54.12
439.608	78.12
439.829	95.12
440.05	101.12
440.272	76.12
440.493	83.12
440.715	78.12
440.936	81.12
441.158	75.12
441.379	80.12
441.6	69.12
441.822	78.12
442.043	81.12
442.264	78.12
442.486	80.12
442.707	75.12
442.928	78.12
443.149	84.12
443.371	69.12
443.592	82.12
443.813	71.12
444.034	80.12
444.255	76.12
444.476	95.12
444.698	76.12
444.919	95.12
445.14	156.12
445.361	99.12
445.582	92.12
445.803	76.12
446.024	89.12
446.245	82.12
446.466	90.12
446.687	94.12
446.908	85.12
447.129	82.12
447.35	82.12
447.571	68.12
447.792	71.12
448.013	83.12
448.234	99.12
448.455	84.12
448.675	73.12
448.896	68.12
449.117	90.12
449.338	80.12
449.559	78.12
449.779	82.12
450	94.12
450.221	75.12
450.442	73.12
450.662	79.12
450.883	86.12
451.104	92.12
451.324	86.12
451.545	80.12
451.766	72.12
451.986	78.12
452.207	92.12
452.428	82.12
452.648	83.12
452.869	93.12
453.089	85.12
453.31	83.12
453.53	87.12
453.751	84.12
453.971	83.12
454.192	89.12
454.412	83.12
454.633	86.12
454.853	83.12
455.073	89.12
455.294	78.12
455.514	77.12
455.734	87.12
455.955	91.12
456.175	83.12
456.395	70.12
456.616	87.12
456.836	82.12
457.056	78.12
457.276	64.12
457.497	68.12
457.717	71.12
457.937	85.12
458.157	96.12
458.377	81.12
458.598	86.12
458.818	69.12
459.038	79.12
459.258	81.12
459.478	77.12
459.698	73.12
459.918	94.12
460.138	86.12
460.358	83.12
460.578	82.12
460.798	88.12
461.018	90.12
461.238	78.12
461.458	79.12
461.678	79.12
461.898	87.12
462.118	89.12
462.338	74.12
462.558	89.12
462.777	86.12
462.997	70.12
463.217	84.12
463.437	77.12
463.657	78.12
463.876	84.12
464.096	80.12
464.316	93.12
464.536	85.12
464.755	84.12
464.975	85.12
465.195	77.12
465.414	83.12
465.634	88.12
465.854	86.12
466.073	88.12
466.293	96.12
466.512	89.12
466.732	90.12
466.951	86.12
467.171	90.12
467.391	83.12
467.61	71.12
467.829	76.12
468.049	99.12
468.268	86.12
468.488	97.12
468.707	78.12
468.927	98.12
469.146	89.12
469.365	88.12
469.585	79.12
469.804	93.12
470.023	78.12
470.243	100.12
470.462	88.12
470.681	76.12
470.901	78.12
471.12	84.12
471.339	99.12
471.558	86.12
471.777	78.12
471.997	85.12
472.216	84.12
472.435	85.12
472.654	82.12
472.873	69.12
473.092	81.12
473.311	76.12
473.53	82.12
473.749	76.12
473.968	84.12
474.187	98.12
474.406	85.12
474.625	72.12
474.844	84.12
475.063	89.12
475.282	81.12
475.501	87.12
475.72	79.12
475.939	93.12
476.158	88.12
476.377	82.12
476.596	76.12
476.814	90.12
477.033	78.12
477.252	86.12
477.471	87.12
477.69	82.12
477.908	88.12
478.127	107.12
478.346	83.12
478.564	88.12
478.783	91.12
479.002	79.12
479.22	86.12
479.439	95.12
479.658	78.12
479.876	86.12
480.095	96.12
480.313	82.12
480.532	68.12
480.751	90.12
480.969	87.12
481.188	77.12
481.406	88.12
481.624	86.12
481.843	82.12
482.061	81.12
482.28	86.12
482.498	90.12
482.717	95.12
482.935	84.12
483.153	70.12
483.372	76.12
483.59	80.12
483.808	84.12
484.027	84.12
484.245	91.12
484.463	83.12
484.681	103.12
484.9	86.12
485.118	93.12
485.336	85.12
485.554	79.12
485.772	87.12
485.99	81.12
486.209	82.12
486.427	73.12
486.645	66.12
486.863	78.12
487.081	74.12
487.299	90.12
487.517	101.12
487.735	85.12
487.953	81.12
488.171	69.12
488.389	78.12
488.607	84.12
488.825	70.12
489.043	91.12
489.261	83.12
489.479	90.12
489.696	90.12
489.914	100.12
490.132	98.12
490.35	89.12
490.568	80.12
490.786	76.12
491.003	84.12
491.221	72.12
491.439	72.12
491.657	79.12
491.874	96.12
492.092	85.12
492.31	92.12
492.527	87.12
492.745	82.12
492.963	71.12
493.18	90.12
493.398	86.12
493.615	82.12
493.833	88.12
494.05	80.12
494.268	83.12
494.485	73.12
494.703	88.12
494.92	76.12
495.138	83.12
495.355	90.12
495.573	83.12
495.79	83.12
496.008	92.12
496.225	78.12
496.442	82.12
496.66	91.12
496.877	81.12
497.094	86.12
497.312	87.12
497.529	81.12
497.746	82.12
497.963	85.12
498.181	88.12
498.398	84.12
498.615	87.12
498.832	76.12
499.049	94.12
499.267	90.12
499.484	78.12
499.701	89.12
499.918	76.12
500.135	91.12
500.352	79.12
500.569	94.12
500.786	76.12
501.003	78.12
501.22	67.12
501.437	80.12
501.654	91.12
501.871	78.12
502.088	79.12
502.305	87.12
502.522	86.12
502.739	101.12
502.956	90.12
503.172	87.12
503.389	80.12
503.606	76.12
503.823	96.12
504.04	80.12
504.256	83.12
504.473	75.12
504.69	73.12
504.907	87.12
505.123	81.12
505.34	80.12
505.557	87.12
505.773	96.12
505.99	83.12
506.207	84.12
506.423	88.12
506.64	92.12
506.856	92.12
507.073	76.12
507.289	87.12
507.506	83.12
507.722	87.12
507.939	82.12
508.155	87.12
508.372	85.12
508.588	80.12
508.805	86.12
509.021	90.12
509.238	97.12
509.454	98.12
509.67	94.12
509.887	95.12
510.103	80.12
510.319	91.12
510.536	80.12
510.752	86.12
510.968	90.12
511.184	84.12
511.401	86.12
511.617	84.12
511.833	86.12
512.049	84.12
512.265	88.12
512.481	86.12
512.698	75.12
512.914	95.12
513.13	93.12
513.346	98.12
513.562	91.12
513.778	81.12
513.994	86.12
514.21	87.12
514.426	87.12
514.642	97.12
514.858	92.12
515.074	68.12
515.29	96.12
515.506	84.12
515.721	75.12
515.937	87.12
516.153	78.12
516.369	82.12
516.585	90.12
516.801	95.12
517.016	91.12
517.232	92.12
517.448	88.12
517.664	76.12
517.879	86.12
518.095	82.12
518.311	90.12
518.527	84.12
518.742	91.12
518.958	83.12
519.173	69.12
519.389	87.12
519.605	85.12
