Data from Background_1_HRD10591_00011.txt Node
Date: Wed Nov 05 14:39:03 EST 2025
User: Yrep
Spectrometer: HR+D1059
Trigger mode: 1
Integration Time (sec): 1.000000E-1
Scans to average: 1
Electric dark correction enabled: true
Nonlinearity correction enabled: false
Boxcar width: 0
XAxis mode: Wavelengths
Number of Pixels in Spectrum: 2048
>>>>>Begin Spectral Data<<<<<
223.165	-18.69
223.4	-18.69
223.635	-18.69
223.869	-24.69
224.104	-8.69
224.338	-35.69
224.573	-20.69
224.808	7.31
225.042	5.31
225.277	-0.69
225.511	5.31
225.746	-0.69
225.98	8.31
226.215	14.31
226.449	15.31
226.683	17.31
226.918	9.31
227.152	27.31
227.387	33.31
227.621	28.31
227.856	38.31
228.09	51.31
228.324	47.31
228.559	53.31
228.793	68.31
229.027	47.31
229.262	70.31
229.496	60.31
229.73	79.31
229.964	65.31
230.199	68.31
230.433	58.31
230.667	88.31
230.901	77.31
231.136	75.31
231.37	82.31
231.604	68.31
231.838	78.31
232.072	82.31
232.306	80.31
232.541	74.31
232.775	89.31
233.009	77.31
233.243	67.31
233.477	67.31
233.711	80.31
233.945	80.31
234.179	68.31
234.413	67.31
234.647	82.31
234.881	83.31
235.115	70.31
235.349	80.31
235.583	83.31
235.817	73.31
236.051	76.31
236.285	67.31
236.519	75.31
236.753	70.31
236.987	68.31
237.221	85.31
237.455	83.31
237.689	75.31
237.922	81.31
238.156	75.31
238.39	70.31
238.624	91.31
238.858	88.31
239.091	75.31
239.325	67.31
239.559	79.31
239.793	81.31
240.027	79.31
240.26	73.31
240.494	76.31
240.728	66.31
240.961	63.31
241.195	65.31
241.429	65.31
241.662	81.31
241.896	78.31
242.13	86.31
242.363	70.31
242.597	57.31
242.83	83.31
243.064	71.31
243.298	69.31
243.531	68.31
243.765	72.31
243.998	70.31
244.232	75.31
244.465	80.31
244.699	71.31
244.932	68.31
245.166	80.31
245.399	62.31
245.633	70.31
245.866	79.31
246.099	65.31
246.333	75.31
246.566	81.31
246.8	70.31
247.033	91.31
247.266	68.31
247.5	76.31
247.733	81.31
247.966	89.31
248.2	61.31
248.433	67.31
248.666	75.31
248.899	79.31
249.133	78.31
249.366	81.31
249.599	76.31
249.832	78.31
250.066	74.31
250.299	77.31
250.532	67.31
250.765	85.31
250.998	72.31
251.231	77.31
251.465	87.31
251.698	81.31
251.931	90.31
252.164	81.31
252.397	73.31
252.63	74.31
252.863	87.31
253.096	69.31
253.329	70.31
253.562	71.31
253.795	85.31
254.028	79.31
254.261	87.31
254.494	82.31
254.727	83.31
254.96	91.31
255.193	84.31
255.426	81.31
255.659	67.31
255.892	78.31
256.124	78.31
256.357	88.31
256.59	75.31
256.823	59.31
257.056	90.31
257.289	91.31
257.521	87.31
257.754	89.31
257.987	79.31
258.22	71.31
258.452	68.31
258.685	74.31
258.918	85.31
259.151	77.31
259.383	78.31
259.616	86.31
259.849	75.31
260.081	73.31
260.314	79.31
260.547	79.31
260.779	85.31
261.012	80.31
261.244	77.31
261.477	82.31
261.71	82.31
261.942	94.31
262.175	93.31
262.407	69.31
262.64	74.31
262.872	85.31
263.105	85.31
263.337	95.31
263.57	90.31
263.802	90.31
264.035	77.31
264.267	66.31
264.499	73.31
264.732	81.31
264.964	75.31
265.197	66.31
265.429	74.31
265.661	82.31
265.894	87.31
266.126	76.31
266.358	89.31
266.591	77.31
266.823	102.31
267.055	80.31
267.287	80.31
267.52	81.31
267.752	74.31
267.984	83.31
268.216	86.31
268.448	74.31
268.681	73.31
268.913	75.31
269.145	67.31
269.377	78.31
269.609	86.31
269.841	81.31
270.073	71.31
270.306	79.31
270.538	74.31
270.77	91.31
271.002	80.31
271.234	77.31
271.466	106.31
271.698	90.31
271.93	89.31
272.162	87.31
272.394	73.31
272.626	87.31
272.858	79.31
273.09	81.31
273.322	72.31
273.553	91.31
273.785	78.31
274.017	91.31
274.249	84.31
274.481	85.31
274.713	60.31
274.945	85.31
275.176	87.31
275.408	74.31
275.64	99.31
275.872	68.31
276.104	74.31
276.335	81.31
276.567	98.31
276.799	92.31
277.031	81.31
277.262	82.31
277.494	79.31
277.726	78.31
277.957	81.31
278.189	77.31
278.421	81.31
278.652	73.31
278.884	83.31
279.115	82.31
279.347	74.31
279.579	85.31
279.81	81.31
280.042	90.31
280.273	83.31
280.505	81.31
280.736	76.31
280.968	65.31
281.199	58.31
281.431	82.31
281.662	82.31
281.894	74.31
282.125	65.31
282.356	93.31
282.588	85.31
282.819	79.31
283.051	86.31
283.282	81.31
283.513	79.31
283.745	73.31
283.976	79.31
284.207	86.31
284.439	81.31
284.67	77.31
284.901	89.31
285.132	81.31
285.364	98.31
285.595	89.31
285.826	73.31
286.057	69.31
286.288	91.31
286.52	75.31
286.751	104.31
286.982	84.31
287.213	89.31
287.444	85.31
287.675	72.31
287.906	75.31
288.138	73.31
288.369	92.31
288.6	74.31
288.831	81.31
289.062	79.31
289.293	90.31
289.524	83.31
289.755	80.31
289.986	93.31
290.217	84.31
290.448	84.31
290.679	82.31
290.91	76.31
291.141	91.31
291.371	85.31
291.602	79.31
291.833	86.31
292.064	83.31
292.295	75.31
292.526	79.31
292.757	92.31
292.987	94.31
293.218	82.31
293.449	78.31
293.68	75.31
293.91	97.31
294.141	82.31
294.372	78.31
294.603	91.31
294.833	72.31
295.064	83.31
295.295	88.31
295.525	86.31
295.756	85.31
295.987	88.31
296.217	85.31
296.448	86.31
296.679	78.31
296.909	81.31
297.14	81.31
297.37	88.31
297.601	80.31
297.831	71.31
298.062	69.31
298.292	75.31
298.523	89.31
298.753	77.31
298.984	79.31
299.214	74.31
299.445	60.31
299.675	84.31
299.905	84.31
300.136	81.31
300.366	86.31
300.597	73.31
300.827	76.31
301.057	84.31
301.288	70.31
301.518	79.31
301.748	89.31
301.979	103.31
302.209	92.31
302.439	73.31
302.669	94.31
302.9	69.31
303.13	78.31
303.36	79.31
303.59	82.31
303.82	84.31
304.051	85.31
304.281	82.31
304.511	96.31
304.741	87.31
304.971	75.31
305.201	77.31
305.431	90.31
305.661	80.31
305.891	69.31
306.121	91.31
306.352	79.31
306.582	81.31
306.812	67.31
307.042	82.31
307.272	82.31
307.502	96.31
307.731	77.31
307.961	89.31
308.191	85.31
308.421	64.31
308.651	77.31
308.881	86.31
309.111	77.31
309.341	80.31
309.571	96.31
309.8	81.31
310.03	65.31
310.26	67.31
310.49	86.31
310.72	85.31
310.949	79.31
311.179	74.31
311.409	91.31
311.639	81.31
311.868	84.31
312.098	82.31
312.328	82.31
312.557	74.31
312.787	89.31
313.017	70.31
313.246	85.31
313.476	69.31
313.706	92.31
313.935	80.31
314.165	75.31
314.394	88.31
314.624	64.31
314.853	79.31
315.083	76.31
315.312	81.31
315.542	87.31
315.771	87.31
316.001	86.31
316.23	90.31
316.46	78.31
316.689	77.31
316.919	87.31
317.148	100.31
317.377	91.31
317.607	79.31
317.836	90.31
318.065	105.31
318.295	71.31
318.524	80.31
318.753	86.31
318.983	90.31
319.212	94.31
319.441	89.31
319.67	94.31
319.9	65.31
320.129	73.31
320.358	65.31
320.587	94.31
320.816	78.31
321.046	77.31
321.275	97.31
321.504	74.31
321.733	73.31
321.962	90.31
322.191	93.31
322.42	86.31
322.649	85.31
322.878	65.31
323.108	81.31
323.337	90.31
323.566	109.31
323.795	105.31
324.024	102.31
324.253	82.31
324.482	81.31
324.71	72.31
324.939	93.31
325.168	95.31
325.397	93.31
325.626	85.31
325.855	92.31
326.084	98.31
326.313	87.31
326.542	91.31
326.77	89.31
326.999	89.31
327.228	87.31
327.457	77.31
327.686	101.31
327.914	94.31
328.143	79.31
328.372	81.31
328.6	75.31
328.829	87.31
329.058	82.31
329.287	93.31
329.515	81.31
329.744	73.31
329.972	78.31
330.201	86.31
330.43	88.31
330.658	79.31
330.887	69.31
331.115	93.31
331.344	80.31
331.572	77.31
331.801	79.31
332.03	87.31
332.258	85.31
332.486	82.31
332.715	89.31
332.943	73.31
333.172	77.31
333.4	87.31
333.629	69.31
333.857	78.31
334.085	75.31
334.314	79.31
334.542	71.31
334.771	75.31
334.999	84.31
335.227	80.31
335.455	80.31
335.684	85.31
335.912	81.31
336.14	91.31
336.369	83.31
336.597	86.31
336.825	83.31
337.053	93.31
337.281	81.31
337.51	98.31
337.738	85.31
337.966	78.31
338.194	77.31
338.422	92.31
338.65	81.31
338.878	79.31
339.106	77.31
339.334	81.31
339.562	88.31
339.79	88.31
340.018	78.31
340.246	93.31
340.474	82.31
340.702	87.31
340.93	77.31
341.158	71.31
341.386	64.31
341.614	78.31
341.842	85.31
342.07	79.31
342.298	74.31
342.526	78.31
342.754	67.31
342.981	65.31
343.209	93.31
343.437	101.31
343.665	88.31
343.893	76.31
344.12	76.31
344.348	93.31
344.576	85.31
344.804	81.31
345.031	72.31
345.259	91.31
345.487	93.31
345.714	80.31
345.942	87.31
346.17	89.31
346.397	82.31
346.625	75.31
346.853	82.31
347.08	84.31
347.308	73.31
347.535	75.31
347.763	91.31
347.99	86.31
348.218	96.31
348.445	98.31
348.673	87.31
348.9	79.31
349.128	75.31
349.355	89.31
349.583	81.31
349.81	82.31
350.037	84.31
350.265	103.31
350.492	75.31
350.72	85.31
350.947	90.31
351.174	83.31
351.402	75.31
351.629	81.31
351.856	82.31
352.083	79.31
352.311	80.31
352.538	76.31
352.765	73.31
352.992	75.31
353.22	91.31
353.447	86.31
353.674	65.31
353.901	82.31
354.128	94.31
354.355	83.31
354.583	80.31
354.81	91.31
355.037	84.31
355.264	87.31
355.491	80.31
355.718	92.31
355.945	84.31
356.172	83.31
356.399	77.31
356.626	79.31
356.853	81.31
357.08	93.31
357.307	76.31
357.534	85.31
357.761	87.31
357.988	81.31
358.215	86.31
358.441	73.31
358.668	66.31
358.895	77.31
359.122	88.31
359.349	78.31
359.576	85.31
359.802	79.31
360.029	93.31
360.256	84.31
360.483	87.31
360.709	83.31
360.936	92.31
361.163	74.31
361.39	75.31
361.616	86.31
361.843	84.31
362.07	76.31
362.296	86.31
362.523	76.31
362.749	85.31
362.976	81.31
363.203	81.31
363.429	78.31
363.656	81.31
363.882	79.31
364.109	85.31
364.335	79.31
364.562	88.31
364.788	83.31
365.015	85.31
365.241	77.31
365.468	83.31
365.694	67.31
365.92	83.31
366.147	85.31
366.373	88.31
366.599	91.31
366.826	81.31
367.052	97.31
367.278	90.31
367.505	81.31
367.731	71.31
367.957	90.31
368.184	72.31
368.41	90.31
368.636	91.31
368.862	78.31
369.089	77.31
369.315	79.31
369.541	98.31
369.767	79.31
369.993	91.31
370.219	103.31
370.445	78.31
370.672	90.31
370.898	77.31
371.124	68.31
371.35	75.31
371.576	91.31
371.802	73.31
372.028	79.31
372.254	76.31
372.48	83.31
372.706	86.31
372.932	94.31
373.158	92.31
373.384	78.31
373.61	86.31
373.835	84.31
374.061	86.31
374.287	92.31
374.513	92.31
374.739	81.31
374.965	77.31
375.191	88.31
375.416	90.31
375.642	95.31
375.868	84.31
376.094	76.31
376.319	86.31
376.545	93.31
376.771	82.31
376.997	79.31
377.222	79.31
377.448	76.31
377.674	67.31
377.899	73.31
378.125	68.31
378.35	81.31
378.576	82.31
378.802	82.31
379.027	93.31
379.253	76.31
379.478	77.31
379.704	75.31
379.929	80.31
380.155	87.31
380.38	82.31
380.606	81.31
380.831	80.31
381.057	90.31
381.282	81.31
381.507	73.31
381.733	79.31
381.958	82.31
382.184	77.31
382.409	86.31
382.634	82.31
382.86	103.31
383.085	83.31
383.31	87.31
383.535	95.31
383.761	95.31
383.986	83.31
384.211	85.31
384.436	78.31
384.662	82.31
384.887	88.31
385.112	84.31
385.337	79.31
385.562	68.31
385.787	80.31
386.013	80.31
386.238	72.31
386.463	83.31
386.688	94.31
386.913	79.31
387.138	68.31
387.363	73.31
387.588	88.31
387.813	76.31
388.038	83.31
388.263	85.31
388.488	74.31
388.713	79.31
388.938	79.31
389.163	81.31
389.387	92.31
389.612	82.31
389.837	84.31
390.062	85.31
390.287	71.31
390.512	77.31
390.736	89.31
390.961	83.31
391.186	77.31
391.411	77.31
391.636	85.31
391.86	73.31
392.085	85.31
392.31	61.31
392.534	77.31
392.759	72.31
392.984	67.31
393.208	76.31
393.433	92.31
393.658	70.31
393.882	79.31
394.107	86.31
394.331	78.31
394.556	77.31
394.78	79.31
395.005	82.31
395.229	74.31
395.454	78.31
395.678	69.31
395.903	71.31
396.127	83.31
396.352	82.31
396.576	61.31
396.801	81.31
397.025	88.31
397.249	87.31
397.474	77.31
397.698	71.31
397.922	85.31
398.147	76.31
398.371	89.31
398.595	83.31
398.82	89.31
399.044	87.31
399.268	87.31
399.492	85.31
399.717	74.31
399.941	70.31
400.165	71.31
400.389	76.31
400.613	72.31
400.837	77.31
401.062	77.31
401.286	80.31
401.51	85.31
401.734	74.31
401.958	82.31
402.182	66.31
402.406	81.31
402.63	93.31
402.854	75.31
403.078	82.31
403.302	75.31
403.526	83.31
403.75	91.31
403.974	81.31
404.198	74.31
404.422	77.31
404.645	80.31
404.869	96.31
405.093	75.31
405.317	77.31
405.541	86.31
405.765	73.31
405.988	77.31
406.212	70.31
406.436	87.31
406.66	75.31
406.883	87.31
407.107	68.31
407.331	72.31
407.555	83.31
407.778	81.31
408.002	71.31
408.226	69.31
408.449	82.31
408.673	81.31
408.896	75.31
409.12	87.31
409.344	84.31
409.567	76.31
409.791	73.31
410.014	69.31
410.238	65.31
410.461	69.31
410.685	71.31
410.908	74.31
411.132	82.31
411.355	80.31
411.578	77.31
411.802	91.31
412.025	80.31
412.249	80.31
412.472	81.31
412.695	75.31
412.919	89.31
413.142	70.31
413.365	71.31
413.589	67.31
413.812	77.31
414.035	75.31
414.258	67.31
414.482	89.31
414.705	98.31
414.928	85.31
415.151	77.31
415.374	88.31
415.597	69.31
415.821	83.31
416.044	80.31
416.267	99.31
416.49	79.31
416.713	74.31
416.936	84.31
417.159	81.31
417.382	74.31
417.605	88.31
417.828	83.31
418.051	79.31
418.274	80.31
418.497	72.31
418.72	80.31
418.943	67.31
419.166	70.31
419.389	82.31
419.611	88.31
419.834	68.31
420.057	71.31
420.28	79.31
420.503	88.31
420.726	86.31
420.948	79.31
421.171	80.31
421.394	78.31
421.617	71.31
421.839	81.31
422.062	83.31
422.285	90.31
422.507	68.31
422.73	71.31
422.953	83.31
423.175	85.31
423.398	85.31
423.621	84.31
423.843	87.31
424.066	79.31
424.288	83.31
424.511	78.31
424.733	83.31
424.956	88.31
425.178	96.31
425.401	76.31
425.623	79.31
425.846	69.31
426.068	71.31
426.291	85.31
426.513	87.31
426.735	78.31
426.958	89.31
427.18	85.31
427.402	79.31
427.625	101.31
427.847	84.31
428.069	75.31
428.292	81.31
428.514	68.31
428.736	86.31
428.958	86.31
429.181	79.31
429.403	82.31
429.625	83.31
429.847	82.31
430.069	77.31
430.292	89.31
430.514	82.31
430.736	77.31
430.958	81.31
431.18	77.31
431.402	71.31
431.624	90.31
431.846	97.31
432.068	87.31
432.29	89.31
432.512	81.31
432.734	84.31
432.956	104.31
433.178	92.31
433.4	81.31
433.622	77.31
433.844	101.31
434.066	101.31
434.287	88.31
434.509	81.31
434.731	71.31
434.953	68.31
435.175	77.31
435.397	71.31
435.618	92.31
435.84	79.31
436.062	87.31
436.284	77.31
436.505	85.31
436.727	70.31
436.949	72.31
437.17	81.31
437.392	89.31
437.614	93.31
437.835	84.31
438.057	66.31
438.278	76.31
438.5	76.31
438.721	71.31
438.943	85.31
439.165	74.31
439.386	75.31
439.608	82.31
439.829	68.31
440.05	82.31
440.272	90.31
440.493	67.31
440.715	77.31
440.936	77.31
441.158	82.31
441.379	76.31
441.6	81.31
441.822	93.31
442.043	56.31
442.264	63.31
442.486	62.31
442.707	85.31
442.928	87.31
443.149	85.31
443.371	72.31
443.592	79.31
443.813	84.31
444.034	66.31
444.255	71.31
444.476	75.31
444.698	91.31
444.919	90.31
445.14	137.31
445.361	106.31
445.582	83.31
445.803	70.31
446.024	74.31
446.245	83.31
446.466	80.31
446.687	78.31
446.908	74.31
447.129	79.31
447.35	82.31
447.571	85.31
447.792	80.31
448.013	77.31
448.234	79.31
448.455	74.31
448.675	73.31
448.896	83.31
449.117	83.31
449.338	81.31
449.559	72.31
449.779	66.31
450	74.31
450.221	80.31
450.442	66.31
450.662	67.31
450.883	88.31
451.104	73.31
451.324	80.31
451.545	77.31
451.766	77.31
451.986	66.31
452.207	96.31
452.428	72.31
452.648	82.31
452.869	81.31
453.089	90.31
453.31	75.31
453.53	85.31
453.751	67.31
453.971	66.31
454.192	73.31
454.412	86.31
454.633	66.31
454.853	78.31
455.073	87.31
455.294	85.31
455.514	83.31
455.734	73.31
455.955	70.31
456.175	81.31
456.395	82.31
456.616	75.31
456.836	89.31
457.056	93.31
457.276	76.31
457.497	92.31
457.717	77.31
457.937	84.31
458.157	71.31
458.377	70.31
458.598	85.31
458.818	77.31
459.038	81.31
459.258	80.31
459.478	92.31
459.698	84.31
459.918	94.31
460.138	62.31
460.358	70.31
460.578	84.31
460.798	93.31
461.018	88.31
461.238	90.31
461.458	65.31
461.678	93.31
461.898	83.31
462.118	89.31
462.338	68.31
462.558	101.31
462.777	83.31
462.997	87.31
463.217	87.31
463.437	90.31
463.657	77.31
463.876	71.31
464.096	72.31
464.316	81.31
464.536	78.31
464.755	97.31
464.975	83.31
465.195	79.31
465.414	77.31
465.634	78.31
465.854	91.31
466.073	81.31
466.293	77.31
466.512	81.31
466.732	86.31
466.951	73.31
467.171	69.31
467.391	78.31
467.61	93.31
467.829	72.31
468.049	77.31
468.268	81.31
468.488	90.31
468.707	82.31
468.927	79.31
469.146	87.31
469.365	94.31
469.585	87.31
469.804	84.31
470.023	86.31
470.243	90.31
470.462	79.31
470.681	76.31
470.901	79.31
471.12	92.31
471.339	79.31
471.558	81.31
471.777	92.31
471.997	77.31
472.216	90.31
472.435	78.31
472.654	78.31
472.873	81.31
473.092	82.31
473.311	76.31
473.53	82.31
473.749	96.31
473.968	78.31
474.187	70.31
474.406	93.31
474.625	78.31
474.844	83.31
475.063	78.31
475.282	81.31
475.501	79.31
475.72	78.31
475.939	82.31
476.158	78.31
476.377	88.31
476.596	101.31
476.814	73.31
477.033	93.31
477.252	75.31
477.471	77.31
477.69	69.31
477.908	82.31
478.127	87.31
478.346	86.31
478.564	82.31
478.783	79.31
479.002	73.31
479.22	69.31
479.439	87.31
479.658	67.31
479.876	74.31
480.095	91.31
480.313	84.31
480.532	83.31
480.751	82.31
480.969	99.31
481.188	65.31
481.406	73.31
481.624	82.31
481.843	73.31
482.061	87.31
482.28	81.31
482.498	87.31
482.717	81.31
482.935	74.31
483.153	94.31
483.372	82.31
483.59	84.31
483.808	83.31
484.027	74.31
484.245	67.31
484.463	80.31
484.681	89.31
484.9	93.31
485.118	85.31
485.336	71.31
485.554	76.31
485.772	81.31
485.99	88.31
486.209	96.31
486.427	67.31
486.645	68.31
486.863	63.31
487.081	83.31
487.299	87.31
487.517	78.31
487.735	81.31
487.953	75.31
488.171	75.31
488.389	83.31
488.607	81.31
488.825	60.31
489.043	74.31
489.261	89.31
489.479	88.31
489.696	80.31
489.914	77.31
490.132	88.31
490.35	85.31
490.568	102.31
490.786	93.31
491.003	77.31
491.221	80.31
491.439	69.31
491.657	93.31
491.874	83.31
492.092	66.31
492.31	77.31
492.527	81.31
492.745	81.31
492.963	84.31
493.18	69.31
493.398	74.31
493.615	79.31
493.833	83.31
494.05	87.31
494.268	65.31
494.485	80.31
494.703	75.31
494.92	69.31
495.138	89.31
495.355	75.31
495.573	78.31
495.79	74.31
496.008	73.31
496.225	74.31
496.442	75.31
496.66	102.31
496.877	98.31
497.094	81.31
497.312	77.31
497.529	84.31
497.746	80.31
497.963	75.31
498.181	79.31
498.398	80.31
498.615	80.31
498.832	93.31
499.049	85.31
499.267	85.31
499.484	82.31
499.701	76.31
499.918	83.31
500.135	74.31
500.352	76.31
500.569	78.31
500.786	79.31
501.003	65.31
501.22	75.31
501.437	77.31
501.654	82.31
501.871	90.31
502.088	86.31
502.305	88.31
502.522	71.31
502.739	74.31
502.956	92.31
503.172	88.31
503.389	79.31
503.606	82.31
503.823	67.31
504.04	72.31
504.256	82.31
504.473	90.31
504.69	76.31
504.907	75.31
505.123	74.31
505.34	85.31
505.557	73.31
505.773	63.31
505.99	77.31
506.207	75.31
506.423	84.31
506.64	78.31
506.856	89.31
507.073	71.31
507.289	101.31
507.506	71.31
507.722	71.31
507.939	93.31
508.155	96.31
508.372	77.31
508.588	81.31
508.805	83.31
509.021	68.31
509.238	85.31
509.454	79.31
509.67	73.31
509.887	78.31
510.103	87.31
510.319	78.31
510.536	72.31
510.752	93.31
510.968	59.31
511.184	82.31
511.401	77.31
511.617	78.31
511.833	88.31
512.049	88.31
512.265	86.31
512.481	85.31
512.698	72.31
512.914	82.31
513.13	78.31
513.346	90.31
513.562	79.31
513.778	69.31
513.994	84.31
514.21	75.31
514.426	79.31
514.642	91.31
514.858	87.31
515.074	75.31
515.29	65.31
515.506	79.31
515.721	77.31
515.937	86.31
516.153	93.31
516.369	82.31
516.585	65.31
516.801	68.31
517.016	78.31
517.232	81.31
517.448	78.31
517.664	72.31
517.879	90.31
518.095	82.31
518.311	82.31
518.527	78.31
518.742	79.31
518.958	74.31
519.173	104.31
519.389	81.31
519.605	69.31
519.82	78.31
520.036	85.31
