Data from Background_1_HRD10591_00074.txt Node
Date: Wed Nov 05 14:39:34 EST 2025
User: Yrep
Spectrometer: HR+D1059
Trigger mode: 1
Integration Time (sec): 1.000000E-1
Scans to average: 1
Electric dark correction enabled: true
Nonlinearity correction enabled: false
Boxcar width: 0
XAxis mode: Wavelengths
Number of Pixels in Spectrum: 2048
>>>>>Begin Spectral Data<<<<<
223.165	-29.56
223.4	-29.56
223.635	-29.56
223.869	-34.56
224.104	-28.56
224.338	-11.56
224.573	-2.56
224.808	-20.56
225.042	-11.56
225.277	0.44
225.511	-7.56
225.746	14.44
225.98	15.44
226.215	4.44
226.449	4.44
226.683	28.44
226.918	33.44
227.152	45.44
227.387	36.44
227.621	13.44
227.856	28.44
228.09	40.44
228.324	43.44
228.559	48.44
228.793	53.44
229.027	56.44
229.262	73.44
229.496	53.44
229.73	74.44
229.964	73.44
230.199	58.44
230.433	75.44
230.667	72.44
230.901	74.44
231.136	67.44
231.37	65.44
231.604	75.44
231.838	81.44
232.072	68.44
232.306	95.44
232.541	75.44
232.775	79.44
233.009	69.44
233.243	71.44
233.477	76.44
233.711	76.44
233.945	86.44
234.179	92.44
234.413	78.44
234.647	73.44
234.881	75.44
235.115	70.44
235.349	84.44
235.583	84.44
235.817	79.44
236.051	76.44
236.285	93.44
236.519	75.44
236.753	79.44
236.987	68.44
237.221	73.44
237.455	78.44
237.689	77.44
237.922	79.44
238.156	80.44
238.39	83.44
238.624	87.44
238.858	72.44
239.091	70.44
239.325	70.44
239.559	73.44
239.793	79.44
240.027	84.44
240.26	70.44
240.494	78.44
240.728	80.44
240.961	79.44
241.195	74.44
241.429	72.44
241.662	72.44
241.896	93.44
242.13	81.44
242.363	79.44
242.597	73.44
242.83	69.44
243.064	80.44
243.298	85.44
243.531	69.44
243.765	88.44
243.998	96.44
244.232	82.44
244.465	81.44
244.699	76.44
244.932	72.44
245.166	77.44
245.399	91.44
245.633	72.44
245.866	68.44
246.099	77.44
246.333	61.44
246.566	78.44
246.8	72.44
247.033	83.44
247.266	77.44
247.5	84.44
247.733	70.44
247.966	69.44
248.2	81.44
248.433	78.44
248.666	73.44
248.899	79.44
249.133	82.44
249.366	75.44
249.599	90.44
249.832	75.44
250.066	86.44
250.299	79.44
250.532	79.44
250.765	92.44
250.998	77.44
251.231	72.44
251.465	83.44
251.698	72.44
251.931	83.44
252.164	61.44
252.397	74.44
252.63	76.44
252.863	66.44
253.096	72.44
253.329	67.44
253.562	83.44
253.795	79.44
254.028	82.44
254.261	83.44
254.494	81.44
254.727	76.44
254.96	77.44
255.193	93.44
255.426	82.44
255.659	84.44
255.892	87.44
256.124	84.44
256.357	87.44
256.59	77.44
256.823	88.44
257.056	91.44
257.289	76.44
257.521	86.44
257.754	81.44
257.987	79.44
258.22	90.44
258.452	78.44
258.685	76.44
258.918	72.44
259.151	77.44
259.383	78.44
259.616	82.44
259.849	73.44
260.081	85.44
260.314	80.44
260.547	90.44
260.779	71.44
261.012	63.44
261.244	80.44
261.477	84.44
261.71	77.44
261.942	75.44
262.175	76.44
262.407	77.44
262.64	73.44
262.872	91.44
263.105	83.44
263.337	65.44
263.57	84.44
263.802	100.44
264.035	81.44
264.267	91.44
264.499	82.44
264.732	93.44
264.964	75.44
265.197	76.44
265.429	90.44
265.661	82.44
265.894	82.44
266.126	81.44
266.358	84.44
266.591	60.44
266.823	67.44
267.055	80.44
267.287	91.44
267.52	76.44
267.752	77.44
267.984	69.44
268.216	77.44
268.448	90.44
268.681	87.44
268.913	84.44
269.145	89.44
269.377	82.44
269.609	81.44
269.841	76.44
270.073	89.44
270.306	88.44
270.538	81.44
270.77	79.44
271.002	60.44
271.234	83.44
271.466	58.44
271.698	68.44
271.93	76.44
272.162	74.44
272.394	92.44
272.626	78.44
272.858	93.44
273.09	97.44
273.322	70.44
273.553	69.44
273.785	66.44
274.017	76.44
274.249	77.44
274.481	85.44
274.713	81.44
274.945	63.44
275.176	74.44
275.408	95.44
275.64	77.44
275.872	75.44
276.104	88.44
276.335	88.44
276.567	76.44
276.799	86.44
277.031	72.44
277.262	76.44
277.494	84.44
277.726	82.44
277.957	75.44
278.189	84.44
278.421	80.44
278.652	92.44
278.884	87.44
279.115	84.44
279.347	83.44
279.579	77.44
279.81	75.44
280.042	81.44
280.273	80.44
280.505	87.44
280.736	79.44
280.968	85.44
281.199	89.44
281.431	85.44
281.662	76.44
281.894	74.44
282.125	90.44
282.356	76.44
282.588	77.44
282.819	93.44
283.051	79.44
283.282	81.44
283.513	80.44
283.745	77.44
283.976	78.44
284.207	83.44
284.439	88.44
284.67	87.44
284.901	73.44
285.132	87.44
285.364	84.44
285.595	73.44
285.826	86.44
286.057	88.44
286.288	91.44
286.52	101.44
286.751	96.44
286.982	87.44
287.213	82.44
287.444	101.44
287.675	88.44
287.906	73.44
288.138	72.44
288.369	86.44
288.6	90.44
288.831	82.44
289.062	82.44
289.293	89.44
289.524	93.44
289.755	80.44
289.986	99.44
290.217	76.44
290.448	83.44
290.679	91.44
290.91	85.44
291.141	87.44
291.371	93.44
291.602	78.44
291.833	95.44
292.064	90.44
292.295	80.44
292.526	83.44
292.757	86.44
292.987	99.44
293.218	89.44
293.449	98.44
293.68	74.44
293.91	92.44
294.141	103.44
294.372	94.44
294.603	79.44
294.833	78.44
295.064	77.44
295.295	80.44
295.525	77.44
295.756	80.44
295.987	80.44
296.217	94.44
296.448	84.44
296.679	89.44
296.909	81.44
297.14	84.44
297.37	91.44
297.601	88.44
297.831	79.44
298.062	89.44
298.292	76.44
298.523	82.44
298.753	79.44
298.984	73.44
299.214	95.44
299.445	79.44
299.675	82.44
299.905	73.44
300.136	80.44
300.366	84.44
300.597	76.44
300.827	75.44
301.057	86.44
301.288	93.44
301.518	82.44
301.748	87.44
301.979	108.44
302.209	83.44
302.439	90.44
302.669	91.44
302.9	66.44
303.13	79.44
303.36	87.44
303.59	77.44
303.82	85.44
304.051	67.44
304.281	82.44
304.511	82.44
304.741	82.44
304.971	92.44
305.201	89.44
305.431	86.44
305.661	78.44
305.891	81.44
306.121	91.44
306.352	88.44
306.582	93.44
306.812	65.44
307.042	82.44
307.272	59.44
307.502	93.44
307.731	90.44
307.961	81.44
308.191	79.44
308.421	66.44
308.651	94.44
308.881	82.44
309.111	79.44
309.341	73.44
309.571	87.44
309.8	72.44
310.03	72.44
310.26	88.44
310.49	69.44
310.72	87.44
310.949	84.44
311.179	79.44
311.409	82.44
311.639	80.44
311.868	97.44
312.098	81.44
312.328	80.44
312.557	79.44
312.787	69.44
313.017	101.44
313.246	85.44
313.476	88.44
313.706	73.44
313.935	97.44
314.165	83.44
314.394	79.44
314.624	83.44
314.853	79.44
315.083	89.44
315.312	84.44
315.542	91.44
315.771	83.44
316.001	77.44
316.23	86.44
316.46	76.44
316.689	86.44
316.919	76.44
317.148	89.44
317.377	90.44
317.607	95.44
317.836	80.44
318.065	71.44
318.295	83.44
318.524	87.44
318.753	75.44
318.983	76.44
319.212	78.44
319.441	50.44
319.67	82.44
319.9	78.44
320.129	89.44
320.358	85.44
320.587	74.44
320.816	86.44
321.046	91.44
321.275	80.44
321.504	84.44
321.733	67.44
321.962	77.44
322.191	91.44
322.42	90.44
322.649	82.44
322.878	98.44
323.108	78.44
323.337	84.44
323.566	66.44
323.795	92.44
324.024	73.44
324.253	75.44
324.482	81.44
324.71	89.44
324.939	88.44
325.168	90.44
325.397	73.44
325.626	71.44
325.855	84.44
326.084	69.44
326.313	94.44
326.542	81.44
326.77	85.44
326.999	81.44
327.228	85.44
327.457	81.44
327.686	85.44
327.914	88.44
328.143	91.44
328.372	82.44
328.6	77.44
328.829	81.44
329.058	69.44
329.287	85.44
329.515	75.44
329.744	78.44
329.972	77.44
330.201	95.44
330.43	79.44
330.658	88.44
330.887	78.44
331.115	73.44
331.344	89.44
331.572	63.44
331.801	73.44
332.03	84.44
332.258	84.44
332.486	84.44
332.715	73.44
332.943	83.44
333.172	80.44
333.4	93.44
333.629	79.44
333.857	57.44
334.085	83.44
334.314	78.44
334.542	82.44
334.771	80.44
334.999	87.44
335.227	90.44
335.455	74.44
335.684	78.44
335.912	91.44
336.14	80.44
336.369	89.44
336.597	71.44
336.825	79.44
337.053	80.44
337.281	88.44
337.51	79.44
337.738	72.44
337.966	93.44
338.194	75.44
338.422	80.44
338.65	81.44
338.878	84.44
339.106	75.44
339.334	78.44
339.562	82.44
339.79	88.44
340.018	74.44
340.246	82.44
340.474	87.44
340.702	81.44
340.93	79.44
341.158	80.44
341.386	83.44
341.614	84.44
341.842	71.44
342.07	81.44
342.298	84.44
342.526	87.44
342.754	77.44
342.981	59.44
343.209	88.44
343.437	91.44
343.665	81.44
343.893	84.44
344.12	87.44
344.348	82.44
344.576	93.44
344.804	87.44
345.031	87.44
345.259	85.44
345.487	79.44
345.714	89.44
345.942	85.44
346.17	87.44
346.397	97.44
346.625	87.44
346.853	81.44
347.08	76.44
347.308	79.44
347.535	77.44
347.763	98.44
347.99	80.44
348.218	83.44
348.445	88.44
348.673	85.44
348.9	91.44
349.128	80.44
349.355	72.44
349.583	88.44
349.81	92.44
350.037	84.44
350.265	88.44
350.492	76.44
350.72	60.44
350.947	80.44
351.174	72.44
351.402	73.44
351.629	78.44
351.856	85.44
352.083	87.44
352.311	76.44
352.538	77.44
352.765	84.44
352.992	83.44
353.22	82.44
353.447	84.44
353.674	77.44
353.901	96.44
354.128	82.44
354.355	80.44
354.583	75.44
354.81	72.44
355.037	83.44
355.264	83.44
355.491	95.44
355.718	93.44
355.945	91.44
356.172	69.44
356.399	93.44
356.626	80.44
356.853	80.44
357.08	79.44
357.307	76.44
357.534	70.44
357.761	90.44
357.988	99.44
358.215	91.44
358.441	80.44
358.668	100.44
358.895	80.44
359.122	75.44
359.349	73.44
359.576	79.44
359.802	91.44
360.029	87.44
360.256	76.44
360.483	81.44
360.709	76.44
360.936	77.44
361.163	79.44
361.39	82.44
361.616	85.44
361.843	73.44
362.07	82.44
362.296	88.44
362.523	70.44
362.749	83.44
362.976	79.44
363.203	83.44
363.429	82.44
363.656	86.44
363.882	78.44
364.109	90.44
364.335	77.44
364.562	80.44
364.788	81.44
365.015	79.44
365.241	72.44
365.468	63.44
365.694	85.44
365.92	82.44
366.147	85.44
366.373	87.44
366.599	78.44
366.826	91.44
367.052	81.44
367.278	79.44
367.505	74.44
367.731	87.44
367.957	81.44
368.184	81.44
368.41	87.44
368.636	67.44
368.862	99.44
369.089	77.44
369.315	85.44
369.541	82.44
369.767	70.44
369.993	88.44
370.219	93.44
370.445	68.44
370.672	85.44
370.898	82.44
371.124	83.44
371.35	92.44
371.576	89.44
371.802	84.44
372.028	73.44
372.254	84.44
372.48	89.44
372.706	86.44
372.932	70.44
373.158	84.44
373.384	74.44
373.61	79.44
373.835	78.44
374.061	79.44
374.287	85.44
374.513	70.44
374.739	84.44
374.965	85.44
375.191	87.44
375.416	79.44
375.642	82.44
375.868	85.44
376.094	87.44
376.319	77.44
376.545	74.44
376.771	81.44
376.997	87.44
377.222	83.44
377.448	73.44
377.674	78.44
377.899	74.44
378.125	87.44
378.35	79.44
378.576	79.44
378.802	75.44
379.027	74.44
379.253	79.44
379.478	64.44
379.704	86.44
379.929	85.44
380.155	86.44
380.38	80.44
380.606	80.44
380.831	77.44
381.057	79.44
381.282	61.44
381.507	89.44
381.733	77.44
381.958	92.44
382.184	77.44
382.409	79.44
382.634	78.44
382.86	85.44
383.085	83.44
383.31	78.44
383.535	74.44
383.761	81.44
383.986	87.44
384.211	74.44
384.436	75.44
384.662	75.44
384.887	84.44
385.112	67.44
385.337	75.44
385.562	83.44
385.787	90.44
386.013	85.44
386.238	75.44
386.463	74.44
386.688	93.44
386.913	80.44
387.138	77.44
387.363	68.44
387.588	73.44
387.813	75.44
388.038	87.44
388.263	77.44
388.488	75.44
388.713	79.44
388.938	77.44
389.163	78.44
389.387	71.44
389.612	68.44
389.837	80.44
390.062	87.44
390.287	92.44
390.512	84.44
390.736	95.44
390.961	76.44
391.186	68.44
391.411	79.44
391.636	77.44
391.86	68.44
392.085	89.44
392.31	83.44
392.534	84.44
392.759	84.44
392.984	69.44
393.208	88.44
393.433	73.44
393.658	72.44
393.882	77.44
394.107	84.44
394.331	85.44
394.556	101.44
394.78	63.44
395.005	86.44
395.229	90.44
395.454	83.44
395.678	81.44
395.903	87.44
396.127	89.44
396.352	98.44
396.576	96.44
396.801	85.44
397.025	103.44
397.249	79.44
397.474	87.44
397.698	87.44
397.922	98.44
398.147	85.44
398.371	59.44
398.595	84.44
398.82	77.44
399.044	83.44
399.268	79.44
399.492	79.44
399.717	65.44
399.941	80.44
400.165	83.44
400.389	91.44
400.613	83.44
400.837	61.44
401.062	73.44
401.286	76.44
401.51	90.44
401.734	89.44
401.958	88.44
402.182	76.44
402.406	88.44
402.63	82.44
402.854	84.44
403.078	75.44
403.302	80.44
403.526	77.44
403.75	74.44
403.974	87.44
404.198	96.44
404.422	79.44
404.645	85.44
404.869	74.44
405.093	84.44
405.317	84.44
405.541	66.44
405.765	74.44
405.988	71.44
406.212	76.44
406.436	83.44
406.66	88.44
406.883	84.44
407.107	73.44
407.331	79.44
407.555	75.44
407.778	74.44
408.002	69.44
408.226	72.44
408.449	90.44
408.673	86.44
408.896	81.44
409.12	78.44
409.344	83.44
409.567	63.44
409.791	66.44
410.014	83.44
410.238	88.44
410.461	73.44
410.685	84.44
410.908	83.44
411.132	75.44
411.355	77.44
411.578	78.44
411.802	70.44
412.025	79.44
412.249	78.44
412.472	78.44
412.695	82.44
412.919	89.44
413.142	67.44
413.365	77.44
413.589	77.44
413.812	83.44
414.035	96.44
414.258	73.44
414.482	73.44
414.705	74.44
414.928	74.44
415.151	77.44
415.374	88.44
415.597	75.44
415.821	87.44
416.044	63.44
416.267	83.44
416.49	83.44
416.713	79.44
416.936	77.44
417.159	84.44
417.382	73.44
417.605	74.44
417.828	88.44
418.051	84.44
418.274	78.44
418.497	84.44
418.72	68.44
418.943	68.44
419.166	80.44
419.389	82.44
419.611	76.44
419.834	84.44
420.057	86.44
420.28	82.44
420.503	78.44
420.726	73.44
420.948	81.44
421.171	69.44
421.394	82.44
421.617	85.44
421.839	78.44
422.062	80.44
422.285	79.44
422.507	83.44
422.73	87.44
422.953	79.44
423.175	78.44
423.398	74.44
423.621	89.44
423.843	92.44
424.066	63.44
424.288	70.44
424.511	79.44
424.733	93.44
424.956	75.44
425.178	84.44
425.401	77.44
425.623	88.44
425.846	68.44
426.068	81.44
426.291	69.44
426.513	85.44
426.735	84.44
426.958	66.44
427.18	85.44
427.402	77.44
427.625	79.44
427.847	75.44
428.069	87.44
428.292	87.44
428.514	89.44
428.736	73.44
428.958	74.44
429.181	66.44
429.403	69.44
429.625	80.44
429.847	68.44
430.069	80.44
430.292	77.44
430.514	82.44
430.736	80.44
430.958	74.44
431.18	91.44
431.402	80.44
431.624	84.44
431.846	77.44
432.068	81.44
432.29	84.44
432.512	79.44
432.734	88.44
432.956	85.44
433.178	81.44
433.4	76.44
433.622	87.44
433.844	83.44
434.066	73.44
434.287	72.44
434.509	101.44
434.731	96.44
434.953	79.44
435.175	91.44
435.397	80.44
435.618	69.44
435.84	90.44
436.062	83.44
436.284	75.44
436.505	80.44
436.727	91.44
436.949	78.44
437.17	81.44
437.392	91.44
437.614	70.44
437.835	84.44
438.057	73.44
438.278	81.44
438.5	75.44
438.721	81.44
438.943	94.44
439.165	86.44
439.386	79.44
439.608	83.44
439.829	88.44
440.05	75.44
440.272	91.44
440.493	86.44
440.715	94.44
440.936	77.44
441.158	73.44
441.379	74.44
441.6	69.44
441.822	93.44
442.043	88.44
442.264	83.44
442.486	67.44
442.707	79.44
442.928	90.44
443.149	83.44
443.371	65.44
443.592	77.44
443.813	77.44
444.034	83.44
444.255	78.44
444.476	77.44
444.698	101.44
444.919	72.44
445.14	131.44
445.361	99.44
445.582	71.44
445.803	93.44
446.024	91.44
446.245	84.44
446.466	77.44
446.687	88.44
446.908	69.44
447.129	77.44
447.35	89.44
447.571	75.44
447.792	75.44
448.013	62.44
448.234	81.44
448.455	78.44
448.675	79.44
448.896	77.44
449.117	69.44
449.338	81.44
449.559	86.44
449.779	92.44
450	80.44
450.221	91.44
450.442	84.44
450.662	75.44
450.883	79.44
451.104	82.44
451.324	83.44
451.545	84.44
451.766	76.44
451.986	81.44
452.207	84.44
452.428	86.44
452.648	82.44
452.869	66.44
453.089	81.44
453.31	75.44
453.53	74.44
453.751	87.44
453.971	79.44
454.192	71.44
454.412	77.44
454.633	89.44
454.853	81.44
455.073	72.44
455.294	88.44
455.514	84.44
455.734	82.44
455.955	83.44
456.175	89.44
456.395	85.44
456.616	66.44
456.836	88.44
457.056	77.44
457.276	84.44
457.497	76.44
457.717	95.44
457.937	89.44
458.157	87.44
458.377	81.44
458.598	86.44
458.818	82.44
459.038	70.44
459.258	88.44
459.478	83.44
459.698	80.44
459.918	78.44
460.138	76.44
460.358	89.44
460.578	89.44
460.798	87.44
461.018	84.44
461.238	101.44
461.458	83.44
461.678	77.44
461.898	88.44
462.118	82.44
462.338	80.44
462.558	93.44
462.777	81.44
462.997	69.44
463.217	82.44
463.437	91.44
463.657	68.44
463.876	81.44
464.096	83.44
464.316	82.44
464.536	80.44
464.755	72.44
464.975	72.44
465.195	91.44
465.414	73.44
465.634	66.44
465.854	81.44
466.073	71.44
466.293	65.44
466.512	78.44
466.732	83.44
466.951	81.44
467.171	78.44
467.391	79.44
467.61	91.44
467.829	73.44
468.049	79.44
468.268	78.44
468.488	85.44
468.707	67.44
468.927	90.44
469.146	84.44
469.365	87.44
469.585	95.44
469.804	80.44
470.023	79.44
470.243	79.44
470.462	82.44
470.681	74.44
470.901	84.44
471.12	81.44
471.339	75.44
471.558	80.44
471.777	74.44
471.997	91.44
472.216	73.44
472.435	87.44
472.654	70.44
472.873	82.44
473.092	84.44
473.311	75.44
473.53	88.44
473.749	67.44
473.968	76.44
474.187	77.44
474.406	93.44
474.625	87.44
474.844	98.44
475.063	76.44
475.282	68.44
475.501	83.44
475.72	80.44
475.939	77.44
476.158	70.44
476.377	95.44
476.596	91.44
476.814	76.44
477.033	75.44
477.252	87.44
477.471	87.44
477.69	75.44
477.908	85.44
478.127	82.44
478.346	74.44
478.564	75.44
478.783	76.44
479.002	82.44
479.22	81.44
479.439	77.44
479.658	81.44
479.876	78.44
480.095	73.44
480.313	69.44
480.532	83.44
480.751	73.44
480.969	82.44
481.188	97.44
481.406	88.44
481.624	88.44
481.843	77.44
482.061	66.44
482.28	78.44
482.498	89.44
482.717	77.44
482.935	84.44
483.153	81.44
483.372	83.44
483.59	72.44
483.808	80.44
484.027	75.44
484.245	84.44
484.463	81.44
484.681	97.44
484.9	83.44
485.118	92.44
485.336	83.44
485.554	70.44
485.772	71.44
485.99	80.44
486.209	85.44
486.427	85.44
486.645	79.44
486.863	84.44
487.081	79.44
487.299	88.44
487.517	82.44
487.735	81.44
487.953	91.44
488.171	94.44
488.389	81.44
488.607	79.44
488.825	94.44
489.043	85.44
489.261	84.44
489.479	69.44
489.696	83.44
489.914	75.44
490.132	81.44
490.35	67.44
490.568	71.44
490.786	84.44
491.003	90.44
491.221	85.44
491.439	87.44
491.657	71.44
491.874	92.44
492.092	107.44
492.31	89.44
492.527	84.44
492.745	75.44
492.963	69.44
493.18	79.44
493.398	87.44
493.615	75.44
493.833	76.44
494.05	83.44
494.268	81.44
494.485	66.44
494.703	83.44
494.92	71.44
495.138	74.44
495.355	82.44
495.573	88.44
495.79	70.44
496.008	67.44
496.225	81.44
496.442	69.44
496.66	84.44
496.877	79.44
497.094	79.44
497.312	83.44
497.529	85.44
497.746	82.44
497.963	79.44
498.181	95.44
498.398	86.44
498.615	84.44
498.832	79.44
499.049	79.44
499.267	81.44
499.484	76.44
499.701	92.44
499.918	70.44
500.135	90.44
500.352	91.44
500.569	74.44
500.786	89.44
501.003	94.44
501.22	76.44
501.437	83.44
501.654	69.44
501.871	88.44
502.088	97.44
502.305	77.44
502.522	75.44
502.739	92.44
502.956	93.44
503.172	81.44
503.389	76.44
503.606	85.44
503.823	93.44
504.04	95.44
504.256	67.44
504.473	89.44
504.69	61.44
504.907	66.44
505.123	81.44
505.34	83.44
505.557	79.44
505.773	95.44
505.99	74.44
506.207	77.44
506.423	67.44
506.64	94.44
506.856	82.44
507.073	91.44
507.289	87.44
507.506	69.44
507.722	83.44
507.939	80.44
508.155	91.44
508.372	74.44
508.588	81.44
508.805	83.44
509.021	92.44
509.238	86.44
509.454	66.44
509.67	85.44
509.887	93.44
510.103	66.44
510.319	79.44
510.536	87.44
510.752	83.44
510.968	77.44
511.184	84.44
511.401	71.44
511.617	82.44
511.833	75.44
512.049	75.44
512.265	78.44
512.481	81.44
512.698	78.44
512.914	74.44
513.13	84.44
513.346	67.44
513.562	87.44
513.778	86.44
513.994	77.44
514.21	83.44
514.426	87.44
514.642	81.44
514.858	86.44
515.074	93.44
515.29	91.44
515.506	77.44
515.721	80.44
515.937	82.44
516.153	68.44
516.369	80.44
516.585	95.44
516.801	85.44
517.016	78.44
517.232	71.44
517.448	80.44
517.664	88.44
517.879	84.44
518.095	85.44
518.311	83.44
518.527	98.44
518.742	94.44
518.958	88.44
519.173	83.44
519.389	84.44
519.605	91.44
519.82	66.44
520.036	81.44
