Data from Background_1_HRD10591_00033.txt Node
Date: Wed Nov 05 14:39:14 EST 2025
User: Yrep
Spectrometer: HR+D1059
Trigger mode: 1
Integration Time (sec): 1.000000E-1
Scans to average: 1
Electric dark correction enabled: true
Nonlinearity correction enabled: false
Boxcar width: 0
XAxis mode: Wavelengths
Number of Pixels in Spectrum: 2048
>>>>>Begin Spectral Data<<<<<
223.165	-13.56
223.4	-13.56
223.635	-13.56
223.869	-8.56
224.104	-13.56
224.338	-12.56
224.573	-4.56
224.808	-8.56
225.042	-15.56
225.277	-8.56
225.511	5.44
225.746	1.44
225.98	-12.56
226.215	9.44
226.449	16.44
226.683	17.44
226.918	21.44
227.152	26.44
227.387	30.44
227.621	38.44
227.856	29.44
228.09	52.44
228.324	61.44
228.559	65.44
228.793	48.44
229.027	57.44
229.262	61.44
229.496	61.44
229.73	63.44
229.964	61.44
230.199	72.44
230.433	66.44
230.667	69.44
230.901	91.44
231.136	71.44
231.37	67.44
231.604	81.44
231.838	82.44
232.072	72.44
232.306	88.44
232.541	92.44
232.775	87.44
233.009	88.44
233.243	88.44
233.477	93.44
233.711	77.44
233.945	81.44
234.179	75.44
234.413	79.44
234.647	80.44
234.881	77.44
235.115	79.44
235.349	70.44
235.583	70.44
235.817	70.44
236.051	65.44
236.285	80.44
236.519	68.44
236.753	103.44
236.987	89.44
237.221	81.44
237.455	82.44
237.689	80.44
237.922	87.44
238.156	73.44
238.39	61.44
238.624	77.44
238.858	70.44
239.091	57.44
239.325	92.44
239.559	69.44
239.793	62.44
240.027	82.44
240.26	69.44
240.494	83.44
240.728	84.44
240.961	76.44
241.195	65.44
241.429	73.44
241.662	93.44
241.896	84.44
242.13	71.44
242.363	66.44
242.597	76.44
242.83	67.44
243.064	89.44
243.298	79.44
243.531	84.44
243.765	80.44
243.998	69.44
244.232	82.44
244.465	82.44
244.699	90.44
244.932	81.44
245.166	81.44
245.399	66.44
245.633	69.44
245.866	77.44
246.099	57.44
246.333	79.44
246.566	79.44
246.8	61.44
247.033	89.44
247.266	75.44
247.5	76.44
247.733	89.44
247.966	92.44
248.2	61.44
248.433	76.44
248.666	77.44
248.899	71.44
249.133	66.44
249.366	83.44
249.599	96.44
249.832	71.44
250.066	69.44
250.299	78.44
250.532	77.44
250.765	99.44
250.998	65.44
251.231	64.44
251.465	76.44
251.698	89.44
251.931	79.44
252.164	79.44
252.397	69.44
252.63	73.44
252.863	87.44
253.096	76.44
253.329	67.44
253.562	77.44
253.795	92.44
254.028	86.44
254.261	101.44
254.494	84.44
254.727	93.44
254.96	74.44
255.193	85.44
255.426	76.44
255.659	86.44
255.892	82.44
256.124	80.44
256.357	73.44
256.59	59.44
256.823	66.44
257.056	77.44
257.289	84.44
257.521	91.44
257.754	75.44
257.987	87.44
258.22	88.44
258.452	73.44
258.685	75.44
258.918	79.44
259.151	80.44
259.383	74.44
259.616	87.44
259.849	75.44
260.081	76.44
260.314	84.44
260.547	83.44
260.779	61.44
261.012	81.44
261.244	78.44
261.477	92.44
261.71	77.44
261.942	83.44
262.175	83.44
262.407	77.44
262.64	79.44
262.872	72.44
263.105	75.44
263.337	86.44
263.57	65.44
263.802	77.44
264.035	85.44
264.267	72.44
264.499	78.44
264.732	82.44
264.964	89.44
265.197	74.44
265.429	78.44
265.661	82.44
265.894	81.44
266.126	90.44
266.358	84.44
266.591	83.44
266.823	67.44
267.055	84.44
267.287	73.44
267.52	82.44
267.752	78.44
267.984	83.44
268.216	90.44
268.448	93.44
268.681	81.44
268.913	87.44
269.145	69.44
269.377	66.44
269.609	81.44
269.841	83.44
270.073	82.44
270.306	86.44
270.538	80.44
270.77	73.44
271.002	73.44
271.234	78.44
271.466	86.44
271.698	74.44
271.93	74.44
272.162	88.44
272.394	86.44
272.626	85.44
272.858	80.44
273.09	88.44
273.322	84.44
273.553	78.44
273.785	68.44
274.017	68.44
274.249	78.44
274.481	85.44
274.713	81.44
274.945	91.44
275.176	84.44
275.408	92.44
275.64	75.44
275.872	80.44
276.104	78.44
276.335	84.44
276.567	76.44
276.799	78.44
277.031	77.44
277.262	84.44
277.494	76.44
277.726	86.44
277.957	78.44
278.189	78.44
278.421	76.44
278.652	75.44
278.884	76.44
279.115	93.44
279.347	88.44
279.579	81.44
279.81	75.44
280.042	80.44
280.273	59.44
280.505	85.44
280.736	73.44
280.968	73.44
281.199	70.44
281.431	74.44
281.662	75.44
281.894	80.44
282.125	87.44
282.356	87.44
282.588	88.44
282.819	90.44
283.051	88.44
283.282	82.44
283.513	104.44
283.745	72.44
283.976	84.44
284.207	77.44
284.439	92.44
284.67	80.44
284.901	84.44
285.132	76.44
285.364	69.44
285.595	90.44
285.826	74.44
286.057	97.44
286.288	92.44
286.52	87.44
286.751	69.44
286.982	77.44
287.213	76.44
287.444	81.44
287.675	81.44
287.906	87.44
288.138	84.44
288.369	71.44
288.6	89.44
288.831	69.44
289.062	91.44
289.293	91.44
289.524	82.44
289.755	89.44
289.986	73.44
290.217	83.44
290.448	82.44
290.679	89.44
290.91	89.44
291.141	81.44
291.371	90.44
291.602	93.44
291.833	91.44
292.064	85.44
292.295	99.44
292.526	79.44
292.757	85.44
292.987	71.44
293.218	93.44
293.449	95.44
293.68	82.44
293.91	85.44
294.141	77.44
294.372	80.44
294.603	76.44
294.833	77.44
295.064	90.44
295.295	93.44
295.525	101.44
295.756	77.44
295.987	103.44
296.217	85.44
296.448	77.44
296.679	79.44
296.909	80.44
297.14	88.44
297.37	90.44
297.601	91.44
297.831	88.44
298.062	71.44
298.292	73.44
298.523	84.44
298.753	82.44
298.984	93.44
299.214	73.44
299.445	90.44
299.675	78.44
299.905	71.44
300.136	88.44
300.366	93.44
300.597	97.44
300.827	88.44
301.057	83.44
301.288	83.44
301.518	90.44
301.748	94.44
301.979	91.44
302.209	99.44
302.439	91.44
302.669	86.44
302.9	88.44
303.13	88.44
303.36	82.44
303.59	98.44
303.82	89.44
304.051	83.44
304.281	79.44
304.511	81.44
304.741	78.44
304.971	83.44
305.201	85.44
305.431	86.44
305.661	86.44
305.891	82.44
306.121	82.44
306.352	96.44
306.582	77.44
306.812	82.44
307.042	85.44
307.272	80.44
307.502	78.44
307.731	95.44
307.961	76.44
308.191	97.44
308.421	81.44
308.651	93.44
308.881	84.44
309.111	81.44
309.341	67.44
309.571	77.44
309.8	82.44
310.03	82.44
310.26	80.44
310.49	93.44
310.72	81.44
310.949	91.44
311.179	81.44
311.409	81.44
311.639	79.44
311.868	95.44
312.098	91.44
312.328	90.44
312.557	71.44
312.787	87.44
313.017	87.44
313.246	88.44
313.476	85.44
313.706	100.44
313.935	98.44
314.165	72.44
314.394	92.44
314.624	85.44
314.853	69.44
315.083	73.44
315.312	70.44
315.542	94.44
315.771	88.44
316.001	85.44
316.23	78.44
316.46	92.44
316.689	93.44
316.919	78.44
317.148	96.44
317.377	90.44
317.607	85.44
317.836	80.44
318.065	85.44
318.295	88.44
318.524	77.44
318.753	79.44
318.983	82.44
319.212	80.44
319.441	82.44
319.67	79.44
319.9	78.44
320.129	83.44
320.358	76.44
320.587	88.44
320.816	90.44
321.046	95.44
321.275	97.44
321.504	92.44
321.733	101.44
321.962	90.44
322.191	92.44
322.42	85.44
322.649	84.44
322.878	84.44
323.108	70.44
323.337	87.44
323.566	85.44
323.795	92.44
324.024	88.44
324.253	94.44
324.482	80.44
324.71	88.44
324.939	93.44
325.168	87.44
325.397	84.44
325.626	84.44
325.855	89.44
326.084	86.44
326.313	82.44
326.542	84.44
326.77	84.44
326.999	83.44
327.228	74.44
327.457	83.44
327.686	94.44
327.914	79.44
328.143	82.44
328.372	94.44
328.6	88.44
328.829	96.44
329.058	92.44
329.287	78.44
329.515	89.44
329.744	76.44
329.972	91.44
330.201	93.44
330.43	107.44
330.658	77.44
330.887	85.44
331.115	109.44
331.344	75.44
331.572	87.44
331.801	81.44
332.03	80.44
332.258	85.44
332.486	100.44
332.715	94.44
332.943	65.44
333.172	88.44
333.4	80.44
333.629	78.44
333.857	87.44
334.085	80.44
334.314	96.44
334.542	100.44
334.771	86.44
334.999	84.44
335.227	82.44
335.455	72.44
335.684	94.44
335.912	89.44
336.14	77.44
336.369	84.44
336.597	85.44
336.825	91.44
337.053	85.44
337.281	84.44
337.51	87.44
337.738	96.44
337.966	90.44
338.194	92.44
338.422	81.44
338.65	91.44
338.878	87.44
339.106	81.44
339.334	88.44
339.562	64.44
339.79	83.44
340.018	71.44
340.246	89.44
340.474	104.44
340.702	88.44
340.93	72.44
341.158	80.44
341.386	78.44
341.614	67.44
341.842	93.44
342.07	100.44
342.298	79.44
342.526	92.44
342.754	88.44
342.981	88.44
343.209	86.44
343.437	88.44
343.665	65.44
343.893	83.44
344.12	86.44
344.348	80.44
344.576	85.44
344.804	95.44
345.031	77.44
345.259	73.44
345.487	84.44
345.714	79.44
345.942	92.44
346.17	85.44
346.397	82.44
346.625	92.44
346.853	92.44
347.08	82.44
347.308	80.44
347.535	85.44
347.763	79.44
347.99	96.44
348.218	82.44
348.445	91.44
348.673	64.44
348.9	68.44
349.128	87.44
349.355	87.44
349.583	83.44
349.81	78.44
350.037	94.44
350.265	88.44
350.492	91.44
350.72	76.44
350.947	87.44
351.174	82.44
351.402	88.44
351.629	85.44
351.856	64.44
352.083	74.44
352.311	89.44
352.538	83.44
352.765	80.44
352.992	79.44
353.22	70.44
353.447	85.44
353.674	81.44
353.901	78.44
354.128	79.44
354.355	78.44
354.583	86.44
354.81	90.44
355.037	76.44
355.264	80.44
355.491	73.44
355.718	59.44
355.945	76.44
356.172	80.44
356.399	87.44
356.626	85.44
356.853	98.44
357.08	75.44
357.307	83.44
357.534	81.44
357.761	95.44
357.988	86.44
358.215	84.44
358.441	82.44
358.668	93.44
358.895	96.44
359.122	93.44
359.349	80.44
359.576	73.44
359.802	82.44
360.029	77.44
360.256	79.44
360.483	71.44
360.709	88.44
360.936	88.44
361.163	77.44
361.39	96.44
361.616	81.44
361.843	77.44
362.07	87.44
362.296	83.44
362.523	93.44
362.749	79.44
362.976	84.44
363.203	86.44
363.429	101.44
363.656	72.44
363.882	75.44
364.109	52.44
364.335	91.44
364.562	90.44
364.788	88.44
365.015	83.44
365.241	97.44
365.468	75.44
365.694	94.44
365.92	98.44
366.147	66.44
366.373	79.44
366.599	81.44
366.826	86.44
367.052	83.44
367.278	91.44
367.505	73.44
367.731	81.44
367.957	79.44
368.184	79.44
368.41	72.44
368.636	80.44
368.862	90.44
369.089	74.44
369.315	90.44
369.541	71.44
369.767	79.44
369.993	104.44
370.219	91.44
370.445	82.44
370.672	63.44
370.898	67.44
371.124	80.44
371.35	73.44
371.576	95.44
371.802	76.44
372.028	81.44
372.254	71.44
372.48	77.44
372.706	75.44
372.932	99.44
373.158	89.44
373.384	87.44
373.61	82.44
373.835	88.44
374.061	77.44
374.287	78.44
374.513	84.44
374.739	98.44
374.965	76.44
375.191	84.44
375.416	82.44
375.642	90.44
375.868	88.44
376.094	86.44
376.319	79.44
376.545	92.44
376.771	83.44
376.997	92.44
377.222	79.44
377.448	76.44
377.674	77.44
377.899	85.44
378.125	83.44
378.35	70.44
378.576	77.44
378.802	84.44
379.027	81.44
379.253	77.44
379.478	77.44
379.704	90.44
379.929	81.44
380.155	70.44
380.38	79.44
380.606	84.44
380.831	87.44
381.057	86.44
381.282	83.44
381.507	82.44
381.733	86.44
381.958	89.44
382.184	82.44
382.409	68.44
382.634	80.44
382.86	90.44
383.085	88.44
383.31	92.44
383.535	84.44
383.761	101.44
383.986	80.44
384.211	76.44
384.436	84.44
384.662	80.44
384.887	89.44
385.112	63.44
385.337	83.44
385.562	73.44
385.787	85.44
386.013	75.44
386.238	79.44
386.463	85.44
386.688	76.44
386.913	89.44
387.138	82.44
387.363	75.44
387.588	71.44
387.813	80.44
388.038	73.44
388.263	76.44
388.488	76.44
388.713	67.44
388.938	72.44
389.163	85.44
389.387	82.44
389.612	84.44
389.837	75.44
390.062	84.44
390.287	75.44
390.512	83.44
390.736	76.44
390.961	75.44
391.186	80.44
391.411	93.44
391.636	80.44
391.86	71.44
392.085	90.44
392.31	84.44
392.534	78.44
392.759	94.44
392.984	75.44
393.208	72.44
393.433	90.44
393.658	82.44
393.882	88.44
394.107	76.44
394.331	76.44
394.556	69.44
394.78	89.44
395.005	82.44
395.229	76.44
395.454	76.44
395.678	88.44
395.903	77.44
396.127	82.44
396.352	82.44
396.576	74.44
396.801	67.44
397.025	67.44
397.249	85.44
397.474	90.44
397.698	80.44
397.922	67.44
398.147	77.44
398.371	80.44
398.595	77.44
398.82	75.44
399.044	86.44
399.268	81.44
399.492	77.44
399.717	93.44
399.941	74.44
400.165	84.44
400.389	70.44
400.613	79.44
400.837	69.44
401.062	83.44
401.286	80.44
401.51	89.44
401.734	83.44
401.958	83.44
402.182	68.44
402.406	83.44
402.63	81.44
402.854	69.44
403.078	84.44
403.302	73.44
403.526	76.44
403.75	84.44
403.974	89.44
404.198	80.44
404.422	77.44
404.645	63.44
404.869	68.44
405.093	63.44
405.317	79.44
405.541	88.44
405.765	73.44
405.988	77.44
406.212	87.44
406.436	84.44
406.66	86.44
406.883	75.44
407.107	81.44
407.331	71.44
407.555	79.44
407.778	86.44
408.002	87.44
408.226	72.44
408.449	77.44
408.673	73.44
408.896	70.44
409.12	80.44
409.344	89.44
409.567	97.44
409.791	74.44
410.014	85.44
410.238	97.44
410.461	84.44
410.685	79.44
410.908	82.44
411.132	77.44
411.355	77.44
411.578	87.44
411.802	84.44
412.025	81.44
412.249	83.44
412.472	71.44
412.695	97.44
412.919	100.44
413.142	66.44
413.365	83.44
413.589	72.44
413.812	83.44
414.035	101.44
414.258	92.44
414.482	85.44
414.705	82.44
414.928	87.44
415.151	82.44
415.374	84.44
415.597	88.44
415.821	78.44
416.044	88.44
416.267	77.44
416.49	83.44
416.713	71.44
416.936	70.44
417.159	84.44
417.382	71.44
417.605	78.44
417.828	66.44
418.051	62.44
418.274	72.44
418.497	91.44
418.72	65.44
418.943	84.44
419.166	69.44
419.389	70.44
419.611	72.44
419.834	82.44
420.057	69.44
420.28	75.44
420.503	85.44
420.726	74.44
420.948	79.44
421.171	79.44
421.394	87.44
421.617	85.44
421.839	80.44
422.062	78.44
422.285	84.44
422.507	70.44
422.73	75.44
422.953	69.44
423.175	74.44
423.398	81.44
423.621	74.44
423.843	77.44
424.066	91.44
424.288	82.44
424.511	73.44
424.733	79.44
424.956	87.44
425.178	81.44
425.401	81.44
425.623	69.44
425.846	77.44
426.068	81.44
426.291	85.44
426.513	93.44
426.735	74.44
426.958	73.44
427.18	69.44
427.402	85.44
427.625	88.44
427.847	88.44
428.069	91.44
428.292	77.44
428.514	84.44
428.736	64.44
428.958	65.44
429.181	80.44
429.403	69.44
429.625	80.44
429.847	87.44
430.069	79.44
430.292	94.44
430.514	75.44
430.736	68.44
430.958	91.44
431.18	65.44
431.402	75.44
431.624	87.44
431.846	72.44
432.068	87.44
432.29	90.44
432.512	89.44
432.734	78.44
432.956	82.44
433.178	86.44
433.4	85.44
433.622	68.44
433.844	80.44
434.066	76.44
434.287	80.44
434.509	82.44
434.731	88.44
434.953	65.44
435.175	81.44
435.397	83.44
435.618	84.44
435.84	61.44
436.062	79.44
436.284	70.44
436.505	69.44
436.727	89.44
436.949	82.44
437.17	73.44
437.392	72.44
437.614	82.44
437.835	71.44
438.057	71.44
438.278	70.44
438.5	78.44
438.721	89.44
438.943	80.44
439.165	82.44
439.386	69.44
439.608	68.44
439.829	85.44
440.05	87.44
440.272	81.44
440.493	79.44
440.715	72.44
440.936	80.44
441.158	76.44
441.379	66.44
441.6	97.44
441.822	96.44
442.043	73.44
442.264	73.44
442.486	76.44
442.707	68.44
442.928	77.44
443.149	79.44
443.371	83.44
443.592	76.44
443.813	91.44
444.034	84.44
444.255	77.44
444.476	79.44
444.698	63.44
444.919	90.44
445.14	131.44
445.361	93.44
445.582	85.44
445.803	80.44
446.024	86.44
446.245	85.44
446.466	87.44
446.687	74.44
446.908	82.44
447.129	88.44
447.35	77.44
447.571	86.44
447.792	76.44
448.013	77.44
448.234	76.44
448.455	75.44
448.675	72.44
448.896	79.44
449.117	72.44
449.338	87.44
449.559	98.44
449.779	82.44
450	72.44
450.221	84.44
450.442	79.44
450.662	78.44
450.883	90.44
451.104	69.44
451.324	87.44
451.545	81.44
451.766	75.44
451.986	61.44
452.207	83.44
452.428	84.44
452.648	75.44
452.869	84.44
453.089	85.44
453.31	93.44
453.53	68.44
453.751	77.44
453.971	64.44
454.192	98.44
454.412	92.44
454.633	80.44
454.853	85.44
455.073	91.44
455.294	72.44
455.514	83.44
455.734	87.44
455.955	94.44
456.175	68.44
456.395	80.44
456.616	74.44
456.836	60.44
457.056	78.44
457.276	86.44
457.497	84.44
457.717	83.44
457.937	76.44
458.157	83.44
458.377	76.44
458.598	75.44
458.818	75.44
459.038	77.44
459.258	75.44
459.478	89.44
459.698	90.44
459.918	76.44
460.138	76.44
460.358	85.44
460.578	76.44
460.798	73.44
461.018	75.44
461.238	79.44
461.458	75.44
461.678	84.44
461.898	79.44
462.118	81.44
462.338	73.44
462.558	80.44
462.777	85.44
462.997	88.44
463.217	79.44
463.437	90.44
463.657	79.44
463.876	90.44
464.096	93.44
464.316	68.44
464.536	70.44
464.755	95.44
464.975	81.44
465.195	88.44
465.414	74.44
465.634	76.44
465.854	88.44
466.073	73.44
466.293	96.44
466.512	84.44
466.732	83.44
466.951	73.44
467.171	87.44
467.391	73.44
467.61	87.44
467.829	87.44
468.049	88.44
468.268	81.44
468.488	81.44
468.707	87.44
468.927	87.44
469.146	76.44
469.365	84.44
469.585	84.44
469.804	80.44
470.023	83.44
470.243	81.44
470.462	93.44
470.681	83.44
470.901	83.44
471.12	82.44
471.339	71.44
471.558	73.44
471.777	87.44
471.997	62.44
472.216	74.44
472.435	72.44
472.654	85.44
472.873	81.44
473.092	76.44
473.311	84.44
473.53	80.44
473.749	69.44
473.968	85.44
474.187	90.44
474.406	83.44
474.625	91.44
474.844	78.44
475.063	78.44
475.282	80.44
475.501	78.44
475.72	88.44
475.939	77.44
476.158	73.44
476.377	78.44
476.596	84.44
476.814	82.44
477.033	81.44
477.252	85.44
477.471	81.44
477.69	76.44
477.908	89.44
478.127	75.44
478.346	75.44
478.564	78.44
478.783	68.44
479.002	73.44
479.22	90.44
479.439	76.44
479.658	72.44
479.876	78.44
480.095	76.44
480.313	83.44
480.532	90.44
480.751	87.44
480.969	64.44
481.188	78.44
481.406	81.44
481.624	82.44
481.843	81.44
482.061	95.44
482.28	72.44
482.498	75.44
482.717	79.44
482.935	81.44
483.153	79.44
483.372	76.44
483.59	77.44
483.808	70.44
484.027	81.44
484.245	70.44
484.463	69.44
484.681	81.44
484.9	85.44
485.118	84.44
485.336	84.44
485.554	80.44
485.772	71.44
485.99	79.44
486.209	83.44
486.427	77.44
486.645	84.44
486.863	72.44
487.081	80.44
487.299	84.44
487.517	98.44
487.735	78.44
487.953	85.44
488.171	68.44
488.389	82.44
488.607	89.44
488.825	81.44
489.043	83.44
489.261	86.44
489.479	77.44
489.696	79.44
489.914	73.44
490.132	89.44
490.35	92.44
490.568	69.44
490.786	72.44
491.003	83.44
491.221	85.44
491.439	94.44
491.657	77.44
491.874	74.44
492.092	74.44
492.31	88.44
492.527	83.44
492.745	75.44
492.963	72.44
493.18	83.44
493.398	85.44
493.615	90.44
493.833	85.44
494.05	84.44
494.268	90.44
494.485	86.44
494.703	74.44
494.92	82.44
495.138	82.44
495.355	81.44
495.573	80.44
495.79	80.44
496.008	70.44
496.225	88.44
496.442	81.44
496.66	86.44
496.877	78.44
497.094	84.44
497.312	77.44
497.529	94.44
497.746	92.44
497.963	77.44
498.181	83.44
498.398	91.44
498.615	92.44
498.832	79.44
499.049	89.44
499.267	79.44
499.484	76.44
499.701	89.44
499.918	64.44
500.135	70.44
500.352	85.44
500.569	75.44
500.786	73.44
501.003	79.44
501.22	73.44
501.437	80.44
501.654	84.44
501.871	73.44
502.088	82.44
502.305	101.44
502.522	98.44
502.739	82.44
502.956	77.44
503.172	77.44
503.389	83.44
503.606	88.44
503.823	81.44
504.04	73.44
504.256	84.44
504.473	76.44
504.69	88.44
504.907	76.44
505.123	86.44
505.34	84.44
505.557	87.44
505.773	91.44
505.99	80.44
506.207	87.44
506.423	73.44
506.64	88.44
506.856	96.44
507.073	84.44
507.289	80.44
507.506	88.44
507.722	68.44
507.939	80.44
508.155	85.44
508.372	84.44
508.588	78.44
508.805	74.44
509.021	83.44
509.238	75.44
509.454	90.44
509.67	70.44
509.887	83.44
510.103	91.44
510.319	79.44
510.536	70.44
510.752	90.44
510.968	89.44
511.184	70.44
511.401	70.44
511.617	84.44
511.833	98.44
512.049	84.44
512.265	85.44
512.481	87.44
512.698	84.44
512.914	76.44
513.13	76.44
513.346	77.44
513.562	85.44
513.778	87.44
513.994	68.44
514.21	84.44
514.426	80.44
514.642	89.44
514.858	74.44
515.074	93.44
515.29	80.44
515.506	64.44
515.721	77.44
515.937	81.44
516.153	83.44
516.369	83.44
516.585	91.44
516.801	94.44
517.016	90.44
517.232	87.44
517.448	89.44
517.664	75.44
517.879	88.44
518.095	90.44
518.311	75.44
518.527	83.44
518.742	89.44
518.958	90.44
519.173	77.44
519.389	67.44
519.605	81.44
519.82	82.44
520.036	83.44
