Data from Background_1_HRD10591_00069.txt Node
Date: Wed Nov 05 14:39:32 EST 2025
User: Yrep
Spectrometer: HR+D1059
Trigger mode: 1
Integration Time (sec): 1.000000E-1
Scans to average: 1
Electric dark correction enabled: true
Nonlinearity correction enabled: false
Boxcar width: 0
XAxis mode: Wavelengths
Number of Pixels in Spectrum: 2048
>>>>>Begin Spectral Data<<<<<
223.165	-6.19
223.4	-6.19
223.635	-6.19
223.869	-6.19
224.104	-17.19
224.338	-11.19
224.573	-17.19
224.808	-4.19
225.042	-9.19
225.277	-7.19
225.511	-6.19
225.746	8.81
225.98	2.81
226.215	-8.19
226.449	1.81
226.683	12.81
226.918	24.81
227.152	41.81
227.387	25.81
227.621	41.81
227.856	52.81
228.09	46.81
228.324	54.81
228.559	56.81
228.793	69.81
229.027	56.81
229.262	53.81
229.496	63.81
229.73	73.81
229.964	73.81
230.199	73.81
230.433	74.81
230.667	74.81
230.901	70.81
231.136	87.81
231.37	76.81
231.604	62.81
231.838	71.81
232.072	78.81
232.306	76.81
232.541	82.81
232.775	83.81
233.009	85.81
233.243	86.81
233.477	61.81
233.711	67.81
233.945	78.81
234.179	80.81
234.413	76.81
234.647	88.81
234.881	72.81
235.115	83.81
235.349	72.81
235.583	87.81
235.817	74.81
236.051	77.81
236.285	86.81
236.519	80.81
236.753	71.81
236.987	73.81
237.221	75.81
237.455	64.81
237.689	75.81
237.922	78.81
238.156	80.81
238.39	62.81
238.624	90.81
238.858	74.81
239.091	58.81
239.325	82.81
239.559	63.81
239.793	74.81
240.027	85.81
240.26	68.81
240.494	78.81
240.728	78.81
240.961	80.81
241.195	79.81
241.429	80.81
241.662	60.81
241.896	74.81
242.13	81.81
242.363	63.81
242.597	70.81
242.83	65.81
243.064	74.81
243.298	86.81
243.531	81.81
243.765	79.81
243.998	68.81
244.232	83.81
244.465	79.81
244.699	71.81
244.932	74.81
245.166	86.81
245.399	99.81
245.633	78.81
245.866	79.81
246.099	72.81
246.333	89.81
246.566	58.81
246.8	73.81
247.033	69.81
247.266	85.81
247.5	78.81
247.733	69.81
247.966	78.81
248.2	62.81
248.433	81.81
248.666	77.81
248.899	83.81
249.133	74.81
249.366	86.81
249.599	91.81
249.832	79.81
250.066	73.81
250.299	72.81
250.532	69.81
250.765	88.81
250.998	76.81
251.231	74.81
251.465	73.81
251.698	82.81
251.931	83.81
252.164	85.81
252.397	80.81
252.63	76.81
252.863	65.81
253.096	70.81
253.329	94.81
253.562	80.81
253.795	81.81
254.028	70.81
254.261	78.81
254.494	91.81
254.727	85.81
254.96	88.81
255.193	83.81
255.426	90.81
255.659	66.81
255.892	87.81
256.124	76.81
256.357	72.81
256.59	87.81
256.823	78.81
257.056	66.81
257.289	69.81
257.521	90.81
257.754	88.81
257.987	80.81
258.22	78.81
258.452	69.81
258.685	71.81
258.918	76.81
259.151	58.81
259.383	73.81
259.616	70.81
259.849	67.81
260.081	84.81
260.314	73.81
260.547	76.81
260.779	65.81
261.012	66.81
261.244	72.81
261.477	80.81
261.71	79.81
261.942	61.81
262.175	98.81
262.407	87.81
262.64	82.81
262.872	81.81
263.105	85.81
263.337	75.81
263.57	104.81
263.802	76.81
264.035	76.81
264.267	83.81
264.499	84.81
264.732	98.81
264.964	79.81
265.197	80.81
265.429	72.81
265.661	88.81
265.894	75.81
266.126	86.81
266.358	71.81
266.591	79.81
266.823	71.81
267.055	83.81
267.287	91.81
267.52	75.81
267.752	89.81
267.984	75.81
268.216	68.81
268.448	83.81
268.681	80.81
268.913	96.81
269.145	83.81
269.377	79.81
269.609	81.81
269.841	88.81
270.073	85.81
270.306	80.81
270.538	77.81
270.77	92.81
271.002	88.81
271.234	86.81
271.466	75.81
271.698	82.81
271.93	69.81
272.162	78.81
272.394	68.81
272.626	88.81
272.858	83.81
273.09	76.81
273.322	83.81
273.553	87.81
273.785	85.81
274.017	75.81
274.249	80.81
274.481	77.81
274.713	68.81
274.945	87.81
275.176	60.81
275.408	73.81
275.64	83.81
275.872	98.81
276.104	86.81
276.335	79.81
276.567	78.81
276.799	79.81
277.031	92.81
277.262	78.81
277.494	81.81
277.726	83.81
277.957	76.81
278.189	90.81
278.421	76.81
278.652	90.81
278.884	79.81
279.115	93.81
279.347	79.81
279.579	74.81
279.81	80.81
280.042	82.81
280.273	82.81
280.505	108.81
280.736	77.81
280.968	74.81
281.199	70.81
281.431	85.81
281.662	78.81
281.894	88.81
282.125	72.81
282.356	89.81
282.588	91.81
282.819	85.81
283.051	73.81
283.282	64.81
283.513	77.81
283.745	80.81
283.976	79.81
284.207	70.81
284.439	86.81
284.67	81.81
284.901	85.81
285.132	71.81
285.364	86.81
285.595	80.81
285.826	83.81
286.057	79.81
286.288	86.81
286.52	71.81
286.751	84.81
286.982	88.81
287.213	73.81
287.444	74.81
287.675	83.81
287.906	90.81
288.138	84.81
288.369	88.81
288.6	103.81
288.831	104.81
289.062	78.81
289.293	91.81
289.524	104.81
289.755	82.81
289.986	65.81
290.217	82.81
290.448	83.81
290.679	80.81
290.91	95.81
291.141	84.81
291.371	86.81
291.602	82.81
291.833	72.81
292.064	78.81
292.295	68.81
292.526	70.81
292.757	78.81
292.987	93.81
293.218	83.81
293.449	82.81
293.68	81.81
293.91	88.81
294.141	82.81
294.372	85.81
294.603	91.81
294.833	86.81
295.064	68.81
295.295	80.81
295.525	75.81
295.756	68.81
295.987	68.81
296.217	68.81
296.448	82.81
296.679	80.81
296.909	76.81
297.14	72.81
297.37	79.81
297.601	83.81
297.831	80.81
298.062	79.81
298.292	86.81
298.523	82.81
298.753	84.81
298.984	89.81
299.214	76.81
299.445	85.81
299.675	76.81
299.905	67.81
300.136	82.81
300.366	95.81
300.597	79.81
300.827	91.81
301.057	87.81
301.288	77.81
301.518	86.81
301.748	91.81
301.979	90.81
302.209	69.81
302.439	92.81
302.669	100.81
302.9	74.81
303.13	87.81
303.36	87.81
303.59	84.81
303.82	80.81
304.051	91.81
304.281	94.81
304.511	75.81
304.741	87.81
304.971	77.81
305.201	67.81
305.431	80.81
305.661	93.81
305.891	84.81
306.121	88.81
306.352	84.81
306.582	91.81
306.812	86.81
307.042	79.81
307.272	83.81
307.502	83.81
307.731	82.81
307.961	97.81
308.191	92.81
308.421	76.81
308.651	83.81
308.881	79.81
309.111	88.81
309.341	72.81
309.571	87.81
309.8	75.81
310.03	92.81
310.26	79.81
310.49	85.81
310.72	82.81
310.949	91.81
311.179	93.81
311.409	80.81
311.639	82.81
311.868	83.81
312.098	93.81
312.328	91.81
312.557	77.81
312.787	79.81
313.017	87.81
313.246	90.81
313.476	91.81
313.706	93.81
313.935	88.81
314.165	85.81
314.394	67.81
314.624	81.81
314.853	74.81
315.083	61.81
315.312	78.81
315.542	75.81
315.771	89.81
316.001	95.81
316.23	90.81
316.46	84.81
316.689	80.81
316.919	88.81
317.148	90.81
317.377	69.81
317.607	77.81
317.836	81.81
318.065	82.81
318.295	75.81
318.524	84.81
318.753	79.81
318.983	80.81
319.212	97.81
319.441	83.81
319.67	86.81
319.9	92.81
320.129	71.81
320.358	76.81
320.587	88.81
320.816	80.81
321.046	72.81
321.275	68.81
321.504	86.81
321.733	94.81
321.962	72.81
322.191	75.81
322.42	76.81
322.649	83.81
322.878	88.81
323.108	83.81
323.337	85.81
323.566	80.81
323.795	94.81
324.024	77.81
324.253	93.81
324.482	79.81
324.71	78.81
324.939	85.81
325.168	82.81
325.397	79.81
325.626	88.81
325.855	83.81
326.084	96.81
326.313	74.81
326.542	82.81
326.77	84.81
326.999	84.81
327.228	78.81
327.457	87.81
327.686	93.81
327.914	73.81
328.143	80.81
328.372	78.81
328.6	72.81
328.829	78.81
329.058	89.81
329.287	81.81
329.515	85.81
329.744	91.81
329.972	82.81
330.201	76.81
330.43	76.81
330.658	77.81
330.887	84.81
331.115	96.81
331.344	88.81
331.572	96.81
331.801	79.81
332.03	80.81
332.258	83.81
332.486	74.81
332.715	86.81
332.943	85.81
333.172	75.81
333.4	75.81
333.629	66.81
333.857	80.81
334.085	67.81
334.314	86.81
334.542	90.81
334.771	62.81
334.999	75.81
335.227	79.81
335.455	90.81
335.684	79.81
335.912	88.81
336.14	78.81
336.369	67.81
336.597	80.81
336.825	74.81
337.053	84.81
337.281	89.81
337.51	96.81
337.738	87.81
337.966	78.81
338.194	90.81
338.422	85.81
338.65	87.81
338.878	85.81
339.106	85.81
339.334	88.81
339.562	82.81
339.79	86.81
340.018	73.81
340.246	84.81
340.474	77.81
340.702	86.81
340.93	86.81
341.158	84.81
341.386	96.81
341.614	83.81
341.842	69.81
342.07	74.81
342.298	77.81
342.526	88.81
342.754	89.81
342.981	72.81
343.209	82.81
343.437	87.81
343.665	78.81
343.893	69.81
344.12	77.81
344.348	77.81
344.576	74.81
344.804	58.81
345.031	80.81
345.259	90.81
345.487	80.81
345.714	81.81
345.942	79.81
346.17	68.81
346.397	66.81
346.625	80.81
346.853	84.81
347.08	75.81
347.308	73.81
347.535	93.81
347.763	98.81
347.99	82.81
348.218	78.81
348.445	78.81
348.673	81.81
348.9	72.81
349.128	81.81
349.355	78.81
349.583	82.81
349.81	86.81
350.037	83.81
350.265	78.81
350.492	72.81
350.72	86.81
350.947	79.81
351.174	63.81
351.402	83.81
351.629	73.81
351.856	84.81
352.083	89.81
352.311	87.81
352.538	71.81
352.765	70.81
352.992	79.81
353.22	89.81
353.447	85.81
353.674	72.81
353.901	82.81
354.128	71.81
354.355	84.81
354.583	82.81
354.81	85.81
355.037	97.81
355.264	92.81
355.491	88.81
355.718	76.81
355.945	83.81
356.172	81.81
356.399	78.81
356.626	80.81
356.853	76.81
357.08	84.81
357.307	68.81
357.534	83.81
357.761	86.81
357.988	84.81
358.215	68.81
358.441	81.81
358.668	75.81
358.895	91.81
359.122	81.81
359.349	81.81
359.576	77.81
359.802	81.81
360.029	81.81
360.256	80.81
360.483	71.81
360.709	76.81
360.936	86.81
361.163	90.81
361.39	93.81
361.616	90.81
361.843	80.81
362.07	82.81
362.296	76.81
362.523	81.81
362.749	86.81
362.976	91.81
363.203	83.81
363.429	63.81
363.656	77.81
363.882	73.81
364.109	87.81
364.335	84.81
364.562	80.81
364.788	93.81
365.015	82.81
365.241	77.81
365.468	81.81
365.694	86.81
365.92	78.81
366.147	94.81
366.373	82.81
366.599	90.81
366.826	84.81
367.052	83.81
367.278	71.81
367.505	80.81
367.731	79.81
367.957	71.81
368.184	71.81
368.41	84.81
368.636	75.81
368.862	99.81
369.089	81.81
369.315	85.81
369.541	77.81
369.767	72.81
369.993	94.81
370.219	81.81
370.445	76.81
370.672	64.81
370.898	87.81
371.124	83.81
371.35	74.81
371.576	69.81
371.802	67.81
372.028	79.81
372.254	86.81
372.48	75.81
372.706	63.81
372.932	79.81
373.158	85.81
373.384	76.81
373.61	82.81
373.835	81.81
374.061	84.81
374.287	90.81
374.513	92.81
374.739	83.81
374.965	78.81
375.191	73.81
375.416	83.81
375.642	85.81
375.868	76.81
376.094	69.81
376.319	76.81
376.545	72.81
376.771	53.81
376.997	70.81
377.222	83.81
377.448	74.81
377.674	92.81
377.899	87.81
378.125	85.81
378.35	77.81
378.576	84.81
378.802	67.81
379.027	80.81
379.253	87.81
379.478	78.81
379.704	78.81
379.929	74.81
380.155	86.81
380.38	79.81
380.606	81.81
380.831	66.81
381.057	83.81
381.282	75.81
381.507	88.81
381.733	89.81
381.958	86.81
382.184	83.81
382.409	66.81
382.634	71.81
382.86	74.81
383.085	80.81
383.31	92.81
383.535	74.81
383.761	79.81
383.986	74.81
384.211	82.81
384.436	80.81
384.662	82.81
384.887	66.81
385.112	74.81
385.337	80.81
385.562	72.81
385.787	75.81
386.013	91.81
386.238	81.81
386.463	83.81
386.688	98.81
386.913	77.81
387.138	84.81
387.363	80.81
387.588	87.81
387.813	79.81
388.038	87.81
388.263	74.81
388.488	83.81
388.713	76.81
388.938	92.81
389.163	75.81
389.387	90.81
389.612	80.81
389.837	86.81
390.062	64.81
390.287	71.81
390.512	70.81
390.736	82.81
390.961	66.81
391.186	84.81
391.411	79.81
391.636	67.81
391.86	79.81
392.085	84.81
392.31	90.81
392.534	79.81
392.759	77.81
392.984	72.81
393.208	72.81
393.433	75.81
393.658	67.81
393.882	69.81
394.107	74.81
394.331	71.81
394.556	58.81
394.78	97.81
395.005	75.81
395.229	74.81
395.454	74.81
395.678	73.81
395.903	87.81
396.127	92.81
396.352	76.81
396.576	84.81
396.801	70.81
397.025	78.81
397.249	78.81
397.474	96.81
397.698	69.81
397.922	85.81
398.147	68.81
398.371	80.81
398.595	80.81
398.82	80.81
399.044	93.81
399.268	86.81
399.492	71.81
399.717	93.81
399.941	82.81
400.165	71.81
400.389	81.81
400.613	77.81
400.837	82.81
401.062	83.81
401.286	79.81
401.51	85.81
401.734	71.81
401.958	86.81
402.182	90.81
402.406	74.81
402.63	73.81
402.854	85.81
403.078	67.81
403.302	79.81
403.526	71.81
403.75	67.81
403.974	76.81
404.198	78.81
404.422	80.81
404.645	78.81
404.869	70.81
405.093	84.81
405.317	87.81
405.541	86.81
405.765	96.81
405.988	80.81
406.212	79.81
406.436	69.81
406.66	86.81
406.883	61.81
407.107	78.81
407.331	84.81
407.555	78.81
407.778	75.81
408.002	84.81
408.226	79.81
408.449	88.81
408.673	75.81
408.896	88.81
409.12	74.81
409.344	78.81
409.567	91.81
409.791	80.81
410.014	78.81
410.238	80.81
410.461	85.81
410.685	90.81
410.908	77.81
411.132	83.81
411.355	74.81
411.578	72.81
411.802	86.81
412.025	83.81
412.249	88.81
412.472	86.81
412.695	83.81
412.919	88.81
413.142	72.81
413.365	81.81
413.589	67.81
413.812	74.81
414.035	80.81
414.258	86.81
414.482	73.81
414.705	78.81
414.928	92.81
415.151	78.81
415.374	74.81
415.597	88.81
415.821	78.81
416.044	88.81
416.267	92.81
416.49	78.81
416.713	73.81
416.936	99.81
417.159	79.81
417.382	55.81
417.605	86.81
417.828	77.81
418.051	76.81
418.274	79.81
418.497	69.81
418.72	82.81
418.943	87.81
419.166	93.81
419.389	75.81
419.611	74.81
419.834	67.81
420.057	73.81
420.28	77.81
420.503	82.81
420.726	83.81
420.948	86.81
421.171	76.81
421.394	78.81
421.617	73.81
421.839	79.81
422.062	76.81
422.285	82.81
422.507	87.81
422.73	86.81
422.953	76.81
423.175	77.81
423.398	83.81
423.621	85.81
423.843	67.81
424.066	72.81
424.288	79.81
424.511	75.81
424.733	68.81
424.956	74.81
425.178	76.81
425.401	79.81
425.623	82.81
425.846	87.81
426.068	94.81
426.291	89.81
426.513	74.81
426.735	72.81
426.958	78.81
427.18	85.81
427.402	60.81
427.625	76.81
427.847	72.81
428.069	86.81
428.292	89.81
428.514	76.81
428.736	68.81
428.958	82.81
429.181	84.81
429.403	74.81
429.625	77.81
429.847	70.81
430.069	84.81
430.292	76.81
430.514	72.81
430.736	70.81
430.958	78.81
431.18	83.81
431.402	76.81
431.624	69.81
431.846	67.81
432.068	76.81
432.29	84.81
432.512	82.81
432.734	60.81
432.956	68.81
433.178	82.81
433.4	73.81
433.622	85.81
433.844	69.81
434.066	88.81
434.287	74.81
434.509	76.81
434.731	73.81
434.953	80.81
435.175	76.81
435.397	81.81
435.618	83.81
435.84	71.81
436.062	72.81
436.284	75.81
436.505	87.81
436.727	98.81
436.949	84.81
437.17	80.81
437.392	74.81
437.614	78.81
437.835	73.81
438.057	72.81
438.278	78.81
438.5	81.81
438.721	87.81
438.943	79.81
439.165	95.81
439.386	89.81
439.608	82.81
439.829	74.81
440.05	80.81
440.272	85.81
440.493	66.81
440.715	96.81
440.936	88.81
441.158	68.81
441.379	68.81
441.6	89.81
441.822	60.81
442.043	85.81
442.264	84.81
442.486	72.81
442.707	83.81
442.928	90.81
443.149	74.81
443.371	74.81
443.592	72.81
443.813	81.81
444.034	81.81
444.255	86.81
444.476	78.81
444.698	80.81
444.919	73.81
445.14	132.81
445.361	102.81
445.582	94.81
445.803	69.81
446.024	80.81
446.245	94.81
446.466	85.81
446.687	65.81
446.908	86.81
447.129	83.81
447.35	86.81
447.571	92.81
447.792	76.81
448.013	73.81
448.234	86.81
448.455	73.81
448.675	89.81
448.896	87.81
449.117	81.81
449.338	78.81
449.559	85.81
449.779	80.81
450	72.81
450.221	82.81
450.442	69.81
450.662	79.81
450.883	75.81
451.104	80.81
451.324	72.81
451.545	80.81
451.766	70.81
451.986	60.81
452.207	86.81
452.428	74.81
452.648	64.81
452.869	94.81
453.089	85.81
453.31	85.81
453.53	77.81
453.751	92.81
453.971	78.81
454.192	72.81
454.412	86.81
454.633	74.81
454.853	81.81
455.073	68.81
455.294	76.81
455.514	74.81
455.734	79.81
455.955	74.81
456.175	70.81
456.395	79.81
456.616	86.81
456.836	76.81
457.056	87.81
457.276	79.81
457.497	73.81
457.717	83.81
457.937	65.81
458.157	72.81
458.377	66.81
458.598	84.81
458.818	80.81
459.038	73.81
459.258	80.81
459.478	76.81
459.698	83.81
459.918	78.81
460.138	94.81
460.358	74.81
460.578	76.81
460.798	84.81
461.018	76.81
461.238	77.81
461.458	78.81
461.678	86.81
461.898	87.81
462.118	81.81
462.338	79.81
462.558	86.81
462.777	80.81
462.997	86.81
463.217	64.81
463.437	83.81
463.657	79.81
463.876	73.81
464.096	90.81
464.316	98.81
464.536	72.81
464.755	79.81
464.975	75.81
465.195	79.81
465.414	72.81
465.634	73.81
465.854	76.81
466.073	69.81
466.293	78.81
466.512	78.81
466.732	81.81
466.951	54.81
467.171	83.81
467.391	91.81
467.61	71.81
467.829	67.81
468.049	83.81
468.268	76.81
468.488	89.81
468.707	73.81
468.927	82.81
469.146	68.81
469.365	77.81
469.585	76.81
469.804	93.81
470.023	68.81
470.243	81.81
470.462	70.81
470.681	73.81
470.901	82.81
471.12	82.81
471.339	74.81
471.558	72.81
471.777	68.81
471.997	86.81
472.216	72.81
472.435	81.81
472.654	82.81
472.873	88.81
473.092	72.81
473.311	94.81
473.53	72.81
473.749	79.81
473.968	96.81
474.187	70.81
474.406	63.81
474.625	80.81
474.844	88.81
475.063	82.81
475.282	87.81
475.501	82.81
475.72	86.81
475.939	83.81
476.158	73.81
476.377	73.81
476.596	77.81
476.814	83.81
477.033	90.81
477.252	95.81
477.471	78.81
477.69	74.81
477.908	68.81
478.127	88.81
478.346	82.81
478.564	79.81
478.783	73.81
479.002	66.81
479.22	83.81
479.439	75.81
479.658	80.81
479.876	88.81
480.095	86.81
480.313	66.81
480.532	84.81
480.751	86.81
480.969	87.81
481.188	71.81
481.406	82.81
481.624	86.81
481.843	81.81
482.061	79.81
482.28	72.81
482.498	89.81
482.717	79.81
482.935	93.81
483.153	81.81
483.372	83.81
483.59	89.81
483.808	91.81
484.027	90.81
484.245	88.81
484.463	87.81
484.681	84.81
484.9	78.81
485.118	80.81
485.336	86.81
485.554	84.81
485.772	74.81
485.99	68.81
486.209	83.81
486.427	77.81
486.645	82.81
486.863	78.81
487.081	83.81
487.299	94.81
487.517	84.81
487.735	84.81
487.953	68.81
488.171	78.81
488.389	75.81
488.607	73.81
488.825	74.81
489.043	79.81
489.261	78.81
489.479	74.81
489.696	80.81
489.914	73.81
490.132	82.81
490.35	79.81
490.568	67.81
490.786	78.81
491.003	66.81
491.221	81.81
491.439	60.81
491.657	83.81
491.874	83.81
492.092	74.81
492.31	77.81
492.527	91.81
492.745	75.81
492.963	78.81
493.18	80.81
493.398	89.81
493.615	90.81
493.833	82.81
494.05	87.81
494.268	77.81
494.485	74.81
494.703	76.81
494.92	76.81
495.138	79.81
495.355	71.81
495.573	89.81
495.79	88.81
496.008	84.81
496.225	92.81
496.442	85.81
496.66	66.81
496.877	81.81
497.094	84.81
497.312	82.81
497.529	89.81
497.746	76.81
497.963	68.81
498.181	91.81
498.398	81.81
498.615	76.81
498.832	78.81
499.049	79.81
499.267	72.81
499.484	81.81
499.701	92.81
499.918	85.81
500.135	74.81
500.352	72.81
500.569	78.81
500.786	76.81
501.003	80.81
501.22	83.81
501.437	85.81
501.654	75.81
501.871	72.81
502.088	86.81
502.305	90.81
502.522	88.81
502.739	68.81
502.956	77.81
503.172	79.81
503.389	86.81
503.606	102.81
503.823	88.81
504.04	86.81
504.256	78.81
504.473	86.81
504.69	72.81
504.907	98.81
505.123	84.81
505.34	82.81
505.557	86.81
505.773	83.81
505.99	91.81
506.207	79.81
506.423	88.81
506.64	94.81
506.856	87.81
507.073	71.81
507.289	81.81
507.506	79.81
507.722	86.81
507.939	74.81
508.155	77.81
508.372	70.81
508.588	78.81
508.805	81.81
509.021	93.81
509.238	86.81
509.454	73.81
509.67	76.81
509.887	74.81
510.103	75.81
510.319	81.81
510.536	84.81
510.752	61.81
510.968	68.81
511.184	73.81
511.401	93.81
511.617	83.81
511.833	80.81
512.049	95.81
512.265	81.81
512.481	78.81
512.698	71.81
512.914	79.81
513.13	83.81
513.346	76.81
513.562	84.81
513.778	91.81
513.994	99.81
514.21	84.81
514.426	81.81
514.642	80.81
514.858	87.81
515.074	72.81
515.29	75.81
515.506	76.81
515.721	68.81
515.937	78.81
516.153	90.81
516.369	82.81
516.585	85.81
516.801	87.81
517.016	75.81
517.232	76.81
517.448	75.81
517.664	64.81
517.879	76.81
518.095	77.81
518.311	78.81
518.527	78.81
518.742	83.81
518.958	71.81
519.173	73.81
519.389	69.81
519.605	78.81
519.82	74.81
520.036	66.81
520.251	79.81
