Data from Background_1_HRD10591_00021.txt Node
Date: Wed Nov 05 14:39:08 EST 2025
User: Yrep
Spectrometer: HR+D1059
Trigger mode: 1
Integration Time (sec): 1.000000E-1
Scans to average: 1
Electric dark correction enabled: true
Nonlinearity correction enabled: false
Boxcar width: 0
XAxis mode: Wavelengths
Number of Pixels in Spectrum: 2048
>>>>>Begin Spectral Data<<<<<
223.165	1.12
223.4	1.12
223.635	1.12
223.869	-18.88
224.104	-13.88
224.338	-17.88
224.573	-22.88
224.808	-20.88
225.042	3.12
225.277	-0.88
225.511	4.12
225.746	-6.88
225.98	-2.88
226.215	10.12
226.449	9.12
226.683	19.12
226.918	25.12
227.152	33.12
227.387	27.12
227.621	45.12
227.856	51.12
228.09	40.12
228.324	48.12
228.559	51.12
228.793	74.12
229.027	56.12
229.262	69.12
229.496	58.12
229.73	73.12
229.964	75.12
230.199	73.12
230.433	74.12
230.667	59.12
230.901	90.12
231.136	90.12
231.37	100.12
231.604	76.12
231.838	92.12
232.072	86.12
232.306	79.12
232.541	78.12
232.775	85.12
233.009	83.12
233.243	77.12
233.477	77.12
233.711	71.12
233.945	74.12
234.179	76.12
234.413	52.12
234.647	61.12
234.881	64.12
235.115	85.12
235.349	80.12
235.583	74.12
235.817	85.12
236.051	77.12
236.285	69.12
236.519	80.12
236.753	86.12
236.987	75.12
237.221	82.12
237.455	84.12
237.689	84.12
237.922	86.12
238.156	74.12
238.39	61.12
238.624	76.12
238.858	73.12
239.091	60.12
239.325	84.12
239.559	81.12
239.793	74.12
240.027	86.12
240.26	65.12
240.494	70.12
240.728	76.12
240.961	69.12
241.195	62.12
241.429	78.12
241.662	74.12
241.896	78.12
242.13	75.12
242.363	66.12
242.597	76.12
242.83	81.12
243.064	65.12
243.298	77.12
243.531	79.12
243.765	83.12
243.998	62.12
244.232	93.12
244.465	80.12
244.699	80.12
244.932	75.12
245.166	111.12
245.399	66.12
245.633	74.12
245.866	81.12
246.099	71.12
246.333	74.12
246.566	91.12
246.8	85.12
247.033	65.12
247.266	90.12
247.5	72.12
247.733	81.12
247.966	81.12
248.2	82.12
248.433	78.12
248.666	77.12
248.899	85.12
249.133	78.12
249.366	76.12
249.599	64.12
249.832	82.12
250.066	77.12
250.299	66.12
250.532	87.12
250.765	87.12
250.998	82.12
251.231	78.12
251.465	89.12
251.698	60.12
251.931	74.12
252.164	75.12
252.397	74.12
252.63	81.12
252.863	78.12
253.096	76.12
253.329	88.12
253.562	75.12
253.795	74.12
254.028	87.12
254.261	85.12
254.494	95.12
254.727	82.12
254.96	77.12
255.193	82.12
255.426	68.12
255.659	68.12
255.892	81.12
256.124	69.12
256.357	76.12
256.59	85.12
256.823	84.12
257.056	83.12
257.289	71.12
257.521	93.12
257.754	79.12
257.987	77.12
258.22	80.12
258.452	78.12
258.685	76.12
258.918	74.12
259.151	75.12
259.383	80.12
259.616	80.12
259.849	78.12
260.081	76.12
260.314	73.12
260.547	87.12
260.779	91.12
261.012	85.12
261.244	69.12
261.477	82.12
261.71	71.12
261.942	90.12
262.175	88.12
262.407	77.12
262.64	76.12
262.872	70.12
263.105	77.12
263.337	74.12
263.57	68.12
263.802	70.12
264.035	83.12
264.267	68.12
264.499	74.12
264.732	101.12
264.964	70.12
265.197	83.12
265.429	82.12
265.661	80.12
265.894	74.12
266.126	80.12
266.358	72.12
266.591	81.12
266.823	78.12
267.055	86.12
267.287	78.12
267.52	74.12
267.752	80.12
267.984	81.12
268.216	76.12
268.448	74.12
268.681	77.12
268.913	90.12
269.145	72.12
269.377	78.12
269.609	76.12
269.841	66.12
270.073	68.12
270.306	72.12
270.538	83.12
270.77	73.12
271.002	92.12
271.234	81.12
271.466	88.12
271.698	85.12
271.93	87.12
272.162	76.12
272.394	71.12
272.626	87.12
272.858	76.12
273.09	87.12
273.322	68.12
273.553	91.12
273.785	80.12
274.017	73.12
274.249	82.12
274.481	92.12
274.713	76.12
274.945	78.12
275.176	81.12
275.408	81.12
275.64	85.12
275.872	80.12
276.104	84.12
276.335	90.12
276.567	95.12
276.799	65.12
277.031	86.12
277.262	80.12
277.494	77.12
277.726	83.12
277.957	88.12
278.189	78.12
278.421	98.12
278.652	95.12
278.884	97.12
279.115	85.12
279.347	79.12
279.579	78.12
279.81	71.12
280.042	90.12
280.273	85.12
280.505	85.12
280.736	68.12
280.968	78.12
281.199	93.12
281.431	88.12
281.662	75.12
281.894	90.12
282.125	100.12
282.356	92.12
282.588	85.12
282.819	74.12
283.051	83.12
283.282	74.12
283.513	97.12
283.745	84.12
283.976	84.12
284.207	88.12
284.439	78.12
284.67	86.12
284.901	74.12
285.132	78.12
285.364	95.12
285.595	85.12
285.826	89.12
286.057	91.12
286.288	93.12
286.52	94.12
286.751	80.12
286.982	86.12
287.213	90.12
287.444	91.12
287.675	91.12
287.906	81.12
288.138	72.12
288.369	74.12
288.6	88.12
288.831	81.12
289.062	88.12
289.293	86.12
289.524	88.12
289.755	70.12
289.986	87.12
290.217	92.12
290.448	80.12
290.679	77.12
290.91	86.12
291.141	65.12
291.371	86.12
291.602	108.12
291.833	99.12
292.064	84.12
292.295	66.12
292.526	72.12
292.757	75.12
292.987	85.12
293.218	92.12
293.449	92.12
293.68	87.12
293.91	85.12
294.141	81.12
294.372	89.12
294.603	84.12
294.833	86.12
295.064	67.12
295.295	82.12
295.525	84.12
295.756	80.12
295.987	87.12
296.217	88.12
296.448	81.12
296.679	89.12
296.909	89.12
297.14	70.12
297.37	97.12
297.601	85.12
297.831	91.12
298.062	90.12
298.292	91.12
298.523	85.12
298.753	82.12
298.984	89.12
299.214	86.12
299.445	88.12
299.675	90.12
299.905	91.12
300.136	101.12
300.366	88.12
300.597	82.12
300.827	92.12
301.057	82.12
301.288	88.12
301.518	92.12
301.748	86.12
301.979	88.12
302.209	89.12
302.439	77.12
302.669	83.12
302.9	88.12
303.13	84.12
303.36	80.12
303.59	77.12
303.82	79.12
304.051	83.12
304.281	95.12
304.511	71.12
304.741	91.12
304.971	85.12
305.201	96.12
305.431	89.12
305.661	86.12
305.891	82.12
306.121	86.12
306.352	92.12
306.582	92.12
306.812	78.12
307.042	77.12
307.272	77.12
307.502	79.12
307.731	84.12
307.961	92.12
308.191	97.12
308.421	88.12
308.651	88.12
308.881	80.12
309.111	100.12
309.341	70.12
309.571	91.12
309.8	81.12
310.03	73.12
310.26	83.12
310.49	83.12
310.72	83.12
310.949	79.12
311.179	91.12
311.409	81.12
311.639	79.12
311.868	91.12
312.098	94.12
312.328	85.12
312.557	94.12
312.787	90.12
313.017	101.12
313.246	74.12
313.476	92.12
313.706	90.12
313.935	92.12
314.165	86.12
314.394	95.12
314.624	79.12
314.853	74.12
315.083	80.12
315.312	87.12
315.542	96.12
315.771	84.12
316.001	93.12
316.23	84.12
316.46	91.12
316.689	82.12
316.919	91.12
317.148	93.12
317.377	81.12
317.607	94.12
317.836	85.12
318.065	91.12
318.295	81.12
318.524	86.12
318.753	87.12
318.983	84.12
319.212	79.12
319.441	83.12
319.67	76.12
319.9	76.12
320.129	78.12
320.358	96.12
320.587	99.12
320.816	88.12
321.046	81.12
321.275	77.12
321.504	89.12
321.733	95.12
321.962	74.12
322.191	95.12
322.42	73.12
322.649	94.12
322.878	95.12
323.108	94.12
323.337	75.12
323.566	97.12
323.795	82.12
324.024	73.12
324.253	74.12
324.482	81.12
324.71	81.12
324.939	96.12
325.168	88.12
325.397	78.12
325.626	90.12
325.855	78.12
326.084	90.12
326.313	95.12
326.542	95.12
326.77	85.12
326.999	83.12
327.228	88.12
327.457	80.12
327.686	83.12
327.914	90.12
328.143	88.12
328.372	75.12
328.6	85.12
328.829	82.12
329.058	89.12
329.287	85.12
329.515	70.12
329.744	83.12
329.972	91.12
330.201	79.12
330.43	93.12
330.658	74.12
330.887	84.12
331.115	74.12
331.344	70.12
331.572	101.12
331.801	92.12
332.03	91.12
332.258	92.12
332.486	100.12
332.715	93.12
332.943	85.12
333.172	88.12
333.4	92.12
333.629	89.12
333.857	88.12
334.085	76.12
334.314	87.12
334.542	79.12
334.771	81.12
334.999	93.12
335.227	80.12
335.455	91.12
335.684	86.12
335.912	89.12
336.14	81.12
336.369	78.12
336.597	75.12
336.825	71.12
337.053	86.12
337.281	82.12
337.51	80.12
337.738	92.12
337.966	88.12
338.194	87.12
338.422	65.12
338.65	72.12
338.878	89.12
339.106	82.12
339.334	88.12
339.562	83.12
339.79	85.12
340.018	69.12
340.246	82.12
340.474	85.12
340.702	84.12
340.93	89.12
341.158	92.12
341.386	83.12
341.614	83.12
341.842	82.12
342.07	89.12
342.298	74.12
342.526	71.12
342.754	82.12
342.981	93.12
343.209	93.12
343.437	102.12
343.665	71.12
343.893	83.12
344.12	89.12
344.348	76.12
344.576	85.12
344.804	88.12
345.031	75.12
345.259	84.12
345.487	76.12
345.714	73.12
345.942	80.12
346.17	93.12
346.397	98.12
346.625	78.12
346.853	93.12
347.08	81.12
347.308	82.12
347.535	90.12
347.763	100.12
347.99	91.12
348.218	81.12
348.445	73.12
348.673	91.12
348.9	81.12
349.128	81.12
349.355	78.12
349.583	78.12
349.81	73.12
350.037	71.12
350.265	89.12
350.492	86.12
350.72	72.12
350.947	68.12
351.174	102.12
351.402	76.12
351.629	84.12
351.856	99.12
352.083	88.12
352.311	80.12
352.538	66.12
352.765	73.12
352.992	94.12
353.22	91.12
353.447	97.12
353.674	87.12
353.901	86.12
354.128	83.12
354.355	73.12
354.583	92.12
354.81	99.12
355.037	72.12
355.264	76.12
355.491	82.12
355.718	86.12
355.945	80.12
356.172	88.12
356.399	90.12
356.626	78.12
356.853	89.12
357.08	99.12
357.307	82.12
357.534	76.12
357.761	78.12
357.988	76.12
358.215	74.12
358.441	81.12
358.668	86.12
358.895	72.12
359.122	88.12
359.349	70.12
359.576	89.12
359.802	87.12
360.029	86.12
360.256	86.12
360.483	85.12
360.709	85.12
360.936	79.12
361.163	84.12
361.39	83.12
361.616	77.12
361.843	82.12
362.07	84.12
362.296	78.12
362.523	94.12
362.749	85.12
362.976	91.12
363.203	100.12
363.429	88.12
363.656	88.12
363.882	83.12
364.109	84.12
364.335	90.12
364.562	80.12
364.788	86.12
365.015	85.12
365.241	82.12
365.468	84.12
365.694	69.12
365.92	84.12
366.147	83.12
366.373	81.12
366.599	81.12
366.826	77.12
367.052	84.12
367.278	81.12
367.505	74.12
367.731	90.12
367.957	94.12
368.184	89.12
368.41	81.12
368.636	88.12
368.862	75.12
369.089	91.12
369.315	77.12
369.541	80.12
369.767	84.12
369.993	89.12
370.219	70.12
370.445	69.12
370.672	87.12
370.898	88.12
371.124	88.12
371.35	90.12
371.576	86.12
371.802	83.12
372.028	85.12
372.254	86.12
372.48	83.12
372.706	99.12
372.932	93.12
373.158	86.12
373.384	80.12
373.61	85.12
373.835	77.12
374.061	97.12
374.287	76.12
374.513	77.12
374.739	101.12
374.965	100.12
375.191	91.12
375.416	80.12
375.642	84.12
375.868	81.12
376.094	79.12
376.319	87.12
376.545	92.12
376.771	69.12
376.997	90.12
377.222	78.12
377.448	82.12
377.674	88.12
377.899	80.12
378.125	76.12
378.35	78.12
378.576	67.12
378.802	90.12
379.027	81.12
379.253	100.12
379.478	82.12
379.704	84.12
379.929	100.12
380.155	89.12
380.38	85.12
380.606	92.12
380.831	87.12
381.057	79.12
381.282	93.12
381.507	96.12
381.733	89.12
381.958	81.12
382.184	69.12
382.409	99.12
382.634	87.12
382.86	83.12
383.085	90.12
383.31	82.12
383.535	84.12
383.761	71.12
383.986	66.12
384.211	88.12
384.436	69.12
384.662	80.12
384.887	56.12
385.112	91.12
385.337	94.12
385.562	79.12
385.787	90.12
386.013	97.12
386.238	85.12
386.463	75.12
386.688	89.12
386.913	79.12
387.138	81.12
387.363	97.12
387.588	81.12
387.813	82.12
388.038	71.12
388.263	79.12
388.488	81.12
388.713	88.12
388.938	85.12
389.163	82.12
389.387	76.12
389.612	84.12
389.837	84.12
390.062	78.12
390.287	78.12
390.512	73.12
390.736	90.12
390.961	73.12
391.186	77.12
391.411	76.12
391.636	96.12
391.86	66.12
392.085	84.12
392.31	102.12
392.534	90.12
392.759	90.12
392.984	89.12
393.208	76.12
393.433	81.12
393.658	73.12
393.882	91.12
394.107	93.12
394.331	70.12
394.556	82.12
394.78	70.12
395.005	83.12
395.229	81.12
395.454	78.12
395.678	78.12
395.903	65.12
396.127	80.12
396.352	95.12
396.576	79.12
396.801	68.12
397.025	85.12
397.249	82.12
397.474	92.12
397.698	84.12
397.922	82.12
398.147	78.12
398.371	82.12
398.595	88.12
398.82	79.12
399.044	79.12
399.268	84.12
399.492	82.12
399.717	86.12
399.941	76.12
400.165	61.12
400.389	69.12
400.613	91.12
400.837	91.12
401.062	82.12
401.286	77.12
401.51	76.12
401.734	69.12
401.958	73.12
402.182	89.12
402.406	79.12
402.63	82.12
402.854	79.12
403.078	84.12
403.302	76.12
403.526	85.12
403.75	83.12
403.974	80.12
404.198	80.12
404.422	82.12
404.645	75.12
404.869	81.12
405.093	74.12
405.317	83.12
405.541	75.12
405.765	82.12
405.988	74.12
406.212	65.12
406.436	78.12
406.66	89.12
406.883	88.12
407.107	90.12
407.331	69.12
407.555	85.12
407.778	84.12
408.002	93.12
408.226	83.12
408.449	84.12
408.673	84.12
408.896	80.12
409.12	76.12
409.344	85.12
409.567	81.12
409.791	75.12
410.014	78.12
410.238	85.12
410.461	83.12
410.685	74.12
410.908	86.12
411.132	93.12
411.355	80.12
411.578	85.12
411.802	85.12
412.025	75.12
412.249	79.12
412.472	69.12
412.695	78.12
412.919	85.12
413.142	74.12
413.365	91.12
413.589	81.12
413.812	93.12
414.035	75.12
414.258	82.12
414.482	75.12
414.705	83.12
414.928	84.12
415.151	91.12
415.374	88.12
415.597	87.12
415.821	81.12
416.044	91.12
416.267	79.12
416.49	81.12
416.713	94.12
416.936	80.12
417.159	74.12
417.382	81.12
417.605	73.12
417.828	93.12
418.051	80.12
418.274	85.12
418.497	74.12
418.72	84.12
418.943	84.12
419.166	87.12
419.389	92.12
419.611	81.12
419.834	84.12
420.057	76.12
420.28	80.12
420.503	75.12
420.726	78.12
420.948	89.12
421.171	92.12
421.394	86.12
421.617	76.12
421.839	82.12
422.062	71.12
422.285	85.12
422.507	81.12
422.73	92.12
422.953	77.12
423.175	65.12
423.398	76.12
423.621	74.12
423.843	76.12
424.066	69.12
424.288	76.12
424.511	83.12
424.733	80.12
424.956	82.12
425.178	76.12
425.401	79.12
425.623	82.12
425.846	87.12
426.068	82.12
426.291	79.12
426.513	84.12
426.735	95.12
426.958	90.12
427.18	85.12
427.402	75.12
427.625	88.12
427.847	91.12
428.069	75.12
428.292	75.12
428.514	76.12
428.736	82.12
428.958	84.12
429.181	75.12
429.403	85.12
429.625	86.12
429.847	85.12
430.069	67.12
430.292	92.12
430.514	77.12
430.736	80.12
430.958	88.12
431.18	75.12
431.402	76.12
431.624	73.12
431.846	77.12
432.068	67.12
432.29	82.12
432.512	77.12
432.734	90.12
432.956	98.12
433.178	82.12
433.4	77.12
433.622	82.12
433.844	68.12
434.066	72.12
434.287	68.12
434.509	85.12
434.731	80.12
434.953	88.12
435.175	77.12
435.397	86.12
435.618	81.12
435.84	106.12
436.062	82.12
436.284	90.12
436.505	67.12
436.727	73.12
436.949	76.12
437.17	95.12
437.392	75.12
437.614	77.12
437.835	77.12
438.057	84.12
438.278	66.12
438.5	67.12
438.721	78.12
438.943	79.12
439.165	92.12
439.386	78.12
439.608	75.12
439.829	91.12
440.05	70.12
440.272	76.12
440.493	90.12
440.715	73.12
440.936	87.12
441.158	83.12
441.379	84.12
441.6	81.12
441.822	83.12
442.043	81.12
442.264	91.12
442.486	82.12
442.707	78.12
442.928	91.12
443.149	76.12
443.371	81.12
443.592	83.12
443.813	91.12
444.034	92.12
444.255	83.12
444.476	80.12
444.698	78.12
444.919	74.12
445.14	150.12
445.361	123.12
445.582	72.12
445.803	70.12
446.024	72.12
446.245	70.12
446.466	76.12
446.687	76.12
446.908	73.12
447.129	92.12
447.35	87.12
447.571	77.12
447.792	68.12
448.013	83.12
448.234	78.12
448.455	87.12
448.675	81.12
448.896	89.12
449.117	85.12
449.338	81.12
449.559	88.12
449.779	76.12
450	76.12
450.221	74.12
450.442	84.12
450.662	82.12
450.883	88.12
451.104	80.12
451.324	70.12
451.545	80.12
451.766	70.12
451.986	80.12
452.207	70.12
452.428	79.12
452.648	85.12
452.869	95.12
453.089	76.12
453.31	66.12
453.53	85.12
453.751	85.12
453.971	84.12
454.192	83.12
454.412	93.12
454.633	82.12
454.853	81.12
455.073	92.12
455.294	66.12
455.514	71.12
455.734	88.12
455.955	87.12
456.175	77.12
456.395	66.12
456.616	86.12
456.836	72.12
457.056	69.12
457.276	78.12
457.497	78.12
457.717	63.12
457.937	66.12
458.157	80.12
458.377	84.12
458.598	92.12
458.818	89.12
459.038	91.12
459.258	85.12
459.478	85.12
459.698	93.12
459.918	65.12
460.138	70.12
460.358	71.12
460.578	80.12
460.798	70.12
461.018	70.12
461.238	80.12
461.458	106.12
461.678	82.12
461.898	68.12
462.118	70.12
462.338	85.12
462.558	81.12
462.777	65.12
462.997	76.12
463.217	76.12
463.437	82.12
463.657	70.12
463.876	93.12
464.096	77.12
464.316	93.12
464.536	83.12
464.755	95.12
464.975	94.12
465.195	78.12
465.414	75.12
465.634	76.12
465.854	82.12
466.073	86.12
466.293	80.12
466.512	86.12
466.732	79.12
466.951	70.12
467.171	91.12
467.391	81.12
467.61	65.12
467.829	86.12
468.049	79.12
468.268	76.12
468.488	88.12
468.707	80.12
468.927	80.12
469.146	81.12
469.365	75.12
469.585	82.12
469.804	70.12
470.023	77.12
470.243	83.12
470.462	92.12
470.681	82.12
470.901	89.12
471.12	90.12
471.339	87.12
471.558	93.12
471.777	90.12
471.997	86.12
472.216	82.12
472.435	89.12
472.654	70.12
472.873	90.12
473.092	82.12
473.311	75.12
473.53	76.12
473.749	76.12
473.968	83.12
474.187	89.12
474.406	86.12
474.625	97.12
474.844	82.12
475.063	86.12
475.282	87.12
475.501	85.12
475.72	87.12
475.939	87.12
476.158	76.12
476.377	74.12
476.596	66.12
476.814	85.12
477.033	79.12
477.252	83.12
477.471	86.12
477.69	84.12
477.908	91.12
478.127	84.12
478.346	93.12
478.564	96.12
478.783	76.12
479.002	78.12
479.22	78.12
479.439	85.12
479.658	76.12
479.876	76.12
480.095	76.12
480.313	78.12
480.532	81.12
480.751	70.12
480.969	64.12
481.188	76.12
481.406	78.12
481.624	79.12
481.843	83.12
482.061	85.12
482.28	88.12
482.498	72.12
482.717	84.12
482.935	108.12
483.153	86.12
483.372	75.12
483.59	84.12
483.808	84.12
484.027	85.12
484.245	77.12
484.463	78.12
484.681	76.12
484.9	91.12
485.118	82.12
485.336	80.12
485.554	78.12
485.772	82.12
485.99	98.12
486.209	93.12
486.427	77.12
486.645	60.12
486.863	84.12
487.081	87.12
487.299	87.12
487.517	84.12
487.735	71.12
487.953	78.12
488.171	74.12
488.389	88.12
488.607	85.12
488.825	64.12
489.043	75.12
489.261	94.12
489.479	73.12
489.696	85.12
489.914	87.12
490.132	78.12
490.35	79.12
490.568	99.12
490.786	78.12
491.003	87.12
491.221	66.12
491.439	76.12
491.657	85.12
491.874	87.12
492.092	87.12
492.31	74.12
492.527	96.12
492.745	95.12
492.963	86.12
493.18	87.12
493.398	84.12
493.615	80.12
493.833	84.12
494.05	82.12
494.268	75.12
494.485	85.12
494.703	76.12
494.92	83.12
495.138	80.12
495.355	88.12
495.573	70.12
495.79	77.12
496.008	85.12
496.225	81.12
496.442	70.12
496.66	78.12
496.877	81.12
497.094	93.12
497.312	89.12
497.529	83.12
497.746	87.12
497.963	86.12
498.181	83.12
498.398	94.12
498.615	68.12
498.832	82.12
499.049	73.12
499.267	70.12
499.484	77.12
499.701	80.12
499.918	88.12
500.135	73.12
500.352	84.12
500.569	75.12
500.786	86.12
501.003	92.12
501.22	90.12
501.437	89.12
501.654	85.12
501.871	73.12
502.088	78.12
502.305	87.12
502.522	80.12
502.739	60.12
502.956	73.12
503.172	82.12
503.389	85.12
503.606	84.12
503.823	84.12
504.04	98.12
504.256	97.12
504.473	74.12
504.69	79.12
504.907	79.12
505.123	84.12
505.34	78.12
505.557	88.12
505.773	74.12
505.99	83.12
506.207	94.12
506.423	95.12
506.64	80.12
506.856	78.12
507.073	84.12
507.289	78.12
507.506	72.12
507.722	89.12
507.939	74.12
508.155	80.12
508.372	97.12
508.588	86.12
508.805	81.12
509.021	60.12
509.238	91.12
509.454	78.12
509.67	82.12
509.887	88.12
510.103	76.12
510.319	79.12
510.536	76.12
510.752	85.12
510.968	92.12
511.184	71.12
511.401	73.12
511.617	77.12
511.833	85.12
512.049	88.12
512.265	83.12
512.481	78.12
512.698	73.12
512.914	88.12
513.13	94.12
513.346	80.12
513.562	83.12
513.778	80.12
513.994	86.12
514.21	88.12
514.426	85.12
514.642	91.12
514.858	73.12
515.074	82.12
515.29	87.12
515.506	74.12
515.721	99.12
515.937	96.12
516.153	93.12
516.369	76.12
516.585	82.12
516.801	73.12
517.016	75.12
517.232	88.12
517.448	73.12
517.664	87.12
517.879	96.12
518.095	78.12
518.311	73.12
518.527	79.12
518.742	92.12
518.958	72.12
519.173	76.12
519.389	90.12
519.605	83.12
519.82	84.12
520.036	94.12
