Data from Background_1_HRD10591_00085.txt Node
Date: Wed Nov 05 14:39:40 EST 2025
User: Yrep
Spectrometer: HR+D1059
Trigger mode: 1
Integration Time (sec): 1.000000E-1
Scans to average: 1
Electric dark correction enabled: true
Nonlinearity correction enabled: false
Boxcar width: 0
XAxis mode: Wavelengths
Number of Pixels in Spectrum: 2048
>>>>>Begin Spectral Data<<<<<
223.165	-20.62
223.4	-20.62
223.635	-20.62
223.869	-27.62
224.104	-16.62
224.338	-1.62
224.573	-2.62
224.808	-16.62
225.042	-7.62
225.277	-13.62
225.511	-1.62
225.746	-4.62
225.98	6.38
226.215	14.38
226.449	18.38
226.683	14.38
226.918	19.38
227.152	40.38
227.387	37.38
227.621	58.38
227.856	39.38
228.09	40.38
228.324	54.38
228.559	66.38
228.793	51.38
229.027	69.38
229.262	53.38
229.496	60.38
229.73	80.38
229.964	76.38
230.199	76.38
230.433	84.38
230.667	83.38
230.901	62.38
231.136	77.38
231.37	73.38
231.604	82.38
231.838	94.38
232.072	78.38
232.306	88.38
232.541	93.38
232.775	87.38
233.009	93.38
233.243	85.38
233.477	78.38
233.711	78.38
233.945	90.38
234.179	82.38
234.413	87.38
234.647	103.38
234.881	77.38
235.115	85.38
235.349	80.38
235.583	89.38
235.817	94.38
236.051	81.38
236.285	87.38
236.519	78.38
236.753	75.38
236.987	75.38
237.221	81.38
237.455	78.38
237.689	86.38
237.922	70.38
238.156	92.38
238.39	76.38
238.624	80.38
238.858	78.38
239.091	67.38
239.325	72.38
239.559	84.38
239.793	82.38
240.027	75.38
240.26	66.38
240.494	68.38
240.728	84.38
240.961	75.38
241.195	66.38
241.429	77.38
241.662	92.38
241.896	81.38
242.13	74.38
242.363	82.38
242.597	68.38
242.83	81.38
243.064	81.38
243.298	73.38
243.531	78.38
243.765	79.38
243.998	62.38
244.232	73.38
244.465	70.38
244.699	72.38
244.932	84.38
245.166	80.38
245.399	77.38
245.633	92.38
245.866	89.38
246.099	75.38
246.333	79.38
246.566	71.38
246.8	88.38
247.033	78.38
247.266	80.38
247.5	72.38
247.733	85.38
247.966	77.38
248.2	74.38
248.433	93.38
248.666	75.38
248.899	78.38
249.133	75.38
249.366	68.38
249.599	73.38
249.832	71.38
250.066	85.38
250.299	68.38
250.532	78.38
250.765	78.38
250.998	78.38
251.231	85.38
251.465	79.38
251.698	97.38
251.931	82.38
252.164	88.38
252.397	83.38
252.63	81.38
252.863	78.38
253.096	100.38
253.329	72.38
253.562	95.38
253.795	78.38
254.028	87.38
254.261	90.38
254.494	74.38
254.727	69.38
254.96	90.38
255.193	64.38
255.426	87.38
255.659	78.38
255.892	68.38
256.124	86.38
256.357	76.38
256.59	85.38
256.823	82.38
257.056	95.38
257.289	84.38
257.521	74.38
257.754	74.38
257.987	95.38
258.22	72.38
258.452	76.38
258.685	73.38
258.918	88.38
259.151	70.38
259.383	77.38
259.616	83.38
259.849	85.38
260.081	83.38
260.314	84.38
260.547	82.38
260.779	82.38
261.012	84.38
261.244	81.38
261.477	99.38
261.71	76.38
261.942	78.38
262.175	68.38
262.407	86.38
262.64	90.38
262.872	73.38
263.105	86.38
263.337	90.38
263.57	72.38
263.802	80.38
264.035	76.38
264.267	79.38
264.499	72.38
264.732	75.38
264.964	82.38
265.197	70.38
265.429	89.38
265.661	86.38
265.894	73.38
266.126	79.38
266.358	84.38
266.591	93.38
266.823	91.38
267.055	83.38
267.287	84.38
267.52	85.38
267.752	83.38
267.984	78.38
268.216	83.38
268.448	72.38
268.681	94.38
268.913	85.38
269.145	85.38
269.377	80.38
269.609	88.38
269.841	81.38
270.073	84.38
270.306	86.38
270.538	90.38
270.77	83.38
271.002	80.38
271.234	85.38
271.466	86.38
271.698	82.38
271.93	95.38
272.162	86.38
272.394	99.38
272.626	79.38
272.858	87.38
273.09	98.38
273.322	80.38
273.553	94.38
273.785	84.38
274.017	92.38
274.249	93.38
274.481	82.38
274.713	78.38
274.945	86.38
275.176	92.38
275.408	82.38
275.64	90.38
275.872	96.38
276.104	90.38
276.335	94.38
276.567	90.38
276.799	87.38
277.031	86.38
277.262	88.38
277.494	91.38
277.726	85.38
277.957	90.38
278.189	78.38
278.421	85.38
278.652	76.38
278.884	84.38
279.115	75.38
279.347	98.38
279.579	78.38
279.81	94.38
280.042	78.38
280.273	89.38
280.505	75.38
280.736	76.38
280.968	82.38
281.199	103.38
281.431	78.38
281.662	99.38
281.894	86.38
282.125	84.38
282.356	83.38
282.588	86.38
282.819	95.38
283.051	92.38
283.282	85.38
283.513	84.38
283.745	95.38
283.976	85.38
284.207	96.38
284.439	76.38
284.67	90.38
284.901	84.38
285.132	74.38
285.364	84.38
285.595	80.38
285.826	85.38
286.057	92.38
286.288	78.38
286.52	94.38
286.751	86.38
286.982	77.38
287.213	81.38
287.444	77.38
287.675	90.38
287.906	86.38
288.138	94.38
288.369	93.38
288.6	91.38
288.831	90.38
289.062	99.38
289.293	84.38
289.524	81.38
289.755	78.38
289.986	90.38
290.217	84.38
290.448	89.38
290.679	83.38
290.91	106.38
291.141	85.38
291.371	76.38
291.602	81.38
291.833	76.38
292.064	92.38
292.295	85.38
292.526	86.38
292.757	90.38
292.987	91.38
293.218	93.38
293.449	80.38
293.68	86.38
293.91	92.38
294.141	92.38
294.372	97.38
294.603	93.38
294.833	91.38
295.064	81.38
295.295	107.38
295.525	80.38
295.756	86.38
295.987	79.38
296.217	72.38
296.448	77.38
296.679	106.38
296.909	80.38
297.14	96.38
297.37	82.38
297.601	91.38
297.831	101.38
298.062	84.38
298.292	88.38
298.523	74.38
298.753	99.38
298.984	83.38
299.214	96.38
299.445	90.38
299.675	75.38
299.905	88.38
300.136	75.38
300.366	86.38
300.597	87.38
300.827	99.38
301.057	96.38
301.288	92.38
301.518	86.38
301.748	95.38
301.979	107.38
302.209	86.38
302.439	90.38
302.669	83.38
302.9	82.38
303.13	82.38
303.36	84.38
303.59	91.38
303.82	98.38
304.051	90.38
304.281	69.38
304.511	89.38
304.741	99.38
304.971	90.38
305.201	85.38
305.431	89.38
305.661	92.38
305.891	92.38
306.121	96.38
306.352	86.38
306.582	84.38
306.812	82.38
307.042	85.38
307.272	83.38
307.502	92.38
307.731	85.38
307.961	84.38
308.191	85.38
308.421	81.38
308.651	97.38
308.881	82.38
309.111	100.38
309.341	85.38
309.571	86.38
309.8	88.38
310.03	76.38
310.26	85.38
310.49	89.38
310.72	85.38
310.949	83.38
311.179	92.38
311.409	99.38
311.639	95.38
311.868	81.38
312.098	92.38
312.328	92.38
312.557	83.38
312.787	76.38
313.017	75.38
313.246	95.38
313.476	88.38
313.706	88.38
313.935	90.38
314.165	91.38
314.394	79.38
314.624	80.38
314.853	83.38
315.083	68.38
315.312	78.38
315.542	88.38
315.771	85.38
316.001	86.38
316.23	70.38
316.46	73.38
316.689	95.38
316.919	90.38
317.148	90.38
317.377	100.38
317.607	81.38
317.836	90.38
318.065	85.38
318.295	92.38
318.524	86.38
318.753	75.38
318.983	84.38
319.212	90.38
319.441	82.38
319.67	96.38
319.9	93.38
320.129	92.38
320.358	97.38
320.587	95.38
320.816	88.38
321.046	83.38
321.275	83.38
321.504	94.38
321.733	95.38
321.962	100.38
322.191	100.38
322.42	89.38
322.649	89.38
322.878	82.38
323.108	74.38
323.337	81.38
323.566	90.38
323.795	82.38
324.024	85.38
324.253	90.38
324.482	90.38
324.71	82.38
324.939	93.38
325.168	90.38
325.397	80.38
325.626	94.38
325.855	91.38
326.084	84.38
326.313	92.38
326.542	96.38
326.77	80.38
326.999	85.38
327.228	96.38
327.457	94.38
327.686	107.38
327.914	76.38
328.143	83.38
328.372	93.38
328.6	86.38
328.829	91.38
329.058	94.38
329.287	95.38
329.515	89.38
329.744	92.38
329.972	78.38
330.201	86.38
330.43	82.38
330.658	78.38
330.887	78.38
331.115	94.38
331.344	89.38
331.572	82.38
331.801	92.38
332.03	84.38
332.258	91.38
332.486	82.38
332.715	97.38
332.943	79.38
333.172	97.38
333.4	84.38
333.629	93.38
333.857	89.38
334.085	91.38
334.314	101.38
334.542	88.38
334.771	79.38
334.999	90.38
335.227	80.38
335.455	86.38
335.684	88.38
335.912	81.38
336.14	86.38
336.369	76.38
336.597	91.38
336.825	80.38
337.053	80.38
337.281	83.38
337.51	88.38
337.738	80.38
337.966	84.38
338.194	76.38
338.422	88.38
338.65	80.38
338.878	88.38
339.106	87.38
339.334	85.38
339.562	77.38
339.79	86.38
340.018	91.38
340.246	84.38
340.474	77.38
340.702	91.38
340.93	84.38
341.158	94.38
341.386	82.38
341.614	97.38
341.842	84.38
342.07	89.38
342.298	90.38
342.526	94.38
342.754	83.38
342.981	86.38
343.209	92.38
343.437	91.38
343.665	90.38
343.893	93.38
344.12	87.38
344.348	91.38
344.576	78.38
344.804	100.38
345.031	83.38
345.259	83.38
345.487	91.38
345.714	84.38
345.942	76.38
346.17	74.38
346.397	92.38
346.625	95.38
346.853	76.38
347.08	76.38
347.308	90.38
347.535	96.38
347.763	90.38
347.99	90.38
348.218	86.38
348.445	77.38
348.673	90.38
348.9	83.38
349.128	78.38
349.355	71.38
349.583	74.38
349.81	90.38
350.037	83.38
350.265	84.38
350.492	89.38
350.72	76.38
350.947	81.38
351.174	83.38
351.402	84.38
351.629	93.38
351.856	84.38
352.083	78.38
352.311	95.38
352.538	82.38
352.765	78.38
352.992	85.38
353.22	91.38
353.447	97.38
353.674	82.38
353.901	81.38
354.128	93.38
354.355	81.38
354.583	96.38
354.81	83.38
355.037	95.38
355.264	90.38
355.491	88.38
355.718	96.38
355.945	88.38
356.172	79.38
356.399	90.38
356.626	81.38
356.853	85.38
357.08	86.38
357.307	79.38
357.534	78.38
357.761	99.38
357.988	90.38
358.215	91.38
358.441	89.38
358.668	87.38
358.895	98.38
359.122	86.38
359.349	75.38
359.576	82.38
359.802	85.38
360.029	81.38
360.256	95.38
360.483	95.38
360.709	91.38
360.936	90.38
361.163	88.38
361.39	92.38
361.616	80.38
361.843	90.38
362.07	78.38
362.296	96.38
362.523	91.38
362.749	75.38
362.976	92.38
363.203	106.38
363.429	75.38
363.656	95.38
363.882	82.38
364.109	82.38
364.335	76.38
364.562	78.38
364.788	77.38
365.015	102.38
365.241	90.38
365.468	93.38
365.694	84.38
365.92	76.38
366.147	78.38
366.373	79.38
366.599	104.38
366.826	93.38
367.052	82.38
367.278	90.38
367.505	76.38
367.731	94.38
367.957	79.38
368.184	87.38
368.41	90.38
368.636	88.38
368.862	92.38
369.089	77.38
369.315	72.38
369.541	86.38
369.767	94.38
369.993	89.38
370.219	83.38
370.445	93.38
370.672	80.38
370.898	95.38
371.124	79.38
371.35	81.38
371.576	79.38
371.802	93.38
372.028	73.38
372.254	83.38
372.48	93.38
372.706	106.38
372.932	90.38
373.158	90.38
373.384	90.38
373.61	87.38
373.835	75.38
374.061	86.38
374.287	76.38
374.513	86.38
374.739	86.38
374.965	108.38
375.191	84.38
375.416	92.38
375.642	75.38
375.868	80.38
376.094	84.38
376.319	87.38
376.545	91.38
376.771	87.38
376.997	97.38
377.222	85.38
377.448	94.38
377.674	85.38
377.899	83.38
378.125	88.38
378.35	64.38
378.576	93.38
378.802	82.38
379.027	95.38
379.253	88.38
379.478	86.38
379.704	74.38
379.929	91.38
380.155	76.38
380.38	78.38
380.606	81.38
380.831	84.38
381.057	87.38
381.282	90.38
381.507	82.38
381.733	74.38
381.958	79.38
382.184	91.38
382.409	74.38
382.634	93.38
382.86	80.38
383.085	85.38
383.31	82.38
383.535	81.38
383.761	76.38
383.986	79.38
384.211	82.38
384.436	79.38
384.662	81.38
384.887	82.38
385.112	83.38
385.337	92.38
385.562	81.38
385.787	74.38
386.013	75.38
386.238	86.38
386.463	88.38
386.688	93.38
386.913	72.38
387.138	78.38
387.363	84.38
387.588	84.38
387.813	85.38
388.038	90.38
388.263	90.38
388.488	97.38
388.713	80.38
388.938	78.38
389.163	95.38
389.387	81.38
389.612	80.38
389.837	78.38
390.062	91.38
390.287	100.38
390.512	89.38
390.736	91.38
390.961	74.38
391.186	83.38
391.411	99.38
391.636	83.38
391.86	79.38
392.085	82.38
392.31	87.38
392.534	91.38
392.759	87.38
392.984	84.38
393.208	84.38
393.433	69.38
393.658	82.38
393.882	76.38
394.107	88.38
394.331	81.38
394.556	87.38
394.78	88.38
395.005	83.38
395.229	70.38
395.454	87.38
395.678	90.38
395.903	88.38
396.127	76.38
396.352	92.38
396.576	83.38
396.801	89.38
397.025	81.38
397.249	67.38
397.474	88.38
397.698	90.38
397.922	90.38
398.147	88.38
398.371	84.38
398.595	76.38
398.82	80.38
399.044	97.38
399.268	100.38
399.492	83.38
399.717	81.38
399.941	96.38
400.165	91.38
400.389	86.38
400.613	94.38
400.837	70.38
401.062	88.38
401.286	92.38
401.51	74.38
401.734	98.38
401.958	82.38
402.182	76.38
402.406	90.38
402.63	82.38
402.854	85.38
403.078	86.38
403.302	87.38
403.526	81.38
403.75	92.38
403.974	86.38
404.198	76.38
404.422	86.38
404.645	96.38
404.869	78.38
405.093	81.38
405.317	80.38
405.541	80.38
405.765	84.38
405.988	78.38
406.212	82.38
406.436	78.38
406.66	85.38
406.883	86.38
407.107	75.38
407.331	93.38
407.555	83.38
407.778	89.38
408.002	87.38
408.226	90.38
408.449	80.38
408.673	75.38
408.896	86.38
409.12	88.38
409.344	66.38
409.567	94.38
409.791	84.38
410.014	86.38
410.238	83.38
410.461	92.38
410.685	80.38
410.908	83.38
411.132	87.38
411.355	87.38
411.578	72.38
411.802	78.38
412.025	84.38
412.249	91.38
412.472	80.38
412.695	94.38
412.919	80.38
413.142	88.38
413.365	86.38
413.589	73.38
413.812	84.38
414.035	91.38
414.258	101.38
414.482	78.38
414.705	82.38
414.928	84.38
415.151	93.38
415.374	76.38
415.597	90.38
415.821	100.38
416.044	79.38
416.267	88.38
416.49	68.38
416.713	82.38
416.936	73.38
417.159	80.38
417.382	87.38
417.605	83.38
417.828	76.38
418.051	81.38
418.274	95.38
418.497	76.38
418.72	91.38
418.943	92.38
419.166	80.38
419.389	108.38
419.611	86.38
419.834	90.38
420.057	106.38
420.28	86.38
420.503	82.38
420.726	95.38
420.948	79.38
421.171	83.38
421.394	99.38
421.617	84.38
421.839	75.38
422.062	63.38
422.285	80.38
422.507	86.38
422.73	75.38
422.953	83.38
423.175	75.38
423.398	86.38
423.621	78.38
423.843	83.38
424.066	86.38
424.288	100.38
424.511	91.38
424.733	96.38
424.956	89.38
425.178	80.38
425.401	84.38
425.623	85.38
425.846	76.38
426.068	80.38
426.291	77.38
426.513	89.38
426.735	78.38
426.958	78.38
427.18	75.38
427.402	71.38
427.625	77.38
427.847	76.38
428.069	94.38
428.292	84.38
428.514	88.38
428.736	71.38
428.958	76.38
429.181	81.38
429.403	84.38
429.625	80.38
429.847	102.38
430.069	87.38
430.292	83.38
430.514	99.38
430.736	63.38
430.958	88.38
431.18	100.38
431.402	79.38
431.624	84.38
431.846	85.38
432.068	78.38
432.29	76.38
432.512	90.38
432.734	80.38
432.956	85.38
433.178	92.38
433.4	92.38
433.622	83.38
433.844	80.38
434.066	82.38
434.287	77.38
434.509	91.38
434.731	79.38
434.953	78.38
435.175	88.38
435.397	92.38
435.618	89.38
435.84	83.38
436.062	78.38
436.284	99.38
436.505	87.38
436.727	85.38
436.949	82.38
437.17	92.38
437.392	79.38
437.614	90.38
437.835	90.38
438.057	77.38
438.278	80.38
438.5	79.38
438.721	90.38
438.943	86.38
439.165	92.38
439.386	74.38
439.608	78.38
439.829	82.38
440.05	87.38
440.272	79.38
440.493	79.38
440.715	86.38
440.936	74.38
441.158	76.38
441.379	80.38
441.6	75.38
441.822	71.38
442.043	89.38
442.264	90.38
442.486	77.38
442.707	81.38
442.928	82.38
443.149	88.38
443.371	83.38
443.592	84.38
443.813	92.38
444.034	75.38
444.255	82.38
444.476	68.38
444.698	87.38
444.919	75.38
445.14	154.38
445.361	112.38
445.582	87.38
445.803	72.38
446.024	79.38
446.245	98.38
446.466	80.38
446.687	81.38
446.908	80.38
447.129	92.38
447.35	91.38
447.571	86.38
447.792	66.38
448.013	79.38
448.234	94.38
448.455	82.38
448.675	76.38
448.896	77.38
449.117	82.38
449.338	85.38
449.559	87.38
449.779	82.38
450	70.38
450.221	83.38
450.442	73.38
450.662	86.38
450.883	83.38
451.104	82.38
451.324	80.38
451.545	90.38
451.766	82.38
451.986	73.38
452.207	83.38
452.428	80.38
452.648	92.38
452.869	91.38
453.089	78.38
453.31	92.38
453.53	90.38
453.751	87.38
453.971	78.38
454.192	92.38
454.412	85.38
454.633	79.38
454.853	76.38
455.073	81.38
455.294	83.38
455.514	80.38
455.734	73.38
455.955	78.38
456.175	65.38
456.395	72.38
456.616	84.38
456.836	86.38
457.056	77.38
457.276	80.38
457.497	70.38
457.717	91.38
457.937	77.38
458.157	89.38
458.377	81.38
458.598	82.38
458.818	80.38
459.038	75.38
459.258	81.38
459.478	90.38
459.698	79.38
459.918	78.38
460.138	78.38
460.358	73.38
460.578	93.38
460.798	82.38
461.018	88.38
461.238	84.38
461.458	83.38
461.678	99.38
461.898	78.38
462.118	87.38
462.338	84.38
462.558	88.38
462.777	96.38
462.997	81.38
463.217	86.38
463.437	94.38
463.657	82.38
463.876	87.38
464.096	71.38
464.316	88.38
464.536	90.38
464.755	91.38
464.975	80.38
465.195	82.38
465.414	82.38
465.634	84.38
465.854	91.38
466.073	93.38
466.293	74.38
466.512	71.38
466.732	86.38
466.951	90.38
467.171	80.38
467.391	68.38
467.61	82.38
467.829	78.38
468.049	69.38
468.268	86.38
468.488	80.38
468.707	78.38
468.927	66.38
469.146	83.38
469.365	78.38
469.585	86.38
469.804	85.38
470.023	91.38
470.243	95.38
470.462	81.38
470.681	87.38
470.901	98.38
471.12	98.38
471.339	97.38
471.558	88.38
471.777	93.38
471.997	86.38
472.216	78.38
472.435	88.38
472.654	94.38
472.873	80.38
473.092	101.38
473.311	80.38
473.53	78.38
473.749	94.38
473.968	98.38
474.187	74.38
474.406	90.38
474.625	69.38
474.844	82.38
475.063	82.38
475.282	91.38
475.501	79.38
475.72	70.38
475.939	93.38
476.158	92.38
476.377	90.38
476.596	87.38
476.814	101.38
477.033	88.38
477.252	82.38
477.471	77.38
477.69	80.38
477.908	85.38
478.127	83.38
478.346	85.38
478.564	84.38
478.783	77.38
479.002	83.38
479.22	79.38
479.439	67.38
479.658	87.38
479.876	75.38
480.095	79.38
480.313	94.38
480.532	79.38
480.751	78.38
480.969	90.38
481.188	69.38
481.406	88.38
481.624	92.38
481.843	82.38
482.061	88.38
482.28	72.38
482.498	96.38
482.717	87.38
482.935	80.38
483.153	87.38
483.372	78.38
483.59	82.38
483.808	83.38
484.027	95.38
484.245	85.38
484.463	72.38
484.681	98.38
484.9	87.38
485.118	114.38
485.336	87.38
485.554	73.38
485.772	71.38
485.99	94.38
486.209	87.38
486.427	99.38
486.645	84.38
486.863	78.38
487.081	80.38
487.299	84.38
487.517	89.38
487.735	91.38
487.953	76.38
488.171	82.38
488.389	72.38
488.607	80.38
488.825	87.38
489.043	94.38
489.261	79.38
489.479	81.38
489.696	86.38
489.914	82.38
490.132	75.38
490.35	83.38
490.568	81.38
490.786	91.38
491.003	71.38
491.221	77.38
491.439	79.38
491.657	68.38
491.874	84.38
492.092	97.38
492.31	79.38
492.527	96.38
492.745	82.38
492.963	94.38
493.18	86.38
493.398	87.38
493.615	87.38
493.833	86.38
494.05	100.38
494.268	68.38
494.485	84.38
494.703	97.38
494.92	77.38
495.138	82.38
495.355	81.38
495.573	87.38
495.79	80.38
496.008	83.38
496.225	87.38
496.442	92.38
496.66	96.38
496.877	84.38
497.094	93.38
497.312	74.38
497.529	92.38
497.746	100.38
497.963	78.38
498.181	87.38
498.398	86.38
498.615	80.38
498.832	95.38
499.049	84.38
499.267	83.38
499.484	87.38
499.701	91.38
499.918	94.38
500.135	90.38
500.352	81.38
500.569	89.38
500.786	93.38
501.003	94.38
501.22	83.38
501.437	80.38
501.654	86.38
501.871	89.38
502.088	81.38
502.305	88.38
502.522	99.38
502.739	76.38
502.956	100.38
503.172	86.38
503.389	87.38
503.606	85.38
503.823	87.38
504.04	86.38
504.256	94.38
504.473	74.38
504.69	90.38
504.907	89.38
505.123	87.38
505.34	95.38
505.557	82.38
505.773	80.38
505.99	79.38
506.207	90.38
506.423	72.38
506.64	91.38
506.856	88.38
507.073	86.38
507.289	96.38
507.506	89.38
507.722	94.38
507.939	86.38
508.155	79.38
508.372	81.38
508.588	87.38
508.805	102.38
509.021	87.38
509.238	80.38
509.454	95.38
509.67	79.38
509.887	80.38
510.103	77.38
510.319	83.38
510.536	82.38
510.752	93.38
510.968	81.38
511.184	92.38
511.401	77.38
511.617	97.38
511.833	95.38
512.049	111.38
512.265	97.38
512.481	92.38
512.698	89.38
512.914	90.38
513.13	83.38
513.346	89.38
513.562	84.38
513.778	90.38
513.994	88.38
514.21	87.38
514.426	90.38
514.642	82.38
514.858	76.38
515.074	85.38
515.29	92.38
515.506	69.38
515.721	91.38
515.937	98.38
516.153	86.38
516.369	72.38
516.585	84.38
516.801	84.38
517.016	93.38
517.232	74.38
517.448	107.38
517.664	88.38
517.879	99.38
518.095	90.38
518.311	81.38
518.527	81.38
518.742	78.38
518.958	82.38
519.173	86.38
519.389	87.38
519.605	97.38
