Data from Background_1_HRD10591_00084.txt Node
Date: Wed Nov 05 14:39:39 EST 2025
User: Yrep
Spectrometer: HR+D1059
Trigger mode: 1
Integration Time (sec): 1.000000E-1
Scans to average: 1
Electric dark correction enabled: true
Nonlinearity correction enabled: false
Boxcar width: 0
XAxis mode: Wavelengths
Number of Pixels in Spectrum: 2048
>>>>>Begin Spectral Data<<<<<
223.165	-13
223.4	-13
223.635	-13
223.869	-21
224.104	-13
224.338	-22
224.573	-16
224.808	-11
225.042	11
225.277	5
225.511	0
225.746	-16
225.98	3
226.215	8
226.449	13
226.683	20
226.918	26
227.152	26
227.387	31
227.621	52
227.856	45
228.09	33
228.324	48
228.559	56
228.793	59
229.027	57
229.262	54
229.496	60
229.73	69
229.964	84
230.199	60
230.433	67
230.667	87
230.901	76
231.136	76
231.37	86
231.604	65
231.838	78
232.072	81
232.306	68
232.541	79
232.775	73
233.009	79
233.243	95
233.477	71
233.711	68
233.945	64
234.179	83
234.413	80
234.647	70
234.881	87
235.115	70
235.349	87
235.583	85
235.817	74
236.051	70
236.285	65
236.519	80
236.753	68
236.987	75
237.221	84
237.455	77
237.689	87
237.922	72
238.156	65
238.39	82
238.624	62
238.858	64
239.091	61
239.325	66
239.559	70
239.793	68
240.027	71
240.26	81
240.494	65
240.728	62
240.961	73
241.195	70
241.429	74
241.662	86
241.896	69
242.13	62
242.363	74
242.597	70
242.83	84
243.064	65
243.298	72
243.531	53
243.765	68
243.998	57
244.232	74
244.465	78
244.699	76
244.932	72
245.166	74
245.399	69
245.633	75
245.866	66
246.099	74
246.333	77
246.566	79
246.8	60
247.033	73
247.266	68
247.5	76
247.733	64
247.966	66
248.2	69
248.433	78
248.666	72
248.899	84
249.133	67
249.366	67
249.599	81
249.832	74
250.066	82
250.299	76
250.532	87
250.765	74
250.998	86
251.231	67
251.465	60
251.698	69
251.931	80
252.164	79
252.397	64
252.63	76
252.863	74
253.096	73
253.329	75
253.562	54
253.795	80
254.028	86
254.261	87
254.494	73
254.727	82
254.96	68
255.193	76
255.426	73
255.659	88
255.892	84
256.124	79
256.357	79
256.59	84
256.823	57
257.056	75
257.289	81
257.521	76
257.754	72
257.987	72
258.22	73
258.452	78
258.685	70
258.918	90
259.151	75
259.383	84
259.616	75
259.849	65
260.081	90
260.314	80
260.547	76
260.779	80
261.012	85
261.244	68
261.477	81
261.71	77
261.942	78
262.175	86
262.407	77
262.64	72
262.872	70
263.105	71
263.337	76
263.57	80
263.802	83
264.035	95
264.267	78
264.499	80
264.732	69
264.964	75
265.197	78
265.429	95
265.661	74
265.894	72
266.126	80
266.358	75
266.591	85
266.823	78
267.055	78
267.287	71
267.52	76
267.752	62
267.984	74
268.216	103
268.448	81
268.681	78
268.913	79
269.145	78
269.377	80
269.609	82
269.841	79
270.073	69
270.306	70
270.538	73
270.77	72
271.002	76
271.234	73
271.466	89
271.698	92
271.93	65
272.162	79
272.394	69
272.626	89
272.858	86
273.09	70
273.322	66
273.553	93
273.785	88
274.017	80
274.249	82
274.481	87
274.713	95
274.945	70
275.176	75
275.408	80
275.64	74
275.872	86
276.104	82
276.335	84
276.567	82
276.799	74
277.031	77
277.262	86
277.494	76
277.726	83
277.957	82
278.189	79
278.421	75
278.652	63
278.884	84
279.115	89
279.347	78
279.579	80
279.81	77
280.042	77
280.273	79
280.505	82
280.736	79
280.968	71
281.199	75
281.431	78
281.662	74
281.894	81
282.125	78
282.356	92
282.588	83
282.819	77
283.051	78
283.282	84
283.513	72
283.745	83
283.976	85
284.207	82
284.439	93
284.67	73
284.901	76
285.132	76
285.364	90
285.595	92
285.826	84
286.057	80
286.288	84
286.52	70
286.751	75
286.982	63
287.213	71
287.444	77
287.675	94
287.906	71
288.138	73
288.369	114
288.6	81
288.831	97
289.062	93
289.293	77
289.524	80
289.755	78
289.986	98
290.217	86
290.448	92
290.679	85
290.91	61
291.141	89
291.371	109
291.602	83
291.833	84
292.064	84
292.295	82
292.526	66
292.757	68
292.987	76
293.218	73
293.449	69
293.68	74
293.91	71
294.141	81
294.372	74
294.603	91
294.833	92
295.064	88
295.295	76
295.525	92
295.756	80
295.987	92
296.217	78
296.448	80
296.679	92
296.909	92
297.14	84
297.37	93
297.601	80
297.831	74
298.062	84
298.292	88
298.523	89
298.753	81
298.984	71
299.214	58
299.445	68
299.675	71
299.905	78
300.136	91
300.366	78
300.597	81
300.827	75
301.057	72
301.288	74
301.518	79
301.748	85
301.979	90
302.209	78
302.439	88
302.669	68
302.9	82
303.13	87
303.36	68
303.59	82
303.82	71
304.051	79
304.281	87
304.511	91
304.741	74
304.971	95
305.201	70
305.431	86
305.661	76
305.891	70
306.121	86
306.352	96
306.582	79
306.812	67
307.042	82
307.272	76
307.502	74
307.731	89
307.961	70
308.191	95
308.421	88
308.651	90
308.881	74
309.111	66
309.341	79
309.571	70
309.8	78
310.03	74
310.26	82
310.49	82
310.72	82
310.949	84
311.179	87
311.409	78
311.639	68
311.868	74
312.098	88
312.328	71
312.557	83
312.787	87
313.017	85
313.246	92
313.476	89
313.706	80
313.935	77
314.165	92
314.394	82
314.624	77
314.853	102
315.083	82
315.312	94
315.542	82
315.771	89
316.001	84
316.23	84
316.46	79
316.689	84
316.919	66
317.148	102
317.377	90
317.607	89
317.836	87
318.065	82
318.295	79
318.524	68
318.753	83
318.983	93
319.212	76
319.441	76
319.67	68
319.9	86
320.129	90
320.358	79
320.587	86
320.816	86
321.046	84
321.275	78
321.504	82
321.733	88
321.962	79
322.191	65
322.42	70
322.649	77
322.878	80
323.108	71
323.337	88
323.566	82
323.795	77
324.024	84
324.253	84
324.482	85
324.71	83
324.939	92
325.168	81
325.397	84
325.626	81
325.855	76
326.084	81
326.313	76
326.542	74
326.77	70
326.999	83
327.228	93
327.457	81
327.686	91
327.914	82
328.143	74
328.372	66
328.6	77
328.829	82
329.058	87
329.287	81
329.515	87
329.744	90
329.972	71
330.201	75
330.43	70
330.658	84
330.887	83
331.115	91
331.344	85
331.572	75
331.801	85
332.03	78
332.258	73
332.486	94
332.715	82
332.943	87
333.172	82
333.4	73
333.629	82
333.857	94
334.085	86
334.314	83
334.542	88
334.771	70
334.999	77
335.227	61
335.455	88
335.684	88
335.912	74
336.14	72
336.369	76
336.597	72
336.825	80
337.053	90
337.281	76
337.51	82
337.738	80
337.966	73
338.194	76
338.422	85
338.65	79
338.878	77
339.106	70
339.334	85
339.562	82
339.79	84
340.018	80
340.246	82
340.474	81
340.702	80
340.93	78
341.158	73
341.386	84
341.614	72
341.842	83
342.07	92
342.298	89
342.526	82
342.754	84
342.981	94
343.209	80
343.437	88
343.665	81
343.893	79
344.12	90
344.348	78
344.576	62
344.804	67
345.031	71
345.259	76
345.487	73
345.714	81
345.942	71
346.17	90
346.397	74
346.625	83
346.853	80
347.08	84
347.308	93
347.535	72
347.763	78
347.99	78
348.218	105
348.445	85
348.673	78
348.9	86
349.128	90
349.355	80
349.583	74
349.81	89
350.037	76
350.265	76
350.492	67
350.72	73
350.947	71
351.174	92
351.402	66
351.629	80
351.856	66
352.083	77
352.311	86
352.538	83
352.765	79
352.992	77
353.22	75
353.447	69
353.674	80
353.901	80
354.128	89
354.355	62
354.583	65
354.81	80
355.037	81
355.264	84
355.491	86
355.718	90
355.945	86
356.172	93
356.399	92
356.626	84
356.853	96
357.08	74
357.307	77
357.534	70
357.761	87
357.988	89
358.215	80
358.441	81
358.668	63
358.895	84
359.122	74
359.349	79
359.576	87
359.802	86
360.029	89
360.256	91
360.483	82
360.709	74
360.936	80
361.163	80
361.39	79
361.616	71
361.843	72
362.07	75
362.296	69
362.523	88
362.749	81
362.976	69
363.203	79
363.429	76
363.656	64
363.882	85
364.109	82
364.335	79
364.562	78
364.788	73
365.015	80
365.241	81
365.468	82
365.694	89
365.92	65
366.147	81
366.373	77
366.599	71
366.826	81
367.052	73
367.278	80
367.505	84
367.731	104
367.957	82
368.184	86
368.41	78
368.636	79
368.862	85
369.089	76
369.315	95
369.541	63
369.767	84
369.993	86
370.219	81
370.445	75
370.672	79
370.898	84
371.124	86
371.35	71
371.576	80
371.802	73
372.028	78
372.254	80
372.48	70
372.706	80
372.932	86
373.158	74
373.384	78
373.61	86
373.835	85
374.061	89
374.287	82
374.513	76
374.739	81
374.965	77
375.191	85
375.416	89
375.642	93
375.868	88
376.094	91
376.319	74
376.545	85
376.771	87
376.997	84
377.222	80
377.448	76
377.674	73
377.899	78
378.125	91
378.35	79
378.576	70
378.802	65
379.027	88
379.253	90
379.478	75
379.704	78
379.929	70
380.155	65
380.38	89
380.606	85
380.831	80
381.057	83
381.282	64
381.507	96
381.733	78
381.958	68
382.184	85
382.409	79
382.634	85
382.86	81
383.085	90
383.31	78
383.535	80
383.761	80
383.986	82
384.211	79
384.436	78
384.662	85
384.887	68
385.112	80
385.337	72
385.562	66
385.787	75
386.013	70
386.238	70
386.463	72
386.688	92
386.913	86
387.138	82
387.363	77
387.588	92
387.813	68
388.038	90
388.263	67
388.488	94
388.713	102
388.938	74
389.163	69
389.387	77
389.612	81
389.837	89
390.062	79
390.287	91
390.512	80
390.736	79
390.961	79
391.186	76
391.411	78
391.636	87
391.86	73
392.085	87
392.31	83
392.534	84
392.759	84
392.984	88
393.208	82
393.433	77
393.658	88
393.882	72
394.107	76
394.331	79
394.556	82
394.78	95
395.005	81
395.229	69
395.454	80
395.678	75
395.903	82
396.127	84
396.352	80
396.576	73
396.801	82
397.025	86
397.249	84
397.474	79
397.698	89
397.922	72
398.147	84
398.371	91
398.595	67
398.82	70
399.044	68
399.268	81
399.492	76
399.717	87
399.941	88
400.165	81
400.389	88
400.613	80
400.837	84
401.062	99
401.286	84
401.51	76
401.734	79
401.958	83
402.182	79
402.406	79
402.63	82
402.854	86
403.078	89
403.302	75
403.526	72
403.75	83
403.974	80
404.198	81
404.422	81
404.645	73
404.869	73
405.093	77
405.317	82
405.541	72
405.765	90
405.988	88
406.212	82
406.436	68
406.66	87
406.883	83
407.107	85
407.331	84
407.555	79
407.778	72
408.002	76
408.226	76
408.449	95
408.673	77
408.896	97
409.12	81
409.344	91
409.567	80
409.791	84
410.014	98
410.238	76
410.461	95
410.685	78
410.908	78
411.132	79
411.355	88
411.578	72
411.802	94
412.025	81
412.249	77
412.472	92
412.695	86
412.919	77
413.142	82
413.365	85
413.589	70
413.812	86
414.035	76
414.258	64
414.482	87
414.705	73
414.928	86
415.151	78
415.374	78
415.597	76
415.821	64
416.044	78
416.267	88
416.49	71
416.713	77
416.936	83
417.159	76
417.382	71
417.605	77
417.828	72
418.051	82
418.274	75
418.497	76
418.72	74
418.943	81
419.166	87
419.389	70
419.611	77
419.834	74
420.057	95
420.28	74
420.503	82
420.726	84
420.948	75
421.171	79
421.394	74
421.617	74
421.839	86
422.062	79
422.285	69
422.507	71
422.73	70
422.953	96
423.175	84
423.398	80
423.621	84
423.843	75
424.066	94
424.288	76
424.511	92
424.733	73
424.956	73
425.178	76
425.401	77
425.623	68
425.846	71
426.068	74
426.291	77
426.513	75
426.735	63
426.958	70
427.18	73
427.402	70
427.625	72
427.847	94
428.069	65
428.292	86
428.514	67
428.736	71
428.958	88
429.181	79
429.403	72
429.625	70
429.847	72
430.069	79
430.292	80
430.514	72
430.736	76
430.958	86
431.18	72
431.402	79
431.624	77
431.846	73
432.068	66
432.29	82
432.512	88
432.734	81
432.956	74
433.178	76
433.4	77
433.622	85
433.844	80
434.066	69
434.287	75
434.509	77
434.731	83
434.953	66
435.175	72
435.397	73
435.618	84
435.84	73
436.062	76
436.284	72
436.505	79
436.727	80
436.949	80
437.17	71
437.392	79
437.614	82
437.835	85
438.057	80
438.278	84
438.5	87
438.721	93
438.943	63
439.165	78
439.386	72
439.608	72
439.829	77
440.05	60
440.272	80
440.493	84
440.715	89
440.936	79
441.158	84
441.379	76
441.6	65
441.822	75
442.043	86
442.264	84
442.486	74
442.707	92
442.928	70
443.149	80
443.371	66
443.592	68
443.813	81
444.034	80
444.255	82
444.476	87
444.698	79
444.919	68
445.14	169
445.361	109
445.582	92
445.803	78
446.024	57
446.245	82
446.466	86
446.687	84
446.908	80
447.129	76
447.35	90
447.571	68
447.792	85
448.013	73
448.234	85
448.455	94
448.675	89
448.896	72
449.117	69
449.338	86
449.559	76
449.779	81
450	64
450.221	72
450.442	83
450.662	93
450.883	78
451.104	79
451.324	80
451.545	94
451.766	76
451.986	68
452.207	81
452.428	89
452.648	86
452.869	91
453.089	80
453.31	77
453.53	82
453.751	80
453.971	81
454.192	79
454.412	78
454.633	79
454.853	74
455.073	79
455.294	82
455.514	84
455.734	72
455.955	73
456.175	71
456.395	71
456.616	96
456.836	79
457.056	87
457.276	85
457.497	77
457.717	80
457.937	74
458.157	76
458.377	71
458.598	77
458.818	78
459.038	83
459.258	82
459.478	71
459.698	84
459.918	73
460.138	64
460.358	84
460.578	87
460.798	82
461.018	92
461.238	70
461.458	78
461.678	70
461.898	65
462.118	76
462.338	91
462.558	86
462.777	65
462.997	76
463.217	85
463.437	84
463.657	72
463.876	64
464.096	82
464.316	86
464.536	86
464.755	84
464.975	78
465.195	74
465.414	88
465.634	85
465.854	75
466.073	69
466.293	87
466.512	77
466.732	68
466.951	71
467.171	78
467.391	76
467.61	68
467.829	66
468.049	80
468.268	79
468.488	84
468.707	70
468.927	79
469.146	66
469.365	66
469.585	75
469.804	66
470.023	62
470.243	80
470.462	90
470.681	73
470.901	88
471.12	82
471.339	87
471.558	81
471.777	86
471.997	73
472.216	82
472.435	76
472.654	90
472.873	84
473.092	86
473.311	86
473.53	75
473.749	82
473.968	92
474.187	91
474.406	79
474.625	87
474.844	74
475.063	69
475.282	67
475.501	74
475.72	79
475.939	77
476.158	80
476.377	70
476.596	74
476.814	86
477.033	63
477.252	68
477.471	72
477.69	82
477.908	89
478.127	72
478.346	85
478.564	77
478.783	87
479.002	85
479.22	80
479.439	80
479.658	68
479.876	75
480.095	80
480.313	90
480.532	72
480.751	87
480.969	86
481.188	74
481.406	79
481.624	76
481.843	78
482.061	84
482.28	77
482.498	81
482.717	72
482.935	83
483.153	81
483.372	89
483.59	90
483.808	64
484.027	81
484.245	83
484.463	72
484.681	88
484.9	85
485.118	77
485.336	84
485.554	76
485.772	77
485.99	88
486.209	78
486.427	74
486.645	88
486.863	69
487.081	79
487.299	76
487.517	82
487.735	77
487.953	89
488.171	84
488.389	81
488.607	78
488.825	74
489.043	66
489.261	83
489.479	85
489.696	74
489.914	83
490.132	81
490.35	72
490.568	76
490.786	87
491.003	83
491.221	82
491.439	67
491.657	83
491.874	81
492.092	93
492.31	98
492.527	82
492.745	80
492.963	80
493.18	78
493.398	66
493.615	69
493.833	72
494.05	78
494.268	90
494.485	80
494.703	73
494.92	70
495.138	67
495.355	79
495.573	85
495.79	84
496.008	92
496.225	101
496.442	104
496.66	90
496.877	71
497.094	75
497.312	82
497.529	94
497.746	68
497.963	74
498.181	70
498.398	89
498.615	79
498.832	90
499.049	86
499.267	81
499.484	62
499.701	72
499.918	78
500.135	82
500.352	73
500.569	64
500.786	77
501.003	93
501.22	76
501.437	85
501.654	79
501.871	86
502.088	80
502.305	87
502.522	87
502.739	78
502.956	72
503.172	84
503.389	78
503.606	102
503.823	74
504.04	78
504.256	87
504.473	91
504.69	77
504.907	76
505.123	78
505.34	71
505.557	77
505.773	73
505.99	86
506.207	85
506.423	74
506.64	79
506.856	82
507.073	83
507.289	79
507.506	85
507.722	82
507.939	85
508.155	75
508.372	78
508.588	69
508.805	77
509.021	74
509.238	78
509.454	91
509.67	72
509.887	81
510.103	76
510.319	82
510.536	84
510.752	84
510.968	76
511.184	85
511.401	78
511.617	81
511.833	81
512.049	87
512.265	83
512.481	78
512.698	79
512.914	69
513.13	73
513.346	85
513.562	85
513.778	94
513.994	71
514.21	75
514.426	96
514.642	71
514.858	94
515.074	82
515.29	85
515.506	76
515.721	79
515.937	86
516.153	110
516.369	71
516.585	86
516.801	77
517.016	85
517.232	74
517.448	86
517.664	80
517.879	89
518.095	95
518.311	72
518.527	79
518.742	87
518.958	74
519.173	98
519.389	90
519.605	79
519.82	71
520.036	79
520.251	68
520.467	61
520.682	81
520.898	82
521.113	73
521.329	71
521.544	64
521.76	71
521.975	94
522.19	80
522.406	95
522.621	77
522.836	81
523.052	77
523.267	80
523.482	88
523.698	76
523.913	86
524.128	67
524.343	64
524.559	80
524.774	76
524.989	89
525.204	64
525.419	69
525.634	74
525.849	77
526.064	83
526.28	83
526.495	75
526.71	87
526.925	90
527.14	85
527.355	70
527.57	81
527.785	88
527.999	66
528.214	76
528.429	77
528.644	64
528.859	83
529.074	77
529.289	87
529.503	88
529.718	78
529.933	76
530.148	73
530.363	91
530.577	84
530.792	87
531.007	69
531.221	76
531.436	77
531.651	81
531.865	64
532.08	77
532.295	96
532.509	76
532.724	59
532.938	73
533.153	76
533.367	80
533.582	71
533.796	80
534.011	79
534.225	89
534.44	77
534.654	93
534.868	62
535.083	78
535.297	81
535.511	65
535.726	78
535.94	83
536.154	83
536.369	83
536.583	69
536.797	72
537.011	85
537.225	73
537.44	92
537.654	80
537.868	77
538.082	75
538.296	89
538.51	84
538.724	78
538.938	68
539.153	75
539.367	74
539.581	101
539.795	60
540.009	81
540.222	76
540.436	85
540.65	82
540.864	55
541.078	93
541.292	88
541.506	74
541.72	88
541.934	93
542.147	91
542.361	92
542.575	88
542.789	96
543.002	94
543.216	77
543.43	75
543.644	77
543.857	68
544.071	73
544.285	82
544.498	72
544.712	73
544.925	92
545.139	86
545.352	74
545.566	79
545.779	78
545.993	76
546.206	85
546.42	95
546.633	86
546.847	79
547.06	81
547.274	75
547.487	71
547.7	79
547.914	90
548.127	84
548.34	63
548.554	74
548.767	74
548.98	96
549.193	91
549.407	73
549.62	60
549.833	74
550.046	87
550.259	87
550.473	72
550.686	92
550.899	83
551.112	84
551.325	96
551.538	89
551.751	81
551.964	67
552.177	87
552.39	91
552.603	72
552.816	68
553.029	85
553.242	79
553.455	82
553.667	90
553.88	82
554.093	93
554.306	89
554.519	72
554.732	89
554.944	73
555.157	68
555.37	64
555.583	85
555.795	81
556.008	78
556.221	88
556.433	68
556.646	81
556.859	74
557.071	79
557.284	86
557.496	73
557.709	89
557.921	87
558.134	104
558.346	76
558.559	88
558.771	70
558.984	83
559.196	81
559.409	84
559.621	78
559.833	76
560.046	89
560.258	91
560.47	78
560.683	83
560.895	71
561.107	79
561.32	77
561.532	85
561.744	85
561.956	61
562.168	68
562.381	75
562.593	67
562.805	81
563.017	81
563.229	73
563.441	80
563.653	74
563.865	74
564.077	71
564.289	83
564.501	86
564.713	84
564.925	92
565.137	82
565.349	102
565.561	85
565.773	77
565.985	79
566.197	81
566.408	76
566.62	86
566.832	77
567.044	87
567.255	71
567.467	81
567.679	71
567.891	69
568.102	78
568.314	77
568.526	86
568.737	80
568.949	66
569.161	83
569.372	74
569.584	81
569.795	72
570.007	94
570.218	78
570.43	87
570.641	76
570.853	68
571.064	81
571.276	74
571.487	88
571.698	93
571.91	86
572.121	65
572.333	76
572.544	65
572.755	88
572.966	93
573.178	86
573.389	84
573.6	74
573.811	77
574.023	57
574.234	71
574.445	87
574.656	93
574.867	88
575.078	70
575.289	75
575.501	72
575.712	70
575.923	77
576.134	82
576.345	74
576.556	89
576.767	91
576.978	79
577.188	77
577.399	73
577.61	80
577.821	79
578.032	93
578.243	90
578.454	89
578.665	77
578.875	80
579.086	71
579.297	100
579.508	73
579.718	77
579.929	80
580.14	89
580.35	79
580.561	83
580.772	73
580.982	82
581.193	91
581.403	73
581.614	78
581.825	80
582.035	77
582.246	82
582.456	75
582.667	93
582.877	89
583.087	74
583.298	83
583.508	76
583.719	82
583.929	74
584.139	79
584.35	86
584.56	82
584.77	78
584.981	76
585.191	78
585.401	80
585.611	79
585.821	74
586.032	77
586.242	89
586.452	80
586.662	79
586.872	82
587.082	84
587.292	68
587.502	83
587.713	84
587.923	89
588.133	71
588.343	89
588.553	86
588.762	85
588.972	85
589.182	65
589.392	73
589.602	84
589.812	59
590.022	84
590.232	95
590.441	80
590.651	81
