Data from Background_1_HRD10591_00030.txt Node
Date: Wed Nov 05 14:39:13 EST 2025
User: Yrep
Spectrometer: HR+D1059
Trigger mode: 1
Integration Time (sec): 1.000000E-1
Scans to average: 1
Electric dark correction enabled: true
Nonlinearity correction enabled: false
Boxcar width: 0
XAxis mode: Wavelengths
Number of Pixels in Spectrum: 2048
>>>>>Begin Spectral Data<<<<<
223.165	-3.19
223.4	-3.19
223.635	-3.19
223.869	-21.19
224.104	-15.19
224.338	-13.19
224.573	-24.19
224.808	-2.19
225.042	-14.19
225.277	-7.19
225.511	-5.19
225.746	6.81
225.98	-0.19
226.215	12.81
226.449	18.81
226.683	16.81
226.918	30.81
227.152	19.81
227.387	20.81
227.621	32.81
227.856	43.81
228.09	66.81
228.324	49.81
228.559	58.81
228.793	57.81
229.027	52.81
229.262	48.81
229.496	70.81
229.73	70.81
229.964	58.81
230.199	65.81
230.433	64.81
230.667	80.81
230.901	80.81
231.136	86.81
231.37	76.81
231.604	85.81
231.838	70.81
232.072	73.81
232.306	74.81
232.541	71.81
232.775	68.81
233.009	72.81
233.243	81.81
233.477	76.81
233.711	79.81
233.945	77.81
234.179	64.81
234.413	74.81
234.647	92.81
234.881	71.81
235.115	56.81
235.349	75.81
235.583	74.81
235.817	79.81
236.051	73.81
236.285	85.81
236.519	75.81
236.753	84.81
236.987	76.81
237.221	96.81
237.455	87.81
237.689	75.81
237.922	66.81
238.156	77.81
238.39	66.81
238.624	84.81
238.858	73.81
239.091	66.81
239.325	70.81
239.559	74.81
239.793	91.81
240.027	78.81
240.26	62.81
240.494	85.81
240.728	84.81
240.961	91.81
241.195	89.81
241.429	75.81
241.662	81.81
241.896	88.81
242.13	82.81
242.363	78.81
242.597	76.81
242.83	73.81
243.064	74.81
243.298	66.81
243.531	92.81
243.765	87.81
243.998	64.81
244.232	74.81
244.465	73.81
244.699	78.81
244.932	60.81
245.166	78.81
245.399	72.81
245.633	63.81
245.866	69.81
246.099	70.81
246.333	80.81
246.566	80.81
246.8	79.81
247.033	81.81
247.266	84.81
247.5	71.81
247.733	91.81
247.966	86.81
248.2	64.81
248.433	84.81
248.666	76.81
248.899	90.81
249.133	66.81
249.366	79.81
249.599	72.81
249.832	80.81
250.066	88.81
250.299	87.81
250.532	72.81
250.765	60.81
250.998	68.81
251.231	70.81
251.465	69.81
251.698	72.81
251.931	73.81
252.164	80.81
252.397	95.81
252.63	92.81
252.863	80.81
253.096	73.81
253.329	81.81
253.562	71.81
253.795	70.81
254.028	83.81
254.261	84.81
254.494	83.81
254.727	96.81
254.96	96.81
255.193	77.81
255.426	83.81
255.659	86.81
255.892	77.81
256.124	80.81
256.357	81.81
256.59	64.81
256.823	78.81
257.056	79.81
257.289	74.81
257.521	86.81
257.754	69.81
257.987	79.81
258.22	86.81
258.452	82.81
258.685	73.81
258.918	79.81
259.151	86.81
259.383	102.81
259.616	85.81
259.849	80.81
260.081	102.81
260.314	80.81
260.547	79.81
260.779	69.81
261.012	76.81
261.244	76.81
261.477	82.81
261.71	74.81
261.942	71.81
262.175	68.81
262.407	80.81
262.64	76.81
262.872	97.81
263.105	97.81
263.337	94.81
263.57	80.81
263.802	73.81
264.035	84.81
264.267	73.81
264.499	89.81
264.732	83.81
264.964	73.81
265.197	83.81
265.429	81.81
265.661	82.81
265.894	84.81
266.126	85.81
266.358	62.81
266.591	84.81
266.823	75.81
267.055	68.81
267.287	85.81
267.52	86.81
267.752	93.81
267.984	72.81
268.216	64.81
268.448	81.81
268.681	80.81
268.913	84.81
269.145	72.81
269.377	93.81
269.609	88.81
269.841	72.81
270.073	92.81
270.306	73.81
270.538	82.81
270.77	82.81
271.002	74.81
271.234	77.81
271.466	73.81
271.698	80.81
271.93	86.81
272.162	86.81
272.394	74.81
272.626	89.81
272.858	74.81
273.09	74.81
273.322	74.81
273.553	91.81
273.785	82.81
274.017	76.81
274.249	75.81
274.481	77.81
274.713	86.81
274.945	88.81
275.176	79.81
275.408	90.81
275.64	91.81
275.872	96.81
276.104	94.81
276.335	86.81
276.567	86.81
276.799	78.81
277.031	80.81
277.262	88.81
277.494	82.81
277.726	73.81
277.957	82.81
278.189	84.81
278.421	76.81
278.652	83.81
278.884	73.81
279.115	91.81
279.347	76.81
279.579	86.81
279.81	75.81
280.042	81.81
280.273	82.81
280.505	75.81
280.736	78.81
280.968	70.81
281.199	81.81
281.431	64.81
281.662	66.81
281.894	72.81
282.125	84.81
282.356	80.81
282.588	68.81
282.819	74.81
283.051	72.81
283.282	76.81
283.513	68.81
283.745	73.81
283.976	68.81
284.207	84.81
284.439	101.81
284.67	90.81
284.901	84.81
285.132	83.81
285.364	81.81
285.595	94.81
285.826	76.81
286.057	94.81
286.288	79.81
286.52	75.81
286.751	90.81
286.982	68.81
287.213	78.81
287.444	84.81
287.675	81.81
287.906	78.81
288.138	89.81
288.369	83.81
288.6	86.81
288.831	71.81
289.062	78.81
289.293	85.81
289.524	84.81
289.755	89.81
289.986	87.81
290.217	80.81
290.448	81.81
290.679	83.81
290.91	91.81
291.141	93.81
291.371	93.81
291.602	78.81
291.833	79.81
292.064	75.81
292.295	105.81
292.526	85.81
292.757	87.81
292.987	74.81
293.218	79.81
293.449	75.81
293.68	78.81
293.91	84.81
294.141	74.81
294.372	90.81
294.603	75.81
294.833	99.81
295.064	67.81
295.295	77.81
295.525	85.81
295.756	84.81
295.987	91.81
296.217	97.81
296.448	84.81
296.679	80.81
296.909	89.81
297.14	74.81
297.37	103.81
297.601	81.81
297.831	100.81
298.062	77.81
298.292	78.81
298.523	82.81
298.753	89.81
298.984	85.81
299.214	88.81
299.445	90.81
299.675	84.81
299.905	80.81
300.136	79.81
300.366	94.81
300.597	78.81
300.827	89.81
301.057	75.81
301.288	94.81
301.518	75.81
301.748	78.81
301.979	89.81
302.209	86.81
302.439	67.81
302.669	84.81
302.9	78.81
303.13	88.81
303.36	93.81
303.59	85.81
303.82	76.81
304.051	84.81
304.281	91.81
304.511	77.81
304.741	99.81
304.971	91.81
305.201	74.81
305.431	80.81
305.661	87.81
305.891	68.81
306.121	77.81
306.352	80.81
306.582	81.81
306.812	72.81
307.042	66.81
307.272	69.81
307.502	84.81
307.731	76.81
307.961	85.81
308.191	90.81
308.421	84.81
308.651	81.81
308.881	94.81
309.111	72.81
309.341	81.81
309.571	83.81
309.8	86.81
310.03	86.81
310.26	82.81
310.49	80.81
310.72	78.81
310.949	92.81
311.179	92.81
311.409	90.81
311.639	89.81
311.868	76.81
312.098	90.81
312.328	91.81
312.557	96.81
312.787	88.81
313.017	79.81
313.246	81.81
313.476	82.81
313.706	87.81
313.935	77.81
314.165	84.81
314.394	91.81
314.624	84.81
314.853	95.81
315.083	88.81
315.312	93.81
315.542	74.81
315.771	72.81
316.001	68.81
316.23	78.81
316.46	80.81
316.689	79.81
316.919	81.81
317.148	80.81
317.377	84.81
317.607	89.81
317.836	78.81
318.065	89.81
318.295	83.81
318.524	96.81
318.753	76.81
318.983	88.81
319.212	85.81
319.441	78.81
319.67	88.81
319.9	72.81
320.129	92.81
320.358	66.81
320.587	87.81
320.816	78.81
321.046	88.81
321.275	70.81
321.504	87.81
321.733	85.81
321.962	84.81
322.191	82.81
322.42	69.81
322.649	93.81
322.878	88.81
323.108	95.81
323.337	81.81
323.566	81.81
323.795	95.81
324.024	92.81
324.253	81.81
324.482	72.81
324.71	94.81
324.939	88.81
325.168	85.81
325.397	82.81
325.626	86.81
325.855	92.81
326.084	72.81
326.313	95.81
326.542	89.81
326.77	82.81
326.999	81.81
327.228	80.81
327.457	76.81
327.686	91.81
327.914	84.81
328.143	90.81
328.372	81.81
328.6	88.81
328.829	82.81
329.058	91.81
329.287	89.81
329.515	75.81
329.744	80.81
329.972	80.81
330.201	80.81
330.43	81.81
330.658	77.81
330.887	79.81
331.115	84.81
331.344	86.81
331.572	91.81
331.801	96.81
332.03	88.81
332.258	88.81
332.486	81.81
332.715	96.81
332.943	79.81
333.172	93.81
333.4	66.81
333.629	86.81
333.857	86.81
334.085	97.81
334.314	82.81
334.542	87.81
334.771	92.81
334.999	89.81
335.227	97.81
335.455	80.81
335.684	91.81
335.912	86.81
336.14	86.81
336.369	64.81
336.597	74.81
336.825	78.81
337.053	80.81
337.281	89.81
337.51	83.81
337.738	89.81
337.966	87.81
338.194	69.81
338.422	76.81
338.65	89.81
338.878	78.81
339.106	94.81
339.334	92.81
339.562	85.81
339.79	92.81
340.018	83.81
340.246	77.81
340.474	76.81
340.702	75.81
340.93	84.81
341.158	81.81
341.386	78.81
341.614	69.81
341.842	75.81
342.07	90.81
342.298	84.81
342.526	76.81
342.754	80.81
342.981	73.81
343.209	85.81
343.437	105.81
343.665	74.81
343.893	86.81
344.12	88.81
344.348	86.81
344.576	92.81
344.804	88.81
345.031	74.81
345.259	78.81
345.487	92.81
345.714	88.81
345.942	82.81
346.17	80.81
346.397	85.81
346.625	80.81
346.853	78.81
347.08	71.81
347.308	88.81
347.535	80.81
347.763	92.81
347.99	80.81
348.218	85.81
348.445	77.81
348.673	74.81
348.9	77.81
349.128	77.81
349.355	88.81
349.583	81.81
349.81	86.81
350.037	89.81
350.265	74.81
350.492	84.81
350.72	80.81
350.947	86.81
351.174	85.81
351.402	98.81
351.629	78.81
351.856	78.81
352.083	92.81
352.311	91.81
352.538	86.81
352.765	84.81
352.992	85.81
353.22	80.81
353.447	80.81
353.674	82.81
353.901	85.81
354.128	74.81
354.355	88.81
354.583	87.81
354.81	74.81
355.037	84.81
355.264	73.81
355.491	82.81
355.718	82.81
355.945	75.81
356.172	84.81
356.399	78.81
356.626	75.81
356.853	80.81
357.08	90.81
357.307	85.81
357.534	85.81
357.761	75.81
357.988	88.81
358.215	80.81
358.441	72.81
358.668	85.81
358.895	70.81
359.122	75.81
359.349	79.81
359.576	64.81
359.802	61.81
360.029	92.81
360.256	76.81
360.483	93.81
360.709	74.81
360.936	86.81
361.163	85.81
361.39	102.81
361.616	93.81
361.843	84.81
362.07	86.81
362.296	77.81
362.523	78.81
362.749	93.81
362.976	82.81
363.203	91.81
363.429	63.81
363.656	78.81
363.882	74.81
364.109	72.81
364.335	93.81
364.562	92.81
364.788	75.81
365.015	87.81
365.241	70.81
365.468	77.81
365.694	79.81
365.92	85.81
366.147	89.81
366.373	80.81
366.599	80.81
366.826	81.81
367.052	80.81
367.278	93.81
367.505	76.81
367.731	86.81
367.957	74.81
368.184	85.81
368.41	89.81
368.636	71.81
368.862	98.81
369.089	76.81
369.315	79.81
369.541	74.81
369.767	79.81
369.993	88.81
370.219	70.81
370.445	69.81
370.672	84.81
370.898	88.81
371.124	73.81
371.35	77.81
371.576	84.81
371.802	81.81
372.028	73.81
372.254	82.81
372.48	81.81
372.706	78.81
372.932	91.81
373.158	96.81
373.384	84.81
373.61	74.81
373.835	65.81
374.061	67.81
374.287	89.81
374.513	78.81
374.739	80.81
374.965	74.81
375.191	81.81
375.416	73.81
375.642	82.81
375.868	75.81
376.094	79.81
376.319	84.81
376.545	85.81
376.771	75.81
376.997	71.81
377.222	72.81
377.448	82.81
377.674	77.81
377.899	87.81
378.125	74.81
378.35	86.81
378.576	90.81
378.802	91.81
379.027	90.81
379.253	77.81
379.478	96.81
379.704	70.81
379.929	70.81
380.155	74.81
380.38	76.81
380.606	86.81
380.831	74.81
381.057	83.81
381.282	84.81
381.507	84.81
381.733	83.81
381.958	84.81
382.184	85.81
382.409	86.81
382.634	72.81
382.86	84.81
383.085	82.81
383.31	67.81
383.535	94.81
383.761	84.81
383.986	79.81
384.211	74.81
384.436	95.81
384.662	86.81
384.887	78.81
385.112	79.81
385.337	80.81
385.562	68.81
385.787	72.81
386.013	77.81
386.238	67.81
386.463	79.81
386.688	84.81
386.913	92.81
387.138	88.81
387.363	88.81
387.588	86.81
387.813	69.81
388.038	81.81
388.263	82.81
388.488	88.81
388.713	82.81
388.938	86.81
389.163	81.81
389.387	79.81
389.612	79.81
389.837	82.81
390.062	89.81
390.287	74.81
390.512	88.81
390.736	85.81
390.961	88.81
391.186	89.81
391.411	93.81
391.636	78.81
391.86	84.81
392.085	72.81
392.31	89.81
392.534	95.81
392.759	92.81
392.984	88.81
393.208	69.81
393.433	74.81
393.658	81.81
393.882	88.81
394.107	74.81
394.331	89.81
394.556	76.81
394.78	73.81
395.005	74.81
395.229	72.81
395.454	81.81
395.678	60.81
395.903	88.81
396.127	76.81
396.352	76.81
396.576	85.81
396.801	62.81
397.025	74.81
397.249	80.81
397.474	81.81
397.698	77.81
397.922	75.81
398.147	92.81
398.371	79.81
398.595	82.81
398.82	66.81
399.044	77.81
399.268	71.81
399.492	83.81
399.717	74.81
399.941	76.81
400.165	85.81
400.389	93.81
400.613	76.81
400.837	80.81
401.062	85.81
401.286	84.81
401.51	79.81
401.734	84.81
401.958	88.81
402.182	85.81
402.406	82.81
402.63	66.81
402.854	76.81
403.078	82.81
403.302	77.81
403.526	81.81
403.75	86.81
403.974	92.81
404.198	86.81
404.422	83.81
404.645	67.81
404.869	80.81
405.093	83.81
405.317	80.81
405.541	92.81
405.765	85.81
405.988	88.81
406.212	80.81
406.436	93.81
406.66	83.81
406.883	64.81
407.107	85.81
407.331	72.81
407.555	88.81
407.778	74.81
408.002	77.81
408.226	73.81
408.449	86.81
408.673	90.81
408.896	90.81
409.12	92.81
409.344	88.81
409.567	61.81
409.791	74.81
410.014	86.81
410.238	67.81
410.461	80.81
410.685	70.81
410.908	80.81
411.132	78.81
411.355	92.81
411.578	70.81
411.802	89.81
412.025	68.81
412.249	74.81
412.472	87.81
412.695	65.81
412.919	79.81
413.142	86.81
413.365	74.81
413.589	84.81
413.812	89.81
414.035	77.81
414.258	76.81
414.482	80.81
414.705	88.81
414.928	74.81
415.151	72.81
415.374	76.81
415.597	84.81
415.821	67.81
416.044	98.81
416.267	83.81
416.49	82.81
416.713	90.81
416.936	83.81
417.159	86.81
417.382	80.81
417.605	66.81
417.828	69.81
418.051	78.81
418.274	81.81
418.497	81.81
418.72	75.81
418.943	82.81
419.166	78.81
419.389	87.81
419.611	66.81
419.834	76.81
420.057	77.81
420.28	78.81
420.503	83.81
420.726	86.81
420.948	84.81
421.171	96.81
421.394	85.81
421.617	86.81
421.839	78.81
422.062	72.81
422.285	72.81
422.507	72.81
422.73	72.81
422.953	63.81
423.175	84.81
423.398	78.81
423.621	75.81
423.843	74.81
424.066	95.81
424.288	70.81
424.511	86.81
424.733	88.81
424.956	88.81
425.178	65.81
425.401	76.81
425.623	82.81
425.846	77.81
426.068	65.81
426.291	69.81
426.513	86.81
426.735	70.81
426.958	69.81
427.18	62.81
427.402	83.81
427.625	69.81
427.847	75.81
428.069	88.81
428.292	68.81
428.514	85.81
428.736	89.81
428.958	72.81
429.181	78.81
429.403	72.81
429.625	64.81
429.847	75.81
430.069	92.81
430.292	86.81
430.514	73.81
430.736	85.81
430.958	70.81
431.18	83.81
431.402	75.81
431.624	77.81
431.846	80.81
432.068	74.81
432.29	86.81
432.512	96.81
432.734	87.81
432.956	80.81
433.178	81.81
433.4	73.81
433.622	83.81
433.844	92.81
434.066	79.81
434.287	84.81
434.509	80.81
434.731	86.81
434.953	78.81
435.175	74.81
435.397	87.81
435.618	74.81
435.84	97.81
436.062	73.81
436.284	65.81
436.505	84.81
436.727	80.81
436.949	95.81
437.17	74.81
437.392	73.81
437.614	72.81
437.835	90.81
438.057	80.81
438.278	78.81
438.5	76.81
438.721	92.81
438.943	78.81
439.165	81.81
439.386	84.81
439.608	87.81
439.829	76.81
440.05	80.81
440.272	72.81
440.493	73.81
440.715	84.81
440.936	78.81
441.158	80.81
441.379	86.81
441.6	89.81
441.822	76.81
442.043	87.81
442.264	88.81
442.486	81.81
442.707	68.81
442.928	77.81
443.149	89.81
443.371	92.81
443.592	79.81
443.813	81.81
444.034	73.81
444.255	76.81
444.476	64.81
444.698	68.81
444.919	90.81
445.14	148.81
445.361	102.81
445.582	81.81
445.803	80.81
446.024	88.81
446.245	77.81
446.466	72.81
446.687	74.81
446.908	89.81
447.129	84.81
447.35	72.81
447.571	76.81
447.792	72.81
448.013	80.81
448.234	69.81
448.455	81.81
448.675	82.81
448.896	76.81
449.117	81.81
449.338	85.81
449.559	78.81
449.779	80.81
450	80.81
450.221	74.81
450.442	64.81
450.662	80.81
450.883	76.81
451.104	64.81
451.324	80.81
451.545	78.81
451.766	76.81
451.986	83.81
452.207	79.81
452.428	89.81
452.648	70.81
452.869	85.81
453.089	81.81
453.31	65.81
453.53	78.81
453.751	73.81
453.971	71.81
454.192	68.81
454.412	65.81
454.633	75.81
454.853	78.81
455.073	85.81
455.294	73.81
455.514	81.81
455.734	71.81
455.955	89.81
456.175	89.81
456.395	80.81
456.616	85.81
456.836	82.81
457.056	84.81
457.276	81.81
457.497	76.81
457.717	79.81
457.937	84.81
458.157	84.81
458.377	96.81
458.598	77.81
458.818	73.81
459.038	65.81
459.258	67.81
459.478	74.81
459.698	87.81
459.918	76.81
460.138	73.81
460.358	84.81
460.578	79.81
460.798	77.81
461.018	82.81
461.238	73.81
461.458	77.81
461.678	78.81
461.898	89.81
462.118	74.81
462.338	72.81
462.558	77.81
462.777	70.81
462.997	82.81
463.217	76.81
463.437	82.81
463.657	60.81
463.876	89.81
464.096	77.81
464.316	73.81
464.536	76.81
464.755	78.81
464.975	71.81
465.195	75.81
465.414	86.81
465.634	76.81
465.854	76.81
466.073	90.81
466.293	70.81
466.512	81.81
466.732	75.81
466.951	80.81
467.171	85.81
467.391	69.81
467.61	77.81
467.829	76.81
468.049	71.81
468.268	80.81
468.488	72.81
468.707	70.81
468.927	86.81
469.146	90.81
469.365	77.81
469.585	81.81
469.804	84.81
470.023	76.81
470.243	61.81
470.462	86.81
470.681	84.81
470.901	79.81
471.12	87.81
471.339	64.81
471.558	70.81
471.777	71.81
471.997	83.81
472.216	78.81
472.435	78.81
472.654	82.81
472.873	82.81
473.092	76.81
473.311	81.81
473.53	83.81
473.749	78.81
473.968	75.81
474.187	78.81
474.406	72.81
474.625	68.81
474.844	79.81
475.063	80.81
475.282	73.81
475.501	74.81
475.72	84.81
475.939	66.81
476.158	76.81
476.377	84.81
476.596	77.81
476.814	84.81
477.033	84.81
477.252	84.81
477.471	95.81
477.69	75.81
477.908	82.81
478.127	77.81
478.346	67.81
478.564	80.81
478.783	67.81
479.002	81.81
479.22	89.81
479.439	101.81
479.658	72.81
479.876	76.81
480.095	83.81
480.313	96.81
480.532	84.81
480.751	78.81
480.969	71.81
481.188	85.81
481.406	80.81
481.624	83.81
481.843	89.81
482.061	84.81
482.28	68.81
482.498	85.81
482.717	85.81
482.935	77.81
483.153	70.81
483.372	85.81
483.59	81.81
483.808	75.81
484.027	91.81
484.245	72.81
484.463	94.81
484.681	82.81
484.9	76.81
485.118	82.81
485.336	85.81
485.554	82.81
485.772	76.81
485.99	81.81
486.209	79.81
486.427	80.81
486.645	77.81
486.863	92.81
487.081	66.81
487.299	82.81
487.517	82.81
487.735	73.81
487.953	90.81
488.171	85.81
488.389	81.81
488.607	92.81
488.825	70.81
489.043	78.81
489.261	89.81
489.479	82.81
489.696	79.81
489.914	97.81
490.132	69.81
490.35	77.81
490.568	85.81
490.786	84.81
491.003	85.81
491.221	85.81
491.439	79.81
491.657	84.81
491.874	85.81
492.092	80.81
492.31	90.81
492.527	84.81
492.745	68.81
492.963	83.81
493.18	84.81
493.398	84.81
493.615	69.81
493.833	72.81
494.05	78.81
494.268	90.81
494.485	75.81
494.703	80.81
494.92	67.81
495.138	83.81
495.355	77.81
495.573	80.81
495.79	77.81
496.008	90.81
496.225	79.81
496.442	77.81
496.66	82.81
496.877	76.81
497.094	81.81
497.312	74.81
497.529	74.81
497.746	86.81
497.963	77.81
498.181	73.81
498.398	75.81
498.615	71.81
498.832	84.81
499.049	82.81
499.267	79.81
499.484	70.81
499.701	77.81
499.918	78.81
500.135	86.81
500.352	87.81
500.569	85.81
500.786	81.81
501.003	68.81
501.22	73.81
501.437	83.81
501.654	82.81
501.871	74.81
502.088	81.81
502.305	70.81
502.522	85.81
502.739	73.81
502.956	79.81
503.172	83.81
503.389	86.81
503.606	73.81
503.823	76.81
504.04	74.81
504.256	80.81
504.473	72.81
504.69	72.81
504.907	86.81
505.123	84.81
505.34	78.81
505.557	78.81
505.773	87.81
505.99	80.81
506.207	90.81
506.423	81.81
506.64	77.81
506.856	80.81
507.073	68.81
507.289	74.81
507.506	85.81
507.722	82.81
507.939	68.81
508.155	83.81
508.372	87.81
508.588	87.81
508.805	86.81
509.021	62.81
509.238	77.81
509.454	78.81
509.67	64.81
509.887	85.81
510.103	84.81
510.319	90.81
510.536	91.81
510.752	93.81
510.968	87.81
511.184	84.81
511.401	74.81
511.617	75.81
511.833	82.81
512.049	68.81
512.265	66.81
512.481	78.81
512.698	73.81
512.914	74.81
513.13	77.81
513.346	75.81
513.562	80.81
513.778	94.81
513.994	90.81
514.21	78.81
514.426	82.81
514.642	84.81
514.858	85.81
515.074	77.81
515.29	76.81
515.506	76.81
515.721	78.81
515.937	93.81
516.153	80.81
516.369	83.81
516.585	80.81
516.801	68.81
517.016	86.81
517.232	93.81
517.448	81.81
517.664	88.81
517.879	76.81
518.095	60.81
518.311	79.81
518.527	76.81
518.742	70.81
518.958	72.81
519.173	80.81
519.389	75.81
519.605	82.81
519.82	73.81
520.036	77.81
