Data from Background_1_HRD10591_00088.txt Node
Date: Wed Nov 05 14:39:41 EST 2025
User: Yrep
Spectrometer: HR+D1059
Trigger mode: 1
Integration Time (sec): 1.000000E-1
Scans to average: 1
Electric dark correction enabled: true
Nonlinearity correction enabled: false
Boxcar width: 0
XAxis mode: Wavelengths
Number of Pixels in Spectrum: 2048
>>>>>Begin Spectral Data<<<<<
223.165	-14.75
223.4	-14.75
223.635	-14.75
223.869	-22.75
224.104	-8.75
224.338	-19.75
224.573	-17.75
224.808	-11.75
225.042	-9.75
225.277	-0.75
225.511	-8.75
225.746	4.25
225.98	6.25
226.215	18.25
226.449	13.25
226.683	17.25
226.918	25.25
227.152	30.25
227.387	42.25
227.621	17.25
227.856	53.25
228.09	52.25
228.324	54.25
228.559	61.25
228.793	64.25
229.027	74.25
229.262	67.25
229.496	61.25
229.73	62.25
229.964	72.25
230.199	53.25
230.433	63.25
230.667	81.25
230.901	82.25
231.136	85.25
231.37	76.25
231.604	74.25
231.838	65.25
232.072	77.25
232.306	71.25
232.541	84.25
232.775	85.25
233.009	66.25
233.243	75.25
233.477	91.25
233.711	71.25
233.945	97.25
234.179	84.25
234.413	89.25
234.647	72.25
234.881	73.25
235.115	73.25
235.349	85.25
235.583	78.25
235.817	89.25
236.051	74.25
236.285	83.25
236.519	78.25
236.753	85.25
236.987	70.25
237.221	82.25
237.455	80.25
237.689	87.25
237.922	90.25
238.156	81.25
238.39	75.25
238.624	71.25
238.858	78.25
239.091	79.25
239.325	78.25
239.559	74.25
239.793	80.25
240.027	77.25
240.26	65.25
240.494	77.25
240.728	81.25
240.961	89.25
241.195	80.25
241.429	90.25
241.662	83.25
241.896	81.25
242.13	82.25
242.363	79.25
242.597	69.25
242.83	73.25
243.064	83.25
243.298	95.25
243.531	78.25
243.765	75.25
243.998	75.25
244.232	89.25
244.465	75.25
244.699	82.25
244.932	81.25
245.166	78.25
245.399	79.25
245.633	79.25
245.866	90.25
246.099	78.25
246.333	74.25
246.566	69.25
246.8	83.25
247.033	88.25
247.266	86.25
247.5	85.25
247.733	85.25
247.966	81.25
248.2	69.25
248.433	82.25
248.666	73.25
248.899	68.25
249.133	66.25
249.366	85.25
249.599	83.25
249.832	81.25
250.066	82.25
250.299	87.25
250.532	81.25
250.765	74.25
250.998	80.25
251.231	90.25
251.465	81.25
251.698	84.25
251.931	98.25
252.164	84.25
252.397	77.25
252.63	100.25
252.863	89.25
253.096	81.25
253.329	82.25
253.562	85.25
253.795	75.25
254.028	74.25
254.261	84.25
254.494	97.25
254.727	70.25
254.96	83.25
255.193	71.25
255.426	82.25
255.659	85.25
255.892	77.25
256.124	74.25
256.357	63.25
256.59	80.25
256.823	87.25
257.056	71.25
257.289	79.25
257.521	80.25
257.754	87.25
257.987	90.25
258.22	99.25
258.452	73.25
258.685	77.25
258.918	77.25
259.151	86.25
259.383	81.25
259.616	76.25
259.849	86.25
260.081	76.25
260.314	83.25
260.547	93.25
260.779	90.25
261.012	97.25
261.244	81.25
261.477	90.25
261.71	91.25
261.942	91.25
262.175	87.25
262.407	76.25
262.64	80.25
262.872	86.25
263.105	89.25
263.337	87.25
263.57	92.25
263.802	81.25
264.035	77.25
264.267	87.25
264.499	69.25
264.732	75.25
264.964	71.25
265.197	89.25
265.429	76.25
265.661	77.25
265.894	96.25
266.126	87.25
266.358	70.25
266.591	97.25
266.823	92.25
267.055	86.25
267.287	77.25
267.52	81.25
267.752	80.25
267.984	87.25
268.216	67.25
268.448	85.25
268.681	95.25
268.913	91.25
269.145	69.25
269.377	86.25
269.609	72.25
269.841	78.25
270.073	90.25
270.306	96.25
270.538	94.25
270.77	79.25
271.002	96.25
271.234	93.25
271.466	89.25
271.698	78.25
271.93	83.25
272.162	81.25
272.394	86.25
272.626	86.25
272.858	75.25
273.09	82.25
273.322	51.25
273.553	66.25
273.785	68.25
274.017	81.25
274.249	77.25
274.481	86.25
274.713	91.25
274.945	83.25
275.176	81.25
275.408	90.25
275.64	79.25
275.872	90.25
276.104	75.25
276.335	87.25
276.567	99.25
276.799	66.25
277.031	91.25
277.262	91.25
277.494	90.25
277.726	87.25
277.957	78.25
278.189	88.25
278.421	77.25
278.652	80.25
278.884	91.25
279.115	93.25
279.347	89.25
279.579	87.25
279.81	85.25
280.042	92.25
280.273	93.25
280.505	90.25
280.736	82.25
280.968	85.25
281.199	93.25
281.431	82.25
281.662	77.25
281.894	88.25
282.125	77.25
282.356	88.25
282.588	94.25
282.819	86.25
283.051	82.25
283.282	79.25
283.513	89.25
283.745	103.25
283.976	97.25
284.207	81.25
284.439	87.25
284.67	92.25
284.901	85.25
285.132	77.25
285.364	81.25
285.595	92.25
285.826	83.25
286.057	93.25
286.288	84.25
286.52	86.25
286.751	74.25
286.982	86.25
287.213	81.25
287.444	97.25
287.675	75.25
287.906	80.25
288.138	90.25
288.369	85.25
288.6	77.25
288.831	89.25
289.062	89.25
289.293	72.25
289.524	81.25
289.755	71.25
289.986	90.25
290.217	87.25
290.448	71.25
290.679	86.25
290.91	107.25
291.141	75.25
291.371	82.25
291.602	97.25
291.833	80.25
292.064	82.25
292.295	86.25
292.526	83.25
292.757	86.25
292.987	80.25
293.218	77.25
293.449	84.25
293.68	87.25
293.91	86.25
294.141	86.25
294.372	84.25
294.603	86.25
294.833	87.25
295.064	74.25
295.295	82.25
295.525	96.25
295.756	94.25
295.987	87.25
296.217	82.25
296.448	87.25
296.679	99.25
296.909	84.25
297.14	75.25
297.37	83.25
297.601	82.25
297.831	77.25
298.062	87.25
298.292	82.25
298.523	74.25
298.753	78.25
298.984	92.25
299.214	84.25
299.445	86.25
299.675	89.25
299.905	86.25
300.136	79.25
300.366	86.25
300.597	102.25
300.827	92.25
301.057	103.25
301.288	79.25
301.518	79.25
301.748	80.25
301.979	95.25
302.209	90.25
302.439	88.25
302.669	94.25
302.9	73.25
303.13	89.25
303.36	78.25
303.59	72.25
303.82	70.25
304.051	92.25
304.281	83.25
304.511	87.25
304.741	92.25
304.971	93.25
305.201	97.25
305.431	69.25
305.661	82.25
305.891	79.25
306.121	91.25
306.352	89.25
306.582	85.25
306.812	94.25
307.042	86.25
307.272	75.25
307.502	69.25
307.731	74.25
307.961	72.25
308.191	93.25
308.421	82.25
308.651	93.25
308.881	89.25
309.111	81.25
309.341	84.25
309.571	89.25
309.8	59.25
310.03	96.25
310.26	95.25
310.49	90.25
310.72	111.25
310.949	82.25
311.179	83.25
311.409	86.25
311.639	77.25
311.868	81.25
312.098	92.25
312.328	85.25
312.557	98.25
312.787	93.25
313.017	92.25
313.246	85.25
313.476	78.25
313.706	77.25
313.935	79.25
314.165	82.25
314.394	88.25
314.624	86.25
314.853	86.25
315.083	105.25
315.312	78.25
315.542	78.25
315.771	96.25
316.001	86.25
316.23	83.25
316.46	83.25
316.689	82.25
316.919	92.25
317.148	81.25
317.377	73.25
317.607	78.25
317.836	77.25
318.065	89.25
318.295	80.25
318.524	86.25
318.753	92.25
318.983	69.25
319.212	84.25
319.441	93.25
319.67	88.25
319.9	90.25
320.129	86.25
320.358	85.25
320.587	77.25
320.816	90.25
321.046	73.25
321.275	91.25
321.504	91.25
321.733	71.25
321.962	90.25
322.191	70.25
322.42	83.25
322.649	90.25
322.878	77.25
323.108	75.25
323.337	92.25
323.566	59.25
323.795	83.25
324.024	75.25
324.253	77.25
324.482	89.25
324.71	99.25
324.939	91.25
325.168	94.25
325.397	83.25
325.626	89.25
325.855	105.25
326.084	78.25
326.313	93.25
326.542	89.25
326.77	76.25
326.999	85.25
327.228	77.25
327.457	89.25
327.686	72.25
327.914	86.25
328.143	99.25
328.372	85.25
328.6	89.25
328.829	79.25
329.058	84.25
329.287	87.25
329.515	104.25
329.744	93.25
329.972	86.25
330.201	86.25
330.43	79.25
330.658	74.25
330.887	82.25
331.115	90.25
331.344	93.25
331.572	89.25
331.801	90.25
332.03	83.25
332.258	68.25
332.486	94.25
332.715	80.25
332.943	86.25
333.172	85.25
333.4	92.25
333.629	94.25
333.857	95.25
334.085	91.25
334.314	90.25
334.542	89.25
334.771	72.25
334.999	96.25
335.227	87.25
335.455	93.25
335.684	97.25
335.912	90.25
336.14	90.25
336.369	84.25
336.597	83.25
336.825	82.25
337.053	96.25
337.281	80.25
337.51	97.25
337.738	88.25
337.966	80.25
338.194	74.25
338.422	82.25
338.65	82.25
338.878	78.25
339.106	68.25
339.334	95.25
339.562	89.25
339.79	83.25
340.018	81.25
340.246	85.25
340.474	87.25
340.702	79.25
340.93	80.25
341.158	90.25
341.386	90.25
341.614	92.25
341.842	84.25
342.07	79.25
342.298	95.25
342.526	77.25
342.754	90.25
342.981	83.25
343.209	88.25
343.437	93.25
343.665	78.25
343.893	75.25
344.12	63.25
344.348	82.25
344.576	82.25
344.804	78.25
345.031	81.25
345.259	96.25
345.487	77.25
345.714	92.25
345.942	89.25
346.17	79.25
346.397	68.25
346.625	83.25
346.853	83.25
347.08	88.25
347.308	78.25
347.535	85.25
347.763	85.25
347.99	80.25
348.218	67.25
348.445	87.25
348.673	86.25
348.9	82.25
349.128	83.25
349.355	89.25
349.583	76.25
349.81	94.25
350.037	94.25
350.265	85.25
350.492	81.25
350.72	73.25
350.947	96.25
351.174	84.25
351.402	90.25
351.629	82.25
351.856	89.25
352.083	80.25
352.311	83.25
352.538	76.25
352.765	100.25
352.992	89.25
353.22	90.25
353.447	83.25
353.674	83.25
353.901	89.25
354.128	77.25
354.355	76.25
354.583	90.25
354.81	83.25
355.037	88.25
355.264	77.25
355.491	92.25
355.718	89.25
355.945	91.25
356.172	89.25
356.399	79.25
356.626	83.25
356.853	75.25
357.08	92.25
357.307	95.25
357.534	97.25
357.761	82.25
357.988	92.25
358.215	94.25
358.441	94.25
358.668	86.25
358.895	76.25
359.122	77.25
359.349	89.25
359.576	95.25
359.802	86.25
360.029	79.25
360.256	109.25
360.483	71.25
360.709	77.25
360.936	91.25
361.163	82.25
361.39	84.25
361.616	82.25
361.843	82.25
362.07	88.25
362.296	103.25
362.523	82.25
362.749	87.25
362.976	78.25
363.203	92.25
363.429	89.25
363.656	94.25
363.882	85.25
364.109	89.25
364.335	89.25
364.562	82.25
364.788	76.25
365.015	91.25
365.241	95.25
365.468	86.25
365.694	89.25
365.92	93.25
366.147	83.25
366.373	84.25
366.599	81.25
366.826	85.25
367.052	97.25
367.278	85.25
367.505	67.25
367.731	96.25
367.957	77.25
368.184	83.25
368.41	83.25
368.636	81.25
368.862	88.25
369.089	79.25
369.315	87.25
369.541	92.25
369.767	90.25
369.993	73.25
370.219	87.25
370.445	76.25
370.672	87.25
370.898	77.25
371.124	79.25
371.35	84.25
371.576	89.25
371.802	87.25
372.028	96.25
372.254	87.25
372.48	93.25
372.706	72.25
372.932	92.25
373.158	83.25
373.384	75.25
373.61	92.25
373.835	93.25
374.061	86.25
374.287	93.25
374.513	98.25
374.739	87.25
374.965	82.25
375.191	86.25
375.416	89.25
375.642	98.25
375.868	95.25
376.094	75.25
376.319	94.25
376.545	83.25
376.771	79.25
376.997	84.25
377.222	89.25
377.448	77.25
377.674	86.25
377.899	90.25
378.125	83.25
378.35	93.25
378.576	92.25
378.802	92.25
379.027	85.25
379.253	77.25
379.478	68.25
379.704	79.25
379.929	94.25
380.155	85.25
380.38	79.25
380.606	93.25
380.831	83.25
381.057	95.25
381.282	79.25
381.507	104.25
381.733	91.25
381.958	100.25
382.184	81.25
382.409	82.25
382.634	86.25
382.86	92.25
383.085	91.25
383.31	84.25
383.535	96.25
383.761	71.25
383.986	97.25
384.211	79.25
384.436	80.25
384.662	80.25
384.887	85.25
385.112	72.25
385.337	83.25
385.562	84.25
385.787	78.25
386.013	91.25
386.238	77.25
386.463	86.25
386.688	86.25
386.913	86.25
387.138	95.25
387.363	81.25
387.588	87.25
387.813	85.25
388.038	82.25
388.263	84.25
388.488	84.25
388.713	77.25
388.938	73.25
389.163	85.25
389.387	90.25
389.612	75.25
389.837	70.25
390.062	107.25
390.287	81.25
390.512	89.25
390.736	83.25
390.961	84.25
391.186	88.25
391.411	66.25
391.636	72.25
391.86	79.25
392.085	90.25
392.31	83.25
392.534	93.25
392.759	93.25
392.984	92.25
393.208	83.25
393.433	93.25
393.658	89.25
393.882	89.25
394.107	81.25
394.331	75.25
394.556	87.25
394.78	102.25
395.005	83.25
395.229	86.25
395.454	85.25
395.678	97.25
395.903	80.25
396.127	89.25
396.352	83.25
396.576	87.25
396.801	94.25
397.025	64.25
397.249	81.25
397.474	86.25
397.698	77.25
397.922	95.25
398.147	83.25
398.371	71.25
398.595	91.25
398.82	93.25
399.044	76.25
399.268	87.25
399.492	84.25
399.717	91.25
399.941	85.25
400.165	74.25
400.389	71.25
400.613	90.25
400.837	89.25
401.062	83.25
401.286	77.25
401.51	90.25
401.734	86.25
401.958	77.25
402.182	94.25
402.406	90.25
402.63	99.25
402.854	78.25
403.078	79.25
403.302	91.25
403.526	94.25
403.75	92.25
403.974	85.25
404.198	81.25
404.422	86.25
404.645	89.25
404.869	85.25
405.093	57.25
405.317	86.25
405.541	91.25
405.765	90.25
405.988	93.25
406.212	90.25
406.436	78.25
406.66	83.25
406.883	97.25
407.107	63.25
407.331	81.25
407.555	87.25
407.778	78.25
408.002	74.25
408.226	86.25
408.449	91.25
408.673	86.25
408.896	82.25
409.12	81.25
409.344	84.25
409.567	94.25
409.791	82.25
410.014	85.25
410.238	87.25
410.461	76.25
410.685	85.25
410.908	81.25
411.132	96.25
411.355	82.25
411.578	86.25
411.802	93.25
412.025	91.25
412.249	92.25
412.472	79.25
412.695	87.25
412.919	95.25
413.142	76.25
413.365	87.25
413.589	89.25
413.812	90.25
414.035	94.25
414.258	93.25
414.482	93.25
414.705	71.25
414.928	72.25
415.151	81.25
415.374	85.25
415.597	87.25
415.821	76.25
416.044	68.25
416.267	89.25
416.49	93.25
416.713	92.25
416.936	74.25
417.159	85.25
417.382	93.25
417.605	97.25
417.828	83.25
418.051	91.25
418.274	84.25
418.497	89.25
418.72	95.25
418.943	98.25
419.166	85.25
419.389	81.25
419.611	94.25
419.834	89.25
420.057	76.25
420.28	82.25
420.503	80.25
420.726	89.25
420.948	76.25
421.171	72.25
421.394	64.25
421.617	89.25
421.839	93.25
422.062	84.25
422.285	88.25
422.507	77.25
422.73	75.25
422.953	93.25
423.175	89.25
423.398	79.25
423.621	88.25
423.843	83.25
424.066	71.25
424.288	89.25
424.511	91.25
424.733	85.25
424.956	82.25
425.178	77.25
425.401	86.25
425.623	88.25
425.846	84.25
426.068	82.25
426.291	106.25
426.513	85.25
426.735	81.25
426.958	86.25
427.18	87.25
427.402	61.25
427.625	77.25
427.847	87.25
428.069	86.25
428.292	93.25
428.514	78.25
428.736	75.25
428.958	88.25
429.181	90.25
429.403	78.25
429.625	84.25
429.847	82.25
430.069	84.25
430.292	73.25
430.514	75.25
430.736	74.25
430.958	71.25
431.18	77.25
431.402	78.25
431.624	82.25
431.846	71.25
432.068	81.25
432.29	94.25
432.512	85.25
432.734	87.25
432.956	89.25
433.178	86.25
433.4	69.25
433.622	76.25
433.844	77.25
434.066	89.25
434.287	69.25
434.509	90.25
434.731	101.25
434.953	85.25
435.175	74.25
435.397	84.25
435.618	79.25
435.84	81.25
436.062	82.25
436.284	81.25
436.505	82.25
436.727	77.25
436.949	77.25
437.17	92.25
437.392	83.25
437.614	75.25
437.835	91.25
438.057	92.25
438.278	88.25
438.5	96.25
438.721	84.25
438.943	93.25
439.165	73.25
439.386	81.25
439.608	92.25
439.829	87.25
440.05	89.25
440.272	86.25
440.493	89.25
440.715	81.25
440.936	93.25
441.158	67.25
441.379	87.25
441.6	89.25
441.822	70.25
442.043	73.25
442.264	83.25
442.486	87.25
442.707	80.25
442.928	85.25
443.149	76.25
443.371	70.25
443.592	89.25
443.813	70.25
444.034	96.25
444.255	94.25
444.476	89.25
444.698	91.25
444.919	69.25
445.14	156.25
445.361	114.25
445.582	86.25
445.803	82.25
446.024	98.25
446.245	76.25
446.466	85.25
446.687	85.25
446.908	94.25
447.129	92.25
447.35	109.25
447.571	105.25
447.792	83.25
448.013	90.25
448.234	81.25
448.455	84.25
448.675	85.25
448.896	78.25
449.117	84.25
449.338	96.25
449.559	83.25
449.779	80.25
450	77.25
450.221	72.25
450.442	70.25
450.662	90.25
450.883	85.25
451.104	76.25
451.324	82.25
451.545	89.25
451.766	79.25
451.986	85.25
452.207	80.25
452.428	86.25
452.648	94.25
452.869	100.25
453.089	81.25
453.31	81.25
453.53	86.25
453.751	90.25
453.971	86.25
454.192	84.25
454.412	87.25
454.633	86.25
454.853	83.25
455.073	83.25
455.294	75.25
455.514	81.25
455.734	92.25
455.955	89.25
456.175	79.25
456.395	66.25
456.616	82.25
456.836	89.25
457.056	73.25
457.276	80.25
457.497	83.25
457.717	84.25
457.937	88.25
458.157	73.25
458.377	87.25
458.598	90.25
458.818	80.25
459.038	79.25
459.258	86.25
459.478	78.25
459.698	68.25
459.918	70.25
460.138	84.25
460.358	85.25
460.578	90.25
460.798	90.25
461.018	61.25
461.238	79.25
461.458	90.25
461.678	91.25
461.898	85.25
462.118	87.25
462.338	90.25
462.558	90.25
462.777	86.25
462.997	81.25
463.217	90.25
463.437	73.25
463.657	68.25
463.876	94.25
464.096	76.25
464.316	83.25
464.536	66.25
464.755	74.25
464.975	78.25
465.195	84.25
465.414	89.25
465.634	91.25
465.854	83.25
466.073	86.25
466.293	84.25
466.512	87.25
466.732	77.25
466.951	62.25
467.171	84.25
467.391	83.25
467.61	87.25
467.829	92.25
468.049	89.25
468.268	80.25
468.488	75.25
468.707	84.25
468.927	75.25
469.146	83.25
469.365	79.25
469.585	79.25
469.804	74.25
470.023	78.25
470.243	77.25
470.462	83.25
470.681	91.25
470.901	79.25
471.12	74.25
471.339	83.25
471.558	90.25
471.777	91.25
471.997	90.25
472.216	81.25
472.435	94.25
472.654	89.25
472.873	87.25
473.092	85.25
473.311	80.25
473.53	90.25
473.749	85.25
473.968	80.25
474.187	68.25
474.406	88.25
474.625	69.25
474.844	76.25
475.063	84.25
475.282	96.25
475.501	70.25
475.72	100.25
475.939	81.25
476.158	80.25
476.377	89.25
476.596	81.25
476.814	65.25
477.033	85.25
477.252	88.25
477.471	94.25
477.69	80.25
477.908	102.25
478.127	90.25
478.346	83.25
478.564	85.25
478.783	76.25
479.002	81.25
479.22	83.25
479.439	80.25
479.658	95.25
479.876	93.25
480.095	76.25
480.313	91.25
480.532	91.25
480.751	89.25
480.969	87.25
481.188	74.25
481.406	83.25
481.624	73.25
481.843	81.25
482.061	93.25
482.28	90.25
482.498	91.25
482.717	95.25
482.935	88.25
483.153	81.25
483.372	83.25
483.59	91.25
483.808	86.25
484.027	81.25
484.245	73.25
484.463	78.25
484.681	84.25
484.9	71.25
485.118	85.25
485.336	75.25
485.554	85.25
485.772	79.25
485.99	89.25
486.209	90.25
486.427	76.25
486.645	87.25
486.863	77.25
487.081	77.25
487.299	83.25
487.517	94.25
487.735	79.25
487.953	89.25
488.171	84.25
488.389	89.25
488.607	79.25
488.825	95.25
489.043	86.25
489.261	84.25
489.479	84.25
489.696	102.25
489.914	74.25
490.132	92.25
490.35	74.25
490.568	77.25
490.786	94.25
491.003	79.25
491.221	84.25
491.439	91.25
491.657	89.25
491.874	93.25
492.092	74.25
492.31	86.25
492.527	83.25
492.745	92.25
492.963	84.25
493.18	91.25
493.398	89.25
493.615	87.25
493.833	79.25
494.05	93.25
494.268	93.25
494.485	82.25
494.703	81.25
494.92	73.25
495.138	95.25
495.355	84.25
495.573	85.25
495.79	75.25
496.008	84.25
496.225	90.25
496.442	72.25
496.66	80.25
496.877	82.25
497.094	91.25
497.312	82.25
497.529	85.25
497.746	92.25
497.963	65.25
498.181	76.25
498.398	92.25
498.615	86.25
498.832	80.25
499.049	93.25
499.267	98.25
499.484	79.25
499.701	92.25
499.918	90.25
500.135	85.25
500.352	75.25
500.569	78.25
500.786	94.25
501.003	92.25
501.22	81.25
501.437	91.25
501.654	86.25
501.871	82.25
502.088	87.25
502.305	83.25
502.522	86.25
502.739	84.25
502.956	78.25
503.172	83.25
503.389	84.25
503.606	83.25
503.823	103.25
504.04	78.25
504.256	75.25
504.473	89.25
504.69	87.25
504.907	98.25
505.123	98.25
505.34	87.25
505.557	74.25
505.773	83.25
505.99	91.25
506.207	78.25
506.423	75.25
506.64	90.25
506.856	78.25
507.073	75.25
507.289	87.25
507.506	84.25
507.722	98.25
507.939	107.25
508.155	77.25
508.372	80.25
508.588	82.25
508.805	79.25
509.021	77.25
509.238	79.25
509.454	85.25
509.67	91.25
509.887	91.25
510.103	91.25
510.319	81.25
510.536	84.25
510.752	84.25
510.968	70.25
511.184	86.25
511.401	75.25
511.617	91.25
511.833	82.25
512.049	76.25
512.265	81.25
512.481	74.25
512.698	87.25
512.914	83.25
513.13	79.25
513.346	68.25
513.562	85.25
513.778	75.25
513.994	85.25
514.21	91.25
514.426	92.25
514.642	72.25
514.858	83.25
515.074	87.25
515.29	83.25
515.506	87.25
515.721	85.25
515.937	82.25
516.153	77.25
516.369	79.25
516.585	88.25
516.801	71.25
517.016	92.25
517.232	89.25
517.448	100.25
517.664	75.25
517.879	78.25
518.095	77.25
518.311	72.25
518.527	98.25
518.742	80.25
518.958	77.25
519.173	87.25
519.389	69.25
519.605	90.25
519.82	66.25
