Data from Background_1_HRD10591_00075.txt Node
Date: Wed Nov 05 14:39:35 EST 2025
User: Yrep
Spectrometer: HR+D1059
Trigger mode: 1
Integration Time (sec): 1.000000E-1
Scans to average: 1
Electric dark correction enabled: true
Nonlinearity correction enabled: false
Boxcar width: 0
XAxis mode: Wavelengths
Number of Pixels in Spectrum: 2048
>>>>>Begin Spectral Data<<<<<
223.165	-8
223.4	-8
223.635	-8
223.869	-18
224.104	-30
224.338	-14
224.573	-8
224.808	-15
225.042	-12
225.277	-7
225.511	7
225.746	19
225.98	-4
226.215	0
226.449	20
226.683	15
226.918	31
227.152	24
227.387	26
227.621	48
227.856	47
228.09	47
228.324	52
228.559	50
228.793	45
229.027	62
229.262	67
229.496	59
229.73	56
229.964	75
230.199	60
230.433	69
230.667	80
230.901	71
231.136	78
231.37	74
231.604	84
231.838	71
232.072	71
232.306	84
232.541	100
232.775	80
233.009	80
233.243	67
233.477	73
233.711	58
233.945	98
234.179	87
234.413	82
234.647	87
234.881	94
235.115	74
235.349	86
235.583	81
235.817	71
236.051	77
236.285	71
236.519	72
236.753	80
236.987	67
237.221	76
237.455	74
237.689	68
237.922	70
238.156	70
238.39	75
238.624	72
238.858	75
239.091	68
239.325	68
239.559	82
239.793	73
240.027	75
240.26	78
240.494	68
240.728	70
240.961	74
241.195	87
241.429	64
241.662	69
241.896	72
242.13	58
242.363	73
242.597	53
242.83	82
243.064	78
243.298	72
243.531	78
243.765	74
243.998	64
244.232	68
244.465	80
244.699	79
244.932	77
245.166	76
245.399	80
245.633	74
245.866	77
246.099	90
246.333	67
246.566	85
246.8	62
247.033	78
247.266	64
247.5	66
247.733	65
247.966	79
248.2	83
248.433	74
248.666	75
248.899	72
249.133	78
249.366	86
249.599	72
249.832	86
250.066	66
250.299	74
250.532	71
250.765	75
250.998	93
251.231	73
251.465	80
251.698	76
251.931	59
252.164	76
252.397	65
252.63	80
252.863	84
253.096	88
253.329	91
253.562	87
253.795	92
254.028	90
254.261	88
254.494	79
254.727	80
254.96	77
255.193	82
255.426	78
255.659	71
255.892	88
256.124	74
256.357	71
256.59	79
256.823	81
257.056	65
257.289	84
257.521	79
257.754	71
257.987	87
258.22	79
258.452	87
258.685	80
258.918	82
259.151	67
259.383	83
259.616	72
259.849	79
260.081	80
260.314	69
260.547	80
260.779	72
261.012	78
261.244	86
261.477	79
261.71	76
261.942	71
262.175	95
262.407	78
262.64	77
262.872	75
263.105	94
263.337	74
263.57	78
263.802	68
264.035	90
264.267	68
264.499	74
264.732	89
264.964	88
265.197	84
265.429	78
265.661	80
265.894	78
266.126	83
266.358	68
266.591	79
266.823	79
267.055	77
267.287	71
267.52	92
267.752	87
267.984	81
268.216	80
268.448	80
268.681	84
268.913	77
269.145	73
269.377	78
269.609	78
269.841	82
270.073	100
270.306	90
270.538	78
270.77	88
271.002	72
271.234	90
271.466	84
271.698	91
271.93	76
272.162	84
272.394	70
272.626	82
272.858	78
273.09	73
273.322	74
273.553	83
273.785	80
274.017	74
274.249	71
274.481	74
274.713	84
274.945	76
275.176	80
275.408	89
275.64	92
275.872	80
276.104	73
276.335	82
276.567	77
276.799	86
277.031	91
277.262	78
277.494	77
277.726	81
277.957	80
278.189	91
278.421	74
278.652	86
278.884	73
279.115	73
279.347	81
279.579	82
279.81	82
280.042	80
280.273	85
280.505	91
280.736	89
280.968	63
281.199	74
281.431	76
281.662	79
281.894	95
282.125	82
282.356	75
282.588	88
282.819	76
283.051	93
283.282	80
283.513	88
283.745	76
283.976	96
284.207	87
284.439	80
284.67	97
284.901	88
285.132	84
285.364	72
285.595	77
285.826	84
286.057	95
286.288	79
286.52	83
286.751	86
286.982	76
287.213	86
287.444	76
287.675	82
287.906	73
288.138	67
288.369	81
288.6	97
288.831	79
289.062	94
289.293	81
289.524	90
289.755	73
289.986	82
290.217	72
290.448	95
290.679	100
290.91	82
291.141	86
291.371	97
291.602	86
291.833	80
292.064	76
292.295	65
292.526	79
292.757	100
292.987	74
293.218	83
293.449	79
293.68	82
293.91	80
294.141	90
294.372	85
294.603	78
294.833	90
295.064	74
295.295	83
295.525	82
295.756	96
295.987	82
296.217	94
296.448	76
296.679	93
296.909	92
297.14	89
297.37	82
297.601	83
297.831	80
298.062	101
298.292	88
298.523	78
298.753	96
298.984	88
299.214	78
299.445	92
299.675	74
299.905	73
300.136	83
300.366	97
300.597	76
300.827	84
301.057	83
301.288	94
301.518	81
301.748	76
301.979	86
302.209	85
302.439	103
302.669	91
302.9	83
303.13	75
303.36	68
303.59	89
303.82	83
304.051	91
304.281	79
304.511	98
304.741	78
304.971	91
305.201	99
305.431	98
305.661	81
305.891	78
306.121	92
306.352	95
306.582	85
306.812	80
307.042	70
307.272	78
307.502	67
307.731	87
307.961	95
308.191	80
308.421	90
308.651	85
308.881	76
309.111	74
309.341	91
309.571	80
309.8	87
310.03	79
310.26	84
310.49	86
310.72	78
310.949	86
311.179	69
311.409	88
311.639	84
311.868	98
312.098	73
312.328	85
312.557	82
312.787	82
313.017	80
313.246	88
313.476	78
313.706	77
313.935	90
314.165	95
314.394	83
314.624	82
314.853	104
315.083	88
315.312	71
315.542	95
315.771	79
316.001	81
316.23	94
316.46	90
316.689	80
316.919	78
317.148	76
317.377	80
317.607	85
317.836	96
318.065	87
318.295	76
318.524	67
318.753	80
318.983	89
319.212	89
319.441	86
319.67	90
319.9	89
320.129	84
320.358	90
320.587	77
320.816	88
321.046	80
321.275	80
321.504	84
321.733	95
321.962	92
322.191	89
322.42	88
322.649	94
322.878	79
323.108	72
323.337	79
323.566	90
323.795	81
324.024	81
324.253	83
324.482	88
324.71	85
324.939	91
325.168	86
325.397	84
325.626	88
325.855	100
326.084	105
326.313	84
326.542	81
326.77	72
326.999	92
327.228	83
327.457	91
327.686	87
327.914	81
328.143	92
328.372	90
328.6	88
328.829	88
329.058	90
329.287	79
329.515	76
329.744	90
329.972	87
330.201	80
330.43	88
330.658	84
330.887	82
331.115	73
331.344	82
331.572	72
331.801	86
332.03	94
332.258	63
332.486	89
332.715	84
332.943	78
333.172	97
333.4	82
333.629	76
333.857	84
334.085	97
334.314	90
334.542	88
334.771	72
334.999	66
335.227	71
335.455	78
335.684	90
335.912	88
336.14	89
336.369	87
336.597	87
336.825	85
337.053	73
337.281	87
337.51	71
337.738	88
337.966	97
338.194	86
338.422	79
338.65	89
338.878	84
339.106	76
339.334	82
339.562	84
339.79	103
340.018	76
340.246	73
340.474	82
340.702	72
340.93	79
341.158	86
341.386	86
341.614	87
341.842	99
342.07	82
342.298	80
342.526	94
342.754	94
342.981	98
343.209	73
343.437	93
343.665	89
343.893	75
344.12	97
344.348	67
344.576	63
344.804	86
345.031	86
345.259	87
345.487	92
345.714	81
345.942	80
346.17	96
346.397	91
346.625	84
346.853	104
347.08	85
347.308	80
347.535	85
347.763	80
347.99	78
348.218	80
348.445	86
348.673	71
348.9	82
349.128	82
349.355	95
349.583	88
349.81	86
350.037	80
350.265	88
350.492	79
350.72	86
350.947	92
351.174	95
351.402	84
351.629	94
351.856	87
352.083	80
352.311	74
352.538	76
352.765	82
352.992	97
353.22	88
353.447	84
353.674	90
353.901	91
354.128	83
354.355	77
354.583	84
354.81	86
355.037	78
355.264	80
355.491	87
355.718	90
355.945	92
356.172	70
356.399	95
356.626	79
356.853	80
357.08	83
357.307	79
357.534	86
357.761	80
357.988	87
358.215	79
358.441	88
358.668	77
358.895	87
359.122	79
359.349	64
359.576	92
359.802	74
360.029	86
360.256	76
360.483	81
360.709	94
360.936	74
361.163	82
361.39	80
361.616	86
361.843	77
362.07	78
362.296	78
362.523	87
362.749	75
362.976	98
363.203	79
363.429	76
363.656	77
363.882	77
364.109	95
364.335	74
364.562	76
364.788	86
365.015	82
365.241	80
365.468	72
365.694	83
365.92	91
366.147	86
366.373	86
366.599	77
366.826	88
367.052	88
367.278	83
367.505	89
367.731	78
367.957	79
368.184	80
368.41	95
368.636	67
368.862	73
369.089	76
369.315	89
369.541	78
369.767	67
369.993	83
370.219	98
370.445	86
370.672	83
370.898	82
371.124	82
371.35	83
371.576	84
371.802	70
372.028	80
372.254	83
372.48	81
372.706	83
372.932	79
373.158	77
373.384	91
373.61	92
373.835	88
374.061	84
374.287	86
374.513	87
374.739	95
374.965	86
375.191	90
375.416	83
375.642	90
375.868	91
376.094	84
376.319	77
376.545	80
376.771	72
376.997	87
377.222	85
377.448	78
377.674	96
377.899	72
378.125	80
378.35	75
378.576	89
378.802	81
379.027	92
379.253	77
379.478	78
379.704	84
379.929	92
380.155	75
380.38	81
380.606	84
380.831	81
381.057	88
381.282	71
381.507	82
381.733	76
381.958	73
382.184	80
382.409	74
382.634	83
382.86	96
383.085	79
383.31	105
383.535	94
383.761	76
383.986	72
384.211	77
384.436	73
384.662	79
384.887	80
385.112	82
385.337	79
385.562	73
385.787	69
386.013	80
386.238	84
386.463	90
386.688	62
386.913	87
387.138	78
387.363	83
387.588	94
387.813	82
388.038	73
388.263	76
388.488	88
388.713	84
388.938	89
389.163	73
389.387	74
389.612	92
389.837	83
390.062	68
390.287	85
390.512	86
390.736	82
390.961	76
391.186	93
391.411	83
391.636	83
391.86	74
392.085	80
392.31	76
392.534	86
392.759	89
392.984	82
393.208	81
393.433	96
393.658	83
393.882	88
394.107	92
394.331	89
394.556	74
394.78	94
395.005	93
395.229	74
395.454	74
395.678	78
395.903	89
396.127	70
396.352	78
396.576	73
396.801	88
397.025	79
397.249	91
397.474	87
397.698	84
397.922	73
398.147	72
398.371	78
398.595	80
398.82	78
399.044	91
399.268	63
399.492	83
399.717	77
399.941	75
400.165	92
400.389	84
400.613	71
400.837	98
401.062	89
401.286	79
401.51	89
401.734	85
401.958	68
402.182	75
402.406	79
402.63	90
402.854	83
403.078	79
403.302	80
403.526	89
403.75	89
403.974	83
404.198	86
404.422	79
404.645	77
404.869	79
405.093	77
405.317	91
405.541	85
405.765	83
405.988	74
406.212	87
406.436	71
406.66	85
406.883	82
407.107	75
407.331	78
407.555	63
407.778	81
408.002	73
408.226	56
408.449	82
408.673	79
408.896	86
409.12	89
409.344	92
409.567	77
409.791	82
410.014	81
410.238	74
410.461	72
410.685	88
410.908	90
411.132	93
411.355	85
411.578	98
411.802	83
412.025	88
412.249	80
412.472	89
412.695	75
412.919	83
413.142	84
413.365	82
413.589	72
413.812	86
414.035	90
414.258	87
414.482	95
414.705	66
414.928	76
415.151	95
415.374	75
415.597	86
415.821	76
416.044	91
416.267	87
416.49	79
416.713	78
416.936	80
417.159	80
417.382	85
417.605	77
417.828	74
418.051	94
418.274	87
418.497	81
418.72	69
418.943	77
419.166	74
419.389	92
419.611	75
419.834	64
420.057	76
420.28	86
420.503	76
420.726	74
420.948	77
421.171	87
421.394	81
421.617	78
421.839	80
422.062	85
422.285	72
422.507	94
422.73	76
422.953	65
423.175	83
423.398	76
423.621	77
423.843	77
424.066	63
424.288	76
424.511	70
424.733	67
424.956	77
425.178	72
425.401	75
425.623	86
425.846	76
426.068	99
426.291	91
426.513	97
426.735	90
426.958	73
427.18	78
427.402	87
427.625	88
427.847	90
428.069	77
428.292	66
428.514	91
428.736	74
428.958	78
429.181	82
429.403	95
429.625	87
429.847	84
430.069	82
430.292	70
430.514	72
430.736	79
430.958	73
431.18	88
431.402	81
431.624	78
431.846	84
432.068	88
432.29	79
432.512	77
432.734	78
432.956	82
433.178	87
433.4	78
433.622	84
433.844	72
434.066	81
434.287	89
434.509	89
434.731	78
434.953	68
435.175	71
435.397	97
435.618	99
435.84	88
436.062	74
436.284	64
436.505	79
436.727	84
436.949	78
437.17	86
437.392	94
437.614	74
437.835	86
438.057	70
438.278	81
438.5	85
438.721	76
438.943	90
439.165	102
439.386	79
439.608	83
439.829	82
440.05	81
440.272	78
440.493	69
440.715	68
440.936	82
441.158	86
441.379	73
441.6	74
441.822	84
442.043	92
442.264	97
442.486	79
442.707	80
442.928	76
443.149	83
443.371	81
443.592	72
443.813	68
444.034	74
444.255	81
444.476	73
444.698	76
444.919	81
445.14	172
445.361	111
445.582	88
445.803	81
446.024	76
446.245	67
446.466	87
446.687	82
446.908	84
447.129	77
447.35	78
447.571	60
447.792	83
448.013	91
448.234	93
448.455	78
448.675	78
448.896	78
449.117	90
449.338	90
449.559	72
449.779	88
450	74
450.221	67
450.442	76
450.662	80
450.883	74
451.104	94
451.324	74
451.545	83
451.766	84
451.986	87
452.207	87
452.428	84
452.648	81
452.869	82
453.089	97
453.31	81
453.53	83
453.751	88
453.971	91
454.192	77
454.412	75
454.633	91
454.853	74
455.073	82
455.294	92
455.514	82
455.734	95
455.955	79
456.175	86
456.395	81
456.616	75
456.836	85
457.056	80
457.276	87
457.497	82
457.717	75
457.937	78
458.157	80
458.377	75
458.598	77
458.818	76
459.038	69
459.258	75
459.478	78
459.698	90
459.918	90
460.138	92
460.358	74
460.578	81
460.798	81
461.018	78
461.238	75
461.458	74
461.678	74
461.898	78
462.118	84
462.338	75
462.558	80
462.777	77
462.997	95
463.217	84
463.437	83
463.657	62
463.876	90
464.096	88
464.316	87
464.536	80
464.755	77
464.975	77
465.195	92
465.414	69
465.634	73
465.854	82
466.073	78
466.293	83
466.512	84
466.732	72
466.951	95
467.171	104
467.391	74
467.61	68
467.829	70
468.049	80
468.268	83
468.488	77
468.707	78
468.927	78
469.146	75
469.365	74
469.585	72
469.804	74
470.023	79
470.243	91
470.462	90
470.681	84
470.901	79
471.12	66
471.339	80
471.558	83
471.777	78
471.997	83
472.216	72
472.435	78
472.654	63
472.873	85
473.092	70
473.311	76
473.53	89
473.749	82
473.968	84
474.187	83
474.406	63
474.625	77
474.844	88
475.063	64
475.282	77
475.501	76
475.72	78
475.939	82
476.158	76
476.377	83
476.596	83
476.814	64
477.033	81
477.252	81
477.471	80
477.69	81
477.908	84
478.127	79
478.346	83
478.564	88
478.783	83
479.002	95
479.22	89
479.439	88
479.658	78
479.876	72
480.095	80
480.313	68
480.532	78
480.751	86
480.969	86
481.188	73
481.406	91
481.624	75
481.843	80
482.061	91
482.28	72
482.498	84
482.717	58
482.935	84
483.153	80
483.372	83
483.59	81
483.808	65
484.027	80
484.245	87
484.463	80
484.681	83
484.9	69
485.118	78
485.336	75
485.554	68
485.772	77
485.99	89
486.209	82
486.427	86
486.645	92
486.863	88
487.081	80
487.299	78
487.517	93
487.735	88
487.953	98
488.171	85
488.389	86
488.607	66
488.825	81
489.043	88
489.261	82
489.479	92
489.696	84
489.914	70
490.132	92
490.35	80
490.568	89
490.786	88
491.003	81
491.221	88
491.439	66
491.657	74
491.874	71
492.092	85
492.31	89
492.527	82
492.745	74
492.963	76
493.18	97
493.398	78
493.615	73
493.833	79
494.05	74
494.268	81
494.485	88
494.703	83
494.92	82
495.138	91
495.355	74
495.573	77
495.79	80
496.008	76
496.225	80
496.442	75
496.66	85
496.877	71
497.094	86
497.312	82
497.529	67
497.746	83
497.963	80
498.181	80
498.398	89
498.615	79
498.832	88
499.049	77
499.267	89
499.484	78
499.701	88
499.918	87
500.135	76
500.352	82
500.569	72
500.786	76
501.003	79
501.22	81
501.437	76
501.654	76
501.871	78
502.088	86
502.305	104
502.522	74
502.739	83
502.956	76
503.172	86
503.389	94
503.606	78
503.823	80
504.04	79
504.256	82
504.473	92
504.69	76
504.907	91
505.123	71
505.34	71
505.557	84
505.773	74
505.99	81
506.207	88
506.423	82
506.64	82
506.856	76
507.073	76
507.289	93
507.506	86
507.722	78
507.939	84
508.155	91
508.372	78
508.588	67
508.805	76
509.021	86
509.238	78
509.454	82
509.67	79
509.887	76
510.103	85
510.319	88
510.536	76
510.752	85
510.968	75
511.184	64
511.401	74
511.617	82
511.833	77
512.049	67
512.265	81
512.481	77
512.698	88
512.914	97
513.13	80
513.346	89
513.562	81
513.778	78
513.994	95
514.21	86
514.426	91
514.642	76
514.858	78
515.074	87
515.29	81
515.506	70
515.721	86
515.937	89
516.153	92
516.369	83
516.585	89
516.801	80
517.016	83
517.232	78
517.448	85
517.664	83
517.879	89
518.095	66
518.311	74
518.527	94
518.742	76
518.958	78
519.173	84
519.389	93
519.605	85
519.82	76
520.036	72
520.251	95
520.467	72
520.682	85
520.898	79
521.113	79
521.329	77
521.544	78
521.76	83
521.975	88
522.19	83
522.406	77
522.621	75
522.836	82
523.052	90
523.267	86
523.482	75
523.698	88
523.913	85
524.128	94
524.343	76
524.559	95
524.774	86
524.989	83
525.204	82
525.419	76
525.634	86
525.849	70
526.064	88
526.28	81
526.495	83
526.71	75
526.925	83
527.14	75
527.355	73
527.57	73
527.785	85
527.999	74
528.214	79
528.429	72
528.644	82
528.859	99
529.074	81
529.289	73
529.503	83
529.718	85
529.933	71
530.148	82
530.363	82
530.577	75
530.792	82
531.007	94
531.221	88
531.436	89
531.651	83
531.865	70
532.08	86
532.295	67
532.509	82
532.724	87
532.938	84
533.153	84
533.367	72
533.582	86
533.796	87
534.011	71
534.225	78
534.44	74
534.654	74
534.868	62
535.083	88
535.297	72
535.511	82
535.726	69
535.94	82
536.154	78
536.369	79
536.583	90
536.797	106
537.011	79
537.225	84
537.44	77
537.654	82
537.868	84
538.082	87
538.296	80
538.51	71
538.724	74
538.938	78
539.153	68
539.367	81
539.581	85
539.795	78
540.009	86
540.222	82
540.436	70
540.65	72
540.864	82
541.078	74
541.292	83
541.506	77
541.72	88
541.934	88
542.147	80
542.361	78
542.575	91
542.789	87
543.002	82
543.216	76
543.43	88
543.644	80
543.857	90
544.071	78
544.285	76
544.498	88
544.712	78
544.925	78
545.139	91
545.352	74
545.566	82
545.779	82
545.993	78
546.206	85
546.42	70
546.633	79
546.847	75
547.06	102
547.274	86
547.487	84
547.7	89
547.914	70
548.127	77
548.34	87
548.554	70
548.767	83
548.98	82
549.193	99
549.407	81
549.62	75
549.833	74
550.046	93
550.259	68
550.473	78
550.686	75
550.899	79
551.112	68
551.325	80
551.538	76
551.751	78
551.964	79
552.177	85
552.39	89
552.603	85
552.816	89
553.029	88
553.242	95
553.455	79
553.667	90
553.88	95
554.093	76
554.306	84
554.519	90
554.732	79
554.944	78
555.157	79
555.37	87
555.583	90
555.795	90
556.008	75
556.221	89
556.433	76
556.646	94
556.859	89
557.071	96
557.284	92
557.496	68
557.709	75
557.921	78
558.134	83
558.346	80
558.559	88
558.771	77
558.984	82
559.196	80
559.409	95
559.621	87
559.833	79
560.046	80
560.258	81
560.47	99
560.683	88
560.895	86
561.107	86
561.32	76
561.532	81
561.744	74
561.956	78
562.168	77
562.381	80
562.593	90
562.805	78
563.017	63
563.229	83
563.441	85
563.653	67
563.865	75
564.077	90
564.289	86
564.501	86
564.713	95
564.925	89
565.137	65
565.349	78
565.561	84
565.773	81
565.985	90
566.197	87
566.408	99
566.62	80
566.832	81
567.044	89
567.255	88
567.467	83
567.679	92
567.891	79
568.102	89
568.314	86
568.526	92
568.737	80
568.949	68
569.161	88
569.372	79
569.584	82
569.795	95
570.007	91
570.218	83
570.43	84
570.641	78
570.853	66
571.064	89
571.276	90
571.487	76
571.698	75
571.91	75
572.121	75
572.333	88
572.544	66
572.755	84
572.966	80
573.178	90
573.389	88
573.6	91
573.811	83
574.023	74
574.234	74
574.445	86
574.656	94
574.867	85
575.078	83
575.289	76
575.501	104
575.712	90
575.923	84
576.134	75
576.345	74
576.556	82
576.767	99
576.978	82
577.188	76
577.399	93
577.61	72
577.821	81
578.032	79
578.243	82
578.454	90
578.665	88
578.875	89
579.086	84
579.297	90
579.508	91
579.718	82
579.929	85
580.14	77
580.35	75
580.561	82
580.772	66
580.982	73
581.193	84
581.403	86
581.614	80
581.825	90
582.035	76
582.246	77
582.456	74
582.667	85
582.877	86
583.087	97
583.298	67
583.508	91
583.719	91
583.929	94
584.139	80
584.35	86
584.56	72
584.77	77
584.981	90
585.191	76
585.401	83
585.611	87
585.821	79
586.032	78
586.242	91
586.452	91
586.662	80
586.872	88
587.082	75
587.292	80
587.502	84
587.713	81
587.923	71
588.133	95
588.343	85
588.553	81
588.762	88
588.972	74
589.182	74
589.392	89
589.602	76
589.812	78
590.022	88
590.232	82
590.441	78
590.651	73
