Data from Background_1_HRD10591_00076.txt Node
Date: Wed Nov 05 14:39:35 EST 2025
User: Yrep
Spectrometer: HR+D1059
Trigger mode: 1
Integration Time (sec): 1.000000E-1
Scans to average: 1
Electric dark correction enabled: true
Nonlinearity correction enabled: false
Boxcar width: 0
XAxis mode: Wavelengths
Number of Pixels in Spectrum: 2048
>>>>>Begin Spectral Data<<<<<
223.165	-30.06
223.4	-30.06
223.635	-30.06
223.869	-23.06
224.104	-23.06
224.338	-9.06
224.573	-11.06
224.808	-6.06
225.042	-7.06
225.277	-3.06
225.511	-0.06
225.746	6.94
225.98	13.94
226.215	12.94
226.449	10.94
226.683	16.94
226.918	17.94
227.152	32.94
227.387	49.94
227.621	48.94
227.856	52.94
228.09	52.94
228.324	35.94
228.559	49.94
228.793	58.94
229.027	54.94
229.262	61.94
229.496	82.94
229.73	64.94
229.964	74.94
230.199	85.94
230.433	77.94
230.667	83.94
230.901	64.94
231.136	86.94
231.37	93.94
231.604	84.94
231.838	76.94
232.072	76.94
232.306	74.94
232.541	92.94
232.775	63.94
233.009	81.94
233.243	81.94
233.477	90.94
233.711	96.94
233.945	83.94
234.179	84.94
234.413	83.94
234.647	84.94
234.881	75.94
235.115	79.94
235.349	76.94
235.583	86.94
235.817	94.94
236.051	90.94
236.285	76.94
236.519	76.94
236.753	74.94
236.987	81.94
237.221	80.94
237.455	88.94
237.689	79.94
237.922	80.94
238.156	85.94
238.39	81.94
238.624	80.94
238.858	80.94
239.091	72.94
239.325	67.94
239.559	58.94
239.793	69.94
240.027	81.94
240.26	63.94
240.494	89.94
240.728	82.94
240.961	66.94
241.195	69.94
241.429	78.94
241.662	78.94
241.896	73.94
242.13	67.94
242.363	84.94
242.597	85.94
242.83	66.94
243.064	74.94
243.298	82.94
243.531	80.94
243.765	76.94
243.998	85.94
244.232	78.94
244.465	95.94
244.699	93.94
244.932	67.94
245.166	77.94
245.399	83.94
245.633	78.94
245.866	82.94
246.099	83.94
246.333	71.94
246.566	76.94
246.8	83.94
247.033	67.94
247.266	83.94
247.5	82.94
247.733	75.94
247.966	75.94
248.2	86.94
248.433	73.94
248.666	86.94
248.899	90.94
249.133	77.94
249.366	102.94
249.599	71.94
249.832	81.94
250.066	70.94
250.299	80.94
250.532	83.94
250.765	79.94
250.998	85.94
251.231	75.94
251.465	62.94
251.698	81.94
251.931	74.94
252.164	80.94
252.397	76.94
252.63	85.94
252.863	76.94
253.096	68.94
253.329	74.94
253.562	75.94
253.795	74.94
254.028	88.94
254.261	64.94
254.494	78.94
254.727	93.94
254.96	89.94
255.193	75.94
255.426	81.94
255.659	80.94
255.892	78.94
256.124	63.94
256.357	87.94
256.59	75.94
256.823	74.94
257.056	77.94
257.289	83.94
257.521	75.94
257.754	73.94
257.987	95.94
258.22	84.94
258.452	78.94
258.685	84.94
258.918	71.94
259.151	69.94
259.383	78.94
259.616	76.94
259.849	78.94
260.081	92.94
260.314	70.94
260.547	68.94
260.779	83.94
261.012	86.94
261.244	89.94
261.477	78.94
261.71	84.94
261.942	86.94
262.175	91.94
262.407	77.94
262.64	89.94
262.872	88.94
263.105	85.94
263.337	76.94
263.57	73.94
263.802	81.94
264.035	73.94
264.267	82.94
264.499	83.94
264.732	72.94
264.964	89.94
265.197	83.94
265.429	92.94
265.661	88.94
265.894	83.94
266.126	77.94
266.358	75.94
266.591	81.94
266.823	78.94
267.055	66.94
267.287	81.94
267.52	86.94
267.752	81.94
267.984	83.94
268.216	78.94
268.448	90.94
268.681	77.94
268.913	85.94
269.145	108.94
269.377	93.94
269.609	78.94
269.841	79.94
270.073	75.94
270.306	84.94
270.538	92.94
270.77	85.94
271.002	88.94
271.234	66.94
271.466	84.94
271.698	92.94
271.93	83.94
272.162	98.94
272.394	82.94
272.626	81.94
272.858	92.94
273.09	88.94
273.322	89.94
273.553	100.94
273.785	85.94
274.017	92.94
274.249	84.94
274.481	73.94
274.713	71.94
274.945	81.94
275.176	78.94
275.408	95.94
275.64	88.94
275.872	76.94
276.104	76.94
276.335	66.94
276.567	84.94
276.799	83.94
277.031	83.94
277.262	81.94
277.494	78.94
277.726	85.94
277.957	86.94
278.189	82.94
278.421	78.94
278.652	92.94
278.884	84.94
279.115	88.94
279.347	90.94
279.579	94.94
279.81	81.94
280.042	76.94
280.273	78.94
280.505	77.94
280.736	74.94
280.968	82.94
281.199	89.94
281.431	80.94
281.662	89.94
281.894	84.94
282.125	88.94
282.356	85.94
282.588	88.94
282.819	90.94
283.051	92.94
283.282	82.94
283.513	79.94
283.745	93.94
283.976	72.94
284.207	93.94
284.439	85.94
284.67	84.94
284.901	76.94
285.132	75.94
285.364	76.94
285.595	93.94
285.826	92.94
286.057	81.94
286.288	84.94
286.52	78.94
286.751	75.94
286.982	79.94
287.213	71.94
287.444	90.94
287.675	84.94
287.906	87.94
288.138	77.94
288.369	78.94
288.6	74.94
288.831	77.94
289.062	85.94
289.293	90.94
289.524	81.94
289.755	90.94
289.986	75.94
290.217	92.94
290.448	104.94
290.679	83.94
290.91	91.94
291.141	88.94
291.371	81.94
291.602	91.94
291.833	83.94
292.064	83.94
292.295	76.94
292.526	78.94
292.757	81.94
292.987	90.94
293.218	82.94
293.449	85.94
293.68	79.94
293.91	75.94
294.141	84.94
294.372	81.94
294.603	102.94
294.833	97.94
295.064	101.94
295.295	78.94
295.525	83.94
295.756	83.94
295.987	76.94
296.217	74.94
296.448	104.94
296.679	85.94
296.909	92.94
297.14	84.94
297.37	90.94
297.601	104.94
297.831	83.94
298.062	89.94
298.292	80.94
298.523	84.94
298.753	93.94
298.984	92.94
299.214	81.94
299.445	81.94
299.675	94.94
299.905	79.94
300.136	74.94
300.366	85.94
300.597	85.94
300.827	88.94
301.057	83.94
301.288	91.94
301.518	83.94
301.748	85.94
301.979	86.94
302.209	81.94
302.439	90.94
302.669	84.94
302.9	85.94
303.13	78.94
303.36	90.94
303.59	89.94
303.82	76.94
304.051	84.94
304.281	89.94
304.511	74.94
304.741	80.94
304.971	91.94
305.201	79.94
305.431	88.94
305.661	92.94
305.891	80.94
306.121	79.94
306.352	86.94
306.582	81.94
306.812	94.94
307.042	78.94
307.272	81.94
307.502	76.94
307.731	90.94
307.961	99.94
308.191	90.94
308.421	84.94
308.651	81.94
308.881	77.94
309.111	92.94
309.341	90.94
309.571	72.94
309.8	80.94
310.03	63.94
310.26	70.94
310.49	90.94
310.72	70.94
310.949	88.94
311.179	76.94
311.409	82.94
311.639	70.94
311.868	79.94
312.098	86.94
312.328	80.94
312.557	86.94
312.787	93.94
313.017	93.94
313.246	78.94
313.476	86.94
313.706	84.94
313.935	100.94
314.165	71.94
314.394	76.94
314.624	84.94
314.853	99.94
315.083	94.94
315.312	72.94
315.542	78.94
315.771	78.94
316.001	82.94
316.23	89.94
316.46	89.94
316.689	81.94
316.919	88.94
317.148	93.94
317.377	84.94
317.607	87.94
317.836	101.94
318.065	85.94
318.295	75.94
318.524	76.94
318.753	87.94
318.983	94.94
319.212	92.94
319.441	84.94
319.67	71.94
319.9	75.94
320.129	88.94
320.358	84.94
320.587	74.94
320.816	73.94
321.046	80.94
321.275	95.94
321.504	81.94
321.733	86.94
321.962	77.94
322.191	90.94
322.42	95.94
322.649	89.94
322.878	95.94
323.108	88.94
323.337	96.94
323.566	83.94
323.795	77.94
324.024	98.94
324.253	90.94
324.482	90.94
324.71	86.94
324.939	92.94
325.168	74.94
325.397	90.94
325.626	85.94
325.855	83.94
326.084	92.94
326.313	85.94
326.542	91.94
326.77	74.94
326.999	87.94
327.228	95.94
327.457	95.94
327.686	85.94
327.914	82.94
328.143	80.94
328.372	78.94
328.6	79.94
328.829	94.94
329.058	88.94
329.287	95.94
329.515	89.94
329.744	90.94
329.972	84.94
330.201	88.94
330.43	82.94
330.658	83.94
330.887	76.94
331.115	91.94
331.344	83.94
331.572	79.94
331.801	80.94
332.03	78.94
332.258	96.94
332.486	78.94
332.715	83.94
332.943	84.94
333.172	74.94
333.4	78.94
333.629	100.94
333.857	85.94
334.085	83.94
334.314	90.94
334.542	77.94
334.771	81.94
334.999	85.94
335.227	88.94
335.455	78.94
335.684	86.94
335.912	87.94
336.14	72.94
336.369	85.94
336.597	84.94
336.825	88.94
337.053	90.94
337.281	93.94
337.51	85.94
337.738	88.94
337.966	82.94
338.194	87.94
338.422	90.94
338.65	78.94
338.878	93.94
339.106	86.94
339.334	76.94
339.562	86.94
339.79	83.94
340.018	78.94
340.246	70.94
340.474	90.94
340.702	68.94
340.93	84.94
341.158	84.94
341.386	80.94
341.614	80.94
341.842	89.94
342.07	92.94
342.298	80.94
342.526	81.94
342.754	79.94
342.981	78.94
343.209	76.94
343.437	107.94
343.665	81.94
343.893	88.94
344.12	90.94
344.348	82.94
344.576	88.94
344.804	71.94
345.031	75.94
345.259	94.94
345.487	68.94
345.714	81.94
345.942	89.94
346.17	89.94
346.397	71.94
346.625	80.94
346.853	86.94
347.08	90.94
347.308	81.94
347.535	87.94
347.763	86.94
347.99	94.94
348.218	82.94
348.445	84.94
348.673	90.94
348.9	77.94
349.128	77.94
349.355	84.94
349.583	82.94
349.81	81.94
350.037	85.94
350.265	77.94
350.492	80.94
350.72	68.94
350.947	82.94
351.174	84.94
351.402	77.94
351.629	94.94
351.856	75.94
352.083	82.94
352.311	81.94
352.538	76.94
352.765	73.94
352.992	90.94
353.22	91.94
353.447	81.94
353.674	69.94
353.901	88.94
354.128	101.94
354.355	84.94
354.583	84.94
354.81	73.94
355.037	84.94
355.264	75.94
355.491	87.94
355.718	95.94
355.945	91.94
356.172	91.94
356.399	82.94
356.626	74.94
356.853	85.94
357.08	71.94
357.307	74.94
357.534	79.94
357.761	85.94
357.988	84.94
358.215	78.94
358.441	84.94
358.668	85.94
358.895	80.94
359.122	85.94
359.349	82.94
359.576	92.94
359.802	90.94
360.029	94.94
360.256	90.94
360.483	88.94
360.709	104.94
360.936	81.94
361.163	83.94
361.39	83.94
361.616	80.94
361.843	84.94
362.07	75.94
362.296	101.94
362.523	83.94
362.749	90.94
362.976	94.94
363.203	82.94
363.429	88.94
363.656	80.94
363.882	83.94
364.109	82.94
364.335	88.94
364.562	80.94
364.788	73.94
365.015	73.94
365.241	77.94
365.468	85.94
365.694	85.94
365.92	84.94
366.147	56.94
366.373	96.94
366.599	76.94
366.826	72.94
367.052	90.94
367.278	76.94
367.505	77.94
367.731	102.94
367.957	95.94
368.184	82.94
368.41	78.94
368.636	77.94
368.862	74.94
369.089	85.94
369.315	72.94
369.541	82.94
369.767	83.94
369.993	93.94
370.219	91.94
370.445	88.94
370.672	73.94
370.898	78.94
371.124	80.94
371.35	91.94
371.576	90.94
371.802	88.94
372.028	76.94
372.254	82.94
372.48	80.94
372.706	74.94
372.932	91.94
373.158	91.94
373.384	88.94
373.61	92.94
373.835	77.94
374.061	86.94
374.287	84.94
374.513	97.94
374.739	84.94
374.965	76.94
375.191	79.94
375.416	75.94
375.642	98.94
375.868	83.94
376.094	91.94
376.319	69.94
376.545	81.94
376.771	74.94
376.997	70.94
377.222	74.94
377.448	90.94
377.674	77.94
377.899	80.94
378.125	76.94
378.35	76.94
378.576	80.94
378.802	78.94
379.027	73.94
379.253	87.94
379.478	80.94
379.704	85.94
379.929	80.94
380.155	94.94
380.38	94.94
380.606	96.94
380.831	92.94
381.057	94.94
381.282	99.94
381.507	88.94
381.733	79.94
381.958	81.94
382.184	97.94
382.409	89.94
382.634	86.94
382.86	82.94
383.085	81.94
383.31	75.94
383.535	69.94
383.761	71.94
383.986	84.94
384.211	84.94
384.436	79.94
384.662	80.94
384.887	72.94
385.112	74.94
385.337	94.94
385.562	80.94
385.787	74.94
386.013	83.94
386.238	88.94
386.463	84.94
386.688	94.94
386.913	68.94
387.138	82.94
387.363	89.94
387.588	87.94
387.813	81.94
388.038	63.94
388.263	84.94
388.488	86.94
388.713	97.94
388.938	96.94
389.163	85.94
389.387	76.94
389.612	81.94
389.837	82.94
390.062	69.94
390.287	85.94
390.512	95.94
390.736	82.94
390.961	85.94
391.186	88.94
391.411	75.94
391.636	85.94
391.86	76.94
392.085	87.94
392.31	83.94
392.534	75.94
392.759	88.94
392.984	79.94
393.208	69.94
393.433	82.94
393.658	85.94
393.882	56.94
394.107	92.94
394.331	76.94
394.556	89.94
394.78	83.94
395.005	84.94
395.229	68.94
395.454	88.94
395.678	73.94
395.903	83.94
396.127	68.94
396.352	79.94
396.576	89.94
396.801	74.94
397.025	78.94
397.249	88.94
397.474	77.94
397.698	92.94
397.922	78.94
398.147	81.94
398.371	88.94
398.595	89.94
398.82	92.94
399.044	88.94
399.268	84.94
399.492	68.94
399.717	78.94
399.941	74.94
400.165	75.94
400.389	88.94
400.613	59.94
400.837	92.94
401.062	83.94
401.286	77.94
401.51	77.94
401.734	73.94
401.958	86.94
402.182	82.94
402.406	85.94
402.63	85.94
402.854	72.94
403.078	73.94
403.302	84.94
403.526	89.94
403.75	89.94
403.974	73.94
404.198	92.94
404.422	83.94
404.645	89.94
404.869	74.94
405.093	74.94
405.317	62.94
405.541	94.94
405.765	71.94
405.988	87.94
406.212	86.94
406.436	90.94
406.66	85.94
406.883	80.94
407.107	81.94
407.331	79.94
407.555	78.94
407.778	71.94
408.002	80.94
408.226	70.94
408.449	81.94
408.673	88.94
408.896	88.94
409.12	84.94
409.344	74.94
409.567	87.94
409.791	77.94
410.014	84.94
410.238	72.94
410.461	80.94
410.685	87.94
410.908	77.94
411.132	84.94
411.355	78.94
411.578	84.94
411.802	65.94
412.025	70.94
412.249	82.94
412.472	76.94
412.695	82.94
412.919	69.94
413.142	92.94
413.365	80.94
413.589	76.94
413.812	85.94
414.035	76.94
414.258	75.94
414.482	86.94
414.705	73.94
414.928	82.94
415.151	78.94
415.374	88.94
415.597	74.94
415.821	74.94
416.044	73.94
416.267	86.94
416.49	88.94
416.713	74.94
416.936	78.94
417.159	82.94
417.382	89.94
417.605	80.94
417.828	84.94
418.051	82.94
418.274	78.94
418.497	86.94
418.72	83.94
418.943	83.94
419.166	89.94
419.389	76.94
419.611	66.94
419.834	72.94
420.057	74.94
420.28	91.94
420.503	80.94
420.726	102.94
420.948	94.94
421.171	79.94
421.394	76.94
421.617	76.94
421.839	69.94
422.062	80.94
422.285	102.94
422.507	74.94
422.73	67.94
422.953	94.94
423.175	65.94
423.398	82.94
423.621	93.94
423.843	89.94
424.066	78.94
424.288	80.94
424.511	81.94
424.733	74.94
424.956	77.94
425.178	81.94
425.401	82.94
425.623	82.94
425.846	71.94
426.068	79.94
426.291	93.94
426.513	70.94
426.735	76.94
426.958	78.94
427.18	67.94
427.402	79.94
427.625	68.94
427.847	61.94
428.069	94.94
428.292	80.94
428.514	90.94
428.736	85.94
428.958	86.94
429.181	82.94
429.403	87.94
429.625	89.94
429.847	74.94
430.069	75.94
430.292	82.94
430.514	95.94
430.736	82.94
430.958	82.94
431.18	84.94
431.402	81.94
431.624	93.94
431.846	87.94
432.068	89.94
432.29	102.94
432.512	92.94
432.734	74.94
432.956	70.94
433.178	78.94
433.4	68.94
433.622	86.94
433.844	69.94
434.066	84.94
434.287	102.94
434.509	77.94
434.731	98.94
434.953	82.94
435.175	85.94
435.397	76.94
435.618	80.94
435.84	84.94
436.062	89.94
436.284	75.94
436.505	92.94
436.727	81.94
436.949	92.94
437.17	76.94
437.392	88.94
437.614	80.94
437.835	90.94
438.057	83.94
438.278	85.94
438.5	81.94
438.721	82.94
438.943	76.94
439.165	76.94
439.386	88.94
439.608	84.94
439.829	81.94
440.05	81.94
440.272	85.94
440.493	83.94
440.715	89.94
440.936	92.94
441.158	89.94
441.379	84.94
441.6	99.94
441.822	71.94
442.043	70.94
442.264	93.94
442.486	85.94
442.707	81.94
442.928	83.94
443.149	74.94
443.371	91.94
443.592	80.94
443.813	82.94
444.034	71.94
444.255	97.94
444.476	85.94
444.698	88.94
444.919	77.94
445.14	162.94
445.361	110.94
445.582	83.94
445.803	74.94
446.024	66.94
446.245	89.94
446.466	75.94
446.687	81.94
446.908	97.94
447.129	80.94
447.35	77.94
447.571	78.94
447.792	87.94
448.013	78.94
448.234	93.94
448.455	87.94
448.675	88.94
448.896	77.94
449.117	80.94
449.338	78.94
449.559	65.94
449.779	81.94
450	91.94
450.221	93.94
450.442	69.94
450.662	85.94
450.883	92.94
451.104	93.94
451.324	85.94
451.545	65.94
451.766	72.94
451.986	76.94
452.207	89.94
452.428	90.94
452.648	85.94
452.869	96.94
453.089	86.94
453.31	74.94
453.53	76.94
453.751	74.94
453.971	81.94
454.192	80.94
454.412	85.94
454.633	88.94
454.853	92.94
455.073	79.94
455.294	76.94
455.514	88.94
455.734	80.94
455.955	75.94
456.175	87.94
456.395	86.94
456.616	76.94
456.836	79.94
457.056	74.94
457.276	78.94
457.497	84.94
457.717	81.94
457.937	78.94
458.157	68.94
458.377	81.94
458.598	82.94
458.818	81.94
459.038	80.94
459.258	84.94
459.478	67.94
459.698	91.94
459.918	84.94
460.138	64.94
460.358	88.94
460.578	75.94
460.798	61.94
461.018	85.94
461.238	75.94
461.458	82.94
461.678	84.94
461.898	78.94
462.118	99.94
462.338	82.94
462.558	78.94
462.777	77.94
462.997	74.94
463.217	88.94
463.437	74.94
463.657	86.94
463.876	90.94
464.096	82.94
464.316	80.94
464.536	69.94
464.755	92.94
464.975	86.94
465.195	76.94
465.414	97.94
465.634	82.94
465.854	76.94
466.073	71.94
466.293	68.94
466.512	76.94
466.732	92.94
466.951	79.94
467.171	81.94
467.391	88.94
467.61	82.94
467.829	84.94
468.049	84.94
468.268	83.94
468.488	83.94
468.707	78.94
468.927	85.94
469.146	76.94
469.365	79.94
469.585	89.94
469.804	83.94
470.023	83.94
470.243	89.94
470.462	89.94
470.681	93.94
470.901	76.94
471.12	95.94
471.339	80.94
471.558	89.94
471.777	96.94
471.997	77.94
472.216	87.94
472.435	90.94
472.654	92.94
472.873	82.94
473.092	85.94
473.311	86.94
473.53	84.94
473.749	90.94
473.968	94.94
474.187	86.94
474.406	77.94
474.625	95.94
474.844	94.94
475.063	88.94
475.282	87.94
475.501	91.94
475.72	87.94
475.939	96.94
476.158	82.94
476.377	76.94
476.596	85.94
476.814	86.94
477.033	84.94
477.252	90.94
477.471	71.94
477.69	85.94
477.908	89.94
478.127	76.94
478.346	88.94
478.564	74.94
478.783	75.94
479.002	85.94
479.22	91.94
479.439	82.94
479.658	81.94
479.876	88.94
480.095	87.94
480.313	89.94
480.532	90.94
480.751	79.94
480.969	78.94
481.188	78.94
481.406	92.94
481.624	75.94
481.843	72.94
482.061	75.94
482.28	89.94
482.498	95.94
482.717	85.94
482.935	87.94
483.153	84.94
483.372	76.94
483.59	79.94
483.808	87.94
484.027	88.94
484.245	89.94
484.463	91.94
484.681	89.94
484.9	81.94
485.118	84.94
485.336	81.94
485.554	70.94
485.772	98.94
485.99	79.94
486.209	87.94
486.427	96.94
486.645	70.94
486.863	89.94
487.081	78.94
487.299	77.94
487.517	81.94
487.735	97.94
487.953	84.94
488.171	87.94
488.389	80.94
488.607	72.94
488.825	81.94
489.043	70.94
489.261	90.94
489.479	98.94
489.696	83.94
489.914	98.94
490.132	78.94
490.35	77.94
490.568	74.94
490.786	82.94
491.003	86.94
491.221	86.94
491.439	80.94
491.657	88.94
491.874	81.94
492.092	76.94
492.31	80.94
492.527	83.94
492.745	70.94
492.963	80.94
493.18	66.94
493.398	84.94
493.615	80.94
493.833	70.94
494.05	71.94
494.268	82.94
494.485	73.94
494.703	76.94
494.92	88.94
495.138	81.94
495.355	95.94
495.573	84.94
495.79	91.94
496.008	82.94
496.225	91.94
496.442	88.94
496.66	74.94
496.877	83.94
497.094	82.94
497.312	82.94
497.529	85.94
497.746	68.94
497.963	81.94
498.181	81.94
498.398	89.94
498.615	72.94
498.832	77.94
499.049	78.94
499.267	79.94
499.484	84.94
499.701	84.94
499.918	76.94
500.135	81.94
500.352	73.94
500.569	75.94
500.786	79.94
501.003	76.94
501.22	89.94
501.437	89.94
501.654	75.94
501.871	77.94
502.088	95.94
502.305	80.94
502.522	85.94
502.739	86.94
502.956	78.94
503.172	78.94
503.389	80.94
503.606	94.94
503.823	88.94
504.04	101.94
504.256	91.94
504.473	75.94
504.69	104.94
504.907	84.94
505.123	76.94
505.34	79.94
505.557	88.94
505.773	76.94
505.99	84.94
506.207	81.94
506.423	83.94
506.64	95.94
506.856	93.94
507.073	76.94
507.289	74.94
507.506	86.94
507.722	88.94
507.939	82.94
508.155	98.94
508.372	98.94
508.588	86.94
508.805	96.94
509.021	81.94
509.238	88.94
509.454	73.94
509.67	77.94
509.887	83.94
510.103	81.94
510.319	83.94
510.536	92.94
510.752	84.94
510.968	75.94
511.184	84.94
511.401	74.94
511.617	89.94
511.833	86.94
512.049	88.94
512.265	92.94
512.481	93.94
512.698	89.94
512.914	92.94
513.13	91.94
513.346	87.94
513.562	83.94
513.778	94.94
513.994	82.94
514.21	83.94
514.426	82.94
514.642	84.94
514.858	90.94
515.074	82.94
515.29	81.94
515.506	104.94
515.721	87.94
515.937	76.94
516.153	84.94
516.369	86.94
516.585	71.94
516.801	85.94
517.016	76.94
517.232	69.94
517.448	89.94
517.664	75.94
517.879	90.94
518.095	84.94
518.311	86.94
518.527	65.94
518.742	83.94
518.958	84.94
519.173	88.94
519.389	98.94
519.605	92.94
519.82	83.94
