Data from Background_1_HRD10591_00036.txt Node
Date: Wed Nov 05 14:39:16 EST 2025
User: Yrep
Spectrometer: HR+D1059
Trigger mode: 1
Integration Time (sec): 1.000000E-1
Scans to average: 1
Electric dark correction enabled: true
Nonlinearity correction enabled: false
Boxcar width: 0
XAxis mode: Wavelengths
Number of Pixels in Spectrum: 2048
>>>>>Begin Spectral Data<<<<<
223.165	-21.62
223.4	-21.62
223.635	-21.62
223.869	-13.62
224.104	-15.62
224.338	-4.62
224.573	-16.62
224.808	-13.62
225.042	-4.62
225.277	-11.62
225.511	-2.62
225.746	-4.62
225.98	15.38
226.215	10.38
226.449	12.38
226.683	19.38
226.918	28.38
227.152	23.38
227.387	44.38
227.621	21.38
227.856	37.38
228.09	58.38
228.324	73.38
228.559	51.38
228.793	40.38
229.027	43.38
229.262	61.38
229.496	52.38
229.73	68.38
229.964	78.38
230.199	79.38
230.433	63.38
230.667	74.38
230.901	78.38
231.136	82.38
231.37	70.38
231.604	82.38
231.838	76.38
232.072	84.38
232.306	86.38
232.541	83.38
232.775	76.38
233.009	87.38
233.243	66.38
233.477	86.38
233.711	95.38
233.945	87.38
234.179	82.38
234.413	85.38
234.647	83.38
234.881	105.38
235.115	80.38
235.349	75.38
235.583	71.38
235.817	77.38
236.051	77.38
236.285	89.38
236.519	85.38
236.753	79.38
236.987	76.38
237.221	74.38
237.455	66.38
237.689	64.38
237.922	63.38
238.156	76.38
238.39	87.38
238.624	76.38
238.858	81.38
239.091	69.38
239.325	74.38
239.559	72.38
239.793	82.38
240.027	82.38
240.26	72.38
240.494	75.38
240.728	72.38
240.961	73.38
241.195	74.38
241.429	72.38
241.662	64.38
241.896	69.38
242.13	63.38
242.363	72.38
242.597	81.38
242.83	81.38
243.064	88.38
243.298	78.38
243.531	68.38
243.765	78.38
243.998	77.38
244.232	83.38
244.465	89.38
244.699	59.38
244.932	81.38
245.166	72.38
245.399	80.38
245.633	71.38
245.866	61.38
246.099	65.38
246.333	70.38
246.566	77.38
246.8	65.38
247.033	62.38
247.266	78.38
247.5	92.38
247.733	77.38
247.966	72.38
248.2	81.38
248.433	81.38
248.666	73.38
248.899	64.38
249.133	61.38
249.366	83.38
249.599	66.38
249.832	70.38
250.066	59.38
250.299	79.38
250.532	85.38
250.765	90.38
250.998	85.38
251.231	79.38
251.465	83.38
251.698	77.38
251.931	88.38
252.164	78.38
252.397	89.38
252.63	83.38
252.863	78.38
253.096	75.38
253.329	81.38
253.562	77.38
253.795	85.38
254.028	79.38
254.261	71.38
254.494	75.38
254.727	66.38
254.96	76.38
255.193	73.38
255.426	69.38
255.659	83.38
255.892	81.38
256.124	75.38
256.357	70.38
256.59	82.38
256.823	78.38
257.056	92.38
257.289	90.38
257.521	74.38
257.754	77.38
257.987	77.38
258.22	89.38
258.452	83.38
258.685	72.38
258.918	79.38
259.151	87.38
259.383	86.38
259.616	76.38
259.849	65.38
260.081	92.38
260.314	73.38
260.547	79.38
260.779	68.38
261.012	84.38
261.244	94.38
261.477	84.38
261.71	89.38
261.942	75.38
262.175	93.38
262.407	74.38
262.64	57.38
262.872	73.38
263.105	82.38
263.337	91.38
263.57	73.38
263.802	79.38
264.035	70.38
264.267	73.38
264.499	77.38
264.732	95.38
264.964	80.38
265.197	82.38
265.429	91.38
265.661	88.38
265.894	87.38
266.126	88.38
266.358	89.38
266.591	80.38
266.823	59.38
267.055	87.38
267.287	75.38
267.52	68.38
267.752	65.38
267.984	77.38
268.216	69.38
268.448	90.38
268.681	83.38
268.913	74.38
269.145	95.38
269.377	73.38
269.609	72.38
269.841	87.38
270.073	74.38
270.306	70.38
270.538	75.38
270.77	76.38
271.002	78.38
271.234	78.38
271.466	76.38
271.698	83.38
271.93	73.38
272.162	76.38
272.394	80.38
272.626	91.38
272.858	86.38
273.09	98.38
273.322	82.38
273.553	74.38
273.785	76.38
274.017	79.38
274.249	86.38
274.481	73.38
274.713	73.38
274.945	94.38
275.176	52.38
275.408	90.38
275.64	90.38
275.872	91.38
276.104	92.38
276.335	81.38
276.567	79.38
276.799	73.38
277.031	79.38
277.262	79.38
277.494	87.38
277.726	93.38
277.957	100.38
278.189	77.38
278.421	89.38
278.652	81.38
278.884	65.38
279.115	79.38
279.347	87.38
279.579	75.38
279.81	85.38
280.042	85.38
280.273	83.38
280.505	81.38
280.736	71.38
280.968	69.38
281.199	73.38
281.431	77.38
281.662	89.38
281.894	90.38
282.125	80.38
282.356	79.38
282.588	80.38
282.819	83.38
283.051	62.38
283.282	72.38
283.513	61.38
283.745	96.38
283.976	83.38
284.207	85.38
284.439	89.38
284.67	63.38
284.901	77.38
285.132	79.38
285.364	65.38
285.595	87.38
285.826	81.38
286.057	69.38
286.288	84.38
286.52	89.38
286.751	86.38
286.982	84.38
287.213	73.38
287.444	93.38
287.675	57.38
287.906	100.38
288.138	90.38
288.369	79.38
288.6	71.38
288.831	89.38
289.062	89.38
289.293	86.38
289.524	83.38
289.755	71.38
289.986	86.38
290.217	84.38
290.448	77.38
290.679	79.38
290.91	88.38
291.141	86.38
291.371	77.38
291.602	83.38
291.833	69.38
292.064	80.38
292.295	83.38
292.526	73.38
292.757	77.38
292.987	86.38
293.218	89.38
293.449	75.38
293.68	76.38
293.91	85.38
294.141	86.38
294.372	81.38
294.603	79.38
294.833	82.38
295.064	85.38
295.295	80.38
295.525	71.38
295.756	79.38
295.987	73.38
296.217	78.38
296.448	80.38
296.679	92.38
296.909	80.38
297.14	96.38
297.37	83.38
297.601	87.38
297.831	74.38
298.062	71.38
298.292	82.38
298.523	82.38
298.753	71.38
298.984	74.38
299.214	84.38
299.445	78.38
299.675	73.38
299.905	69.38
300.136	86.38
300.366	80.38
300.597	80.38
300.827	90.38
301.057	86.38
301.288	98.38
301.518	76.38
301.748	74.38
301.979	92.38
302.209	77.38
302.439	99.38
302.669	90.38
302.9	82.38
303.13	86.38
303.36	80.38
303.59	77.38
303.82	87.38
304.051	94.38
304.281	72.38
304.511	80.38
304.741	91.38
304.971	95.38
305.201	75.38
305.431	75.38
305.661	74.38
305.891	80.38
306.121	82.38
306.352	69.38
306.582	77.38
306.812	75.38
307.042	86.38
307.272	77.38
307.502	90.38
307.731	84.38
307.961	83.38
308.191	95.38
308.421	64.38
308.651	63.38
308.881	87.38
309.111	89.38
309.341	92.38
309.571	87.38
309.8	84.38
310.03	85.38
310.26	81.38
310.49	86.38
310.72	98.38
310.949	87.38
311.179	72.38
311.409	73.38
311.639	78.38
311.868	77.38
312.098	81.38
312.328	91.38
312.557	75.38
312.787	88.38
313.017	82.38
313.246	94.38
313.476	83.38
313.706	94.38
313.935	75.38
314.165	82.38
314.394	87.38
314.624	82.38
314.853	85.38
315.083	87.38
315.312	88.38
315.542	78.38
315.771	87.38
316.001	77.38
316.23	90.38
316.46	89.38
316.689	78.38
316.919	83.38
317.148	86.38
317.377	74.38
317.607	79.38
317.836	74.38
318.065	65.38
318.295	89.38
318.524	86.38
318.753	65.38
318.983	86.38
319.212	74.38
319.441	89.38
319.67	81.38
319.9	80.38
320.129	77.38
320.358	95.38
320.587	89.38
320.816	90.38
321.046	93.38
321.275	90.38
321.504	87.38
321.733	81.38
321.962	76.38
322.191	81.38
322.42	80.38
322.649	73.38
322.878	92.38
323.108	94.38
323.337	90.38
323.566	75.38
323.795	85.38
324.024	86.38
324.253	77.38
324.482	104.38
324.71	91.38
324.939	91.38
325.168	92.38
325.397	77.38
325.626	78.38
325.855	82.38
326.084	92.38
326.313	81.38
326.542	85.38
326.77	80.38
326.999	81.38
327.228	78.38
327.457	88.38
327.686	83.38
327.914	89.38
328.143	85.38
328.372	88.38
328.6	75.38
328.829	70.38
329.058	68.38
329.287	68.38
329.515	76.38
329.744	95.38
329.972	72.38
330.201	95.38
330.43	80.38
330.658	78.38
330.887	90.38
331.115	85.38
331.344	85.38
331.572	73.38
331.801	80.38
332.03	96.38
332.258	92.38
332.486	82.38
332.715	93.38
332.943	79.38
333.172	71.38
333.4	83.38
333.629	89.38
333.857	75.38
334.085	82.38
334.314	94.38
334.542	79.38
334.771	70.38
334.999	89.38
335.227	86.38
335.455	103.38
335.684	95.38
335.912	73.38
336.14	79.38
336.369	93.38
336.597	77.38
336.825	83.38
337.053	77.38
337.281	59.38
337.51	88.38
337.738	85.38
337.966	83.38
338.194	73.38
338.422	94.38
338.65	88.38
338.878	91.38
339.106	82.38
339.334	94.38
339.562	77.38
339.79	75.38
340.018	87.38
340.246	81.38
340.474	72.38
340.702	85.38
340.93	77.38
341.158	77.38
341.386	85.38
341.614	97.38
341.842	95.38
342.07	81.38
342.298	78.38
342.526	97.38
342.754	80.38
342.981	70.38
343.209	88.38
343.437	87.38
343.665	73.38
343.893	92.38
344.12	80.38
344.348	73.38
344.576	67.38
344.804	75.38
345.031	85.38
345.259	77.38
345.487	69.38
345.714	74.38
345.942	77.38
346.17	87.38
346.397	80.38
346.625	77.38
346.853	88.38
347.08	73.38
347.308	94.38
347.535	83.38
347.763	70.38
347.99	95.38
348.218	82.38
348.445	63.38
348.673	81.38
348.9	82.38
349.128	96.38
349.355	97.38
349.583	84.38
349.81	81.38
350.037	81.38
350.265	77.38
350.492	82.38
350.72	75.38
350.947	73.38
351.174	84.38
351.402	71.38
351.629	73.38
351.856	74.38
352.083	67.38
352.311	102.38
352.538	66.38
352.765	88.38
352.992	87.38
353.22	91.38
353.447	88.38
353.674	79.38
353.901	79.38
354.128	87.38
354.355	73.38
354.583	82.38
354.81	84.38
355.037	81.38
355.264	86.38
355.491	59.38
355.718	69.38
355.945	93.38
356.172	79.38
356.399	95.38
356.626	96.38
356.853	81.38
357.08	88.38
357.307	77.38
357.534	85.38
357.761	80.38
357.988	82.38
358.215	63.38
358.441	80.38
358.668	79.38
358.895	87.38
359.122	77.38
359.349	94.38
359.576	71.38
359.802	73.38
360.029	71.38
360.256	89.38
360.483	90.38
360.709	89.38
360.936	81.38
361.163	89.38
361.39	75.38
361.616	69.38
361.843	71.38
362.07	81.38
362.296	76.38
362.523	80.38
362.749	90.38
362.976	81.38
363.203	77.38
363.429	75.38
363.656	78.38
363.882	70.38
364.109	76.38
364.335	81.38
364.562	82.38
364.788	68.38
365.015	65.38
365.241	95.38
365.468	89.38
365.694	83.38
365.92	59.38
366.147	80.38
366.373	98.38
366.599	88.38
366.826	91.38
367.052	94.38
367.278	90.38
367.505	97.38
367.731	81.38
367.957	79.38
368.184	79.38
368.41	75.38
368.636	77.38
368.862	75.38
369.089	75.38
369.315	79.38
369.541	79.38
369.767	91.38
369.993	74.38
370.219	71.38
370.445	86.38
370.672	87.38
370.898	94.38
371.124	80.38
371.35	73.38
371.576	86.38
371.802	79.38
372.028	74.38
372.254	80.38
372.48	82.38
372.706	85.38
372.932	78.38
373.158	90.38
373.384	93.38
373.61	76.38
373.835	76.38
374.061	61.38
374.287	91.38
374.513	65.38
374.739	64.38
374.965	85.38
375.191	70.38
375.416	101.38
375.642	73.38
375.868	94.38
376.094	79.38
376.319	72.38
376.545	72.38
376.771	76.38
376.997	90.38
377.222	87.38
377.448	89.38
377.674	89.38
377.899	94.38
378.125	91.38
378.35	84.38
378.576	91.38
378.802	77.38
379.027	77.38
379.253	75.38
379.478	73.38
379.704	73.38
379.929	94.38
380.155	93.38
380.38	83.38
380.606	91.38
380.831	81.38
381.057	89.38
381.282	78.38
381.507	87.38
381.733	82.38
381.958	75.38
382.184	70.38
382.409	93.38
382.634	80.38
382.86	81.38
383.085	93.38
383.31	85.38
383.535	83.38
383.761	78.38
383.986	81.38
384.211	89.38
384.436	77.38
384.662	67.38
384.887	87.38
385.112	85.38
385.337	88.38
385.562	77.38
385.787	81.38
386.013	60.38
386.238	66.38
386.463	71.38
386.688	94.38
386.913	77.38
387.138	65.38
387.363	86.38
387.588	78.38
387.813	78.38
388.038	59.38
388.263	80.38
388.488	80.38
388.713	76.38
388.938	67.38
389.163	75.38
389.387	85.38
389.612	79.38
389.837	76.38
390.062	94.38
390.287	76.38
390.512	85.38
390.736	75.38
390.961	66.38
391.186	94.38
391.411	94.38
391.636	81.38
391.86	83.38
392.085	80.38
392.31	76.38
392.534	82.38
392.759	83.38
392.984	80.38
393.208	73.38
393.433	77.38
393.658	81.38
393.882	89.38
394.107	65.38
394.331	62.38
394.556	72.38
394.78	74.38
395.005	93.38
395.229	83.38
395.454	75.38
395.678	75.38
395.903	87.38
396.127	82.38
396.352	70.38
396.576	85.38
396.801	78.38
397.025	81.38
397.249	80.38
397.474	87.38
397.698	81.38
397.922	75.38
398.147	82.38
398.371	81.38
398.595	81.38
398.82	87.38
399.044	89.38
399.268	91.38
399.492	74.38
399.717	75.38
399.941	91.38
400.165	83.38
400.389	74.38
400.613	73.38
400.837	76.38
401.062	74.38
401.286	83.38
401.51	86.38
401.734	90.38
401.958	87.38
402.182	85.38
402.406	81.38
402.63	79.38
402.854	82.38
403.078	105.38
403.302	73.38
403.526	85.38
403.75	88.38
403.974	95.38
404.198	77.38
404.422	88.38
404.645	87.38
404.869	93.38
405.093	97.38
405.317	81.38
405.541	86.38
405.765	77.38
405.988	86.38
406.212	77.38
406.436	84.38
406.66	81.38
406.883	78.38
407.107	72.38
407.331	73.38
407.555	88.38
407.778	77.38
408.002	75.38
408.226	68.38
408.449	86.38
408.673	79.38
408.896	76.38
409.12	83.38
409.344	80.38
409.567	73.38
409.791	76.38
410.014	74.38
410.238	74.38
410.461	72.38
410.685	89.38
410.908	84.38
411.132	85.38
411.355	77.38
411.578	77.38
411.802	80.38
412.025	91.38
412.249	69.38
412.472	75.38
412.695	87.38
412.919	77.38
413.142	69.38
413.365	70.38
413.589	73.38
413.812	85.38
414.035	81.38
414.258	85.38
414.482	69.38
414.705	71.38
414.928	84.38
415.151	82.38
415.374	71.38
415.597	77.38
415.821	63.38
416.044	92.38
416.267	71.38
416.49	85.38
416.713	53.38
416.936	82.38
417.159	76.38
417.382	85.38
417.605	89.38
417.828	94.38
418.051	83.38
418.274	80.38
418.497	77.38
418.72	79.38
418.943	79.38
419.166	84.38
419.389	71.38
419.611	72.38
419.834	70.38
420.057	82.38
420.28	62.38
420.503	79.38
420.726	86.38
420.948	87.38
421.171	78.38
421.394	82.38
421.617	83.38
421.839	88.38
422.062	74.38
422.285	73.38
422.507	77.38
422.73	80.38
422.953	83.38
423.175	87.38
423.398	77.38
423.621	85.38
423.843	63.38
424.066	70.38
424.288	86.38
424.511	78.38
424.733	88.38
424.956	80.38
425.178	82.38
425.401	71.38
425.623	71.38
425.846	59.38
426.068	80.38
426.291	82.38
426.513	72.38
426.735	89.38
426.958	82.38
427.18	85.38
427.402	83.38
427.625	74.38
427.847	79.38
428.069	90.38
428.292	78.38
428.514	74.38
428.736	75.38
428.958	83.38
429.181	68.38
429.403	77.38
429.625	93.38
429.847	80.38
430.069	84.38
430.292	72.38
430.514	64.38
430.736	68.38
430.958	75.38
431.18	79.38
431.402	81.38
431.624	81.38
431.846	82.38
432.068	87.38
432.29	79.38
432.512	72.38
432.734	89.38
432.956	86.38
433.178	89.38
433.4	79.38
433.622	81.38
433.844	78.38
434.066	86.38
434.287	85.38
434.509	77.38
434.731	71.38
434.953	72.38
435.175	79.38
435.397	79.38
435.618	89.38
435.84	87.38
436.062	82.38
436.284	84.38
436.505	81.38
436.727	77.38
436.949	73.38
437.17	94.38
437.392	81.38
437.614	75.38
437.835	100.38
438.057	81.38
438.278	85.38
438.5	82.38
438.721	88.38
438.943	78.38
439.165	67.38
439.386	74.38
439.608	87.38
439.829	71.38
440.05	96.38
440.272	87.38
440.493	76.38
440.715	83.38
440.936	75.38
441.158	86.38
441.379	73.38
441.6	77.38
441.822	68.38
442.043	94.38
442.264	73.38
442.486	70.38
442.707	74.38
442.928	83.38
443.149	71.38
443.371	82.38
443.592	84.38
443.813	80.38
444.034	75.38
444.255	96.38
444.476	80.38
444.698	83.38
444.919	83.38
445.14	138.38
445.361	98.38
445.582	85.38
445.803	77.38
446.024	89.38
446.245	82.38
446.466	70.38
446.687	90.38
446.908	88.38
447.129	98.38
447.35	77.38
447.571	87.38
447.792	80.38
448.013	85.38
448.234	85.38
448.455	75.38
448.675	80.38
448.896	92.38
449.117	78.38
449.338	90.38
449.559	88.38
449.779	78.38
450	79.38
450.221	76.38
450.442	81.38
450.662	61.38
450.883	71.38
451.104	87.38
451.324	75.38
451.545	81.38
451.766	77.38
451.986	68.38
452.207	78.38
452.428	78.38
452.648	86.38
452.869	73.38
453.089	87.38
453.31	77.38
453.53	78.38
453.751	75.38
453.971	84.38
454.192	75.38
454.412	71.38
454.633	87.38
454.853	82.38
455.073	89.38
455.294	77.38
455.514	84.38
455.734	77.38
455.955	84.38
456.175	81.38
456.395	79.38
456.616	79.38
456.836	88.38
457.056	78.38
457.276	77.38
457.497	77.38
457.717	79.38
457.937	68.38
458.157	82.38
458.377	80.38
458.598	82.38
458.818	87.38
459.038	71.38
459.258	87.38
459.478	85.38
459.698	73.38
459.918	82.38
460.138	83.38
460.358	97.38
460.578	97.38
460.798	82.38
461.018	84.38
461.238	79.38
461.458	79.38
461.678	76.38
461.898	79.38
462.118	75.38
462.338	73.38
462.558	78.38
462.777	87.38
462.997	79.38
463.217	82.38
463.437	77.38
463.657	71.38
463.876	87.38
464.096	75.38
464.316	85.38
464.536	91.38
464.755	83.38
464.975	75.38
465.195	71.38
465.414	88.38
465.634	73.38
465.854	74.38
466.073	87.38
466.293	69.38
466.512	81.38
466.732	76.38
466.951	85.38
467.171	75.38
467.391	85.38
467.61	69.38
467.829	73.38
468.049	77.38
468.268	82.38
468.488	67.38
468.707	93.38
468.927	91.38
469.146	85.38
469.365	72.38
469.585	73.38
469.804	86.38
470.023	77.38
470.243	71.38
470.462	82.38
470.681	89.38
470.901	81.38
471.12	82.38
471.339	90.38
471.558	73.38
471.777	66.38
471.997	76.38
472.216	83.38
472.435	69.38
472.654	69.38
472.873	71.38
473.092	87.38
473.311	82.38
473.53	74.38
473.749	87.38
473.968	81.38
474.187	90.38
474.406	85.38
474.625	65.38
474.844	89.38
475.063	83.38
475.282	89.38
475.501	81.38
475.72	93.38
475.939	68.38
476.158	72.38
476.377	78.38
476.596	69.38
476.814	92.38
477.033	73.38
477.252	77.38
477.471	69.38
477.69	72.38
477.908	76.38
478.127	86.38
478.346	87.38
478.564	95.38
478.783	78.38
479.002	80.38
479.22	68.38
479.439	89.38
479.658	73.38
479.876	80.38
480.095	71.38
480.313	77.38
480.532	79.38
480.751	88.38
480.969	83.38
481.188	79.38
481.406	83.38
481.624	77.38
481.843	55.38
482.061	83.38
482.28	74.38
482.498	85.38
482.717	85.38
482.935	94.38
483.153	91.38
483.372	92.38
483.59	80.38
483.808	66.38
484.027	68.38
484.245	79.38
484.463	78.38
484.681	82.38
484.9	82.38
485.118	90.38
485.336	84.38
485.554	76.38
485.772	87.38
485.99	85.38
486.209	83.38
486.427	73.38
486.645	76.38
486.863	78.38
487.081	85.38
487.299	85.38
487.517	86.38
487.735	91.38
487.953	81.38
488.171	103.38
488.389	84.38
488.607	88.38
488.825	65.38
489.043	72.38
489.261	86.38
489.479	73.38
489.696	80.38
489.914	60.38
490.132	84.38
490.35	81.38
490.568	77.38
490.786	79.38
491.003	80.38
491.221	83.38
491.439	68.38
491.657	74.38
491.874	82.38
492.092	88.38
492.31	87.38
492.527	78.38
492.745	73.38
492.963	87.38
493.18	79.38
493.398	91.38
493.615	90.38
493.833	82.38
494.05	79.38
494.268	80.38
494.485	89.38
494.703	87.38
494.92	85.38
495.138	77.38
495.355	86.38
495.573	83.38
495.79	78.38
496.008	87.38
496.225	87.38
496.442	81.38
496.66	91.38
496.877	85.38
497.094	85.38
497.312	87.38
497.529	67.38
497.746	75.38
497.963	81.38
498.181	76.38
498.398	78.38
498.615	78.38
498.832	85.38
499.049	83.38
499.267	92.38
499.484	83.38
499.701	92.38
499.918	81.38
500.135	81.38
500.352	86.38
500.569	87.38
500.786	97.38
501.003	75.38
501.22	85.38
501.437	85.38
501.654	80.38
501.871	76.38
502.088	91.38
502.305	93.38
502.522	72.38
502.739	83.38
502.956	91.38
503.172	82.38
503.389	80.38
503.606	89.38
503.823	90.38
504.04	85.38
504.256	75.38
504.473	77.38
504.69	82.38
504.907	87.38
505.123	90.38
505.34	82.38
505.557	87.38
505.773	85.38
505.99	86.38
506.207	87.38
506.423	80.38
506.64	74.38
506.856	74.38
507.073	70.38
507.289	74.38
507.506	70.38
507.722	73.38
507.939	82.38
508.155	74.38
508.372	82.38
508.588	91.38
508.805	83.38
509.021	96.38
509.238	82.38
509.454	85.38
509.67	91.38
509.887	79.38
510.103	83.38
510.319	78.38
510.536	93.38
510.752	67.38
510.968	78.38
511.184	70.38
511.401	76.38
511.617	86.38
511.833	81.38
512.049	78.38
512.265	77.38
512.481	73.38
512.698	83.38
512.914	99.38
513.13	80.38
513.346	77.38
513.562	90.38
513.778	73.38
513.994	76.38
514.21	78.38
514.426	99.38
514.642	94.38
514.858	57.38
515.074	76.38
515.29	81.38
515.506	91.38
515.721	87.38
515.937	89.38
516.153	74.38
516.369	85.38
516.585	92.38
516.801	82.38
517.016	88.38
517.232	74.38
517.448	81.38
517.664	78.38
517.879	87.38
518.095	83.38
518.311	78.38
518.527	70.38
518.742	86.38
518.958	83.38
519.173	70.38
519.389	82.38
519.605	89.38
519.82	79.38
520.036	78.38
