Data from Background_1_HRD10591_00053.txt Node
Date: Wed Nov 05 14:39:24 EST 2025
User: Yrep
Spectrometer: HR+D1059
Trigger mode: 1
Integration Time (sec): 1.000000E-1
Scans to average: 1
Electric dark correction enabled: true
Nonlinearity correction enabled: false
Boxcar width: 0
XAxis mode: Wavelengths
Number of Pixels in Spectrum: 2048
>>>>>Begin Spectral Data<<<<<
223.165	-12.06
223.4	-12.06
223.635	-12.06
223.869	-18.06
224.104	-21.06
224.338	-15.06
224.573	-30.06
224.808	-9.06
225.042	-8.06
225.277	-13.06
225.511	0.94
225.746	0.94
225.98	13.94
226.215	6.94
226.449	21.94
226.683	25.94
226.918	25.94
227.152	29.94
227.387	41.94
227.621	53.94
227.856	32.94
228.09	52.94
228.324	48.94
228.559	58.94
228.793	60.94
229.027	66.94
229.262	59.94
229.496	66.94
229.73	70.94
229.964	69.94
230.199	66.94
230.433	85.94
230.667	76.94
230.901	83.94
231.136	79.94
231.37	77.94
231.604	75.94
231.838	79.94
232.072	84.94
232.306	76.94
232.541	86.94
232.775	81.94
233.009	70.94
233.243	86.94
233.477	67.94
233.711	65.94
233.945	64.94
234.179	64.94
234.413	83.94
234.647	89.94
234.881	74.94
235.115	71.94
235.349	77.94
235.583	85.94
235.817	77.94
236.051	67.94
236.285	72.94
236.519	86.94
236.753	80.94
236.987	80.94
237.221	74.94
237.455	82.94
237.689	73.94
237.922	84.94
238.156	81.94
238.39	66.94
238.624	70.94
238.858	93.94
239.091	84.94
239.325	80.94
239.559	77.94
239.793	61.94
240.027	79.94
240.26	91.94
240.494	76.94
240.728	83.94
240.961	80.94
241.195	79.94
241.429	74.94
241.662	71.94
241.896	62.94
242.13	64.94
242.363	79.94
242.597	62.94
242.83	66.94
243.064	79.94
243.298	71.94
243.531	67.94
243.765	85.94
243.998	78.94
244.232	93.94
244.465	74.94
244.699	83.94
244.932	63.94
245.166	74.94
245.399	85.94
245.633	68.94
245.866	84.94
246.099	73.94
246.333	83.94
246.566	76.94
246.8	73.94
247.033	69.94
247.266	74.94
247.5	81.94
247.733	78.94
247.966	70.94
248.2	75.94
248.433	67.94
248.666	72.94
248.899	74.94
249.133	78.94
249.366	70.94
249.599	77.94
249.832	74.94
250.066	77.94
250.299	79.94
250.532	78.94
250.765	92.94
250.998	80.94
251.231	78.94
251.465	77.94
251.698	77.94
251.931	65.94
252.164	81.94
252.397	71.94
252.63	69.94
252.863	78.94
253.096	78.94
253.329	91.94
253.562	79.94
253.795	76.94
254.028	78.94
254.261	82.94
254.494	76.94
254.727	85.94
254.96	92.94
255.193	86.94
255.426	79.94
255.659	78.94
255.892	78.94
256.124	78.94
256.357	93.94
256.59	81.94
256.823	80.94
257.056	79.94
257.289	93.94
257.521	71.94
257.754	86.94
257.987	82.94
258.22	80.94
258.452	86.94
258.685	77.94
258.918	79.94
259.151	89.94
259.383	83.94
259.616	74.94
259.849	84.94
260.081	79.94
260.314	74.94
260.547	92.94
260.779	72.94
261.012	88.94
261.244	78.94
261.477	86.94
261.71	72.94
261.942	90.94
262.175	81.94
262.407	78.94
262.64	80.94
262.872	85.94
263.105	78.94
263.337	81.94
263.57	68.94
263.802	85.94
264.035	110.94
264.267	100.94
264.499	90.94
264.732	74.94
264.964	84.94
265.197	66.94
265.429	69.94
265.661	69.94
265.894	77.94
266.126	83.94
266.358	75.94
266.591	77.94
266.823	76.94
267.055	69.94
267.287	78.94
267.52	76.94
267.752	79.94
267.984	53.94
268.216	78.94
268.448	84.94
268.681	81.94
268.913	93.94
269.145	80.94
269.377	84.94
269.609	83.94
269.841	80.94
270.073	75.94
270.306	97.94
270.538	89.94
270.77	78.94
271.002	90.94
271.234	77.94
271.466	87.94
271.698	90.94
271.93	88.94
272.162	87.94
272.394	89.94
272.626	91.94
272.858	83.94
273.09	97.94
273.322	73.94
273.553	74.94
273.785	81.94
274.017	83.94
274.249	72.94
274.481	70.94
274.713	84.94
274.945	80.94
275.176	80.94
275.408	93.94
275.64	92.94
275.872	78.94
276.104	92.94
276.335	81.94
276.567	85.94
276.799	81.94
277.031	86.94
277.262	83.94
277.494	77.94
277.726	78.94
277.957	79.94
278.189	81.94
278.421	75.94
278.652	90.94
278.884	78.94
279.115	80.94
279.347	92.94
279.579	83.94
279.81	76.94
280.042	79.94
280.273	84.94
280.505	69.94
280.736	100.94
280.968	72.94
281.199	73.94
281.431	92.94
281.662	97.94
281.894	79.94
282.125	82.94
282.356	79.94
282.588	80.94
282.819	76.94
283.051	90.94
283.282	85.94
283.513	81.94
283.745	83.94
283.976	86.94
284.207	72.94
284.439	97.94
284.67	82.94
284.901	85.94
285.132	86.94
285.364	77.94
285.595	94.94
285.826	76.94
286.057	75.94
286.288	86.94
286.52	104.94
286.751	91.94
286.982	91.94
287.213	87.94
287.444	82.94
287.675	93.94
287.906	80.94
288.138	76.94
288.369	85.94
288.6	89.94
288.831	103.94
289.062	82.94
289.293	92.94
289.524	87.94
289.755	89.94
289.986	81.94
290.217	69.94
290.448	70.94
290.679	84.94
290.91	71.94
291.141	93.94
291.371	74.94
291.602	92.94
291.833	71.94
292.064	86.94
292.295	79.94
292.526	82.94
292.757	89.94
292.987	73.94
293.218	97.94
293.449	79.94
293.68	96.94
293.91	76.94
294.141	96.94
294.372	88.94
294.603	85.94
294.833	90.94
295.064	76.94
295.295	92.94
295.525	90.94
295.756	78.94
295.987	80.94
296.217	85.94
296.448	77.94
296.679	91.94
296.909	93.94
297.14	79.94
297.37	91.94
297.601	76.94
297.831	90.94
298.062	87.94
298.292	80.94
298.523	83.94
298.753	84.94
298.984	89.94
299.214	74.94
299.445	80.94
299.675	78.94
299.905	91.94
300.136	80.94
300.366	69.94
300.597	87.94
300.827	97.94
301.057	87.94
301.288	90.94
301.518	88.94
301.748	95.94
301.979	96.94
302.209	80.94
302.439	85.94
302.669	82.94
302.9	80.94
303.13	77.94
303.36	81.94
303.59	84.94
303.82	72.94
304.051	93.94
304.281	96.94
304.511	92.94
304.741	96.94
304.971	87.94
305.201	85.94
305.431	93.94
305.661	77.94
305.891	84.94
306.121	84.94
306.352	80.94
306.582	75.94
306.812	97.94
307.042	87.94
307.272	91.94
307.502	86.94
307.731	80.94
307.961	91.94
308.191	81.94
308.421	82.94
308.651	88.94
308.881	89.94
309.111	86.94
309.341	92.94
309.571	79.94
309.8	74.94
310.03	86.94
310.26	78.94
310.49	91.94
310.72	91.94
310.949	77.94
311.179	91.94
311.409	82.94
311.639	88.94
311.868	75.94
312.098	94.94
312.328	82.94
312.557	91.94
312.787	84.94
313.017	83.94
313.246	73.94
313.476	80.94
313.706	77.94
313.935	106.94
314.165	85.94
314.394	100.94
314.624	88.94
314.853	79.94
315.083	69.94
315.312	85.94
315.542	85.94
315.771	89.94
316.001	86.94
316.23	93.94
316.46	68.94
316.689	80.94
316.919	79.94
317.148	85.94
317.377	84.94
317.607	95.94
317.836	87.94
318.065	86.94
318.295	86.94
318.524	83.94
318.753	76.94
318.983	87.94
319.212	70.94
319.441	79.94
319.67	84.94
319.9	88.94
320.129	81.94
320.358	78.94
320.587	89.94
320.816	104.94
321.046	79.94
321.275	88.94
321.504	87.94
321.733	77.94
321.962	88.94
322.191	83.94
322.42	90.94
322.649	88.94
322.878	85.94
323.108	88.94
323.337	79.94
323.566	93.94
323.795	70.94
324.024	78.94
324.253	80.94
324.482	77.94
324.71	77.94
324.939	81.94
325.168	77.94
325.397	86.94
325.626	88.94
325.855	90.94
326.084	83.94
326.313	102.94
326.542	79.94
326.77	77.94
326.999	82.94
327.228	88.94
327.457	79.94
327.686	83.94
327.914	83.94
328.143	72.94
328.372	69.94
328.6	84.94
328.829	92.94
329.058	70.94
329.287	85.94
329.515	72.94
329.744	88.94
329.972	79.94
330.201	104.94
330.43	74.94
330.658	91.94
330.887	78.94
331.115	80.94
331.344	85.94
331.572	81.94
331.801	80.94
332.03	88.94
332.258	86.94
332.486	88.94
332.715	80.94
332.943	85.94
333.172	94.94
333.4	90.94
333.629	81.94
333.857	85.94
334.085	96.94
334.314	88.94
334.542	79.94
334.771	84.94
334.999	84.94
335.227	100.94
335.455	96.94
335.684	75.94
335.912	93.94
336.14	89.94
336.369	92.94
336.597	88.94
336.825	79.94
337.053	84.94
337.281	78.94
337.51	82.94
337.738	78.94
337.966	92.94
338.194	87.94
338.422	85.94
338.65	81.94
338.878	86.94
339.106	83.94
339.334	78.94
339.562	81.94
339.79	65.94
340.018	84.94
340.246	86.94
340.474	79.94
340.702	86.94
340.93	92.94
341.158	73.94
341.386	82.94
341.614	95.94
341.842	81.94
342.07	96.94
342.298	91.94
342.526	83.94
342.754	87.94
342.981	104.94
343.209	95.94
343.437	95.94
343.665	89.94
343.893	67.94
344.12	88.94
344.348	83.94
344.576	76.94
344.804	77.94
345.031	91.94
345.259	79.94
345.487	88.94
345.714	87.94
345.942	88.94
346.17	85.94
346.397	84.94
346.625	89.94
346.853	104.94
347.08	83.94
347.308	80.94
347.535	85.94
347.763	74.94
347.99	70.94
348.218	65.94
348.445	93.94
348.673	88.94
348.9	79.94
349.128	81.94
349.355	84.94
349.583	88.94
349.81	85.94
350.037	89.94
350.265	90.94
350.492	74.94
350.72	85.94
350.947	96.94
351.174	75.94
351.402	78.94
351.629	83.94
351.856	81.94
352.083	70.94
352.311	72.94
352.538	74.94
352.765	70.94
352.992	94.94
353.22	84.94
353.447	75.94
353.674	82.94
353.901	85.94
354.128	88.94
354.355	93.94
354.583	83.94
354.81	70.94
355.037	72.94
355.264	81.94
355.491	88.94
355.718	79.94
355.945	68.94
356.172	89.94
356.399	83.94
356.626	88.94
356.853	85.94
357.08	75.94
357.307	84.94
357.534	69.94
357.761	82.94
357.988	91.94
358.215	85.94
358.441	78.94
358.668	97.94
358.895	85.94
359.122	86.94
359.349	83.94
359.576	89.94
359.802	85.94
360.029	87.94
360.256	60.94
360.483	83.94
360.709	91.94
360.936	90.94
361.163	84.94
361.39	81.94
361.616	83.94
361.843	80.94
362.07	83.94
362.296	87.94
362.523	91.94
362.749	84.94
362.976	80.94
363.203	92.94
363.429	82.94
363.656	89.94
363.882	96.94
364.109	80.94
364.335	68.94
364.562	82.94
364.788	74.94
365.015	98.94
365.241	82.94
365.468	76.94
365.694	78.94
365.92	84.94
366.147	80.94
366.373	81.94
366.599	90.94
366.826	82.94
367.052	78.94
367.278	90.94
367.505	75.94
367.731	91.94
367.957	80.94
368.184	86.94
368.41	83.94
368.636	83.94
368.862	76.94
369.089	70.94
369.315	98.94
369.541	72.94
369.767	77.94
369.993	74.94
370.219	80.94
370.445	81.94
370.672	69.94
370.898	75.94
371.124	66.94
371.35	81.94
371.576	85.94
371.802	68.94
372.028	72.94
372.254	87.94
372.48	74.94
372.706	80.94
372.932	84.94
373.158	88.94
373.384	87.94
373.61	82.94
373.835	78.94
374.061	78.94
374.287	79.94
374.513	83.94
374.739	79.94
374.965	86.94
375.191	90.94
375.416	82.94
375.642	88.94
375.868	94.94
376.094	88.94
376.319	71.94
376.545	77.94
376.771	82.94
376.997	72.94
377.222	85.94
377.448	75.94
377.674	81.94
377.899	94.94
378.125	96.94
378.35	107.94
378.576	89.94
378.802	89.94
379.027	85.94
379.253	94.94
379.478	78.94
379.704	78.94
379.929	93.94
380.155	89.94
380.38	83.94
380.606	75.94
380.831	73.94
381.057	78.94
381.282	71.94
381.507	63.94
381.733	84.94
381.958	83.94
382.184	77.94
382.409	85.94
382.634	83.94
382.86	88.94
383.085	82.94
383.31	76.94
383.535	79.94
383.761	85.94
383.986	74.94
384.211	89.94
384.436	77.94
384.662	92.94
384.887	83.94
385.112	76.94
385.337	86.94
385.562	75.94
385.787	65.94
386.013	72.94
386.238	72.94
386.463	85.94
386.688	100.94
386.913	85.94
387.138	84.94
387.363	90.94
387.588	76.94
387.813	94.94
388.038	77.94
388.263	84.94
388.488	72.94
388.713	60.94
388.938	80.94
389.163	88.94
389.387	83.94
389.612	85.94
389.837	93.94
390.062	71.94
390.287	73.94
390.512	83.94
390.736	85.94
390.961	92.94
391.186	76.94
391.411	74.94
391.636	82.94
391.86	88.94
392.085	91.94
392.31	71.94
392.534	77.94
392.759	72.94
392.984	96.94
393.208	77.94
393.433	90.94
393.658	90.94
393.882	78.94
394.107	80.94
394.331	113.94
394.556	88.94
394.78	84.94
395.005	83.94
395.229	84.94
395.454	85.94
395.678	74.94
395.903	76.94
396.127	85.94
396.352	80.94
396.576	79.94
396.801	77.94
397.025	83.94
397.249	83.94
397.474	87.94
397.698	97.94
397.922	74.94
398.147	80.94
398.371	65.94
398.595	74.94
398.82	94.94
399.044	81.94
399.268	82.94
399.492	68.94
399.717	84.94
399.941	98.94
400.165	90.94
400.389	80.94
400.613	69.94
400.837	80.94
401.062	78.94
401.286	80.94
401.51	84.94
401.734	89.94
401.958	85.94
402.182	87.94
402.406	89.94
402.63	91.94
402.854	81.94
403.078	74.94
403.302	77.94
403.526	76.94
403.75	79.94
403.974	80.94
404.198	75.94
404.422	86.94
404.645	78.94
404.869	75.94
405.093	89.94
405.317	84.94
405.541	81.94
405.765	84.94
405.988	61.94
406.212	69.94
406.436	79.94
406.66	84.94
406.883	81.94
407.107	95.94
407.331	70.94
407.555	84.94
407.778	83.94
408.002	87.94
408.226	85.94
408.449	82.94
408.673	77.94
408.896	81.94
409.12	91.94
409.344	81.94
409.567	78.94
409.791	85.94
410.014	92.94
410.238	88.94
410.461	90.94
410.685	76.94
410.908	87.94
411.132	77.94
411.355	77.94
411.578	83.94
411.802	77.94
412.025	86.94
412.249	90.94
412.472	74.94
412.695	66.94
412.919	69.94
413.142	83.94
413.365	73.94
413.589	77.94
413.812	89.94
414.035	74.94
414.258	75.94
414.482	76.94
414.705	90.94
414.928	85.94
415.151	76.94
415.374	74.94
415.597	70.94
415.821	80.94
416.044	82.94
416.267	71.94
416.49	84.94
416.713	66.94
416.936	71.94
417.159	80.94
417.382	80.94
417.605	87.94
417.828	88.94
418.051	64.94
418.274	74.94
418.497	86.94
418.72	76.94
418.943	90.94
419.166	78.94
419.389	96.94
419.611	79.94
419.834	74.94
420.057	56.94
420.28	84.94
420.503	74.94
420.726	74.94
420.948	79.94
421.171	93.94
421.394	78.94
421.617	84.94
421.839	84.94
422.062	78.94
422.285	78.94
422.507	82.94
422.73	92.94
422.953	86.94
423.175	81.94
423.398	84.94
423.621	87.94
423.843	81.94
424.066	80.94
424.288	72.94
424.511	85.94
424.733	79.94
424.956	71.94
425.178	98.94
425.401	73.94
425.623	71.94
425.846	78.94
426.068	73.94
426.291	70.94
426.513	78.94
426.735	82.94
426.958	77.94
427.18	88.94
427.402	74.94
427.625	74.94
427.847	63.94
428.069	78.94
428.292	99.94
428.514	85.94
428.736	81.94
428.958	65.94
429.181	70.94
429.403	69.94
429.625	86.94
429.847	83.94
430.069	75.94
430.292	78.94
430.514	85.94
430.736	60.94
430.958	76.94
431.18	70.94
431.402	86.94
431.624	80.94
431.846	84.94
432.068	78.94
432.29	82.94
432.512	68.94
432.734	75.94
432.956	68.94
433.178	90.94
433.4	89.94
433.622	93.94
433.844	93.94
434.066	86.94
434.287	84.94
434.509	88.94
434.731	70.94
434.953	70.94
435.175	88.94
435.397	85.94
435.618	65.94
435.84	69.94
436.062	84.94
436.284	87.94
436.505	77.94
436.727	90.94
436.949	70.94
437.17	78.94
437.392	89.94
437.614	86.94
437.835	88.94
438.057	82.94
438.278	74.94
438.5	84.94
438.721	68.94
438.943	81.94
439.165	77.94
439.386	79.94
439.608	82.94
439.829	81.94
440.05	86.94
440.272	71.94
440.493	81.94
440.715	90.94
440.936	78.94
441.158	89.94
441.379	73.94
441.6	77.94
441.822	71.94
442.043	70.94
442.264	69.94
442.486	88.94
442.707	78.94
442.928	94.94
443.149	67.94
443.371	90.94
443.592	82.94
443.813	89.94
444.034	81.94
444.255	99.94
444.476	82.94
444.698	76.94
444.919	64.94
445.14	146.94
445.361	117.94
445.582	74.94
445.803	87.94
446.024	78.94
446.245	85.94
446.466	82.94
446.687	82.94
446.908	78.94
447.129	88.94
447.35	90.94
447.571	84.94
447.792	81.94
448.013	85.94
448.234	84.94
448.455	77.94
448.675	69.94
448.896	65.94
449.117	79.94
449.338	84.94
449.559	85.94
449.779	81.94
450	80.94
450.221	75.94
450.442	80.94
450.662	84.94
450.883	65.94
451.104	72.94
451.324	76.94
451.545	76.94
451.766	90.94
451.986	80.94
452.207	80.94
452.428	83.94
452.648	93.94
452.869	67.94
453.089	74.94
453.31	77.94
453.53	88.94
453.751	83.94
453.971	71.94
454.192	82.94
454.412	81.94
454.633	74.94
454.853	70.94
455.073	97.94
455.294	84.94
455.514	85.94
455.734	70.94
455.955	94.94
456.175	94.94
456.395	81.94
456.616	81.94
456.836	63.94
457.056	81.94
457.276	65.94
457.497	78.94
457.717	92.94
457.937	81.94
458.157	88.94
458.377	82.94
458.598	77.94
458.818	83.94
459.038	64.94
459.258	87.94
459.478	80.94
459.698	70.94
459.918	82.94
460.138	83.94
460.358	82.94
460.578	96.94
460.798	67.94
461.018	69.94
461.238	83.94
461.458	64.94
461.678	76.94
461.898	90.94
462.118	83.94
462.338	85.94
462.558	90.94
462.777	81.94
462.997	77.94
463.217	76.94
463.437	73.94
463.657	74.94
463.876	81.94
464.096	73.94
464.316	86.94
464.536	82.94
464.755	62.94
464.975	76.94
465.195	88.94
465.414	72.94
465.634	80.94
465.854	72.94
466.073	79.94
466.293	79.94
466.512	84.94
466.732	84.94
466.951	90.94
467.171	93.94
467.391	80.94
467.61	78.94
467.829	79.94
468.049	80.94
468.268	95.94
468.488	84.94
468.707	94.94
468.927	76.94
469.146	75.94
469.365	75.94
469.585	74.94
469.804	93.94
470.023	73.94
470.243	68.94
470.462	86.94
470.681	77.94
470.901	81.94
471.12	78.94
471.339	93.94
471.558	83.94
471.777	72.94
471.997	84.94
472.216	90.94
472.435	96.94
472.654	88.94
472.873	76.94
473.092	93.94
473.311	80.94
473.53	78.94
473.749	69.94
473.968	90.94
474.187	88.94
474.406	97.94
474.625	73.94
474.844	85.94
475.063	70.94
475.282	76.94
475.501	70.94
475.72	94.94
475.939	93.94
476.158	80.94
476.377	74.94
476.596	76.94
476.814	68.94
477.033	83.94
477.252	77.94
477.471	85.94
477.69	76.94
477.908	94.94
478.127	84.94
478.346	77.94
478.564	77.94
478.783	73.94
479.002	81.94
479.22	81.94
479.439	78.94
479.658	77.94
479.876	91.94
480.095	76.94
480.313	81.94
480.532	75.94
480.751	84.94
480.969	59.94
481.188	67.94
481.406	81.94
481.624	90.94
481.843	91.94
482.061	88.94
482.28	79.94
482.498	68.94
482.717	84.94
482.935	89.94
483.153	92.94
483.372	76.94
483.59	78.94
483.808	77.94
484.027	77.94
484.245	92.94
484.463	73.94
484.681	90.94
484.9	82.94
485.118	63.94
485.336	85.94
485.554	85.94
485.772	82.94
485.99	84.94
486.209	86.94
486.427	79.94
486.645	69.94
486.863	74.94
487.081	86.94
487.299	93.94
487.517	85.94
487.735	91.94
487.953	86.94
488.171	77.94
488.389	77.94
488.607	67.94
488.825	73.94
489.043	82.94
489.261	85.94
489.479	67.94
489.696	73.94
489.914	81.94
490.132	77.94
490.35	87.94
490.568	86.94
490.786	98.94
491.003	81.94
491.221	70.94
491.439	90.94
491.657	86.94
491.874	83.94
492.092	78.94
492.31	66.94
492.527	78.94
492.745	71.94
492.963	90.94
493.18	85.94
493.398	80.94
493.615	83.94
493.833	86.94
494.05	87.94
494.268	79.94
494.485	79.94
494.703	73.94
494.92	81.94
495.138	82.94
495.355	88.94
495.573	75.94
495.79	71.94
496.008	84.94
496.225	66.94
496.442	85.94
496.66	94.94
496.877	90.94
497.094	84.94
497.312	67.94
497.529	86.94
497.746	77.94
497.963	86.94
498.181	84.94
498.398	82.94
498.615	83.94
498.832	71.94
499.049	71.94
499.267	84.94
499.484	91.94
499.701	68.94
499.918	71.94
500.135	65.94
500.352	81.94
500.569	91.94
500.786	76.94
501.003	80.94
501.22	96.94
501.437	84.94
501.654	74.94
501.871	86.94
502.088	80.94
502.305	76.94
502.522	84.94
502.739	102.94
502.956	87.94
503.172	95.94
503.389	85.94
503.606	83.94
503.823	83.94
504.04	87.94
504.256	82.94
504.473	92.94
504.69	77.94
504.907	90.94
505.123	93.94
505.34	94.94
505.557	70.94
505.773	76.94
505.99	88.94
506.207	89.94
506.423	87.94
506.64	88.94
506.856	85.94
507.073	92.94
507.289	86.94
507.506	74.94
507.722	88.94
507.939	80.94
508.155	70.94
508.372	91.94
508.588	89.94
508.805	66.94
509.021	71.94
509.238	80.94
509.454	65.94
509.67	86.94
509.887	77.94
510.103	83.94
510.319	77.94
510.536	78.94
510.752	86.94
510.968	79.94
511.184	91.94
511.401	90.94
511.617	76.94
511.833	75.94
512.049	91.94
512.265	77.94
512.481	76.94
512.698	69.94
512.914	96.94
513.13	87.94
513.346	92.94
513.562	91.94
513.778	88.94
513.994	85.94
514.21	68.94
514.426	75.94
514.642	92.94
514.858	69.94
515.074	88.94
515.29	74.94
515.506	79.94
515.721	94.94
515.937	81.94
516.153	81.94
516.369	75.94
516.585	74.94
516.801	86.94
517.016	103.94
517.232	80.94
517.448	86.94
517.664	73.94
517.879	80.94
518.095	82.94
518.311	69.94
518.527	72.94
518.742	108.94
518.958	88.94
519.173	83.94
519.389	90.94
519.605	77.94
519.82	72.94
520.036	77.94
