Data from Background_1_HRD10591_00007.txt Node
Date: Wed Nov 05 14:39:01 EST 2025
User: Yrep
Spectrometer: HR+D1059
Trigger mode: 1
Integration Time (sec): 1.000000E-1
Scans to average: 1
Electric dark correction enabled: true
Nonlinearity correction enabled: false
Boxcar width: 0
XAxis mode: Wavelengths
Number of Pixels in Spectrum: 2048
>>>>>Begin Spectral Data<<<<<
223.165	-17.06
223.4	-17.06
223.635	-17.06
223.869	-20.06
224.104	-22.06
224.338	-29.06
224.573	-14.06
224.808	-8.06
225.042	-2.06
225.277	-2.06
225.511	-2.06
225.746	12.94
225.98	1.94
226.215	6.94
226.449	17.94
226.683	23.94
226.918	24.94
227.152	27.94
227.387	38.94
227.621	29.94
227.856	49.94
228.09	50.94
228.324	46.94
228.559	59.94
228.793	63.94
229.027	62.94
229.262	59.94
229.496	67.94
229.73	68.94
229.964	85.94
230.199	64.94
230.433	81.94
230.667	74.94
230.901	103.94
231.136	75.94
231.37	89.94
231.604	82.94
231.838	70.94
232.072	86.94
232.306	68.94
232.541	77.94
232.775	97.94
233.009	84.94
233.243	64.94
233.477	81.94
233.711	70.94
233.945	71.94
234.179	88.94
234.413	82.94
234.647	77.94
234.881	66.94
235.115	66.94
235.349	64.94
235.583	77.94
235.817	75.94
236.051	97.94
236.285	75.94
236.519	87.94
236.753	74.94
236.987	66.94
237.221	78.94
237.455	74.94
237.689	75.94
237.922	74.94
238.156	63.94
238.39	64.94
238.624	55.94
238.858	68.94
239.091	90.94
239.325	74.94
239.559	70.94
239.793	82.94
240.027	86.94
240.26	79.94
240.494	84.94
240.728	61.94
240.961	77.94
241.195	76.94
241.429	81.94
241.662	78.94
241.896	74.94
242.13	77.94
242.363	73.94
242.597	84.94
242.83	76.94
243.064	68.94
243.298	79.94
243.531	77.94
243.765	71.94
243.998	84.94
244.232	67.94
244.465	77.94
244.699	79.94
244.932	69.94
245.166	79.94
245.399	75.94
245.633	91.94
245.866	77.94
246.099	73.94
246.333	81.94
246.566	85.94
246.8	67.94
247.033	74.94
247.266	65.94
247.5	74.94
247.733	81.94
247.966	77.94
248.2	70.94
248.433	70.94
248.666	81.94
248.899	72.94
249.133	88.94
249.366	71.94
249.599	67.94
249.832	82.94
250.066	83.94
250.299	74.94
250.532	90.94
250.765	87.94
250.998	71.94
251.231	71.94
251.465	84.94
251.698	88.94
251.931	74.94
252.164	71.94
252.397	71.94
252.63	76.94
252.863	78.94
253.096	75.94
253.329	81.94
253.562	84.94
253.795	81.94
254.028	75.94
254.261	82.94
254.494	94.94
254.727	79.94
254.96	70.94
255.193	68.94
255.426	72.94
255.659	70.94
255.892	88.94
256.124	78.94
256.357	79.94
256.59	79.94
256.823	72.94
257.056	89.94
257.289	75.94
257.521	78.94
257.754	72.94
257.987	75.94
258.22	79.94
258.452	78.94
258.685	89.94
258.918	69.94
259.151	72.94
259.383	73.94
259.616	73.94
259.849	82.94
260.081	81.94
260.314	92.94
260.547	85.94
260.779	87.94
261.012	83.94
261.244	77.94
261.477	75.94
261.71	83.94
261.942	89.94
262.175	90.94
262.407	76.94
262.64	72.94
262.872	75.94
263.105	71.94
263.337	87.94
263.57	79.94
263.802	78.94
264.035	64.94
264.267	68.94
264.499	107.94
264.732	85.94
264.964	65.94
265.197	74.94
265.429	71.94
265.661	61.94
265.894	82.94
266.126	80.94
266.358	67.94
266.591	76.94
266.823	81.94
267.055	86.94
267.287	69.94
267.52	66.94
267.752	84.94
267.984	86.94
268.216	85.94
268.448	80.94
268.681	85.94
268.913	75.94
269.145	71.94
269.377	90.94
269.609	77.94
269.841	85.94
270.073	80.94
270.306	89.94
270.538	67.94
270.77	77.94
271.002	77.94
271.234	73.94
271.466	73.94
271.698	71.94
271.93	99.94
272.162	86.94
272.394	81.94
272.626	73.94
272.858	83.94
273.09	82.94
273.322	87.94
273.553	89.94
273.785	85.94
274.017	79.94
274.249	90.94
274.481	69.94
274.713	72.94
274.945	79.94
275.176	81.94
275.408	78.94
275.64	78.94
275.872	78.94
276.104	76.94
276.335	82.94
276.567	76.94
276.799	86.94
277.031	81.94
277.262	82.94
277.494	84.94
277.726	89.94
277.957	89.94
278.189	72.94
278.421	72.94
278.652	68.94
278.884	65.94
279.115	84.94
279.347	76.94
279.579	78.94
279.81	81.94
280.042	62.94
280.273	80.94
280.505	88.94
280.736	83.94
280.968	80.94
281.199	82.94
281.431	79.94
281.662	77.94
281.894	85.94
282.125	85.94
282.356	79.94
282.588	80.94
282.819	81.94
283.051	86.94
283.282	89.94
283.513	92.94
283.745	64.94
283.976	72.94
284.207	62.94
284.439	81.94
284.67	89.94
284.901	85.94
285.132	82.94
285.364	101.94
285.595	91.94
285.826	85.94
286.057	70.94
286.288	84.94
286.52	83.94
286.751	80.94
286.982	78.94
287.213	83.94
287.444	80.94
287.675	94.94
287.906	84.94
288.138	81.94
288.369	86.94
288.6	83.94
288.831	79.94
289.062	84.94
289.293	91.94
289.524	86.94
289.755	75.94
289.986	83.94
290.217	68.94
290.448	83.94
290.679	75.94
290.91	89.94
291.141	90.94
291.371	82.94
291.602	91.94
291.833	73.94
292.064	75.94
292.295	78.94
292.526	85.94
292.757	85.94
292.987	65.94
293.218	81.94
293.449	77.94
293.68	67.94
293.91	76.94
294.141	73.94
294.372	79.94
294.603	80.94
294.833	95.94
295.064	64.94
295.295	78.94
295.525	85.94
295.756	94.94
295.987	82.94
296.217	69.94
296.448	75.94
296.679	83.94
296.909	95.94
297.14	98.94
297.37	79.94
297.601	82.94
297.831	87.94
298.062	79.94
298.292	79.94
298.523	65.94
298.753	79.94
298.984	89.94
299.214	68.94
299.445	77.94
299.675	87.94
299.905	87.94
300.136	89.94
300.366	91.94
300.597	84.94
300.827	83.94
301.057	85.94
301.288	80.94
301.518	87.94
301.748	87.94
301.979	102.94
302.209	92.94
302.439	74.94
302.669	74.94
302.9	73.94
303.13	80.94
303.36	84.94
303.59	85.94
303.82	85.94
304.051	80.94
304.281	74.94
304.511	85.94
304.741	82.94
304.971	89.94
305.201	90.94
305.431	83.94
305.661	91.94
305.891	82.94
306.121	85.94
306.352	75.94
306.582	78.94
306.812	89.94
307.042	75.94
307.272	95.94
307.502	87.94
307.731	85.94
307.961	93.94
308.191	86.94
308.421	81.94
308.651	85.94
308.881	79.94
309.111	81.94
309.341	76.94
309.571	80.94
309.8	77.94
310.03	79.94
310.26	86.94
310.49	99.94
310.72	85.94
310.949	74.94
311.179	77.94
311.409	84.94
311.639	70.94
311.868	86.94
312.098	87.94
312.328	100.94
312.557	89.94
312.787	87.94
313.017	82.94
313.246	79.94
313.476	85.94
313.706	77.94
313.935	79.94
314.165	85.94
314.394	98.94
314.624	76.94
314.853	76.94
315.083	75.94
315.312	77.94
315.542	66.94
315.771	88.94
316.001	85.94
316.23	81.94
316.46	92.94
316.689	74.94
316.919	73.94
317.148	91.94
317.377	67.94
317.607	81.94
317.836	81.94
318.065	92.94
318.295	91.94
318.524	73.94
318.753	79.94
318.983	86.94
319.212	81.94
319.441	88.94
319.67	85.94
319.9	76.94
320.129	89.94
320.358	83.94
320.587	89.94
320.816	87.94
321.046	82.94
321.275	81.94
321.504	79.94
321.733	83.94
321.962	98.94
322.191	80.94
322.42	82.94
322.649	76.94
322.878	79.94
323.108	89.94
323.337	80.94
323.566	67.94
323.795	89.94
324.024	81.94
324.253	62.94
324.482	81.94
324.71	105.94
324.939	88.94
325.168	85.94
325.397	81.94
325.626	73.94
325.855	89.94
326.084	78.94
326.313	85.94
326.542	79.94
326.77	85.94
326.999	81.94
327.228	89.94
327.457	95.94
327.686	82.94
327.914	79.94
328.143	74.94
328.372	78.94
328.6	72.94
328.829	80.94
329.058	89.94
329.287	75.94
329.515	82.94
329.744	74.94
329.972	91.94
330.201	74.94
330.43	78.94
330.658	80.94
330.887	85.94
331.115	87.94
331.344	88.94
331.572	101.94
331.801	77.94
332.03	97.94
332.258	85.94
332.486	84.94
332.715	87.94
332.943	82.94
333.172	79.94
333.4	73.94
333.629	81.94
333.857	72.94
334.085	92.94
334.314	83.94
334.542	81.94
334.771	72.94
334.999	81.94
335.227	89.94
335.455	79.94
335.684	84.94
335.912	78.94
336.14	85.94
336.369	89.94
336.597	81.94
336.825	67.94
337.053	77.94
337.281	75.94
337.51	78.94
337.738	78.94
337.966	79.94
338.194	81.94
338.422	93.94
338.65	88.94
338.878	80.94
339.106	86.94
339.334	79.94
339.562	85.94
339.79	79.94
340.018	89.94
340.246	73.94
340.474	82.94
340.702	82.94
340.93	84.94
341.158	77.94
341.386	87.94
341.614	68.94
341.842	82.94
342.07	88.94
342.298	78.94
342.526	76.94
342.754	83.94
342.981	79.94
343.209	78.94
343.437	79.94
343.665	90.94
343.893	93.94
344.12	81.94
344.348	82.94
344.576	88.94
344.804	88.94
345.031	83.94
345.259	81.94
345.487	84.94
345.714	74.94
345.942	82.94
346.17	73.94
346.397	77.94
346.625	73.94
346.853	93.94
347.08	81.94
347.308	79.94
347.535	65.94
347.763	97.94
347.99	88.94
348.218	75.94
348.445	85.94
348.673	71.94
348.9	79.94
349.128	80.94
349.355	86.94
349.583	80.94
349.81	81.94
350.037	78.94
350.265	85.94
350.492	68.94
350.72	79.94
350.947	71.94
351.174	82.94
351.402	87.94
351.629	80.94
351.856	77.94
352.083	79.94
352.311	97.94
352.538	75.94
352.765	92.94
352.992	71.94
353.22	80.94
353.447	77.94
353.674	75.94
353.901	92.94
354.128	89.94
354.355	67.94
354.583	82.94
354.81	82.94
355.037	94.94
355.264	80.94
355.491	91.94
355.718	76.94
355.945	81.94
356.172	90.94
356.399	66.94
356.626	72.94
356.853	68.94
357.08	76.94
357.307	105.94
357.534	90.94
357.761	85.94
357.988	93.94
358.215	79.94
358.441	74.94
358.668	81.94
358.895	82.94
359.122	79.94
359.349	90.94
359.576	80.94
359.802	75.94
360.029	81.94
360.256	93.94
360.483	79.94
360.709	90.94
360.936	79.94
361.163	73.94
361.39	78.94
361.616	78.94
361.843	94.94
362.07	88.94
362.296	91.94
362.523	70.94
362.749	85.94
362.976	83.94
363.203	76.94
363.429	93.94
363.656	94.94
363.882	75.94
364.109	88.94
364.335	89.94
364.562	86.94
364.788	78.94
365.015	82.94
365.241	76.94
365.468	73.94
365.694	80.94
365.92	75.94
366.147	86.94
366.373	92.94
366.599	56.94
366.826	81.94
367.052	85.94
367.278	84.94
367.505	87.94
367.731	90.94
367.957	77.94
368.184	83.94
368.41	84.94
368.636	81.94
368.862	71.94
369.089	74.94
369.315	81.94
369.541	84.94
369.767	83.94
369.993	76.94
370.219	93.94
370.445	89.94
370.672	63.94
370.898	94.94
371.124	74.94
371.35	76.94
371.576	79.94
371.802	87.94
372.028	81.94
372.254	78.94
372.48	90.94
372.706	86.94
372.932	80.94
373.158	70.94
373.384	89.94
373.61	77.94
373.835	79.94
374.061	85.94
374.287	85.94
374.513	95.94
374.739	84.94
374.965	87.94
375.191	91.94
375.416	73.94
375.642	86.94
375.868	95.94
376.094	83.94
376.319	77.94
376.545	82.94
376.771	76.94
376.997	62.94
377.222	78.94
377.448	89.94
377.674	61.94
377.899	91.94
378.125	82.94
378.35	77.94
378.576	71.94
378.802	66.94
379.027	67.94
379.253	87.94
379.478	85.94
379.704	73.94
379.929	81.94
380.155	87.94
380.38	80.94
380.606	92.94
380.831	84.94
381.057	86.94
381.282	91.94
381.507	74.94
381.733	80.94
381.958	81.94
382.184	78.94
382.409	79.94
382.634	81.94
382.86	96.94
383.085	86.94
383.31	94.94
383.535	85.94
383.761	79.94
383.986	85.94
384.211	67.94
384.436	73.94
384.662	71.94
384.887	72.94
385.112	91.94
385.337	81.94
385.562	76.94
385.787	70.94
386.013	85.94
386.238	86.94
386.463	80.94
386.688	99.94
386.913	77.94
387.138	86.94
387.363	90.94
387.588	74.94
387.813	87.94
388.038	85.94
388.263	81.94
388.488	83.94
388.713	82.94
388.938	93.94
389.163	81.94
389.387	85.94
389.612	91.94
389.837	77.94
390.062	85.94
390.287	73.94
390.512	81.94
390.736	87.94
390.961	68.94
391.186	78.94
391.411	79.94
391.636	85.94
391.86	71.94
392.085	73.94
392.31	82.94
392.534	80.94
392.759	78.94
392.984	87.94
393.208	89.94
393.433	78.94
393.658	77.94
393.882	81.94
394.107	82.94
394.331	77.94
394.556	75.94
394.78	79.94
395.005	88.94
395.229	63.94
395.454	75.94
395.678	85.94
395.903	74.94
396.127	75.94
396.352	64.94
396.576	73.94
396.801	86.94
397.025	77.94
397.249	79.94
397.474	77.94
397.698	78.94
397.922	78.94
398.147	65.94
398.371	81.94
398.595	78.94
398.82	73.94
399.044	85.94
399.268	84.94
399.492	83.94
399.717	74.94
399.941	77.94
400.165	76.94
400.389	74.94
400.613	80.94
400.837	87.94
401.062	88.94
401.286	84.94
401.51	80.94
401.734	83.94
401.958	72.94
402.182	75.94
402.406	94.94
402.63	73.94
402.854	75.94
403.078	73.94
403.302	81.94
403.526	68.94
403.75	76.94
403.974	85.94
404.198	82.94
404.422	84.94
404.645	75.94
404.869	83.94
405.093	66.94
405.317	78.94
405.541	89.94
405.765	79.94
405.988	80.94
406.212	75.94
406.436	77.94
406.66	87.94
406.883	101.94
407.107	81.94
407.331	72.94
407.555	73.94
407.778	80.94
408.002	90.94
408.226	70.94
408.449	88.94
408.673	79.94
408.896	80.94
409.12	65.94
409.344	86.94
409.567	83.94
409.791	90.94
410.014	74.94
410.238	74.94
410.461	82.94
410.685	98.94
410.908	76.94
411.132	87.94
411.355	83.94
411.578	93.94
411.802	82.94
412.025	72.94
412.249	68.94
412.472	78.94
412.695	70.94
412.919	87.94
413.142	62.94
413.365	80.94
413.589	77.94
413.812	83.94
414.035	84.94
414.258	87.94
414.482	73.94
414.705	84.94
414.928	81.94
415.151	72.94
415.374	87.94
415.597	75.94
415.821	77.94
416.044	70.94
416.267	81.94
416.49	75.94
416.713	87.94
416.936	87.94
417.159	75.94
417.382	95.94
417.605	83.94
417.828	70.94
418.051	80.94
418.274	76.94
418.497	83.94
418.72	59.94
418.943	89.94
419.166	83.94
419.389	86.94
419.611	92.94
419.834	83.94
420.057	75.94
420.28	75.94
420.503	82.94
420.726	76.94
420.948	66.94
421.171	73.94
421.394	83.94
421.617	74.94
421.839	74.94
422.062	76.94
422.285	81.94
422.507	75.94
422.73	87.94
422.953	73.94
423.175	71.94
423.398	71.94
423.621	74.94
423.843	72.94
424.066	81.94
424.288	83.94
424.511	83.94
424.733	81.94
424.956	65.94
425.178	73.94
425.401	82.94
425.623	73.94
425.846	84.94
426.068	73.94
426.291	92.94
426.513	84.94
426.735	87.94
426.958	85.94
427.18	84.94
427.402	79.94
427.625	76.94
427.847	77.94
428.069	84.94
428.292	79.94
428.514	73.94
428.736	77.94
428.958	65.94
429.181	82.94
429.403	85.94
429.625	75.94
429.847	76.94
430.069	64.94
430.292	86.94
430.514	96.94
430.736	85.94
430.958	77.94
431.18	76.94
431.402	71.94
431.624	91.94
431.846	86.94
432.068	87.94
432.29	87.94
432.512	78.94
432.734	76.94
432.956	74.94
433.178	89.94
433.4	80.94
433.622	72.94
433.844	85.94
434.066	75.94
434.287	88.94
434.509	80.94
434.731	75.94
434.953	83.94
435.175	86.94
435.397	85.94
435.618	75.94
435.84	81.94
436.062	75.94
436.284	84.94
436.505	74.94
436.727	83.94
436.949	80.94
437.17	85.94
437.392	83.94
437.614	66.94
437.835	82.94
438.057	75.94
438.278	74.94
438.5	79.94
438.721	90.94
438.943	90.94
439.165	80.94
439.386	74.94
439.608	71.94
439.829	68.94
440.05	87.94
440.272	86.94
440.493	80.94
440.715	76.94
440.936	88.94
441.158	66.94
441.379	70.94
441.6	83.94
441.822	70.94
442.043	82.94
442.264	72.94
442.486	77.94
442.707	64.94
442.928	78.94
443.149	89.94
443.371	79.94
443.592	76.94
443.813	80.94
444.034	77.94
444.255	73.94
444.476	92.94
444.698	67.94
444.919	85.94
445.14	138.94
445.361	97.94
445.582	73.94
445.803	68.94
446.024	73.94
446.245	76.94
446.466	92.94
446.687	75.94
446.908	71.94
447.129	87.94
447.35	75.94
447.571	74.94
447.792	82.94
448.013	64.94
448.234	99.94
448.455	92.94
448.675	91.94
448.896	67.94
449.117	93.94
449.338	82.94
449.559	78.94
449.779	89.94
450	71.94
450.221	80.94
450.442	82.94
450.662	76.94
450.883	73.94
451.104	77.94
451.324	74.94
451.545	79.94
451.766	86.94
451.986	66.94
452.207	89.94
452.428	72.94
452.648	83.94
452.869	80.94
453.089	90.94
453.31	68.94
453.53	89.94
453.751	68.94
453.971	68.94
454.192	86.94
454.412	74.94
454.633	79.94
454.853	76.94
455.073	85.94
455.294	89.94
455.514	70.94
455.734	77.94
455.955	99.94
456.175	79.94
456.395	94.94
456.616	67.94
456.836	72.94
457.056	76.94
457.276	74.94
457.497	82.94
457.717	74.94
457.937	76.94
458.157	89.94
458.377	90.94
458.598	70.94
458.818	61.94
459.038	88.94
459.258	91.94
459.478	80.94
459.698	77.94
459.918	94.94
460.138	71.94
460.358	81.94
460.578	89.94
460.798	76.94
461.018	93.94
461.238	92.94
461.458	87.94
461.678	93.94
461.898	83.94
462.118	92.94
462.338	90.94
462.558	77.94
462.777	88.94
462.997	76.94
463.217	82.94
463.437	83.94
463.657	79.94
463.876	78.94
464.096	75.94
464.316	85.94
464.536	84.94
464.755	79.94
464.975	72.94
465.195	75.94
465.414	77.94
465.634	77.94
465.854	85.94
466.073	97.94
466.293	70.94
466.512	73.94
466.732	60.94
466.951	86.94
467.171	79.94
467.391	87.94
467.61	78.94
467.829	77.94
468.049	76.94
468.268	83.94
468.488	81.94
468.707	79.94
468.927	78.94
469.146	83.94
469.365	82.94
469.585	83.94
469.804	66.94
470.023	66.94
470.243	102.94
470.462	85.94
470.681	85.94
470.901	82.94
471.12	88.94
471.339	81.94
471.558	68.94
471.777	78.94
471.997	69.94
472.216	83.94
472.435	66.94
472.654	75.94
472.873	76.94
473.092	81.94
473.311	86.94
473.53	92.94
473.749	88.94
473.968	99.94
474.187	77.94
474.406	86.94
474.625	80.94
474.844	73.94
475.063	66.94
475.282	73.94
475.501	87.94
475.72	88.94
475.939	91.94
476.158	87.94
476.377	82.94
476.596	82.94
476.814	81.94
477.033	73.94
477.252	85.94
477.471	80.94
477.69	89.94
477.908	78.94
478.127	81.94
478.346	83.94
478.564	89.94
478.783	71.94
479.002	80.94
479.22	88.94
479.439	87.94
479.658	84.94
479.876	76.94
480.095	74.94
480.313	93.94
480.532	78.94
480.751	95.94
480.969	88.94
481.188	71.94
481.406	77.94
481.624	86.94
481.843	68.94
482.061	80.94
482.28	70.94
482.498	79.94
482.717	73.94
482.935	84.94
483.153	92.94
483.372	83.94
483.59	87.94
483.808	89.94
484.027	75.94
484.245	74.94
484.463	69.94
484.681	81.94
484.9	59.94
485.118	84.94
485.336	86.94
485.554	88.94
485.772	78.94
485.99	71.94
486.209	86.94
486.427	73.94
486.645	79.94
486.863	74.94
487.081	77.94
487.299	78.94
487.517	92.94
487.735	85.94
487.953	77.94
488.171	74.94
488.389	71.94
488.607	73.94
488.825	83.94
489.043	74.94
489.261	81.94
489.479	81.94
489.696	82.94
489.914	84.94
490.132	67.94
490.35	71.94
490.568	73.94
490.786	78.94
491.003	90.94
491.221	79.94
491.439	87.94
491.657	85.94
491.874	76.94
492.092	82.94
492.31	74.94
492.527	97.94
492.745	82.94
492.963	84.94
493.18	77.94
493.398	85.94
493.615	83.94
493.833	72.94
494.05	83.94
494.268	81.94
494.485	83.94
494.703	87.94
494.92	84.94
495.138	80.94
495.355	87.94
495.573	95.94
495.79	93.94
496.008	89.94
496.225	79.94
496.442	73.94
496.66	94.94
496.877	93.94
497.094	85.94
497.312	73.94
497.529	82.94
497.746	88.94
497.963	75.94
498.181	76.94
498.398	85.94
498.615	81.94
498.832	82.94
499.049	78.94
499.267	89.94
499.484	76.94
499.701	89.94
499.918	101.94
500.135	77.94
500.352	77.94
500.569	87.94
500.786	74.94
501.003	83.94
501.22	73.94
501.437	82.94
501.654	82.94
501.871	90.94
502.088	74.94
502.305	85.94
502.522	66.94
502.739	68.94
502.956	77.94
503.172	75.94
503.389	89.94
503.606	85.94
503.823	97.94
504.04	90.94
504.256	75.94
504.473	80.94
504.69	81.94
504.907	81.94
505.123	78.94
505.34	85.94
505.557	91.94
505.773	77.94
505.99	60.94
506.207	75.94
506.423	78.94
506.64	85.94
506.856	86.94
507.073	82.94
507.289	81.94
507.506	85.94
507.722	69.94
507.939	76.94
508.155	86.94
508.372	93.94
508.588	78.94
508.805	79.94
509.021	66.94
509.238	74.94
509.454	86.94
509.67	81.94
509.887	81.94
510.103	82.94
510.319	73.94
510.536	87.94
510.752	75.94
510.968	90.94
511.184	76.94
511.401	73.94
511.617	81.94
511.833	74.94
512.049	89.94
512.265	95.94
512.481	82.94
512.698	76.94
512.914	76.94
513.13	90.94
513.346	87.94
513.562	86.94
513.778	69.94
513.994	87.94
514.21	81.94
514.426	86.94
514.642	93.94
514.858	78.94
515.074	87.94
515.29	80.94
515.506	83.94
515.721	80.94
515.937	77.94
516.153	87.94
516.369	74.94
516.585	80.94
516.801	79.94
517.016	89.94
517.232	88.94
517.448	93.94
517.664	67.94
517.879	74.94
518.095	87.94
518.311	81.94
518.527	80.94
518.742	92.94
518.958	75.94
519.173	74.94
519.389	83.94
519.605	84.94
519.82	83.94
520.036	85.94
