Data from Background_1_HRD10591_00016.txt Node
Date: Wed Nov 05 14:39:06 EST 2025
User: Yrep
Spectrometer: HR+D1059
Trigger mode: 1
Integration Time (sec): 1.000000E-1
Scans to average: 1
Electric dark correction enabled: true
Nonlinearity correction enabled: false
Boxcar width: 0
XAxis mode: Wavelengths
Number of Pixels in Spectrum: 2048
>>>>>Begin Spectral Data<<<<<
223.165	-7
223.4	-7
223.635	-7
223.869	-15
224.104	-31
224.338	-24
224.573	-13
224.808	-10
225.042	-3
225.277	-12
225.511	-7
225.746	13
225.98	7
226.215	-1
226.449	13
226.683	35
226.918	27
227.152	28
227.387	29
227.621	32
227.856	47
228.09	35
228.324	46
228.559	62
228.793	58
229.027	60
229.262	63
229.496	54
229.73	61
229.964	79
230.199	64
230.433	85
230.667	74
230.901	69
231.136	81
231.37	74
231.604	73
231.838	91
232.072	84
232.306	76
232.541	77
232.775	68
233.009	61
233.243	84
233.477	87
233.711	99
233.945	79
234.179	90
234.413	86
234.647	78
234.881	82
235.115	72
235.349	81
235.583	66
235.817	77
236.051	82
236.285	73
236.519	78
236.753	80
236.987	85
237.221	58
237.455	61
237.689	77
237.922	65
238.156	76
238.39	74
238.624	72
238.858	74
239.091	82
239.325	60
239.559	78
239.793	68
240.027	71
240.26	80
240.494	79
240.728	84
240.961	76
241.195	68
241.429	67
241.662	74
241.896	67
242.13	93
242.363	73
242.597	61
242.83	62
243.064	92
243.298	70
243.531	72
243.765	86
243.998	73
244.232	79
244.465	68
244.699	81
244.932	68
245.166	66
245.399	92
245.633	78
245.866	76
246.099	75
246.333	80
246.566	75
246.8	78
247.033	75
247.266	77
247.5	79
247.733	76
247.966	76
248.2	80
248.433	72
248.666	68
248.899	66
249.133	76
249.366	75
249.599	76
249.832	69
250.066	87
250.299	80
250.532	86
250.765	67
250.998	68
251.231	70
251.465	79
251.698	84
251.931	68
252.164	82
252.397	73
252.63	89
252.863	76
253.096	78
253.329	77
253.562	80
253.795	53
254.028	78
254.261	66
254.494	70
254.727	75
254.96	74
255.193	79
255.426	75
255.659	71
255.892	88
256.124	76
256.357	78
256.59	82
256.823	67
257.056	69
257.289	86
257.521	69
257.754	70
257.987	73
258.22	84
258.452	86
258.685	73
258.918	84
259.151	86
259.383	86
259.616	72
259.849	82
260.081	92
260.314	84
260.547	92
260.779	67
261.012	70
261.244	78
261.477	81
261.71	72
261.942	75
262.175	73
262.407	72
262.64	74
262.872	82
263.105	85
263.337	76
263.57	81
263.802	92
264.035	84
264.267	71
264.499	86
264.732	73
264.964	88
265.197	95
265.429	75
265.661	84
265.894	91
266.126	87
266.358	70
266.591	78
266.823	73
267.055	64
267.287	69
267.52	87
267.752	96
267.984	89
268.216	92
268.448	76
268.681	82
268.913	79
269.145	83
269.377	82
269.609	80
269.841	83
270.073	90
270.306	76
270.538	91
270.77	84
271.002	85
271.234	80
271.466	92
271.698	86
271.93	73
272.162	62
272.394	77
272.626	78
272.858	82
273.09	81
273.322	89
273.553	84
273.785	82
274.017	84
274.249	85
274.481	76
274.713	74
274.945	78
275.176	86
275.408	71
275.64	82
275.872	78
276.104	85
276.335	86
276.567	79
276.799	83
277.031	69
277.262	82
277.494	80
277.726	75
277.957	79
278.189	61
278.421	86
278.652	86
278.884	92
279.115	79
279.347	90
279.579	73
279.81	78
280.042	87
280.273	86
280.505	76
280.736	84
280.968	79
281.199	97
281.431	84
281.662	84
281.894	86
282.125	75
282.356	74
282.588	92
282.819	90
283.051	93
283.282	75
283.513	78
283.745	83
283.976	81
284.207	76
284.439	90
284.67	84
284.901	81
285.132	83
285.364	73
285.595	79
285.826	83
286.057	82
286.288	85
286.52	84
286.751	76
286.982	77
287.213	77
287.444	64
287.675	87
287.906	79
288.138	76
288.369	80
288.6	81
288.831	74
289.062	81
289.293	85
289.524	66
289.755	80
289.986	91
290.217	78
290.448	72
290.679	91
290.91	92
291.141	71
291.371	78
291.602	84
291.833	90
292.064	87
292.295	99
292.526	86
292.757	73
292.987	83
293.218	78
293.449	96
293.68	80
293.91	86
294.141	79
294.372	82
294.603	88
294.833	83
295.064	91
295.295	80
295.525	82
295.756	75
295.987	80
296.217	76
296.448	74
296.679	85
296.909	75
297.14	77
297.37	90
297.601	79
297.831	90
298.062	86
298.292	92
298.523	90
298.753	84
298.984	88
299.214	82
299.445	93
299.675	71
299.905	82
300.136	84
300.366	75
300.597	80
300.827	81
301.057	66
301.288	84
301.518	76
301.748	70
301.979	87
302.209	95
302.439	86
302.669	74
302.9	66
303.13	81
303.36	95
303.59	77
303.82	76
304.051	87
304.281	79
304.511	77
304.741	95
304.971	77
305.201	82
305.431	90
305.661	87
305.891	83
306.121	75
306.352	73
306.582	86
306.812	81
307.042	84
307.272	96
307.502	77
307.731	71
307.961	87
308.191	81
308.421	89
308.651	90
308.881	87
309.111	80
309.341	69
309.571	93
309.8	89
310.03	87
310.26	81
310.49	89
310.72	76
310.949	74
311.179	78
311.409	81
311.639	68
311.868	79
312.098	72
312.328	86
312.557	85
312.787	91
313.017	75
313.246	97
313.476	100
313.706	76
313.935	92
314.165	83
314.394	88
314.624	83
314.853	90
315.083	89
315.312	81
315.542	83
315.771	77
316.001	92
316.23	109
316.46	87
316.689	86
316.919	84
317.148	91
317.377	96
317.607	95
317.836	95
318.065	91
318.295	69
318.524	90
318.753	81
318.983	90
319.212	99
319.441	83
319.67	93
319.9	73
320.129	78
320.358	75
320.587	76
320.816	71
321.046	75
321.275	79
321.504	82
321.733	86
321.962	74
322.191	79
322.42	91
322.649	68
322.878	98
323.108	80
323.337	88
323.566	95
323.795	83
324.024	77
324.253	78
324.482	83
324.71	76
324.939	84
325.168	84
325.397	88
325.626	89
325.855	72
326.084	79
326.313	78
326.542	88
326.77	63
326.999	93
327.228	93
327.457	65
327.686	76
327.914	86
328.143	83
328.372	76
328.6	68
328.829	84
329.058	79
329.287	84
329.515	87
329.744	84
329.972	81
330.201	80
330.43	80
330.658	82
330.887	94
331.115	79
331.344	71
331.572	81
331.801	83
332.03	91
332.258	84
332.486	68
332.715	84
332.943	83
333.172	81
333.4	79
333.629	94
333.857	87
334.085	83
334.314	92
334.542	84
334.771	79
334.999	63
335.227	90
335.455	94
335.684	75
335.912	77
336.14	79
336.369	90
336.597	94
336.825	92
337.053	91
337.281	87
337.51	79
337.738	88
337.966	86
338.194	82
338.422	82
338.65	95
338.878	84
339.106	92
339.334	83
339.562	80
339.79	83
340.018	93
340.246	83
340.474	86
340.702	80
340.93	96
341.158	80
341.386	88
341.614	93
341.842	80
342.07	94
342.298	78
342.526	73
342.754	102
342.981	84
343.209	82
343.437	84
343.665	72
343.893	89
344.12	85
344.348	97
344.576	79
344.804	91
345.031	72
345.259	88
345.487	78
345.714	83
345.942	89
346.17	71
346.397	91
346.625	83
346.853	77
347.08	90
347.308	85
347.535	82
347.763	84
347.99	81
348.218	67
348.445	72
348.673	92
348.9	79
349.128	88
349.355	86
349.583	83
349.81	86
350.037	78
350.265	95
350.492	100
350.72	70
350.947	88
351.174	90
351.402	87
351.629	96
351.856	79
352.083	74
352.311	74
352.538	93
352.765	84
352.992	79
353.22	90
353.447	89
353.674	84
353.901	71
354.128	85
354.355	79
354.583	86
354.81	86
355.037	84
355.264	81
355.491	82
355.718	86
355.945	90
356.172	78
356.399	76
356.626	88
356.853	93
357.08	68
357.307	83
357.534	95
357.761	77
357.988	82
358.215	85
358.441	76
358.668	80
358.895	81
359.122	76
359.349	78
359.576	83
359.802	87
360.029	88
360.256	76
360.483	80
360.709	74
360.936	72
361.163	80
361.39	78
361.616	79
361.843	76
362.07	69
362.296	85
362.523	90
362.749	67
362.976	94
363.203	83
363.429	89
363.656	85
363.882	80
364.109	89
364.335	91
364.562	80
364.788	76
365.015	80
365.241	81
365.468	84
365.694	83
365.92	78
366.147	68
366.373	82
366.599	70
366.826	82
367.052	80
367.278	90
367.505	70
367.731	72
367.957	79
368.184	86
368.41	85
368.636	68
368.862	100
369.089	77
369.315	82
369.541	103
369.767	76
369.993	87
370.219	95
370.445	88
370.672	74
370.898	86
371.124	75
371.35	80
371.576	79
371.802	67
372.028	75
372.254	72
372.48	92
372.706	73
372.932	77
373.158	85
373.384	82
373.61	87
373.835	90
374.061	79
374.287	76
374.513	73
374.739	78
374.965	85
375.191	81
375.416	77
375.642	91
375.868	72
376.094	86
376.319	74
376.545	76
376.771	73
376.997	80
377.222	69
377.448	61
377.674	72
377.899	94
378.125	70
378.35	73
378.576	84
378.802	78
379.027	92
379.253	87
379.478	81
379.704	78
379.929	75
380.155	83
380.38	79
380.606	77
380.831	85
381.057	92
381.282	89
381.507	68
381.733	78
381.958	79
382.184	77
382.409	84
382.634	75
382.86	79
383.085	84
383.31	87
383.535	68
383.761	94
383.986	74
384.211	60
384.436	82
384.662	79
384.887	86
385.112	97
385.337	81
385.562	72
385.787	69
386.013	87
386.238	76
386.463	63
386.688	88
386.913	73
387.138	70
387.363	69
387.588	74
387.813	89
388.038	75
388.263	76
388.488	76
388.713	73
388.938	82
389.163	73
389.387	73
389.612	80
389.837	81
390.062	92
390.287	75
390.512	76
390.736	84
390.961	83
391.186	87
391.411	82
391.636	69
391.86	100
392.085	74
392.31	90
392.534	75
392.759	99
392.984	82
393.208	66
393.433	79
393.658	81
393.882	86
394.107	89
394.331	82
394.556	76
394.78	91
395.005	78
395.229	81
395.454	79
395.678	72
395.903	78
396.127	75
396.352	90
396.576	80
396.801	86
397.025	93
397.249	81
397.474	86
397.698	72
397.922	91
398.147	94
398.371	87
398.595	86
398.82	76
399.044	68
399.268	104
399.492	71
399.717	84
399.941	95
400.165	94
400.389	68
400.613	88
400.837	95
401.062	84
401.286	84
401.51	78
401.734	88
401.958	85
402.182	74
402.406	89
402.63	71
402.854	77
403.078	88
403.302	82
403.526	76
403.75	92
403.974	91
404.198	78
404.422	80
404.645	76
404.869	78
405.093	81
405.317	79
405.541	88
405.765	83
405.988	78
406.212	86
406.436	76
406.66	80
406.883	82
407.107	87
407.331	84
407.555	74
407.778	82
408.002	90
408.226	89
408.449	102
408.673	93
408.896	86
409.12	78
409.344	73
409.567	75
409.791	84
410.014	71
410.238	74
410.461	80
410.685	92
410.908	90
411.132	79
411.355	78
411.578	71
411.802	70
412.025	75
412.249	80
412.472	67
412.695	72
412.919	85
413.142	86
413.365	90
413.589	80
413.812	78
414.035	73
414.258	80
414.482	76
414.705	83
414.928	81
415.151	69
415.374	96
415.597	84
415.821	72
416.044	93
416.267	86
416.49	65
416.713	77
416.936	105
417.159	77
417.382	83
417.605	74
417.828	89
418.051	73
418.274	91
418.497	76
418.72	78
418.943	84
419.166	92
419.389	77
419.611	77
419.834	80
420.057	81
420.28	78
420.503	80
420.726	74
420.948	85
421.171	87
421.394	88
421.617	75
421.839	74
422.062	72
422.285	61
422.507	78
422.73	68
422.953	88
423.175	74
423.398	82
423.621	69
423.843	77
424.066	86
424.288	77
424.511	98
424.733	73
424.956	75
425.178	77
425.401	76
425.623	82
425.846	68
426.068	76
426.291	84
426.513	75
426.735	67
426.958	81
427.18	91
427.402	93
427.625	83
427.847	68
428.069	76
428.292	74
428.514	83
428.736	84
428.958	67
429.181	80
429.403	80
429.625	79
429.847	83
430.069	80
430.292	86
430.514	82
430.736	83
430.958	72
431.18	91
431.402	77
431.624	80
431.846	88
432.068	80
432.29	71
432.512	74
432.734	88
432.956	86
433.178	86
433.4	90
433.622	75
433.844	56
434.066	86
434.287	74
434.509	80
434.731	76
434.953	81
435.175	85
435.397	86
435.618	82
435.84	80
436.062	75
436.284	80
436.505	69
436.727	79
436.949	84
437.17	78
437.392	80
437.614	77
437.835	72
438.057	78
438.278	68
438.5	81
438.721	88
438.943	74
439.165	70
439.386	73
439.608	75
439.829	81
440.05	72
440.272	76
440.493	88
440.715	81
440.936	84
441.158	87
441.379	77
441.6	78
441.822	83
442.043	78
442.264	76
442.486	82
442.707	87
442.928	84
443.149	86
443.371	73
443.592	78
443.813	77
444.034	85
444.255	86
444.476	90
444.698	87
444.919	71
445.14	139
445.361	106
445.582	94
445.803	87
446.024	67
446.245	87
446.466	90
446.687	72
446.908	90
447.129	90
447.35	82
447.571	89
447.792	58
448.013	76
448.234	82
448.455	67
448.675	87
448.896	83
449.117	71
449.338	80
449.559	70
449.779	90
450	86
450.221	74
450.442	71
450.662	76
450.883	84
451.104	72
451.324	86
451.545	84
451.766	68
451.986	76
452.207	82
452.428	77
452.648	72
452.869	82
453.089	83
453.31	77
453.53	79
453.751	74
453.971	76
454.192	81
454.412	78
454.633	75
454.853	85
455.073	83
455.294	74
455.514	78
455.734	71
455.955	79
456.175	79
456.395	77
456.616	86
456.836	69
457.056	86
457.276	79
457.497	77
457.717	74
457.937	89
458.157	81
458.377	76
458.598	84
458.818	72
459.038	76
459.258	76
459.478	82
459.698	83
459.918	82
460.138	87
460.358	74
460.578	77
460.798	100
461.018	77
461.238	90
461.458	92
461.678	84
461.898	93
462.118	76
462.338	77
462.558	73
462.777	75
462.997	82
463.217	66
463.437	73
463.657	75
463.876	71
464.096	77
464.316	78
464.536	74
464.755	83
464.975	70
465.195	74
465.414	99
465.634	95
465.854	82
466.073	68
466.293	79
466.512	88
466.732	72
466.951	82
467.171	77
467.391	70
467.61	83
467.829	83
468.049	64
468.268	83
468.488	78
468.707	80
468.927	82
469.146	82
469.365	78
469.585	97
469.804	87
470.023	74
470.243	73
470.462	82
470.681	66
470.901	68
471.12	81
471.339	84
471.558	65
471.777	63
471.997	76
472.216	83
472.435	69
472.654	69
472.873	80
473.092	82
473.311	83
473.53	80
473.749	79
473.968	91
474.187	79
474.406	86
474.625	87
474.844	94
475.063	84
475.282	78
475.501	71
475.72	77
475.939	76
476.158	87
476.377	95
476.596	72
476.814	82
477.033	78
477.252	76
477.471	80
477.69	94
477.908	74
478.127	69
478.346	59
478.564	84
478.783	75
479.002	80
479.22	71
479.439	67
479.658	86
479.876	72
480.095	84
480.313	82
480.532	83
480.751	89
480.969	86
481.188	75
481.406	80
481.624	94
481.843	70
482.061	75
482.28	78
482.498	77
482.717	88
482.935	78
483.153	78
483.372	74
483.59	86
483.808	66
484.027	80
484.245	90
484.463	80
484.681	75
484.9	89
485.118	93
485.336	69
485.554	83
485.772	72
485.99	83
486.209	90
486.427	85
486.645	90
486.863	76
487.081	68
487.299	87
487.517	76
487.735	86
487.953	83
488.171	90
488.389	86
488.607	86
488.825	75
489.043	68
489.261	97
489.479	77
489.696	84
489.914	74
490.132	79
490.35	84
490.568	81
490.786	83
491.003	76
491.221	91
491.439	65
491.657	87
491.874	76
492.092	81
492.31	78
492.527	67
492.745	80
492.963	83
493.18	80
493.398	75
493.615	77
493.833	88
494.05	72
494.268	81
494.485	68
494.703	80
494.92	87
495.138	81
495.355	72
495.573	77
495.79	91
496.008	87
496.225	90
496.442	73
496.66	94
496.877	72
497.094	76
497.312	79
497.529	85
497.746	81
497.963	87
498.181	76
498.398	81
498.615	81
498.832	77
499.049	82
499.267	86
499.484	70
499.701	87
499.918	76
500.135	79
500.352	84
500.569	90
500.786	81
501.003	88
501.22	84
501.437	94
501.654	86
501.871	73
502.088	88
502.305	81
502.522	84
502.739	71
502.956	88
503.172	81
503.389	78
503.606	67
503.823	80
504.04	98
504.256	78
504.473	64
504.69	84
504.907	88
505.123	75
505.34	84
505.557	85
505.773	88
505.99	96
506.207	80
506.423	84
506.64	78
506.856	78
507.073	78
507.289	78
507.506	79
507.722	73
507.939	94
508.155	80
508.372	74
508.588	68
508.805	78
509.021	93
509.238	82
509.454	98
509.67	83
509.887	78
510.103	88
510.319	86
510.536	88
510.752	73
510.968	81
511.184	87
511.401	80
511.617	83
511.833	79
512.049	81
512.265	88
512.481	97
512.698	72
512.914	94
513.13	67
513.346	76
513.562	79
513.778	76
513.994	69
514.21	82
514.426	83
514.642	83
514.858	83
515.074	86
515.29	88
515.506	76
515.721	82
515.937	81
516.153	87
516.369	86
516.585	79
516.801	86
517.016	84
517.232	73
517.448	80
517.664	85
517.879	83
518.095	84
518.311	80
518.527	79
518.742	79
518.958	83
519.173	90
519.389	95
519.605	74
519.82	78
520.036	78
520.251	74
520.467	86
520.682	86
520.898	79
521.113	73
521.329	76
521.544	91
521.76	87
521.975	73
522.19	87
522.406	92
522.621	82
522.836	69
523.052	75
523.267	90
523.482	72
523.698	83
523.913	90
524.128	78
524.343	74
524.559	80
524.774	75
524.989	91
525.204	94
525.419	79
525.634	86
525.849	92
526.064	87
526.28	84
526.495	79
526.71	81
526.925	68
527.14	90
527.355	78
527.57	78
527.785	86
527.999	88
528.214	86
528.429	76
528.644	80
528.859	76
529.074	85
529.289	97
529.503	87
529.718	75
529.933	86
530.148	88
530.363	78
530.577	79
530.792	88
531.007	93
531.221	81
531.436	70
531.651	77
531.865	73
532.08	81
532.295	91
532.509	81
532.724	84
532.938	83
533.153	91
533.367	88
533.582	83
533.796	83
534.011	81
534.225	72
534.44	78
534.654	75
534.868	94
535.083	92
535.297	76
535.511	88
535.726	72
535.94	83
536.154	90
536.369	83
536.583	74
536.797	80
537.011	80
537.225	78
537.44	68
537.654	87
537.868	83
538.082	85
538.296	92
538.51	79
538.724	80
538.938	87
539.153	77
539.367	86
539.581	77
539.795	68
540.009	84
540.222	80
540.436	74
540.65	91
540.864	83
541.078	79
541.292	70
541.506	69
541.72	84
541.934	87
542.147	75
542.361	81
542.575	82
542.789	81
543.002	92
543.216	78
543.43	81
543.644	96
543.857	78
544.071	74
544.285	81
544.498	86
544.712	81
544.925	80
545.139	77
545.352	85
545.566	83
545.779	79
545.993	83
546.206	94
546.42	75
546.633	72
546.847	89
547.06	83
547.274	79
547.487	68
547.7	89
547.914	85
548.127	97
548.34	84
548.554	71
548.767	89
548.98	84
549.193	73
549.407	68
549.62	79
549.833	80
550.046	83
550.259	74
550.473	94
550.686	77
550.899	81
551.112	77
551.325	71
551.538	78
551.751	78
551.964	82
552.177	77
552.39	79
552.603	86
552.816	78
553.029	89
553.242	62
553.455	76
553.667	77
553.88	91
554.093	88
554.306	81
554.519	82
554.732	88
554.944	78
555.157	82
555.37	91
555.583	87
555.795	79
556.008	91
556.221	87
556.433	82
556.646	83
556.859	78
557.071	78
557.284	91
557.496	77
557.709	73
557.921	90
558.134	94
558.346	84
558.559	96
558.771	90
558.984	72
559.196	85
559.409	61
559.621	95
559.833	84
560.046	76
560.258	84
560.47	89
560.683	91
560.895	80
561.107	79
561.32	77
561.532	85
561.744	84
561.956	77
562.168	73
562.381	88
562.593	78
562.805	79
563.017	85
563.229	72
563.441	83
563.653	83
563.865	72
564.077	90
564.289	92
564.501	80
564.713	87
564.925	80
565.137	82
565.349	77
565.561	83
565.773	83
565.985	73
566.197	87
566.408	76
566.62	83
566.832	89
567.044	95
567.255	75
567.467	68
567.679	84
567.891	71
568.102	95
568.314	74
568.526	83
568.737	88
568.949	84
569.161	92
569.372	89
569.584	74
569.795	81
570.007	97
570.218	87
570.43	74
570.641	85
570.853	68
571.064	80
571.276	77
571.487	81
571.698	84
571.91	82
572.121	72
572.333	84
572.544	80
572.755	80
572.966	89
573.178	90
573.389	80
573.6	84
573.811	86
574.023	82
574.234	70
574.445	89
574.656	82
574.867	79
575.078	78
575.289	73
575.501	87
575.712	79
575.923	75
576.134	64
576.345	94
576.556	82
576.767	82
576.978	97
577.188	86
577.399	82
577.61	99
577.821	87
578.032	83
578.243	70
578.454	86
578.665	96
578.875	83
579.086	90
579.297	76
579.508	95
579.718	74
579.929	96
580.14	95
580.35	78
580.561	85
580.772	81
580.982	80
581.193	81
581.403	78
581.614	70
581.825	81
582.035	92
582.246	86
582.456	81
582.667	85
582.877	74
583.087	74
583.298	87
583.508	77
583.719	83
583.929	81
584.139	84
584.35	82
584.56	79
584.77	75
584.981	79
585.191	83
585.401	77
585.611	88
585.821	82
586.032	85
586.242	103
586.452	75
586.662	79
586.872	85
587.082	90
587.292	78
587.502	83
587.713	88
587.923	88
588.133	86
588.343	83
588.553	84
588.762	84
588.972	78
589.182	82
589.392	88
589.602	86
589.812	71
590.022	84
590.232	81
590.441	84
590.651	94
590.861	87
