Data from Background_1_HRD10591_00089.txt Node
Date: Wed Nov 05 14:39:42 EST 2025
User: Yrep
Spectrometer: HR+D1059
Trigger mode: 1
Integration Time (sec): 1.000000E-1
Scans to average: 1
Electric dark correction enabled: true
Nonlinearity correction enabled: false
Boxcar width: 0
XAxis mode: Wavelengths
Number of Pixels in Spectrum: 2048
>>>>>Begin Spectral Data<<<<<
223.165	-15.81
223.4	-15.81
223.635	-15.81
223.869	-13.81
224.104	-18.81
224.338	-3.81
224.573	-16.81
224.808	-30.81
225.042	-13.81
225.277	-5.81
225.511	-6.81
225.746	5.19
225.98	5.19
226.215	9.19
226.449	21.19
226.683	26.19
226.918	27.19
227.152	32.19
227.387	39.19
227.621	33.19
227.856	43.19
228.09	44.19
228.324	54.19
228.559	66.19
228.793	70.19
229.027	52.19
229.262	62.19
229.496	69.19
229.73	62.19
229.964	68.19
230.199	87.19
230.433	72.19
230.667	77.19
230.901	87.19
231.136	78.19
231.37	84.19
231.604	83.19
231.838	79.19
232.072	80.19
232.306	84.19
232.541	67.19
232.775	78.19
233.009	84.19
233.243	76.19
233.477	76.19
233.711	79.19
233.945	76.19
234.179	76.19
234.413	79.19
234.647	74.19
234.881	83.19
235.115	74.19
235.349	77.19
235.583	78.19
235.817	65.19
236.051	81.19
236.285	80.19
236.519	81.19
236.753	84.19
236.987	70.19
237.221	87.19
237.455	70.19
237.689	80.19
237.922	79.19
238.156	77.19
238.39	77.19
238.624	69.19
238.858	88.19
239.091	82.19
239.325	81.19
239.559	59.19
239.793	88.19
240.027	81.19
240.26	75.19
240.494	74.19
240.728	70.19
240.961	58.19
241.195	80.19
241.429	98.19
241.662	73.19
241.896	90.19
242.13	64.19
242.363	66.19
242.597	73.19
242.83	72.19
243.064	75.19
243.298	84.19
243.531	77.19
243.765	79.19
243.998	93.19
244.232	80.19
244.465	78.19
244.699	94.19
244.932	70.19
245.166	50.19
245.399	79.19
245.633	88.19
245.866	83.19
246.099	80.19
246.333	65.19
246.566	93.19
246.8	84.19
247.033	69.19
247.266	78.19
247.5	86.19
247.733	74.19
247.966	77.19
248.2	81.19
248.433	65.19
248.666	64.19
248.899	80.19
249.133	69.19
249.366	78.19
249.599	90.19
249.832	77.19
250.066	76.19
250.299	88.19
250.532	81.19
250.765	68.19
250.998	74.19
251.231	62.19
251.465	84.19
251.698	80.19
251.931	77.19
252.164	70.19
252.397	61.19
252.63	90.19
252.863	76.19
253.096	84.19
253.329	83.19
253.562	74.19
253.795	71.19
254.028	85.19
254.261	70.19
254.494	76.19
254.727	91.19
254.96	85.19
255.193	93.19
255.426	74.19
255.659	61.19
255.892	82.19
256.124	85.19
256.357	82.19
256.59	88.19
256.823	78.19
257.056	69.19
257.289	80.19
257.521	78.19
257.754	80.19
257.987	71.19
258.22	85.19
258.452	76.19
258.685	92.19
258.918	69.19
259.151	82.19
259.383	83.19
259.616	66.19
259.849	78.19
260.081	78.19
260.314	64.19
260.547	94.19
260.779	87.19
261.012	62.19
261.244	77.19
261.477	83.19
261.71	79.19
261.942	76.19
262.175	81.19
262.407	81.19
262.64	77.19
262.872	84.19
263.105	76.19
263.337	80.19
263.57	85.19
263.802	92.19
264.035	69.19
264.267	78.19
264.499	76.19
264.732	75.19
264.964	85.19
265.197	92.19
265.429	88.19
265.661	83.19
265.894	81.19
266.126	67.19
266.358	80.19
266.591	75.19
266.823	85.19
267.055	82.19
267.287	88.19
267.52	72.19
267.752	82.19
267.984	81.19
268.216	93.19
268.448	94.19
268.681	78.19
268.913	94.19
269.145	80.19
269.377	86.19
269.609	76.19
269.841	86.19
270.073	68.19
270.306	80.19
270.538	81.19
270.77	79.19
271.002	78.19
271.234	80.19
271.466	90.19
271.698	91.19
271.93	81.19
272.162	82.19
272.394	94.19
272.626	71.19
272.858	85.19
273.09	73.19
273.322	74.19
273.553	65.19
273.785	78.19
274.017	88.19
274.249	88.19
274.481	84.19
274.713	78.19
274.945	88.19
275.176	88.19
275.408	90.19
275.64	85.19
275.872	80.19
276.104	99.19
276.335	96.19
276.567	76.19
276.799	90.19
277.031	76.19
277.262	85.19
277.494	97.19
277.726	90.19
277.957	82.19
278.189	70.19
278.421	80.19
278.652	78.19
278.884	86.19
279.115	85.19
279.347	84.19
279.579	83.19
279.81	83.19
280.042	69.19
280.273	84.19
280.505	76.19
280.736	79.19
280.968	76.19
281.199	68.19
281.431	83.19
281.662	86.19
281.894	96.19
282.125	90.19
282.356	83.19
282.588	84.19
282.819	90.19
283.051	68.19
283.282	88.19
283.513	81.19
283.745	92.19
283.976	88.19
284.207	73.19
284.439	81.19
284.67	85.19
284.901	80.19
285.132	80.19
285.364	84.19
285.595	88.19
285.826	81.19
286.057	84.19
286.288	82.19
286.52	89.19
286.751	82.19
286.982	88.19
287.213	89.19
287.444	82.19
287.675	83.19
287.906	85.19
288.138	80.19
288.369	89.19
288.6	76.19
288.831	82.19
289.062	85.19
289.293	78.19
289.524	81.19
289.755	98.19
289.986	75.19
290.217	64.19
290.448	77.19
290.679	76.19
290.91	80.19
291.141	84.19
291.371	93.19
291.602	95.19
291.833	90.19
292.064	81.19
292.295	92.19
292.526	84.19
292.757	97.19
292.987	96.19
293.218	89.19
293.449	70.19
293.68	74.19
293.91	79.19
294.141	91.19
294.372	89.19
294.603	88.19
294.833	78.19
295.064	73.19
295.295	91.19
295.525	87.19
295.756	87.19
295.987	77.19
296.217	76.19
296.448	90.19
296.679	84.19
296.909	86.19
297.14	80.19
297.37	94.19
297.601	97.19
297.831	72.19
298.062	86.19
298.292	85.19
298.523	87.19
298.753	99.19
298.984	98.19
299.214	84.19
299.445	83.19
299.675	91.19
299.905	91.19
300.136	93.19
300.366	88.19
300.597	88.19
300.827	97.19
301.057	83.19
301.288	91.19
301.518	94.19
301.748	95.19
301.979	96.19
302.209	89.19
302.439	79.19
302.669	84.19
302.9	78.19
303.13	78.19
303.36	84.19
303.59	84.19
303.82	85.19
304.051	78.19
304.281	83.19
304.511	95.19
304.741	81.19
304.971	84.19
305.201	92.19
305.431	80.19
305.661	81.19
305.891	92.19
306.121	78.19
306.352	100.19
306.582	81.19
306.812	84.19
307.042	83.19
307.272	73.19
307.502	80.19
307.731	94.19
307.961	85.19
308.191	75.19
308.421	80.19
308.651	96.19
308.881	82.19
309.111	77.19
309.341	86.19
309.571	75.19
309.8	85.19
310.03	86.19
310.26	84.19
310.49	85.19
310.72	78.19
310.949	91.19
311.179	84.19
311.409	91.19
311.639	78.19
311.868	74.19
312.098	101.19
312.328	90.19
312.557	83.19
312.787	97.19
313.017	79.19
313.246	82.19
313.476	79.19
313.706	78.19
313.935	72.19
314.165	89.19
314.394	84.19
314.624	78.19
314.853	86.19
315.083	70.19
315.312	84.19
315.542	85.19
315.771	81.19
316.001	75.19
316.23	97.19
316.46	82.19
316.689	93.19
316.919	83.19
317.148	83.19
317.377	93.19
317.607	90.19
317.836	84.19
318.065	76.19
318.295	81.19
318.524	85.19
318.753	96.19
318.983	82.19
319.212	83.19
319.441	76.19
319.67	75.19
319.9	84.19
320.129	81.19
320.358	80.19
320.587	74.19
320.816	73.19
321.046	91.19
321.275	94.19
321.504	62.19
321.733	69.19
321.962	88.19
322.191	89.19
322.42	83.19
322.649	76.19
322.878	88.19
323.108	88.19
323.337	79.19
323.566	79.19
323.795	81.19
324.024	84.19
324.253	72.19
324.482	86.19
324.71	88.19
324.939	73.19
325.168	78.19
325.397	88.19
325.626	83.19
325.855	86.19
326.084	70.19
326.313	70.19
326.542	70.19
326.77	78.19
326.999	86.19
327.228	84.19
327.457	91.19
327.686	86.19
327.914	90.19
328.143	93.19
328.372	89.19
328.6	94.19
328.829	87.19
329.058	90.19
329.287	70.19
329.515	84.19
329.744	80.19
329.972	89.19
330.201	100.19
330.43	106.19
330.658	87.19
330.887	85.19
331.115	89.19
331.344	86.19
331.572	84.19
331.801	85.19
332.03	76.19
332.258	88.19
332.486	71.19
332.715	74.19
332.943	102.19
333.172	104.19
333.4	80.19
333.629	106.19
333.857	93.19
334.085	89.19
334.314	91.19
334.542	85.19
334.771	89.19
334.999	85.19
335.227	83.19
335.455	77.19
335.684	80.19
335.912	82.19
336.14	84.19
336.369	90.19
336.597	84.19
336.825	94.19
337.053	104.19
337.281	76.19
337.51	95.19
337.738	88.19
337.966	84.19
338.194	90.19
338.422	92.19
338.65	98.19
338.878	96.19
339.106	82.19
339.334	86.19
339.562	84.19
339.79	81.19
340.018	72.19
340.246	81.19
340.474	81.19
340.702	85.19
340.93	81.19
341.158	91.19
341.386	95.19
341.614	79.19
341.842	67.19
342.07	83.19
342.298	71.19
342.526	86.19
342.754	78.19
342.981	90.19
343.209	82.19
343.437	91.19
343.665	84.19
343.893	88.19
344.12	82.19
344.348	89.19
344.576	74.19
344.804	71.19
345.031	82.19
345.259	80.19
345.487	85.19
345.714	82.19
345.942	86.19
346.17	74.19
346.397	84.19
346.625	74.19
346.853	83.19
347.08	79.19
347.308	73.19
347.535	76.19
347.763	93.19
347.99	82.19
348.218	70.19
348.445	74.19
348.673	88.19
348.9	87.19
349.128	100.19
349.355	85.19
349.583	76.19
349.81	88.19
350.037	86.19
350.265	91.19
350.492	76.19
350.72	85.19
350.947	69.19
351.174	75.19
351.402	80.19
351.629	74.19
351.856	68.19
352.083	80.19
352.311	74.19
352.538	71.19
352.765	77.19
352.992	86.19
353.22	99.19
353.447	82.19
353.674	78.19
353.901	81.19
354.128	86.19
354.355	97.19
354.583	86.19
354.81	81.19
355.037	89.19
355.264	74.19
355.491	73.19
355.718	94.19
355.945	75.19
356.172	72.19
356.399	89.19
356.626	73.19
356.853	92.19
357.08	78.19
357.307	85.19
357.534	86.19
357.761	82.19
357.988	73.19
358.215	66.19
358.441	80.19
358.668	77.19
358.895	69.19
359.122	82.19
359.349	76.19
359.576	83.19
359.802	76.19
360.029	80.19
360.256	91.19
360.483	69.19
360.709	73.19
360.936	90.19
361.163	88.19
361.39	87.19
361.616	75.19
361.843	91.19
362.07	77.19
362.296	78.19
362.523	85.19
362.749	77.19
362.976	77.19
363.203	88.19
363.429	98.19
363.656	83.19
363.882	74.19
364.109	93.19
364.335	92.19
364.562	91.19
364.788	72.19
365.015	85.19
365.241	63.19
365.468	89.19
365.694	86.19
365.92	84.19
366.147	80.19
366.373	86.19
366.599	77.19
366.826	97.19
367.052	86.19
367.278	84.19
367.505	76.19
367.731	81.19
367.957	75.19
368.184	68.19
368.41	94.19
368.636	75.19
368.862	90.19
369.089	86.19
369.315	77.19
369.541	82.19
369.767	76.19
369.993	80.19
370.219	76.19
370.445	100.19
370.672	88.19
370.898	83.19
371.124	90.19
371.35	82.19
371.576	82.19
371.802	99.19
372.028	87.19
372.254	83.19
372.48	86.19
372.706	87.19
372.932	87.19
373.158	92.19
373.384	77.19
373.61	78.19
373.835	82.19
374.061	80.19
374.287	97.19
374.513	79.19
374.739	84.19
374.965	88.19
375.191	96.19
375.416	83.19
375.642	90.19
375.868	77.19
376.094	81.19
376.319	92.19
376.545	85.19
376.771	81.19
376.997	90.19
377.222	92.19
377.448	80.19
377.674	90.19
377.899	100.19
378.125	83.19
378.35	78.19
378.576	89.19
378.802	78.19
379.027	71.19
379.253	89.19
379.478	75.19
379.704	68.19
379.929	74.19
380.155	93.19
380.38	86.19
380.606	92.19
380.831	91.19
381.057	100.19
381.282	81.19
381.507	86.19
381.733	86.19
381.958	77.19
382.184	78.19
382.409	81.19
382.634	74.19
382.86	73.19
383.085	81.19
383.31	82.19
383.535	81.19
383.761	74.19
383.986	81.19
384.211	84.19
384.436	93.19
384.662	73.19
384.887	81.19
385.112	77.19
385.337	92.19
385.562	70.19
385.787	94.19
386.013	83.19
386.238	77.19
386.463	89.19
386.688	75.19
386.913	79.19
387.138	82.19
387.363	88.19
387.588	69.19
387.813	81.19
388.038	79.19
388.263	77.19
388.488	78.19
388.713	90.19
388.938	80.19
389.163	88.19
389.387	83.19
389.612	84.19
389.837	91.19
390.062	99.19
390.287	78.19
390.512	81.19
390.736	75.19
390.961	74.19
391.186	92.19
391.411	88.19
391.636	87.19
391.86	81.19
392.085	85.19
392.31	85.19
392.534	94.19
392.759	89.19
392.984	83.19
393.208	81.19
393.433	87.19
393.658	72.19
393.882	87.19
394.107	77.19
394.331	73.19
394.556	86.19
394.78	76.19
395.005	90.19
395.229	77.19
395.454	85.19
395.678	99.19
395.903	87.19
396.127	88.19
396.352	85.19
396.576	94.19
396.801	76.19
397.025	74.19
397.249	83.19
397.474	99.19
397.698	84.19
397.922	104.19
398.147	78.19
398.371	75.19
398.595	99.19
398.82	86.19
399.044	85.19
399.268	87.19
399.492	82.19
399.717	78.19
399.941	85.19
400.165	91.19
400.389	76.19
400.613	84.19
400.837	82.19
401.062	72.19
401.286	70.19
401.51	82.19
401.734	65.19
401.958	74.19
402.182	83.19
402.406	85.19
402.63	88.19
402.854	85.19
403.078	77.19
403.302	78.19
403.526	82.19
403.75	92.19
403.974	88.19
404.198	80.19
404.422	79.19
404.645	76.19
404.869	80.19
405.093	72.19
405.317	89.19
405.541	88.19
405.765	77.19
405.988	105.19
406.212	89.19
406.436	88.19
406.66	93.19
406.883	85.19
407.107	77.19
407.331	84.19
407.555	83.19
407.778	99.19
408.002	84.19
408.226	88.19
408.449	84.19
408.673	88.19
408.896	87.19
409.12	85.19
409.344	83.19
409.567	75.19
409.791	82.19
410.014	89.19
410.238	72.19
410.461	86.19
410.685	79.19
410.908	77.19
411.132	77.19
411.355	84.19
411.578	84.19
411.802	68.19
412.025	71.19
412.249	88.19
412.472	81.19
412.695	84.19
412.919	73.19
413.142	65.19
413.365	72.19
413.589	68.19
413.812	79.19
414.035	102.19
414.258	77.19
414.482	78.19
414.705	75.19
414.928	84.19
415.151	89.19
415.374	74.19
415.597	83.19
415.821	64.19
416.044	83.19
416.267	99.19
416.49	63.19
416.713	84.19
416.936	83.19
417.159	77.19
417.382	71.19
417.605	79.19
417.828	83.19
418.051	78.19
418.274	94.19
418.497	87.19
418.72	89.19
418.943	78.19
419.166	85.19
419.389	76.19
419.611	75.19
419.834	86.19
420.057	71.19
420.28	93.19
420.503	70.19
420.726	81.19
420.948	93.19
421.171	74.19
421.394	82.19
421.617	92.19
421.839	80.19
422.062	76.19
422.285	73.19
422.507	80.19
422.73	91.19
422.953	76.19
423.175	78.19
423.398	85.19
423.621	95.19
423.843	77.19
424.066	82.19
424.288	82.19
424.511	82.19
424.733	84.19
424.956	84.19
425.178	81.19
425.401	84.19
425.623	78.19
425.846	89.19
426.068	83.19
426.291	93.19
426.513	85.19
426.735	80.19
426.958	78.19
427.18	83.19
427.402	85.19
427.625	75.19
427.847	90.19
428.069	95.19
428.292	76.19
428.514	86.19
428.736	89.19
428.958	98.19
429.181	82.19
429.403	88.19
429.625	94.19
429.847	79.19
430.069	90.19
430.292	97.19
430.514	100.19
430.736	81.19
430.958	84.19
431.18	78.19
431.402	74.19
431.624	65.19
431.846	95.19
432.068	70.19
432.29	79.19
432.512	92.19
432.734	94.19
432.956	91.19
433.178	76.19
433.4	89.19
433.622	84.19
433.844	72.19
434.066	90.19
434.287	90.19
434.509	100.19
434.731	83.19
434.953	69.19
435.175	92.19
435.397	90.19
435.618	81.19
435.84	90.19
436.062	71.19
436.284	77.19
436.505	76.19
436.727	83.19
436.949	80.19
437.17	89.19
437.392	88.19
437.614	87.19
437.835	75.19
438.057	81.19
438.278	81.19
438.5	75.19
438.721	79.19
438.943	85.19
439.165	74.19
439.386	83.19
439.608	70.19
439.829	84.19
440.05	76.19
440.272	71.19
440.493	70.19
440.715	84.19
440.936	77.19
441.158	88.19
441.379	82.19
441.6	81.19
441.822	94.19
442.043	84.19
442.264	84.19
442.486	75.19
442.707	89.19
442.928	77.19
443.149	69.19
443.371	85.19
443.592	82.19
443.813	88.19
444.034	75.19
444.255	76.19
444.476	70.19
444.698	96.19
444.919	79.19
445.14	141.19
445.361	116.19
445.582	88.19
445.803	75.19
446.024	86.19
446.245	84.19
446.466	96.19
446.687	91.19
446.908	68.19
447.129	70.19
447.35	83.19
447.571	75.19
447.792	66.19
448.013	95.19
448.234	94.19
448.455	73.19
448.675	80.19
448.896	92.19
449.117	84.19
449.338	69.19
449.559	77.19
449.779	90.19
450	89.19
450.221	85.19
450.442	92.19
450.662	77.19
450.883	84.19
451.104	94.19
451.324	80.19
451.545	74.19
451.766	91.19
451.986	76.19
452.207	85.19
452.428	86.19
452.648	87.19
452.869	79.19
453.089	79.19
453.31	90.19
453.53	76.19
453.751	86.19
453.971	73.19
454.192	59.19
454.412	84.19
454.633	94.19
454.853	85.19
455.073	78.19
455.294	66.19
455.514	85.19
455.734	82.19
455.955	92.19
456.175	96.19
456.395	71.19
456.616	98.19
456.836	88.19
457.056	80.19
457.276	65.19
457.497	93.19
457.717	69.19
457.937	88.19
458.157	73.19
458.377	79.19
458.598	76.19
458.818	77.19
459.038	77.19
459.258	90.19
459.478	84.19
459.698	80.19
459.918	84.19
460.138	91.19
460.358	82.19
460.578	83.19
460.798	88.19
461.018	76.19
461.238	79.19
461.458	92.19
461.678	78.19
461.898	81.19
462.118	88.19
462.338	62.19
462.558	89.19
462.777	80.19
462.997	69.19
463.217	84.19
463.437	90.19
463.657	84.19
463.876	89.19
464.096	81.19
464.316	82.19
464.536	78.19
464.755	81.19
464.975	78.19
465.195	93.19
465.414	72.19
465.634	82.19
465.854	96.19
466.073	77.19
466.293	78.19
466.512	80.19
466.732	94.19
466.951	89.19
467.171	89.19
467.391	84.19
467.61	88.19
467.829	80.19
468.049	70.19
468.268	66.19
468.488	85.19
468.707	80.19
468.927	68.19
469.146	77.19
469.365	77.19
469.585	91.19
469.804	94.19
470.023	92.19
470.243	78.19
470.462	81.19
470.681	73.19
470.901	62.19
471.12	78.19
471.339	90.19
471.558	77.19
471.777	83.19
471.997	67.19
472.216	83.19
472.435	91.19
472.654	94.19
472.873	77.19
473.092	86.19
473.311	94.19
473.53	81.19
473.749	78.19
473.968	81.19
474.187	77.19
474.406	94.19
474.625	68.19
474.844	83.19
475.063	84.19
475.282	90.19
475.501	93.19
475.72	89.19
475.939	87.19
476.158	76.19
476.377	81.19
476.596	74.19
476.814	80.19
477.033	83.19
477.252	70.19
477.471	92.19
477.69	76.19
477.908	74.19
478.127	89.19
478.346	68.19
478.564	67.19
478.783	73.19
479.002	82.19
479.22	87.19
479.439	74.19
479.658	82.19
479.876	69.19
480.095	74.19
480.313	66.19
480.532	80.19
480.751	64.19
480.969	95.19
481.188	97.19
481.406	73.19
481.624	88.19
481.843	78.19
482.061	79.19
482.28	84.19
482.498	78.19
482.717	90.19
482.935	91.19
483.153	80.19
483.372	82.19
483.59	86.19
483.808	85.19
484.027	89.19
484.245	78.19
484.463	65.19
484.681	89.19
484.9	74.19
485.118	75.19
485.336	85.19
485.554	69.19
485.772	92.19
485.99	74.19
486.209	77.19
486.427	88.19
486.645	83.19
486.863	84.19
487.081	78.19
487.299	85.19
487.517	89.19
487.735	80.19
487.953	59.19
488.171	82.19
488.389	77.19
488.607	75.19
488.825	80.19
489.043	83.19
489.261	67.19
489.479	84.19
489.696	74.19
489.914	82.19
490.132	87.19
490.35	88.19
490.568	85.19
490.786	77.19
491.003	77.19
491.221	82.19
491.439	80.19
491.657	99.19
491.874	88.19
492.092	86.19
492.31	84.19
492.527	85.19
492.745	78.19
492.963	73.19
493.18	81.19
493.398	100.19
493.615	75.19
493.833	88.19
494.05	75.19
494.268	69.19
494.485	67.19
494.703	82.19
494.92	75.19
495.138	89.19
495.355	76.19
495.573	81.19
495.79	78.19
496.008	82.19
496.225	76.19
496.442	65.19
496.66	80.19
496.877	69.19
497.094	81.19
497.312	88.19
497.529	75.19
497.746	89.19
497.963	90.19
498.181	77.19
498.398	76.19
498.615	93.19
498.832	88.19
499.049	67.19
499.267	96.19
499.484	75.19
499.701	78.19
499.918	81.19
500.135	88.19
500.352	89.19
500.569	86.19
500.786	90.19
501.003	90.19
501.22	78.19
501.437	80.19
501.654	78.19
501.871	83.19
502.088	76.19
502.305	65.19
502.522	82.19
502.739	83.19
502.956	66.19
503.172	96.19
503.389	95.19
503.606	89.19
503.823	92.19
504.04	90.19
504.256	77.19
504.473	86.19
504.69	83.19
504.907	77.19
505.123	100.19
505.34	70.19
505.557	70.19
505.773	85.19
505.99	76.19
506.207	74.19
506.423	100.19
506.64	69.19
506.856	80.19
507.073	84.19
507.289	93.19
507.506	77.19
507.722	77.19
507.939	83.19
508.155	89.19
508.372	90.19
508.588	89.19
508.805	88.19
509.021	71.19
509.238	80.19
509.454	86.19
509.67	80.19
509.887	85.19
510.103	77.19
510.319	76.19
510.536	81.19
510.752	80.19
510.968	84.19
511.184	83.19
511.401	92.19
511.617	84.19
511.833	88.19
512.049	82.19
512.265	82.19
512.481	63.19
512.698	77.19
512.914	107.19
513.13	82.19
513.346	90.19
513.562	99.19
513.778	98.19
513.994	80.19
514.21	86.19
514.426	90.19
514.642	96.19
514.858	87.19
515.074	77.19
515.29	85.19
515.506	85.19
515.721	82.19
515.937	83.19
516.153	89.19
516.369	77.19
516.585	87.19
516.801	86.19
517.016	92.19
517.232	99.19
517.448	100.19
517.664	101.19
517.879	81.19
518.095	81.19
518.311	73.19
518.527	81.19
518.742	90.19
518.958	91.19
519.173	95.19
519.389	87.19
519.605	83.19
519.82	86.19
