Data from Background_1_HRD10591_00004.txt Node
Date: Wed Nov 05 14:39:00 EST 2025
User: Yrep
Spectrometer: HR+D1059
Trigger mode: 1
Integration Time (sec): 1.000000E-1
Scans to average: 1
Electric dark correction enabled: true
Nonlinearity correction enabled: false
Boxcar width: 0
XAxis mode: Wavelengths
Number of Pixels in Spectrum: 2048
>>>>>Begin Spectral Data<<<<<
223.165	-21.06
223.4	-21.06
223.635	-21.06
223.869	-13.06
224.104	-27.06
224.338	-7.06
224.573	-15.06
224.808	-21.06
225.042	-12.06
225.277	-6.06
225.511	-4.06
225.746	12.94
225.98	9.94
226.215	16.94
226.449	14.94
226.683	7.94
226.918	34.94
227.152	28.94
227.387	37.94
227.621	35.94
227.856	48.94
228.09	52.94
228.324	46.94
228.559	60.94
228.793	60.94
229.027	69.94
229.262	79.94
229.496	77.94
229.73	68.94
229.964	74.94
230.199	62.94
230.433	81.94
230.667	88.94
230.901	88.94
231.136	74.94
231.37	69.94
231.604	89.94
231.838	69.94
232.072	67.94
232.306	69.94
232.541	73.94
232.775	81.94
233.009	86.94
233.243	84.94
233.477	89.94
233.711	98.94
233.945	79.94
234.179	84.94
234.413	89.94
234.647	78.94
234.881	81.94
235.115	80.94
235.349	70.94
235.583	85.94
235.817	67.94
236.051	80.94
236.285	74.94
236.519	87.94
236.753	85.94
236.987	92.94
237.221	78.94
237.455	77.94
237.689	64.94
237.922	63.94
238.156	78.94
238.39	84.94
238.624	87.94
238.858	76.94
239.091	68.94
239.325	78.94
239.559	66.94
239.793	78.94
240.027	81.94
240.26	69.94
240.494	77.94
240.728	69.94
240.961	85.94
241.195	84.94
241.429	77.94
241.662	68.94
241.896	78.94
242.13	82.94
242.363	73.94
242.597	71.94
242.83	84.94
243.064	65.94
243.298	77.94
243.531	76.94
243.765	76.94
243.998	81.94
244.232	76.94
244.465	73.94
244.699	81.94
244.932	82.94
245.166	91.94
245.399	91.94
245.633	74.94
245.866	86.94
246.099	69.94
246.333	82.94
246.566	90.94
246.8	68.94
247.033	76.94
247.266	61.94
247.5	88.94
247.733	57.94
247.966	74.94
248.2	92.94
248.433	71.94
248.666	75.94
248.899	74.94
249.133	81.94
249.366	79.94
249.599	84.94
249.832	93.94
250.066	79.94
250.299	76.94
250.532	65.94
250.765	75.94
250.998	93.94
251.231	67.94
251.465	82.94
251.698	91.94
251.931	66.94
252.164	62.94
252.397	83.94
252.63	88.94
252.863	76.94
253.096	62.94
253.329	74.94
253.562	62.94
253.795	84.94
254.028	74.94
254.261	88.94
254.494	72.94
254.727	72.94
254.96	78.94
255.193	80.94
255.426	81.94
255.659	98.94
255.892	91.94
256.124	90.94
256.357	79.94
256.59	81.94
256.823	83.94
257.056	71.94
257.289	57.94
257.521	71.94
257.754	80.94
257.987	71.94
258.22	80.94
258.452	80.94
258.685	73.94
258.918	69.94
259.151	83.94
259.383	76.94
259.616	76.94
259.849	77.94
260.081	88.94
260.314	82.94
260.547	71.94
260.779	97.94
261.012	74.94
261.244	73.94
261.477	81.94
261.71	74.94
261.942	92.94
262.175	88.94
262.407	78.94
262.64	92.94
262.872	83.94
263.105	90.94
263.337	89.94
263.57	83.94
263.802	81.94
264.035	77.94
264.267	74.94
264.499	90.94
264.732	92.94
264.964	73.94
265.197	82.94
265.429	83.94
265.661	81.94
265.894	86.94
266.126	89.94
266.358	72.94
266.591	69.94
266.823	87.94
267.055	98.94
267.287	81.94
267.52	78.94
267.752	75.94
267.984	99.94
268.216	73.94
268.448	86.94
268.681	80.94
268.913	82.94
269.145	78.94
269.377	92.94
269.609	98.94
269.841	88.94
270.073	86.94
270.306	77.94
270.538	86.94
270.77	76.94
271.002	86.94
271.234	76.94
271.466	77.94
271.698	94.94
271.93	72.94
272.162	72.94
272.394	86.94
272.626	86.94
272.858	70.94
273.09	78.94
273.322	83.94
273.553	96.94
273.785	79.94
274.017	69.94
274.249	83.94
274.481	75.94
274.713	80.94
274.945	77.94
275.176	77.94
275.408	82.94
275.64	70.94
275.872	76.94
276.104	71.94
276.335	92.94
276.567	84.94
276.799	80.94
277.031	90.94
277.262	86.94
277.494	91.94
277.726	78.94
277.957	80.94
278.189	85.94
278.421	90.94
278.652	86.94
278.884	81.94
279.115	100.94
279.347	80.94
279.579	76.94
279.81	78.94
280.042	89.94
280.273	90.94
280.505	84.94
280.736	89.94
280.968	100.94
281.199	82.94
281.431	81.94
281.662	71.94
281.894	78.94
282.125	82.94
282.356	73.94
282.588	84.94
282.819	90.94
283.051	79.94
283.282	88.94
283.513	82.94
283.745	81.94
283.976	76.94
284.207	85.94
284.439	60.94
284.67	82.94
284.901	68.94
285.132	88.94
285.364	76.94
285.595	84.94
285.826	87.94
286.057	82.94
286.288	82.94
286.52	87.94
286.751	84.94
286.982	81.94
287.213	73.94
287.444	86.94
287.675	86.94
287.906	82.94
288.138	85.94
288.369	78.94
288.6	87.94
288.831	87.94
289.062	97.94
289.293	81.94
289.524	87.94
289.755	88.94
289.986	80.94
290.217	76.94
290.448	91.94
290.679	88.94
290.91	75.94
291.141	80.94
291.371	91.94
291.602	82.94
291.833	64.94
292.064	81.94
292.295	76.94
292.526	64.94
292.757	109.94
292.987	89.94
293.218	91.94
293.449	86.94
293.68	86.94
293.91	82.94
294.141	81.94
294.372	73.94
294.603	92.94
294.833	88.94
295.064	87.94
295.295	89.94
295.525	79.94
295.756	76.94
295.987	96.94
296.217	92.94
296.448	87.94
296.679	84.94
296.909	88.94
297.14	81.94
297.37	87.94
297.601	93.94
297.831	80.94
298.062	85.94
298.292	82.94
298.523	69.94
298.753	85.94
298.984	80.94
299.214	76.94
299.445	80.94
299.675	85.94
299.905	93.94
300.136	79.94
300.366	83.94
300.597	80.94
300.827	74.94
301.057	91.94
301.288	88.94
301.518	78.94
301.748	83.94
301.979	104.94
302.209	85.94
302.439	73.94
302.669	82.94
302.9	89.94
303.13	92.94
303.36	84.94
303.59	82.94
303.82	83.94
304.051	82.94
304.281	75.94
304.511	92.94
304.741	84.94
304.971	88.94
305.201	82.94
305.431	89.94
305.661	83.94
305.891	83.94
306.121	90.94
306.352	91.94
306.582	94.94
306.812	98.94
307.042	90.94
307.272	88.94
307.502	96.94
307.731	76.94
307.961	78.94
308.191	85.94
308.421	65.94
308.651	81.94
308.881	89.94
309.111	87.94
309.341	81.94
309.571	98.94
309.8	88.94
310.03	89.94
310.26	78.94
310.49	84.94
310.72	91.94
310.949	83.94
311.179	93.94
311.409	81.94
311.639	83.94
311.868	83.94
312.098	89.94
312.328	79.94
312.557	76.94
312.787	60.94
313.017	81.94
313.246	84.94
313.476	84.94
313.706	97.94
313.935	83.94
314.165	88.94
314.394	82.94
314.624	85.94
314.853	92.94
315.083	79.94
315.312	76.94
315.542	81.94
315.771	70.94
316.001	84.94
316.23	95.94
316.46	70.94
316.689	89.94
316.919	84.94
317.148	88.94
317.377	83.94
317.607	87.94
317.836	92.94
318.065	81.94
318.295	88.94
318.524	81.94
318.753	90.94
318.983	76.94
319.212	89.94
319.441	86.94
319.67	76.94
319.9	85.94
320.129	79.94
320.358	105.94
320.587	87.94
320.816	84.94
321.046	85.94
321.275	97.94
321.504	98.94
321.733	92.94
321.962	72.94
322.191	70.94
322.42	73.94
322.649	89.94
322.878	82.94
323.108	88.94
323.337	79.94
323.566	74.94
323.795	88.94
324.024	95.94
324.253	77.94
324.482	80.94
324.71	75.94
324.939	84.94
325.168	76.94
325.397	84.94
325.626	90.94
325.855	71.94
326.084	74.94
326.313	72.94
326.542	93.94
326.77	90.94
326.999	84.94
327.228	88.94
327.457	72.94
327.686	73.94
327.914	77.94
328.143	97.94
328.372	74.94
328.6	97.94
328.829	70.94
329.058	78.94
329.287	77.94
329.515	81.94
329.744	102.94
329.972	69.94
330.201	84.94
330.43	76.94
330.658	74.94
330.887	91.94
331.115	80.94
331.344	80.94
331.572	85.94
331.801	94.94
332.03	82.94
332.258	93.94
332.486	78.94
332.715	86.94
332.943	83.94
333.172	88.94
333.4	70.94
333.629	86.94
333.857	70.94
334.085	103.94
334.314	96.94
334.542	85.94
334.771	79.94
334.999	86.94
335.227	85.94
335.455	86.94
335.684	76.94
335.912	78.94
336.14	83.94
336.369	80.94
336.597	82.94
336.825	94.94
337.053	89.94
337.281	80.94
337.51	78.94
337.738	78.94
337.966	80.94
338.194	76.94
338.422	79.94
338.65	81.94
338.878	82.94
339.106	92.94
339.334	80.94
339.562	80.94
339.79	75.94
340.018	81.94
340.246	77.94
340.474	89.94
340.702	93.94
340.93	91.94
341.158	89.94
341.386	93.94
341.614	80.94
341.842	100.94
342.07	97.94
342.298	86.94
342.526	78.94
342.754	88.94
342.981	83.94
343.209	79.94
343.437	101.94
343.665	85.94
343.893	83.94
344.12	96.94
344.348	75.94
344.576	88.94
344.804	87.94
345.031	77.94
345.259	86.94
345.487	78.94
345.714	86.94
345.942	74.94
346.17	86.94
346.397	89.94
346.625	92.94
346.853	89.94
347.08	84.94
347.308	81.94
347.535	82.94
347.763	99.94
347.99	88.94
348.218	82.94
348.445	88.94
348.673	82.94
348.9	70.94
349.128	85.94
349.355	79.94
349.583	89.94
349.81	79.94
350.037	67.94
350.265	84.94
350.492	90.94
350.72	76.94
350.947	82.94
351.174	84.94
351.402	90.94
351.629	80.94
351.856	77.94
352.083	78.94
352.311	69.94
352.538	76.94
352.765	83.94
352.992	78.94
353.22	83.94
353.447	71.94
353.674	69.94
353.901	81.94
354.128	69.94
354.355	92.94
354.583	82.94
354.81	82.94
355.037	88.94
355.264	83.94
355.491	104.94
355.718	82.94
355.945	84.94
356.172	83.94
356.399	89.94
356.626	72.94
356.853	81.94
357.08	84.94
357.307	87.94
357.534	86.94
357.761	80.94
357.988	90.94
358.215	81.94
358.441	83.94
358.668	69.94
358.895	89.94
359.122	82.94
359.349	87.94
359.576	89.94
359.802	73.94
360.029	77.94
360.256	99.94
360.483	74.94
360.709	88.94
360.936	96.94
361.163	90.94
361.39	70.94
361.616	76.94
361.843	84.94
362.07	94.94
362.296	101.94
362.523	79.94
362.749	80.94
362.976	81.94
363.203	100.94
363.429	73.94
363.656	88.94
363.882	82.94
364.109	70.94
364.335	71.94
364.562	80.94
364.788	86.94
365.015	82.94
365.241	90.94
365.468	85.94
365.694	79.94
365.92	76.94
366.147	84.94
366.373	68.94
366.599	95.94
366.826	80.94
367.052	76.94
367.278	76.94
367.505	75.94
367.731	75.94
367.957	82.94
368.184	83.94
368.41	82.94
368.636	69.94
368.862	96.94
369.089	83.94
369.315	79.94
369.541	84.94
369.767	82.94
369.993	75.94
370.219	86.94
370.445	79.94
370.672	94.94
370.898	89.94
371.124	90.94
371.35	76.94
371.576	78.94
371.802	80.94
372.028	66.94
372.254	74.94
372.48	76.94
372.706	77.94
372.932	100.94
373.158	83.94
373.384	87.94
373.61	75.94
373.835	78.94
374.061	74.94
374.287	91.94
374.513	82.94
374.739	89.94
374.965	74.94
375.191	83.94
375.416	78.94
375.642	81.94
375.868	85.94
376.094	82.94
376.319	75.94
376.545	84.94
376.771	66.94
376.997	78.94
377.222	74.94
377.448	83.94
377.674	96.94
377.899	92.94
378.125	84.94
378.35	83.94
378.576	76.94
378.802	88.94
379.027	81.94
379.253	78.94
379.478	81.94
379.704	88.94
379.929	77.94
380.155	81.94
380.38	83.94
380.606	89.94
380.831	82.94
381.057	81.94
381.282	84.94
381.507	88.94
381.733	77.94
381.958	77.94
382.184	66.94
382.409	77.94
382.634	92.94
382.86	91.94
383.085	81.94
383.31	84.94
383.535	78.94
383.761	80.94
383.986	77.94
384.211	62.94
384.436	85.94
384.662	80.94
384.887	89.94
385.112	88.94
385.337	72.94
385.562	86.94
385.787	65.94
386.013	80.94
386.238	85.94
386.463	93.94
386.688	99.94
386.913	59.94
387.138	63.94
387.363	76.94
387.588	71.94
387.813	84.94
388.038	77.94
388.263	89.94
388.488	77.94
388.713	88.94
388.938	78.94
389.163	85.94
389.387	81.94
389.612	74.94
389.837	79.94
390.062	85.94
390.287	90.94
390.512	76.94
390.736	89.94
390.961	80.94
391.186	86.94
391.411	89.94
391.636	71.94
391.86	92.94
392.085	87.94
392.31	86.94
392.534	84.94
392.759	64.94
392.984	72.94
393.208	85.94
393.433	79.94
393.658	87.94
393.882	86.94
394.107	88.94
394.331	76.94
394.556	88.94
394.78	86.94
395.005	80.94
395.229	89.94
395.454	79.94
395.678	76.94
395.903	88.94
396.127	73.94
396.352	87.94
396.576	77.94
396.801	73.94
397.025	86.94
397.249	88.94
397.474	90.94
397.698	82.94
397.922	81.94
398.147	77.94
398.371	83.94
398.595	82.94
398.82	78.94
399.044	81.94
399.268	91.94
399.492	81.94
399.717	76.94
399.941	76.94
400.165	68.94
400.389	63.94
400.613	85.94
400.837	87.94
401.062	84.94
401.286	78.94
401.51	89.94
401.734	83.94
401.958	96.94
402.182	86.94
402.406	84.94
402.63	89.94
402.854	78.94
403.078	65.94
403.302	78.94
403.526	77.94
403.75	89.94
403.974	68.94
404.198	80.94
404.422	81.94
404.645	76.94
404.869	79.94
405.093	75.94
405.317	88.94
405.541	88.94
405.765	102.94
405.988	77.94
406.212	82.94
406.436	80.94
406.66	68.94
406.883	83.94
407.107	79.94
407.331	85.94
407.555	76.94
407.778	76.94
408.002	75.94
408.226	88.94
408.449	76.94
408.673	82.94
408.896	86.94
409.12	70.94
409.344	76.94
409.567	85.94
409.791	97.94
410.014	89.94
410.238	77.94
410.461	78.94
410.685	61.94
410.908	71.94
411.132	76.94
411.355	72.94
411.578	76.94
411.802	81.94
412.025	92.94
412.249	70.94
412.472	87.94
412.695	84.94
412.919	82.94
413.142	85.94
413.365	84.94
413.589	80.94
413.812	86.94
414.035	83.94
414.258	84.94
414.482	86.94
414.705	97.94
414.928	81.94
415.151	77.94
415.374	77.94
415.597	77.94
415.821	66.94
416.044	77.94
416.267	90.94
416.49	75.94
416.713	67.94
416.936	76.94
417.159	74.94
417.382	91.94
417.605	88.94
417.828	88.94
418.051	77.94
418.274	88.94
418.497	76.94
418.72	69.94
418.943	80.94
419.166	72.94
419.389	81.94
419.611	73.94
419.834	87.94
420.057	78.94
420.28	82.94
420.503	74.94
420.726	67.94
420.948	74.94
421.171	88.94
421.394	84.94
421.617	73.94
421.839	71.94
422.062	73.94
422.285	78.94
422.507	70.94
422.73	63.94
422.953	81.94
423.175	80.94
423.398	96.94
423.621	80.94
423.843	79.94
424.066	79.94
424.288	65.94
424.511	75.94
424.733	91.94
424.956	85.94
425.178	67.94
425.401	84.94
425.623	86.94
425.846	80.94
426.068	76.94
426.291	73.94
426.513	73.94
426.735	77.94
426.958	68.94
427.18	78.94
427.402	70.94
427.625	78.94
427.847	64.94
428.069	80.94
428.292	70.94
428.514	78.94
428.736	76.94
428.958	82.94
429.181	78.94
429.403	83.94
429.625	90.94
429.847	88.94
430.069	79.94
430.292	88.94
430.514	85.94
430.736	88.94
430.958	76.94
431.18	84.94
431.402	81.94
431.624	67.94
431.846	79.94
432.068	82.94
432.29	90.94
432.512	79.94
432.734	73.94
432.956	67.94
433.178	78.94
433.4	88.94
433.622	80.94
433.844	95.94
434.066	88.94
434.287	61.94
434.509	70.94
434.731	83.94
434.953	80.94
435.175	89.94
435.397	90.94
435.618	84.94
435.84	80.94
436.062	75.94
436.284	72.94
436.505	86.94
436.727	84.94
436.949	88.94
437.17	69.94
437.392	68.94
437.614	89.94
437.835	93.94
438.057	103.94
438.278	82.94
438.5	76.94
438.721	84.94
438.943	78.94
439.165	76.94
439.386	77.94
439.608	82.94
439.829	90.94
440.05	77.94
440.272	84.94
440.493	56.94
440.715	73.94
440.936	78.94
441.158	83.94
441.379	72.94
441.6	78.94
441.822	96.94
442.043	72.94
442.264	83.94
442.486	82.94
442.707	94.94
442.928	93.94
443.149	85.94
443.371	74.94
443.592	73.94
443.813	96.94
444.034	91.94
444.255	94.94
444.476	91.94
444.698	91.94
444.919	69.94
445.14	130.94
445.361	112.94
445.582	88.94
445.803	72.94
446.024	86.94
446.245	99.94
446.466	73.94
446.687	73.94
446.908	71.94
447.129	81.94
447.35	86.94
447.571	88.94
447.792	74.94
448.013	80.94
448.234	83.94
448.455	76.94
448.675	86.94
448.896	83.94
449.117	88.94
449.338	94.94
449.559	94.94
449.779	84.94
450	79.94
450.221	86.94
450.442	68.94
450.662	65.94
450.883	72.94
451.104	81.94
451.324	74.94
451.545	83.94
451.766	84.94
451.986	83.94
452.207	78.94
452.428	68.94
452.648	77.94
452.869	80.94
453.089	77.94
453.31	70.94
453.53	77.94
453.751	81.94
453.971	77.94
454.192	89.94
454.412	79.94
454.633	87.94
454.853	88.94
455.073	87.94
455.294	88.94
455.514	88.94
455.734	82.94
455.955	85.94
456.175	86.94
456.395	70.94
456.616	79.94
456.836	104.94
457.056	88.94
457.276	81.94
457.497	72.94
457.717	88.94
457.937	81.94
458.157	85.94
458.377	78.94
458.598	85.94
458.818	60.94
459.038	81.94
459.258	97.94
459.478	85.94
459.698	91.94
459.918	100.94
460.138	70.94
460.358	73.94
460.578	76.94
460.798	88.94
461.018	80.94
461.238	77.94
461.458	76.94
461.678	81.94
461.898	81.94
462.118	91.94
462.338	77.94
462.558	83.94
462.777	73.94
462.997	81.94
463.217	71.94
463.437	84.94
463.657	87.94
463.876	85.94
464.096	84.94
464.316	77.94
464.536	71.94
464.755	69.94
464.975	71.94
465.195	86.94
465.414	80.94
465.634	88.94
465.854	94.94
466.073	65.94
466.293	92.94
466.512	85.94
466.732	76.94
466.951	79.94
467.171	90.94
467.391	85.94
467.61	75.94
467.829	68.94
468.049	83.94
468.268	71.94
468.488	73.94
468.707	88.94
468.927	90.94
469.146	85.94
469.365	76.94
469.585	70.94
469.804	83.94
470.023	78.94
470.243	91.94
470.462	97.94
470.681	77.94
470.901	78.94
471.12	75.94
471.339	86.94
471.558	80.94
471.777	77.94
471.997	74.94
472.216	69.94
472.435	72.94
472.654	84.94
472.873	78.94
473.092	72.94
473.311	88.94
473.53	88.94
473.749	85.94
473.968	96.94
474.187	69.94
474.406	93.94
474.625	73.94
474.844	80.94
475.063	80.94
475.282	85.94
475.501	80.94
475.72	84.94
475.939	74.94
476.158	69.94
476.377	85.94
476.596	76.94
476.814	88.94
477.033	75.94
477.252	90.94
477.471	82.94
477.69	83.94
477.908	75.94
478.127	79.94
478.346	80.94
478.564	81.94
478.783	82.94
479.002	86.94
479.22	83.94
479.439	87.94
479.658	87.94
479.876	70.94
480.095	69.94
480.313	74.94
480.532	93.94
480.751	82.94
480.969	85.94
481.188	77.94
481.406	87.94
481.624	88.94
481.843	83.94
482.061	73.94
482.28	88.94
482.498	82.94
482.717	89.94
482.935	74.94
483.153	86.94
483.372	71.94
483.59	76.94
483.808	84.94
484.027	91.94
484.245	81.94
484.463	80.94
484.681	81.94
484.9	80.94
485.118	82.94
485.336	67.94
485.554	80.94
485.772	81.94
485.99	69.94
486.209	82.94
486.427	76.94
486.645	77.94
486.863	74.94
487.081	88.94
487.299	71.94
487.517	79.94
487.735	79.94
487.953	90.94
488.171	75.94
488.389	72.94
488.607	66.94
488.825	88.94
489.043	79.94
489.261	105.94
489.479	86.94
489.696	84.94
489.914	74.94
490.132	92.94
490.35	71.94
490.568	80.94
490.786	90.94
491.003	91.94
491.221	81.94
491.439	86.94
491.657	82.94
491.874	80.94
492.092	66.94
492.31	94.94
492.527	74.94
492.745	80.94
492.963	85.94
493.18	84.94
493.398	84.94
493.615	89.94
493.833	85.94
494.05	89.94
494.268	76.94
494.485	93.94
494.703	80.94
494.92	85.94
495.138	95.94
495.355	79.94
495.573	90.94
495.79	93.94
496.008	91.94
496.225	84.94
496.442	74.94
496.66	68.94
496.877	74.94
497.094	82.94
497.312	80.94
497.529	92.94
497.746	86.94
497.963	84.94
498.181	86.94
498.398	69.94
498.615	77.94
498.832	76.94
499.049	83.94
499.267	93.94
499.484	83.94
499.701	68.94
499.918	83.94
500.135	86.94
500.352	91.94
500.569	90.94
500.786	82.94
501.003	76.94
501.22	88.94
501.437	98.94
501.654	83.94
501.871	82.94
502.088	74.94
502.305	83.94
502.522	79.94
502.739	87.94
502.956	74.94
503.172	89.94
503.389	89.94
503.606	69.94
503.823	90.94
504.04	88.94
504.256	88.94
504.473	81.94
504.69	80.94
504.907	93.94
505.123	99.94
505.34	80.94
505.557	73.94
505.773	77.94
505.99	87.94
506.207	90.94
506.423	85.94
506.64	77.94
506.856	83.94
507.073	63.94
507.289	76.94
507.506	80.94
507.722	92.94
507.939	84.94
508.155	76.94
508.372	90.94
508.588	90.94
508.805	77.94
509.021	84.94
509.238	81.94
509.454	75.94
509.67	87.94
509.887	88.94
510.103	76.94
510.319	78.94
510.536	92.94
510.752	96.94
510.968	90.94
511.184	85.94
511.401	78.94
511.617	97.94
511.833	92.94
512.049	80.94
512.265	89.94
512.481	71.94
512.698	80.94
512.914	81.94
513.13	73.94
513.346	85.94
513.562	78.94
513.778	68.94
513.994	85.94
514.21	77.94
514.426	88.94
514.642	99.94
514.858	91.94
515.074	90.94
515.29	86.94
515.506	89.94
515.721	86.94
515.937	96.94
516.153	106.94
516.369	76.94
516.585	92.94
516.801	75.94
517.016	89.94
517.232	69.94
517.448	91.94
517.664	80.94
517.879	68.94
518.095	76.94
518.311	92.94
518.527	80.94
518.742	84.94
518.958	85.94
519.173	62.94
519.389	84.94
519.605	94.94
519.82	92.94
520.036	82.94
