Data from Background_1_HRD10591_00010.txt Node
Date: Wed Nov 05 14:39:03 EST 2025
User: Yrep
Spectrometer: HR+D1059
Trigger mode: 1
Integration Time (sec): 1.000000E-1
Scans to average: 1
Electric dark correction enabled: true
Nonlinearity correction enabled: false
Boxcar width: 0
XAxis mode: Wavelengths
Number of Pixels in Spectrum: 2048
>>>>>Begin Spectral Data<<<<<
223.165	-18.94
223.4	-18.94
223.635	-18.94
223.869	-12.94
224.104	-28.94
224.338	-18.94
224.573	-15.94
224.808	-13.94
225.042	-11.94
225.277	-11.94
225.511	-4.94
225.746	8.06
225.98	10.06
226.215	15.06
226.449	19.06
226.683	27.06
226.918	25.06
227.152	34.06
227.387	42.06
227.621	35.06
227.856	56.06
228.09	49.06
228.324	45.06
228.559	56.06
228.793	66.06
229.027	63.06
229.262	54.06
229.496	63.06
229.73	74.06
229.964	71.06
230.199	98.06
230.433	65.06
230.667	82.06
230.901	84.06
231.136	74.06
231.37	80.06
231.604	79.06
231.838	80.06
232.072	80.06
232.306	88.06
232.541	80.06
232.775	90.06
233.009	85.06
233.243	80.06
233.477	91.06
233.711	77.06
233.945	86.06
234.179	70.06
234.413	82.06
234.647	93.06
234.881	80.06
235.115	83.06
235.349	78.06
235.583	96.06
235.817	75.06
236.051	85.06
236.285	84.06
236.519	79.06
236.753	76.06
236.987	78.06
237.221	80.06
237.455	81.06
237.689	71.06
237.922	77.06
238.156	92.06
238.39	79.06
238.624	76.06
238.858	90.06
239.091	67.06
239.325	76.06
239.559	78.06
239.793	68.06
240.027	80.06
240.26	76.06
240.494	70.06
240.728	71.06
240.961	79.06
241.195	86.06
241.429	80.06
241.662	66.06
241.896	68.06
242.13	62.06
242.363	79.06
242.597	63.06
242.83	74.06
243.064	78.06
243.298	74.06
243.531	68.06
243.765	76.06
243.998	76.06
244.232	60.06
244.465	72.06
244.699	75.06
244.932	81.06
245.166	93.06
245.399	75.06
245.633	86.06
245.866	81.06
246.099	78.06
246.333	84.06
246.566	74.06
246.8	65.06
247.033	76.06
247.266	69.06
247.5	81.06
247.733	91.06
247.966	82.06
248.2	60.06
248.433	64.06
248.666	88.06
248.899	78.06
249.133	86.06
249.366	86.06
249.599	71.06
249.832	69.06
250.066	78.06
250.299	70.06
250.532	70.06
250.765	80.06
250.998	70.06
251.231	78.06
251.465	80.06
251.698	86.06
251.931	77.06
252.164	74.06
252.397	86.06
252.63	81.06
252.863	70.06
253.096	77.06
253.329	93.06
253.562	84.06
253.795	77.06
254.028	84.06
254.261	77.06
254.494	71.06
254.727	78.06
254.96	85.06
255.193	84.06
255.426	75.06
255.659	75.06
255.892	86.06
256.124	85.06
256.357	91.06
256.59	73.06
256.823	84.06
257.056	80.06
257.289	80.06
257.521	84.06
257.754	81.06
257.987	83.06
258.22	71.06
258.452	64.06
258.685	76.06
258.918	78.06
259.151	86.06
259.383	88.06
259.616	81.06
259.849	96.06
260.081	85.06
260.314	71.06
260.547	84.06
260.779	90.06
261.012	82.06
261.244	79.06
261.477	60.06
261.71	88.06
261.942	80.06
262.175	88.06
262.407	70.06
262.64	71.06
262.872	76.06
263.105	78.06
263.337	74.06
263.57	88.06
263.802	81.06
264.035	80.06
264.267	82.06
264.499	79.06
264.732	84.06
264.964	79.06
265.197	74.06
265.429	92.06
265.661	92.06
265.894	79.06
266.126	83.06
266.358	74.06
266.591	69.06
266.823	81.06
267.055	77.06
267.287	88.06
267.52	86.06
267.752	70.06
267.984	71.06
268.216	86.06
268.448	71.06
268.681	80.06
268.913	78.06
269.145	87.06
269.377	84.06
269.609	76.06
269.841	70.06
270.073	82.06
270.306	88.06
270.538	84.06
270.77	88.06
271.002	94.06
271.234	86.06
271.466	84.06
271.698	84.06
271.93	79.06
272.162	98.06
272.394	76.06
272.626	91.06
272.858	78.06
273.09	97.06
273.322	85.06
273.553	74.06
273.785	78.06
274.017	78.06
274.249	98.06
274.481	94.06
274.713	83.06
274.945	79.06
275.176	76.06
275.408	86.06
275.64	89.06
275.872	79.06
276.104	75.06
276.335	86.06
276.567	90.06
276.799	73.06
277.031	92.06
277.262	90.06
277.494	80.06
277.726	71.06
277.957	88.06
278.189	86.06
278.421	84.06
278.652	91.06
278.884	93.06
279.115	84.06
279.347	88.06
279.579	79.06
279.81	80.06
280.042	97.06
280.273	84.06
280.505	81.06
280.736	83.06
280.968	83.06
281.199	93.06
281.431	83.06
281.662	94.06
281.894	77.06
282.125	74.06
282.356	77.06
282.588	88.06
282.819	101.06
283.051	92.06
283.282	86.06
283.513	92.06
283.745	85.06
283.976	86.06
284.207	87.06
284.439	78.06
284.67	76.06
284.901	86.06
285.132	62.06
285.364	85.06
285.595	88.06
285.826	76.06
286.057	83.06
286.288	97.06
286.52	82.06
286.751	68.06
286.982	86.06
287.213	99.06
287.444	88.06
287.675	85.06
287.906	87.06
288.138	73.06
288.369	78.06
288.6	85.06
288.831	90.06
289.062	88.06
289.293	71.06
289.524	73.06
289.755	95.06
289.986	90.06
290.217	88.06
290.448	86.06
290.679	84.06
290.91	101.06
291.141	84.06
291.371	81.06
291.602	70.06
291.833	83.06
292.064	79.06
292.295	75.06
292.526	80.06
292.757	80.06
292.987	79.06
293.218	75.06
293.449	89.06
293.68	81.06
293.91	80.06
294.141	84.06
294.372	93.06
294.603	77.06
294.833	69.06
295.064	86.06
295.295	105.06
295.525	82.06
295.756	73.06
295.987	88.06
296.217	86.06
296.448	70.06
296.679	78.06
296.909	88.06
297.14	79.06
297.37	83.06
297.601	63.06
297.831	86.06
298.062	85.06
298.292	95.06
298.523	91.06
298.753	84.06
298.984	76.06
299.214	88.06
299.445	76.06
299.675	104.06
299.905	92.06
300.136	92.06
300.366	79.06
300.597	76.06
300.827	82.06
301.057	95.06
301.288	83.06
301.518	82.06
301.748	89.06
301.979	88.06
302.209	90.06
302.439	84.06
302.669	98.06
302.9	88.06
303.13	84.06
303.36	88.06
303.59	85.06
303.82	93.06
304.051	86.06
304.281	80.06
304.511	82.06
304.741	76.06
304.971	92.06
305.201	83.06
305.431	83.06
305.661	74.06
305.891	74.06
306.121	93.06
306.352	82.06
306.582	80.06
306.812	88.06
307.042	89.06
307.272	82.06
307.502	90.06
307.731	83.06
307.961	88.06
308.191	95.06
308.421	92.06
308.651	68.06
308.881	79.06
309.111	86.06
309.341	82.06
309.571	80.06
309.8	92.06
310.03	80.06
310.26	80.06
310.49	76.06
310.72	82.06
310.949	78.06
311.179	97.06
311.409	91.06
311.639	91.06
311.868	97.06
312.098	90.06
312.328	86.06
312.557	84.06
312.787	83.06
313.017	83.06
313.246	75.06
313.476	88.06
313.706	81.06
313.935	81.06
314.165	87.06
314.394	87.06
314.624	84.06
314.853	77.06
315.083	84.06
315.312	88.06
315.542	78.06
315.771	102.06
316.001	88.06
316.23	76.06
316.46	85.06
316.689	86.06
316.919	99.06
317.148	86.06
317.377	82.06
317.607	84.06
317.836	81.06
318.065	78.06
318.295	91.06
318.524	89.06
318.753	74.06
318.983	96.06
319.212	80.06
319.441	69.06
319.67	95.06
319.9	80.06
320.129	81.06
320.358	84.06
320.587	89.06
320.816	87.06
321.046	94.06
321.275	85.06
321.504	81.06
321.733	83.06
321.962	92.06
322.191	82.06
322.42	80.06
322.649	88.06
322.878	83.06
323.108	82.06
323.337	84.06
323.566	84.06
323.795	80.06
324.024	80.06
324.253	89.06
324.482	94.06
324.71	77.06
324.939	90.06
325.168	62.06
325.397	95.06
325.626	79.06
325.855	84.06
326.084	88.06
326.313	83.06
326.542	80.06
326.77	90.06
326.999	85.06
327.228	93.06
327.457	88.06
327.686	97.06
327.914	99.06
328.143	93.06
328.372	102.06
328.6	87.06
328.829	96.06
329.058	84.06
329.287	75.06
329.515	80.06
329.744	84.06
329.972	93.06
330.201	98.06
330.43	95.06
330.658	74.06
330.887	74.06
331.115	91.06
331.344	86.06
331.572	67.06
331.801	86.06
332.03	82.06
332.258	92.06
332.486	76.06
332.715	89.06
332.943	95.06
333.172	90.06
333.4	75.06
333.629	78.06
333.857	90.06
334.085	68.06
334.314	88.06
334.542	85.06
334.771	94.06
334.999	94.06
335.227	76.06
335.455	74.06
335.684	90.06
335.912	88.06
336.14	89.06
336.369	84.06
336.597	76.06
336.825	84.06
337.053	84.06
337.281	75.06
337.51	87.06
337.738	87.06
337.966	68.06
338.194	63.06
338.422	81.06
338.65	86.06
338.878	85.06
339.106	80.06
339.334	99.06
339.562	79.06
339.79	88.06
340.018	85.06
340.246	88.06
340.474	86.06
340.702	81.06
340.93	91.06
341.158	83.06
341.386	84.06
341.614	82.06
341.842	69.06
342.07	86.06
342.298	98.06
342.526	93.06
342.754	93.06
342.981	86.06
343.209	81.06
343.437	100.06
343.665	74.06
343.893	93.06
344.12	80.06
344.348	89.06
344.576	76.06
344.804	82.06
345.031	89.06
345.259	71.06
345.487	86.06
345.714	81.06
345.942	83.06
346.17	88.06
346.397	85.06
346.625	92.06
346.853	86.06
347.08	88.06
347.308	90.06
347.535	83.06
347.763	77.06
347.99	83.06
348.218	93.06
348.445	74.06
348.673	89.06
348.9	88.06
349.128	89.06
349.355	83.06
349.583	76.06
349.81	70.06
350.037	89.06
350.265	82.06
350.492	70.06
350.72	74.06
350.947	83.06
351.174	91.06
351.402	84.06
351.629	96.06
351.856	106.06
352.083	79.06
352.311	88.06
352.538	86.06
352.765	74.06
352.992	92.06
353.22	76.06
353.447	75.06
353.674	57.06
353.901	76.06
354.128	84.06
354.355	79.06
354.583	99.06
354.81	80.06
355.037	92.06
355.264	76.06
355.491	83.06
355.718	82.06
355.945	69.06
356.172	84.06
356.399	77.06
356.626	81.06
356.853	79.06
357.08	95.06
357.307	77.06
357.534	87.06
357.761	96.06
357.988	69.06
358.215	77.06
358.441	89.06
358.668	76.06
358.895	89.06
359.122	85.06
359.349	88.06
359.576	101.06
359.802	74.06
360.029	72.06
360.256	75.06
360.483	69.06
360.709	90.06
360.936	82.06
361.163	80.06
361.39	89.06
361.616	88.06
361.843	90.06
362.07	68.06
362.296	75.06
362.523	81.06
362.749	81.06
362.976	77.06
363.203	87.06
363.429	80.06
363.656	83.06
363.882	80.06
364.109	90.06
364.335	86.06
364.562	78.06
364.788	85.06
365.015	77.06
365.241	94.06
365.468	85.06
365.694	92.06
365.92	93.06
366.147	74.06
366.373	74.06
366.599	79.06
366.826	80.06
367.052	83.06
367.278	74.06
367.505	75.06
367.731	85.06
367.957	83.06
368.184	90.06
368.41	90.06
368.636	85.06
368.862	86.06
369.089	76.06
369.315	90.06
369.541	84.06
369.767	80.06
369.993	73.06
370.219	64.06
370.445	80.06
370.672	77.06
370.898	85.06
371.124	92.06
371.35	85.06
371.576	81.06
371.802	77.06
372.028	90.06
372.254	91.06
372.48	70.06
372.706	87.06
372.932	81.06
373.158	80.06
373.384	93.06
373.61	93.06
373.835	89.06
374.061	89.06
374.287	61.06
374.513	89.06
374.739	83.06
374.965	86.06
375.191	87.06
375.416	82.06
375.642	82.06
375.868	88.06
376.094	84.06
376.319	69.06
376.545	76.06
376.771	74.06
376.997	84.06
377.222	84.06
377.448	74.06
377.674	88.06
377.899	84.06
378.125	86.06
378.35	79.06
378.576	75.06
378.802	88.06
379.027	90.06
379.253	94.06
379.478	92.06
379.704	80.06
379.929	92.06
380.155	60.06
380.38	92.06
380.606	86.06
380.831	83.06
381.057	78.06
381.282	74.06
381.507	88.06
381.733	78.06
381.958	89.06
382.184	76.06
382.409	73.06
382.634	93.06
382.86	78.06
383.085	87.06
383.31	80.06
383.535	94.06
383.761	80.06
383.986	83.06
384.211	76.06
384.436	83.06
384.662	80.06
384.887	91.06
385.112	73.06
385.337	85.06
385.562	89.06
385.787	88.06
386.013	78.06
386.238	96.06
386.463	60.06
386.688	84.06
386.913	79.06
387.138	73.06
387.363	69.06
387.588	74.06
387.813	70.06
388.038	80.06
388.263	88.06
388.488	79.06
388.713	76.06
388.938	88.06
389.163	86.06
389.387	89.06
389.612	76.06
389.837	75.06
390.062	78.06
390.287	85.06
390.512	95.06
390.736	80.06
390.961	84.06
391.186	84.06
391.411	96.06
391.636	98.06
391.86	85.06
392.085	74.06
392.31	74.06
392.534	83.06
392.759	75.06
392.984	106.06
393.208	78.06
393.433	80.06
393.658	80.06
393.882	78.06
394.107	71.06
394.331	84.06
394.556	68.06
394.78	81.06
395.005	74.06
395.229	70.06
395.454	85.06
395.678	80.06
395.903	69.06
396.127	62.06
396.352	90.06
396.576	81.06
396.801	83.06
397.025	74.06
397.249	78.06
397.474	69.06
397.698	80.06
397.922	78.06
398.147	82.06
398.371	83.06
398.595	66.06
398.82	78.06
399.044	83.06
399.268	77.06
399.492	87.06
399.717	78.06
399.941	69.06
400.165	79.06
400.389	83.06
400.613	88.06
400.837	75.06
401.062	76.06
401.286	82.06
401.51	90.06
401.734	85.06
401.958	74.06
402.182	83.06
402.406	92.06
402.63	80.06
402.854	77.06
403.078	77.06
403.302	91.06
403.526	79.06
403.75	92.06
403.974	77.06
404.198	70.06
404.422	72.06
404.645	93.06
404.869	95.06
405.093	82.06
405.317	84.06
405.541	92.06
405.765	81.06
405.988	78.06
406.212	93.06
406.436	76.06
406.66	72.06
406.883	84.06
407.107	83.06
407.331	83.06
407.555	65.06
407.778	78.06
408.002	74.06
408.226	81.06
408.449	84.06
408.673	77.06
408.896	66.06
409.12	85.06
409.344	79.06
409.567	78.06
409.791	80.06
410.014	89.06
410.238	76.06
410.461	82.06
410.685	79.06
410.908	91.06
411.132	81.06
411.355	97.06
411.578	77.06
411.802	78.06
412.025	76.06
412.249	95.06
412.472	73.06
412.695	78.06
412.919	85.06
413.142	92.06
413.365	91.06
413.589	94.06
413.812	89.06
414.035	89.06
414.258	91.06
414.482	86.06
414.705	87.06
414.928	80.06
415.151	86.06
415.374	86.06
415.597	84.06
415.821	68.06
416.044	74.06
416.267	77.06
416.49	71.06
416.713	78.06
416.936	81.06
417.159	68.06
417.382	76.06
417.605	92.06
417.828	80.06
418.051	86.06
418.274	86.06
418.497	64.06
418.72	63.06
418.943	85.06
419.166	71.06
419.389	82.06
419.611	84.06
419.834	80.06
420.057	76.06
420.28	89.06
420.503	85.06
420.726	81.06
420.948	75.06
421.171	76.06
421.394	87.06
421.617	66.06
421.839	91.06
422.062	84.06
422.285	77.06
422.507	86.06
422.73	61.06
422.953	78.06
423.175	75.06
423.398	70.06
423.621	88.06
423.843	82.06
424.066	81.06
424.288	74.06
424.511	76.06
424.733	71.06
424.956	80.06
425.178	70.06
425.401	71.06
425.623	74.06
425.846	97.06
426.068	94.06
426.291	75.06
426.513	70.06
426.735	76.06
426.958	69.06
427.18	81.06
427.402	88.06
427.625	79.06
427.847	95.06
428.069	80.06
428.292	75.06
428.514	68.06
428.736	72.06
428.958	86.06
429.181	93.06
429.403	80.06
429.625	87.06
429.847	86.06
430.069	80.06
430.292	74.06
430.514	73.06
430.736	79.06
430.958	73.06
431.18	71.06
431.402	74.06
431.624	86.06
431.846	85.06
432.068	80.06
432.29	91.06
432.512	83.06
432.734	80.06
432.956	83.06
433.178	94.06
433.4	81.06
433.622	83.06
433.844	98.06
434.066	93.06
434.287	80.06
434.509	88.06
434.731	59.06
434.953	83.06
435.175	85.06
435.397	81.06
435.618	87.06
435.84	87.06
436.062	62.06
436.284	82.06
436.505	86.06
436.727	81.06
436.949	99.06
437.17	85.06
437.392	80.06
437.614	95.06
437.835	86.06
438.057	74.06
438.278	92.06
438.5	76.06
438.721	84.06
438.943	78.06
439.165	83.06
439.386	76.06
439.608	73.06
439.829	100.06
440.05	90.06
440.272	84.06
440.493	93.06
440.715	68.06
440.936	87.06
441.158	85.06
441.379	83.06
441.6	67.06
441.822	79.06
442.043	78.06
442.264	80.06
442.486	88.06
442.707	80.06
442.928	79.06
443.149	87.06
443.371	87.06
443.592	87.06
443.813	95.06
444.034	81.06
444.255	82.06
444.476	74.06
444.698	83.06
444.919	72.06
445.14	146.06
445.361	111.06
445.582	100.06
445.803	82.06
446.024	71.06
446.245	76.06
446.466	82.06
446.687	67.06
446.908	82.06
447.129	93.06
447.35	78.06
447.571	78.06
447.792	86.06
448.013	82.06
448.234	71.06
448.455	83.06
448.675	78.06
448.896	74.06
449.117	75.06
449.338	82.06
449.559	79.06
449.779	73.06
450	79.06
450.221	79.06
450.442	63.06
450.662	70.06
450.883	76.06
451.104	90.06
451.324	87.06
451.545	82.06
451.766	88.06
451.986	84.06
452.207	87.06
452.428	89.06
452.648	78.06
452.869	97.06
453.089	77.06
453.31	76.06
453.53	90.06
453.751	81.06
453.971	93.06
454.192	75.06
454.412	82.06
454.633	91.06
454.853	84.06
455.073	82.06
455.294	76.06
455.514	91.06
455.734	71.06
455.955	72.06
456.175	77.06
456.395	82.06
456.616	78.06
456.836	76.06
457.056	72.06
457.276	81.06
457.497	82.06
457.717	85.06
457.937	83.06
458.157	79.06
458.377	81.06
458.598	75.06
458.818	86.06
459.038	79.06
459.258	84.06
459.478	90.06
459.698	87.06
459.918	85.06
460.138	80.06
460.358	73.06
460.578	75.06
460.798	84.06
461.018	77.06
461.238	73.06
461.458	82.06
461.678	90.06
461.898	76.06
462.118	99.06
462.338	81.06
462.558	86.06
462.777	90.06
462.997	66.06
463.217	78.06
463.437	92.06
463.657	82.06
463.876	88.06
464.096	69.06
464.316	90.06
464.536	71.06
464.755	94.06
464.975	92.06
465.195	80.06
465.414	80.06
465.634	94.06
465.854	79.06
466.073	68.06
466.293	80.06
466.512	76.06
466.732	78.06
466.951	75.06
467.171	68.06
467.391	73.06
467.61	78.06
467.829	73.06
468.049	88.06
468.268	78.06
468.488	78.06
468.707	78.06
468.927	89.06
469.146	75.06
469.365	84.06
469.585	82.06
469.804	78.06
470.023	75.06
470.243	81.06
470.462	92.06
470.681	86.06
470.901	80.06
471.12	77.06
471.339	84.06
471.558	93.06
471.777	84.06
471.997	81.06
472.216	74.06
472.435	70.06
472.654	89.06
472.873	91.06
473.092	85.06
473.311	80.06
473.53	83.06
473.749	86.06
473.968	80.06
474.187	87.06
474.406	72.06
474.625	92.06
474.844	93.06
475.063	93.06
475.282	77.06
475.501	82.06
475.72	77.06
475.939	70.06
476.158	77.06
476.377	86.06
476.596	85.06
476.814	69.06
477.033	69.06
477.252	86.06
477.471	84.06
477.69	72.06
477.908	91.06
478.127	89.06
478.346	82.06
478.564	82.06
478.783	93.06
479.002	80.06
479.22	84.06
479.439	77.06
479.658	78.06
479.876	76.06
480.095	91.06
480.313	95.06
480.532	71.06
480.751	80.06
480.969	77.06
481.188	84.06
481.406	76.06
481.624	85.06
481.843	92.06
482.061	79.06
482.28	85.06
482.498	69.06
482.717	76.06
482.935	84.06
483.153	95.06
483.372	96.06
483.59	94.06
483.808	73.06
484.027	87.06
484.245	78.06
484.463	88.06
484.681	82.06
484.9	83.06
485.118	73.06
485.336	69.06
485.554	103.06
485.772	81.06
485.99	85.06
486.209	77.06
486.427	63.06
486.645	82.06
486.863	86.06
487.081	80.06
487.299	95.06
487.517	89.06
487.735	71.06
487.953	79.06
488.171	87.06
488.389	81.06
488.607	82.06
488.825	79.06
489.043	86.06
489.261	93.06
489.479	90.06
489.696	76.06
489.914	72.06
490.132	82.06
490.35	89.06
490.568	83.06
490.786	86.06
491.003	74.06
491.221	90.06
491.439	97.06
491.657	90.06
491.874	78.06
492.092	73.06
492.31	82.06
492.527	71.06
492.745	92.06
492.963	95.06
493.18	80.06
493.398	77.06
493.615	82.06
493.833	85.06
494.05	76.06
494.268	83.06
494.485	77.06
494.703	66.06
494.92	85.06
495.138	90.06
495.355	87.06
495.573	78.06
495.79	97.06
496.008	74.06
496.225	95.06
496.442	85.06
496.66	93.06
496.877	79.06
497.094	88.06
497.312	86.06
497.529	66.06
497.746	81.06
497.963	76.06
498.181	72.06
498.398	96.06
498.615	77.06
498.832	79.06
499.049	96.06
499.267	72.06
499.484	73.06
499.701	77.06
499.918	84.06
500.135	66.06
500.352	86.06
500.569	82.06
500.786	75.06
501.003	89.06
501.22	76.06
501.437	81.06
501.654	86.06
501.871	88.06
502.088	67.06
502.305	80.06
502.522	96.06
502.739	97.06
502.956	86.06
503.172	81.06
503.389	89.06
503.606	88.06
503.823	75.06
504.04	84.06
504.256	66.06
504.473	85.06
504.69	88.06
504.907	93.06
505.123	82.06
505.34	84.06
505.557	85.06
505.773	74.06
505.99	91.06
506.207	71.06
506.423	90.06
506.64	75.06
506.856	79.06
507.073	81.06
507.289	83.06
507.506	97.06
507.722	97.06
507.939	75.06
508.155	102.06
508.372	80.06
508.588	95.06
508.805	84.06
509.021	82.06
509.238	71.06
509.454	88.06
509.67	81.06
509.887	82.06
510.103	91.06
510.319	71.06
510.536	83.06
510.752	77.06
510.968	73.06
511.184	83.06
511.401	78.06
511.617	88.06
511.833	84.06
512.049	79.06
512.265	77.06
512.481	75.06
512.698	94.06
512.914	80.06
513.13	74.06
513.346	60.06
513.562	92.06
513.778	73.06
513.994	84.06
514.21	90.06
514.426	96.06
514.642	68.06
514.858	96.06
515.074	70.06
515.29	88.06
515.506	84.06
515.721	83.06
515.937	88.06
516.153	88.06
516.369	91.06
516.585	100.06
516.801	81.06
517.016	71.06
517.232	90.06
517.448	64.06
517.664	95.06
517.879	99.06
518.095	92.06
518.311	86.06
518.527	84.06
518.742	64.06
518.958	76.06
519.173	89.06
519.389	89.06
519.605	79.06
519.82	84.06
520.036	80.06
