Data from Background_1_HRD10591_00025.txt Node
Date: Wed Nov 05 14:39:10 EST 2025
User: Yrep
Spectrometer: HR+D1059
Trigger mode: 1
Integration Time (sec): 1.000000E-1
Scans to average: 1
Electric dark correction enabled: true
Nonlinearity correction enabled: false
Boxcar width: 0
XAxis mode: Wavelengths
Number of Pixels in Spectrum: 2048
>>>>>Begin Spectral Data<<<<<
223.165	-24.31
223.4	-24.31
223.635	-24.31
223.869	-29.31
224.104	-19.31
224.338	-11.31
224.573	-1.31
224.808	-16.31
225.042	-8.31
225.277	3.69
225.511	-2.31
225.746	-0.31
225.98	15.69
226.215	15.69
226.449	17.69
226.683	18.69
226.918	11.69
227.152	29.69
227.387	35.69
227.621	39.69
227.856	49.69
228.09	49.69
228.324	55.69
228.559	52.69
228.793	57.69
229.027	66.69
229.262	62.69
229.496	70.69
229.73	60.69
229.964	65.69
230.199	86.69
230.433	69.69
230.667	60.69
230.901	82.69
231.136	87.69
231.37	67.69
231.604	84.69
231.838	74.69
232.072	88.69
232.306	68.69
232.541	78.69
232.775	75.69
233.009	90.69
233.243	79.69
233.477	79.69
233.711	80.69
233.945	86.69
234.179	76.69
234.413	92.69
234.647	78.69
234.881	84.69
235.115	82.69
235.349	83.69
235.583	63.69
235.817	67.69
236.051	87.69
236.285	78.69
236.519	77.69
236.753	75.69
236.987	82.69
237.221	78.69
237.455	80.69
237.689	69.69
237.922	74.69
238.156	74.69
238.39	83.69
238.624	78.69
238.858	80.69
239.091	63.69
239.325	92.69
239.559	78.69
239.793	79.69
240.027	78.69
240.26	71.69
240.494	90.69
240.728	64.69
240.961	79.69
241.195	71.69
241.429	76.69
241.662	66.69
241.896	83.69
242.13	60.69
242.363	62.69
242.597	63.69
242.83	82.69
243.064	78.69
243.298	69.69
243.531	81.69
243.765	68.69
243.998	73.69
244.232	83.69
244.465	82.69
244.699	74.69
244.932	77.69
245.166	74.69
245.399	88.69
245.633	69.69
245.866	62.69
246.099	76.69
246.333	77.69
246.566	88.69
246.8	87.69
247.033	82.69
247.266	67.69
247.5	78.69
247.733	87.69
247.966	64.69
248.2	81.69
248.433	78.69
248.666	67.69
248.899	80.69
249.133	74.69
249.366	72.69
249.599	74.69
249.832	68.69
250.066	73.69
250.299	71.69
250.532	71.69
250.765	80.69
250.998	62.69
251.231	81.69
251.465	74.69
251.698	69.69
251.931	91.69
252.164	66.69
252.397	87.69
252.63	71.69
252.863	80.69
253.096	90.69
253.329	79.69
253.562	74.69
253.795	79.69
254.028	66.69
254.261	90.69
254.494	67.69
254.727	76.69
254.96	82.69
255.193	79.69
255.426	82.69
255.659	75.69
255.892	86.69
256.124	89.69
256.357	85.69
256.59	76.69
256.823	60.69
257.056	74.69
257.289	85.69
257.521	75.69
257.754	84.69
257.987	82.69
258.22	88.69
258.452	91.69
258.685	83.69
258.918	87.69
259.151	80.69
259.383	74.69
259.616	81.69
259.849	79.69
260.081	79.69
260.314	79.69
260.547	90.69
260.779	84.69
261.012	93.69
261.244	85.69
261.477	83.69
261.71	78.69
261.942	90.69
262.175	76.69
262.407	76.69
262.64	75.69
262.872	77.69
263.105	74.69
263.337	81.69
263.57	80.69
263.802	84.69
264.035	94.69
264.267	94.69
264.499	69.69
264.732	76.69
264.964	88.69
265.197	75.69
265.429	80.69
265.661	82.69
265.894	83.69
266.126	94.69
266.358	74.69
266.591	77.69
266.823	89.69
267.055	66.69
267.287	88.69
267.52	87.69
267.752	85.69
267.984	91.69
268.216	83.69
268.448	94.69
268.681	87.69
268.913	88.69
269.145	73.69
269.377	96.69
269.609	75.69
269.841	92.69
270.073	86.69
270.306	83.69
270.538	89.69
270.77	81.69
271.002	92.69
271.234	77.69
271.466	94.69
271.698	93.69
271.93	72.69
272.162	87.69
272.394	93.69
272.626	93.69
272.858	83.69
273.09	98.69
273.322	81.69
273.553	76.69
273.785	70.69
274.017	70.69
274.249	80.69
274.481	79.69
274.713	66.69
274.945	88.69
275.176	83.69
275.408	92.69
275.64	81.69
275.872	86.69
276.104	70.69
276.335	71.69
276.567	99.69
276.799	78.69
277.031	85.69
277.262	91.69
277.494	66.69
277.726	92.69
277.957	68.69
278.189	79.69
278.421	79.69
278.652	89.69
278.884	70.69
279.115	76.69
279.347	72.69
279.579	82.69
279.81	91.69
280.042	76.69
280.273	76.69
280.505	83.69
280.736	89.69
280.968	94.69
281.199	81.69
281.431	83.69
281.662	73.69
281.894	78.69
282.125	89.69
282.356	80.69
282.588	89.69
282.819	85.69
283.051	90.69
283.282	78.69
283.513	79.69
283.745	88.69
283.976	85.69
284.207	86.69
284.439	81.69
284.67	110.69
284.901	97.69
285.132	78.69
285.364	81.69
285.595	90.69
285.826	81.69
286.057	82.69
286.288	88.69
286.52	87.69
286.751	67.69
286.982	77.69
287.213	83.69
287.444	79.69
287.675	62.69
287.906	72.69
288.138	75.69
288.369	81.69
288.6	75.69
288.831	76.69
289.062	75.69
289.293	89.69
289.524	74.69
289.755	83.69
289.986	87.69
290.217	82.69
290.448	79.69
290.679	74.69
290.91	79.69
291.141	87.69
291.371	69.69
291.602	81.69
291.833	86.69
292.064	82.69
292.295	76.69
292.526	103.69
292.757	78.69
292.987	91.69
293.218	75.69
293.449	74.69
293.68	82.69
293.91	77.69
294.141	79.69
294.372	85.69
294.603	81.69
294.833	76.69
295.064	82.69
295.295	92.69
295.525	84.69
295.756	80.69
295.987	84.69
296.217	89.69
296.448	83.69
296.679	90.69
296.909	99.69
297.14	86.69
297.37	71.69
297.601	77.69
297.831	75.69
298.062	81.69
298.292	82.69
298.523	83.69
298.753	68.69
298.984	63.69
299.214	73.69
299.445	81.69
299.675	84.69
299.905	78.69
300.136	95.69
300.366	91.69
300.597	81.69
300.827	66.69
301.057	80.69
301.288	77.69
301.518	82.69
301.748	87.69
301.979	105.69
302.209	82.69
302.439	77.69
302.669	84.69
302.9	73.69
303.13	70.69
303.36	80.69
303.59	86.69
303.82	72.69
304.051	77.69
304.281	80.69
304.511	87.69
304.741	85.69
304.971	79.69
305.201	92.69
305.431	94.69
305.661	90.69
305.891	100.69
306.121	80.69
306.352	89.69
306.582	83.69
306.812	80.69
307.042	74.69
307.272	69.69
307.502	81.69
307.731	91.69
307.961	82.69
308.191	86.69
308.421	79.69
308.651	88.69
308.881	92.69
309.111	83.69
309.341	72.69
309.571	80.69
309.8	96.69
310.03	83.69
310.26	73.69
310.49	62.69
310.72	83.69
310.949	71.69
311.179	87.69
311.409	84.69
311.639	83.69
311.868	89.69
312.098	84.69
312.328	78.69
312.557	92.69
312.787	89.69
313.017	84.69
313.246	86.69
313.476	73.69
313.706	93.69
313.935	86.69
314.165	71.69
314.394	95.69
314.624	74.69
314.853	86.69
315.083	72.69
315.312	70.69
315.542	76.69
315.771	86.69
316.001	81.69
316.23	79.69
316.46	80.69
316.689	73.69
316.919	78.69
317.148	75.69
317.377	99.69
317.607	91.69
317.836	95.69
318.065	97.69
318.295	89.69
318.524	86.69
318.753	83.69
318.983	80.69
319.212	86.69
319.441	83.69
319.67	82.69
319.9	79.69
320.129	90.69
320.358	86.69
320.587	85.69
320.816	74.69
321.046	79.69
321.275	87.69
321.504	82.69
321.733	89.69
321.962	78.69
322.191	80.69
322.42	76.69
322.649	82.69
322.878	70.69
323.108	90.69
323.337	79.69
323.566	97.69
323.795	99.69
324.024	86.69
324.253	87.69
324.482	79.69
324.71	90.69
324.939	80.69
325.168	84.69
325.397	75.69
325.626	71.69
325.855	93.69
326.084	89.69
326.313	81.69
326.542	77.69
326.77	88.69
326.999	87.69
327.228	71.69
327.457	80.69
327.686	90.69
327.914	81.69
328.143	90.69
328.372	75.69
328.6	78.69
328.829	73.69
329.058	76.69
329.287	70.69
329.515	92.69
329.744	94.69
329.972	75.69
330.201	76.69
330.43	86.69
330.658	80.69
330.887	75.69
331.115	88.69
331.344	82.69
331.572	80.69
331.801	103.69
332.03	91.69
332.258	79.69
332.486	82.69
332.715	69.69
332.943	73.69
333.172	79.69
333.4	93.69
333.629	96.69
333.857	87.69
334.085	86.69
334.314	86.69
334.542	77.69
334.771	89.69
334.999	88.69
335.227	81.69
335.455	73.69
335.684	94.69
335.912	90.69
336.14	78.69
336.369	77.69
336.597	95.69
336.825	75.69
337.053	80.69
337.281	68.69
337.51	88.69
337.738	90.69
337.966	82.69
338.194	64.69
338.422	69.69
338.65	85.69
338.878	85.69
339.106	77.69
339.334	79.69
339.562	86.69
339.79	67.69
340.018	80.69
340.246	89.69
340.474	84.69
340.702	83.69
340.93	89.69
341.158	90.69
341.386	95.69
341.614	73.69
341.842	77.69
342.07	96.69
342.298	87.69
342.526	79.69
342.754	87.69
342.981	81.69
343.209	87.69
343.437	83.69
343.665	76.69
343.893	78.69
344.12	80.69
344.348	76.69
344.576	82.69
344.804	89.69
345.031	80.69
345.259	94.69
345.487	78.69
345.714	83.69
345.942	88.69
346.17	78.69
346.397	94.69
346.625	93.69
346.853	100.69
347.08	86.69
347.308	80.69
347.535	78.69
347.763	81.69
347.99	71.69
348.218	90.69
348.445	83.69
348.673	77.69
348.9	68.69
349.128	80.69
349.355	74.69
349.583	83.69
349.81	82.69
350.037	76.69
350.265	90.69
350.492	82.69
350.72	97.69
350.947	81.69
351.174	89.69
351.402	75.69
351.629	100.69
351.856	75.69
352.083	73.69
352.311	78.69
352.538	76.69
352.765	97.69
352.992	80.69
353.22	91.69
353.447	81.69
353.674	86.69
353.901	82.69
354.128	97.69
354.355	85.69
354.583	66.69
354.81	88.69
355.037	80.69
355.264	87.69
355.491	89.69
355.718	97.69
355.945	76.69
356.172	74.69
356.399	82.69
356.626	87.69
356.853	90.69
357.08	83.69
357.307	79.69
357.534	74.69
357.761	86.69
357.988	78.69
358.215	87.69
358.441	77.69
358.668	72.69
358.895	91.69
359.122	87.69
359.349	83.69
359.576	91.69
359.802	82.69
360.029	78.69
360.256	91.69
360.483	82.69
360.709	78.69
360.936	80.69
361.163	73.69
361.39	73.69
361.616	80.69
361.843	86.69
362.07	78.69
362.296	82.69
362.523	80.69
362.749	72.69
362.976	82.69
363.203	79.69
363.429	91.69
363.656	85.69
363.882	76.69
364.109	95.69
364.335	69.69
364.562	78.69
364.788	63.69
365.015	83.69
365.241	77.69
365.468	75.69
365.694	85.69
365.92	90.69
366.147	90.69
366.373	83.69
366.599	87.69
366.826	75.69
367.052	94.69
367.278	85.69
367.505	77.69
367.731	100.69
367.957	76.69
368.184	71.69
368.41	80.69
368.636	76.69
368.862	74.69
369.089	74.69
369.315	75.69
369.541	80.69
369.767	81.69
369.993	79.69
370.219	86.69
370.445	74.69
370.672	93.69
370.898	80.69
371.124	83.69
371.35	85.69
371.576	80.69
371.802	80.69
372.028	101.69
372.254	94.69
372.48	82.69
372.706	80.69
372.932	90.69
373.158	98.69
373.384	87.69
373.61	89.69
373.835	88.69
374.061	91.69
374.287	95.69
374.513	94.69
374.739	78.69
374.965	67.69
375.191	88.69
375.416	87.69
375.642	89.69
375.868	89.69
376.094	90.69
376.319	75.69
376.545	86.69
376.771	82.69
376.997	79.69
377.222	79.69
377.448	75.69
377.674	67.69
377.899	81.69
378.125	88.69
378.35	71.69
378.576	84.69
378.802	82.69
379.027	83.69
379.253	90.69
379.478	93.69
379.704	87.69
379.929	89.69
380.155	92.69
380.38	77.69
380.606	76.69
380.831	66.69
381.057	93.69
381.282	69.69
381.507	88.69
381.733	76.69
381.958	83.69
382.184	79.69
382.409	78.69
382.634	86.69
382.86	91.69
383.085	87.69
383.31	94.69
383.535	79.69
383.761	97.69
383.986	84.69
384.211	79.69
384.436	88.69
384.662	65.69
384.887	72.69
385.112	84.69
385.337	83.69
385.562	90.69
385.787	76.69
386.013	79.69
386.238	83.69
386.463	72.69
386.688	103.69
386.913	65.69
387.138	86.69
387.363	86.69
387.588	87.69
387.813	80.69
388.038	80.69
388.263	69.69
388.488	81.69
388.713	80.69
388.938	69.69
389.163	82.69
389.387	93.69
389.612	70.69
389.837	72.69
390.062	90.69
390.287	70.69
390.512	78.69
390.736	75.69
390.961	78.69
391.186	81.69
391.411	76.69
391.636	86.69
391.86	69.69
392.085	72.69
392.31	71.69
392.534	88.69
392.759	81.69
392.984	81.69
393.208	80.69
393.433	78.69
393.658	66.69
393.882	90.69
394.107	81.69
394.331	82.69
394.556	80.69
394.78	72.69
395.005	78.69
395.229	91.69
395.454	73.69
395.678	76.69
395.903	81.69
396.127	70.69
396.352	71.69
396.576	78.69
396.801	88.69
397.025	72.69
397.249	84.69
397.474	81.69
397.698	87.69
397.922	82.69
398.147	79.69
398.371	66.69
398.595	86.69
398.82	80.69
399.044	81.69
399.268	70.69
399.492	79.69
399.717	83.69
399.941	80.69
400.165	91.69
400.389	72.69
400.613	69.69
400.837	70.69
401.062	69.69
401.286	78.69
401.51	72.69
401.734	81.69
401.958	64.69
402.182	82.69
402.406	83.69
402.63	77.69
402.854	55.69
403.078	87.69
403.302	77.69
403.526	71.69
403.75	73.69
403.974	86.69
404.198	92.69
404.422	89.69
404.645	87.69
404.869	81.69
405.093	79.69
405.317	76.69
405.541	82.69
405.765	69.69
405.988	81.69
406.212	74.69
406.436	82.69
406.66	78.69
406.883	68.69
407.107	81.69
407.331	86.69
407.555	69.69
407.778	76.69
408.002	81.69
408.226	75.69
408.449	82.69
408.673	72.69
408.896	89.69
409.12	70.69
409.344	83.69
409.567	79.69
409.791	71.69
410.014	83.69
410.238	77.69
410.461	92.69
410.685	80.69
410.908	75.69
411.132	67.69
411.355	84.69
411.578	79.69
411.802	84.69
412.025	80.69
412.249	91.69
412.472	76.69
412.695	66.69
412.919	69.69
413.142	67.69
413.365	74.69
413.589	78.69
413.812	71.69
414.035	70.69
414.258	94.69
414.482	72.69
414.705	74.69
414.928	76.69
415.151	67.69
415.374	67.69
415.597	77.69
415.821	79.69
416.044	74.69
416.267	68.69
416.49	85.69
416.713	86.69
416.936	87.69
417.159	86.69
417.382	76.69
417.605	83.69
417.828	71.69
418.051	71.69
418.274	77.69
418.497	81.69
418.72	75.69
418.943	98.69
419.166	86.69
419.389	80.69
419.611	77.69
419.834	76.69
420.057	74.69
420.28	91.69
420.503	87.69
420.726	65.69
420.948	97.69
421.171	66.69
421.394	67.69
421.617	81.69
421.839	82.69
422.062	74.69
422.285	66.69
422.507	78.69
422.73	84.69
422.953	79.69
423.175	76.69
423.398	76.69
423.621	76.69
423.843	71.69
424.066	86.69
424.288	75.69
424.511	68.69
424.733	61.69
424.956	76.69
425.178	92.69
425.401	98.69
425.623	88.69
425.846	78.69
426.068	82.69
426.291	79.69
426.513	80.69
426.735	95.69
426.958	81.69
427.18	69.69
427.402	86.69
427.625	75.69
427.847	89.69
428.069	72.69
428.292	82.69
428.514	80.69
428.736	76.69
428.958	90.69
429.181	78.69
429.403	65.69
429.625	86.69
429.847	72.69
430.069	76.69
430.292	76.69
430.514	87.69
430.736	69.69
430.958	93.69
431.18	75.69
431.402	82.69
431.624	99.69
431.846	77.69
432.068	60.69
432.29	86.69
432.512	91.69
432.734	70.69
432.956	65.69
433.178	76.69
433.4	81.69
433.622	64.69
433.844	72.69
434.066	78.69
434.287	88.69
434.509	82.69
434.731	78.69
434.953	63.69
435.175	86.69
435.397	70.69
435.618	86.69
435.84	62.69
436.062	78.69
436.284	85.69
436.505	77.69
436.727	59.69
436.949	76.69
437.17	80.69
437.392	71.69
437.614	82.69
437.835	72.69
438.057	86.69
438.278	85.69
438.5	85.69
438.721	73.69
438.943	69.69
439.165	74.69
439.386	83.69
439.608	80.69
439.829	91.69
440.05	85.69
440.272	81.69
440.493	70.69
440.715	82.69
440.936	84.69
441.158	99.69
441.379	82.69
441.6	77.69
441.822	67.69
442.043	68.69
442.264	72.69
442.486	81.69
442.707	81.69
442.928	91.69
443.149	78.69
443.371	64.69
443.592	90.69
443.813	86.69
444.034	67.69
444.255	93.69
444.476	79.69
444.698	66.69
444.919	66.69
445.14	154.69
445.361	120.69
445.582	89.69
445.803	84.69
446.024	79.69
446.245	81.69
446.466	89.69
446.687	80.69
446.908	71.69
447.129	80.69
447.35	77.69
447.571	88.69
447.792	78.69
448.013	64.69
448.234	80.69
448.455	76.69
448.675	71.69
448.896	77.69
449.117	89.69
449.338	71.69
449.559	91.69
449.779	83.69
450	71.69
450.221	87.69
450.442	95.69
450.662	75.69
450.883	65.69
451.104	80.69
451.324	72.69
451.545	74.69
451.766	89.69
451.986	74.69
452.207	76.69
452.428	80.69
452.648	58.69
452.869	78.69
453.089	82.69
453.31	84.69
453.53	80.69
453.751	99.69
453.971	79.69
454.192	81.69
454.412	65.69
454.633	73.69
454.853	83.69
455.073	89.69
455.294	90.69
455.514	76.69
455.734	76.69
455.955	91.69
456.175	91.69
456.395	72.69
456.616	82.69
456.836	84.69
457.056	75.69
457.276	85.69
457.497	91.69
457.717	79.69
457.937	82.69
458.157	84.69
458.377	68.69
458.598	56.69
458.818	75.69
459.038	71.69
459.258	85.69
459.478	74.69
459.698	79.69
459.918	83.69
460.138	87.69
460.358	85.69
460.578	96.69
460.798	77.69
461.018	72.69
461.238	68.69
461.458	83.69
461.678	68.69
461.898	72.69
462.118	64.69
462.338	76.69
462.558	99.69
462.777	79.69
462.997	71.69
463.217	86.69
463.437	73.69
463.657	68.69
463.876	91.69
464.096	77.69
464.316	67.69
464.536	57.69
464.755	79.69
464.975	78.69
465.195	82.69
465.414	77.69
465.634	82.69
465.854	66.69
466.073	83.69
466.293	83.69
466.512	73.69
466.732	73.69
466.951	83.69
467.171	79.69
467.391	86.69
467.61	84.69
467.829	96.69
468.049	69.69
468.268	75.69
468.488	83.69
468.707	73.69
468.927	79.69
469.146	79.69
469.365	86.69
469.585	63.69
469.804	65.69
470.023	77.69
470.243	78.69
470.462	61.69
470.681	67.69
470.901	77.69
471.12	74.69
471.339	92.69
471.558	89.69
471.777	71.69
471.997	90.69
472.216	96.69
472.435	75.69
472.654	78.69
472.873	76.69
473.092	84.69
473.311	78.69
473.53	73.69
473.749	88.69
473.968	75.69
474.187	83.69
474.406	81.69
474.625	84.69
474.844	88.69
475.063	83.69
475.282	65.69
475.501	86.69
475.72	90.69
475.939	80.69
476.158	78.69
476.377	64.69
476.596	77.69
476.814	86.69
477.033	82.69
477.252	87.69
477.471	71.69
477.69	69.69
477.908	74.69
478.127	101.69
478.346	82.69
478.564	74.69
478.783	75.69
479.002	84.69
479.22	80.69
479.439	80.69
479.658	80.69
479.876	72.69
480.095	76.69
480.313	75.69
480.532	77.69
480.751	79.69
480.969	84.69
481.188	66.69
481.406	89.69
481.624	70.69
481.843	86.69
482.061	79.69
482.28	87.69
482.498	90.69
482.717	72.69
482.935	83.69
483.153	85.69
483.372	79.69
483.59	92.69
483.808	82.69
484.027	71.69
484.245	72.69
484.463	76.69
484.681	89.69
484.9	88.69
485.118	77.69
485.336	88.69
485.554	82.69
485.772	76.69
485.99	79.69
486.209	79.69
486.427	85.69
486.645	80.69
486.863	83.69
487.081	77.69
487.299	85.69
487.517	86.69
487.735	85.69
487.953	87.69
488.171	74.69
488.389	70.69
488.607	79.69
488.825	84.69
489.043	85.69
489.261	92.69
489.479	101.69
489.696	78.69
489.914	79.69
490.132	73.69
490.35	80.69
490.568	93.69
490.786	76.69
491.003	72.69
491.221	92.69
491.439	86.69
491.657	81.69
491.874	83.69
492.092	53.69
492.31	90.69
492.527	74.69
492.745	78.69
492.963	88.69
493.18	79.69
493.398	75.69
493.615	76.69
493.833	83.69
494.05	71.69
494.268	88.69
494.485	89.69
494.703	80.69
494.92	73.69
495.138	84.69
495.355	86.69
495.573	94.69
495.79	74.69
496.008	74.69
496.225	83.69
496.442	86.69
496.66	90.69
496.877	94.69
497.094	82.69
497.312	92.69
497.529	83.69
497.746	78.69
497.963	77.69
498.181	73.69
498.398	80.69
498.615	91.69
498.832	69.69
499.049	65.69
499.267	75.69
499.484	72.69
499.701	75.69
499.918	71.69
500.135	76.69
500.352	79.69
500.569	83.69
500.786	63.69
501.003	72.69
501.22	64.69
501.437	94.69
501.654	85.69
501.871	70.69
502.088	85.69
502.305	78.69
502.522	76.69
502.739	87.69
502.956	94.69
503.172	79.69
503.389	77.69
503.606	69.69
503.823	66.69
504.04	102.69
504.256	89.69
504.473	78.69
504.69	60.69
504.907	80.69
505.123	83.69
505.34	80.69
505.557	79.69
505.773	80.69
505.99	86.69
506.207	82.69
506.423	72.69
506.64	64.69
506.856	82.69
507.073	84.69
507.289	76.69
507.506	75.69
507.722	70.69
507.939	82.69
508.155	62.69
508.372	76.69
508.588	90.69
508.805	96.69
509.021	76.69
509.238	79.69
509.454	78.69
509.67	83.69
509.887	86.69
510.103	75.69
510.319	78.69
510.536	76.69
510.752	83.69
510.968	70.69
511.184	71.69
511.401	81.69
511.617	87.69
511.833	72.69
512.049	76.69
512.265	86.69
512.481	68.69
512.698	80.69
512.914	84.69
513.13	89.69
513.346	92.69
513.562	70.69
513.778	90.69
513.994	84.69
514.21	77.69
514.426	79.69
514.642	95.69
514.858	78.69
515.074	86.69
515.29	83.69
515.506	70.69
515.721	91.69
515.937	73.69
516.153	84.69
516.369	74.69
516.585	76.69
516.801	75.69
517.016	92.69
517.232	86.69
517.448	75.69
517.664	80.69
517.879	93.69
518.095	85.69
518.311	77.69
518.527	91.69
518.742	72.69
518.958	74.69
519.173	83.69
519.389	74.69
519.605	87.69
519.82	82.69
520.036	83.69
