Data from Background_1_HRD10591_00026.txt Node
Date: Wed Nov 05 14:39:11 EST 2025
User: Yrep
Spectrometer: HR+D1059
Trigger mode: 1
Integration Time (sec): 1.000000E-1
Scans to average: 1
Electric dark correction enabled: true
Nonlinearity correction enabled: false
Boxcar width: 0
XAxis mode: Wavelengths
Number of Pixels in Spectrum: 2048
>>>>>Begin Spectral Data<<<<<
223.165	-11
223.4	-11
223.635	-11
223.869	-17
224.104	-10
224.338	-16
224.573	-12
224.808	-10
225.042	-16
225.277	-12
225.511	1
225.746	-9
225.98	9
226.215	17
226.449	9
226.683	6
226.918	27
227.152	44
227.387	38
227.621	34
227.856	42
228.09	56
228.324	36
228.559	42
228.793	68
229.027	56
229.262	79
229.496	68
229.73	64
229.964	71
230.199	65
230.433	75
230.667	58
230.901	72
231.136	80
231.37	75
231.604	84
231.838	93
232.072	71
232.306	82
232.541	82
232.775	80
233.009	77
233.243	78
233.477	81
233.711	74
233.945	74
234.179	80
234.413	73
234.647	83
234.881	92
235.115	79
235.349	85
235.583	81
235.817	74
236.051	82
236.285	74
236.519	76
236.753	75
236.987	70
237.221	66
237.455	74
237.689	74
237.922	83
238.156	64
238.39	64
238.624	71
238.858	83
239.091	74
239.325	90
239.559	76
239.793	76
240.027	80
240.26	71
240.494	58
240.728	77
240.961	78
241.195	78
241.429	85
241.662	88
241.896	82
242.13	72
242.363	73
242.597	72
242.83	67
243.064	82
243.298	84
243.531	70
243.765	76
243.998	90
244.232	72
244.465	77
244.699	78
244.932	67
245.166	90
245.399	74
245.633	72
245.866	65
246.099	88
246.333	83
246.566	74
246.8	78
247.033	87
247.266	72
247.5	74
247.733	75
247.966	63
248.2	80
248.433	69
248.666	76
248.899	61
249.133	76
249.366	87
249.599	72
249.832	75
250.066	77
250.299	75
250.532	86
250.765	78
250.998	88
251.231	78
251.465	72
251.698	81
251.931	75
252.164	86
252.397	81
252.63	67
252.863	70
253.096	63
253.329	76
253.562	84
253.795	72
254.028	73
254.261	69
254.494	83
254.727	77
254.96	75
255.193	82
255.426	79
255.659	86
255.892	92
256.124	85
256.357	95
256.59	89
256.823	84
257.056	74
257.289	76
257.521	70
257.754	89
257.987	88
258.22	77
258.452	86
258.685	71
258.918	69
259.151	82
259.383	90
259.616	72
259.849	79
260.081	81
260.314	75
260.547	88
260.779	69
261.012	75
261.244	79
261.477	83
261.71	78
261.942	70
262.175	70
262.407	74
262.64	77
262.872	72
263.105	90
263.337	92
263.57	83
263.802	68
264.035	74
264.267	72
264.499	88
264.732	80
264.964	82
265.197	77
265.429	86
265.661	91
265.894	80
266.126	82
266.358	86
266.591	87
266.823	80
267.055	75
267.287	77
267.52	96
267.752	75
267.984	79
268.216	77
268.448	88
268.681	79
268.913	80
269.145	81
269.377	74
269.609	93
269.841	80
270.073	72
270.306	85
270.538	65
270.77	78
271.002	86
271.234	72
271.466	77
271.698	77
271.93	82
272.162	78
272.394	80
272.626	87
272.858	96
273.09	85
273.322	95
273.553	87
273.785	81
274.017	76
274.249	89
274.481	89
274.713	92
274.945	81
275.176	77
275.408	85
275.64	80
275.872	82
276.104	94
276.335	93
276.567	84
276.799	89
277.031	86
277.262	89
277.494	79
277.726	79
277.957	94
278.189	82
278.421	77
278.652	81
278.884	73
279.115	89
279.347	86
279.579	73
279.81	80
280.042	84
280.273	84
280.505	88
280.736	90
280.968	89
281.199	88
281.431	77
281.662	79
281.894	72
282.125	70
282.356	79
282.588	89
282.819	85
283.051	70
283.282	69
283.513	105
283.745	81
283.976	73
284.207	86
284.439	85
284.67	81
284.901	88
285.132	70
285.364	79
285.595	88
285.826	80
286.057	73
286.288	86
286.52	90
286.751	84
286.982	74
287.213	92
287.444	67
287.675	83
287.906	94
288.138	81
288.369	86
288.6	73
288.831	98
289.062	78
289.293	93
289.524	84
289.755	90
289.986	87
290.217	89
290.448	83
290.679	82
290.91	77
291.141	83
291.371	80
291.602	78
291.833	82
292.064	82
292.295	92
292.526	85
292.757	82
292.987	83
293.218	77
293.449	97
293.68	88
293.91	81
294.141	90
294.372	94
294.603	81
294.833	90
295.064	82
295.295	84
295.525	82
295.756	81
295.987	89
296.217	82
296.448	81
296.679	76
296.909	74
297.14	79
297.37	87
297.601	81
297.831	90
298.062	86
298.292	95
298.523	71
298.753	66
298.984	80
299.214	88
299.445	84
299.675	90
299.905	77
300.136	88
300.366	81
300.597	84
300.827	79
301.057	86
301.288	95
301.518	85
301.748	85
301.979	88
302.209	96
302.439	88
302.669	79
302.9	83
303.13	77
303.36	102
303.59	86
303.82	87
304.051	80
304.281	106
304.511	95
304.741	72
304.971	88
305.201	92
305.431	87
305.661	73
305.891	73
306.121	96
306.352	70
306.582	83
306.812	83
307.042	86
307.272	85
307.502	87
307.731	91
307.961	88
308.191	91
308.421	98
308.651	90
308.881	86
309.111	71
309.341	68
309.571	79
309.8	87
310.03	77
310.26	74
310.49	93
310.72	94
310.949	72
311.179	80
311.409	77
311.639	95
311.868	93
312.098	90
312.328	74
312.557	81
312.787	78
313.017	81
313.246	88
313.476	80
313.706	79
313.935	85
314.165	86
314.394	73
314.624	96
314.853	104
315.083	86
315.312	89
315.542	98
315.771	91
316.001	78
316.23	88
316.46	84
316.689	83
316.919	84
317.148	79
317.377	100
317.607	80
317.836	89
318.065	83
318.295	88
318.524	78
318.753	88
318.983	91
319.212	90
319.441	88
319.67	79
319.9	75
320.129	81
320.358	79
320.587	79
320.816	81
321.046	73
321.275	89
321.504	68
321.733	78
321.962	67
322.191	92
322.42	85
322.649	88
322.878	87
323.108	87
323.337	78
323.566	82
323.795	83
324.024	93
324.253	84
324.482	86
324.71	90
324.939	84
325.168	74
325.397	89
325.626	89
325.855	87
326.084	81
326.313	87
326.542	76
326.77	77
326.999	100
327.228	85
327.457	72
327.686	86
327.914	84
328.143	75
328.372	78
328.6	86
328.829	88
329.058	86
329.287	83
329.515	98
329.744	88
329.972	71
330.201	78
330.43	95
330.658	73
330.887	81
331.115	84
331.344	84
331.572	83
331.801	81
332.03	83
332.258	82
332.486	82
332.715	53
332.943	69
333.172	95
333.4	77
333.629	87
333.857	85
334.085	78
334.314	74
334.542	92
334.771	85
334.999	92
335.227	81
335.455	79
335.684	87
335.912	84
336.14	86
336.369	92
336.597	90
336.825	74
337.053	87
337.281	78
337.51	78
337.738	82
337.966	80
338.194	76
338.422	80
338.65	105
338.878	75
339.106	73
339.334	90
339.562	82
339.79	64
340.018	80
340.246	72
340.474	84
340.702	87
340.93	67
341.158	82
341.386	88
341.614	92
341.842	73
342.07	85
342.298	67
342.526	90
342.754	90
342.981	91
343.209	92
343.437	88
343.665	72
343.893	81
344.12	78
344.348	70
344.576	82
344.804	80
345.031	90
345.259	73
345.487	79
345.714	90
345.942	82
346.17	79
346.397	90
346.625	71
346.853	96
347.08	78
347.308	76
347.535	87
347.763	90
347.99	72
348.218	85
348.445	82
348.673	86
348.9	83
349.128	88
349.355	85
349.583	77
349.81	77
350.037	77
350.265	85
350.492	85
350.72	81
350.947	89
351.174	81
351.402	73
351.629	88
351.856	82
352.083	78
352.311	68
352.538	82
352.765	91
352.992	81
353.22	77
353.447	72
353.674	87
353.901	69
354.128	90
354.355	67
354.583	72
354.81	87
355.037	95
355.264	81
355.491	79
355.718	81
355.945	79
356.172	77
356.399	85
356.626	82
356.853	81
357.08	81
357.307	84
357.534	66
357.761	76
357.988	73
358.215	82
358.441	80
358.668	90
358.895	69
359.122	86
359.349	104
359.576	91
359.802	89
360.029	68
360.256	89
360.483	92
360.709	75
360.936	77
361.163	86
361.39	93
361.616	83
361.843	87
362.07	81
362.296	90
362.523	75
362.749	87
362.976	76
363.203	98
363.429	76
363.656	77
363.882	98
364.109	84
364.335	72
364.562	78
364.788	85
365.015	86
365.241	95
365.468	72
365.694	85
365.92	94
366.147	81
366.373	83
366.599	88
366.826	78
367.052	85
367.278	91
367.505	82
367.731	78
367.957	93
368.184	85
368.41	80
368.636	98
368.862	66
369.089	72
369.315	78
369.541	80
369.767	87
369.993	73
370.219	69
370.445	72
370.672	81
370.898	78
371.124	68
371.35	95
371.576	72
371.802	74
372.028	71
372.254	81
372.48	77
372.706	59
372.932	85
373.158	76
373.384	72
373.61	85
373.835	81
374.061	77
374.287	78
374.513	82
374.739	76
374.965	77
375.191	78
375.416	88
375.642	92
375.868	64
376.094	85
376.319	76
376.545	88
376.771	84
376.997	94
377.222	87
377.448	85
377.674	76
377.899	81
378.125	85
378.35	67
378.576	74
378.802	73
379.027	77
379.253	80
379.478	88
379.704	71
379.929	85
380.155	79
380.38	75
380.606	88
380.831	77
381.057	89
381.282	81
381.507	77
381.733	75
381.958	86
382.184	76
382.409	76
382.634	76
382.86	77
383.085	84
383.31	74
383.535	79
383.761	70
383.986	90
384.211	79
384.436	90
384.662	69
384.887	77
385.112	77
385.337	76
385.562	82
385.787	70
386.013	85
386.238	70
386.463	82
386.688	77
386.913	74
387.138	83
387.363	84
387.588	81
387.813	84
388.038	77
388.263	73
388.488	79
388.713	75
388.938	82
389.163	76
389.387	78
389.612	77
389.837	78
390.062	69
390.287	84
390.512	88
390.736	77
390.961	83
391.186	83
391.411	84
391.636	83
391.86	81
392.085	81
392.31	73
392.534	87
392.759	80
392.984	89
393.208	84
393.433	80
393.658	75
393.882	81
394.107	79
394.331	88
394.556	92
394.78	81
395.005	84
395.229	79
395.454	82
395.678	93
395.903	83
396.127	69
396.352	92
396.576	81
396.801	77
397.025	76
397.249	94
397.474	86
397.698	86
397.922	81
398.147	80
398.371	84
398.595	72
398.82	79
399.044	62
399.268	93
399.492	86
399.717	96
399.941	72
400.165	82
400.389	95
400.613	79
400.837	70
401.062	77
401.286	68
401.51	91
401.734	77
401.958	83
402.182	74
402.406	80
402.63	67
402.854	77
403.078	65
403.302	66
403.526	65
403.75	83
403.974	64
404.198	86
404.422	84
404.645	87
404.869	70
405.093	62
405.317	80
405.541	80
405.765	70
405.988	85
406.212	94
406.436	78
406.66	97
406.883	73
407.107	97
407.331	77
407.555	79
407.778	77
408.002	84
408.226	89
408.449	82
408.673	85
408.896	82
409.12	75
409.344	60
409.567	69
409.791	80
410.014	85
410.238	95
410.461	82
410.685	77
410.908	84
411.132	76
411.355	77
411.578	82
411.802	78
412.025	79
412.249	75
412.472	65
412.695	78
412.919	67
413.142	68
413.365	78
413.589	70
413.812	92
414.035	79
414.258	89
414.482	58
414.705	78
414.928	79
415.151	76
415.374	76
415.597	69
415.821	83
416.044	77
416.267	74
416.49	81
416.713	80
416.936	69
417.159	74
417.382	72
417.605	80
417.828	77
418.051	72
418.274	64
418.497	78
418.72	72
418.943	71
419.166	81
419.389	74
419.611	78
419.834	60
420.057	73
420.28	78
420.503	82
420.726	72
420.948	64
421.171	81
421.394	80
421.617	80
421.839	70
422.062	74
422.285	88
422.507	77
422.73	76
422.953	76
423.175	71
423.398	66
423.621	80
423.843	79
424.066	75
424.288	64
424.511	70
424.733	87
424.956	81
425.178	87
425.401	74
425.623	57
425.846	84
426.068	76
426.291	81
426.513	71
426.735	74
426.958	79
427.18	64
427.402	75
427.625	75
427.847	66
428.069	75
428.292	79
428.514	89
428.736	84
428.958	70
429.181	74
429.403	68
429.625	66
429.847	78
430.069	77
430.292	69
430.514	62
430.736	76
430.958	73
431.18	87
431.402	81
431.624	70
431.846	81
432.068	77
432.29	86
432.512	77
432.734	83
432.956	61
433.178	79
433.4	84
433.622	92
433.844	79
434.066	82
434.287	79
434.509	79
434.731	73
434.953	76
435.175	76
435.397	87
435.618	80
435.84	80
436.062	72
436.284	82
436.505	81
436.727	72
436.949	85
437.17	77
437.392	76
437.614	86
437.835	83
438.057	90
438.278	72
438.5	79
438.721	73
438.943	70
439.165	81
439.386	79
439.608	87
439.829	66
440.05	78
440.272	62
440.493	77
440.715	81
440.936	67
441.158	83
441.379	72
441.6	63
441.822	86
442.043	76
442.264	64
442.486	68
442.707	87
442.928	87
443.149	86
443.371	83
443.592	76
443.813	82
444.034	72
444.255	88
444.476	68
444.698	81
444.919	66
445.14	170
445.361	109
445.582	84
445.803	76
446.024	72
446.245	83
446.466	93
446.687	86
446.908	84
447.129	84
447.35	90
447.571	73
447.792	80
448.013	83
448.234	73
448.455	77
448.675	73
448.896	72
449.117	80
449.338	61
449.559	84
449.779	75
450	93
450.221	75
450.442	72
450.662	66
450.883	93
451.104	80
451.324	76
451.545	75
451.766	81
451.986	78
452.207	96
452.428	67
452.648	81
452.869	76
453.089	86
453.31	81
453.53	58
453.751	92
453.971	73
454.192	62
454.412	95
454.633	76
454.853	71
455.073	79
455.294	96
455.514	77
455.734	78
455.955	80
456.175	74
456.395	80
456.616	78
456.836	70
457.056	68
457.276	95
457.497	83
457.717	79
457.937	75
458.157	74
458.377	73
458.598	87
458.818	80
459.038	88
459.258	87
459.478	86
459.698	76
459.918	68
460.138	76
460.358	89
460.578	84
460.798	79
461.018	79
461.238	77
461.458	83
461.678	78
461.898	81
462.118	81
462.338	73
462.558	70
462.777	76
462.997	93
463.217	74
463.437	78
463.657	74
463.876	90
464.096	67
464.316	73
464.536	82
464.755	59
464.975	87
465.195	72
465.414	79
465.634	81
465.854	86
466.073	81
466.293	74
466.512	95
466.732	87
466.951	73
467.171	74
467.391	91
467.61	82
467.829	76
468.049	89
468.268	91
468.488	80
468.707	52
468.927	82
469.146	78
469.365	78
469.585	87
469.804	86
470.023	75
470.243	102
470.462	76
470.681	75
470.901	90
471.12	79
471.339	78
471.558	75
471.777	71
471.997	77
472.216	70
472.435	80
472.654	84
472.873	79
473.092	78
473.311	91
473.53	87
473.749	74
473.968	79
474.187	76
474.406	84
474.625	72
474.844	87
475.063	84
475.282	90
475.501	80
475.72	92
475.939	77
476.158	68
476.377	70
476.596	90
476.814	87
477.033	81
477.252	85
477.471	81
477.69	91
477.908	86
478.127	74
478.346	87
478.564	69
478.783	91
479.002	77
479.22	72
479.439	85
479.658	83
479.876	85
480.095	63
480.313	72
480.532	66
480.751	76
480.969	74
481.188	79
481.406	84
481.624	88
481.843	84
482.061	75
482.28	88
482.498	70
482.717	81
482.935	69
483.153	87
483.372	82
483.59	76
483.808	73
484.027	82
484.245	76
484.463	73
484.681	75
484.9	76
485.118	86
485.336	70
485.554	72
485.772	81
485.99	76
486.209	82
486.427	74
486.645	82
486.863	88
487.081	80
487.299	74
487.517	83
487.735	74
487.953	74
488.171	78
488.389	85
488.607	75
488.825	76
489.043	86
489.261	81
489.479	78
489.696	69
489.914	81
490.132	79
490.35	92
490.568	68
490.786	72
491.003	86
491.221	77
491.439	80
491.657	72
491.874	72
492.092	64
492.31	61
492.527	77
492.745	64
492.963	71
493.18	89
493.398	94
493.615	75
493.833	79
494.05	89
494.268	86
494.485	81
494.703	86
494.92	66
495.138	61
495.355	76
495.573	68
495.79	56
496.008	97
496.225	74
496.442	86
496.66	75
496.877	79
497.094	82
497.312	80
497.529	88
497.746	76
497.963	73
498.181	86
498.398	79
498.615	68
498.832	89
499.049	78
499.267	76
499.484	88
499.701	79
499.918	68
500.135	72
500.352	84
500.569	84
500.786	77
501.003	77
501.22	73
501.437	72
501.654	85
501.871	80
502.088	78
502.305	77
502.522	93
502.739	91
502.956	70
503.172	84
503.389	96
503.606	86
503.823	82
504.04	84
504.256	66
504.473	82
504.69	92
504.907	87
505.123	91
505.34	78
505.557	72
505.773	91
505.99	81
506.207	89
506.423	86
506.64	88
506.856	84
507.073	82
507.289	71
507.506	80
507.722	81
507.939	81
508.155	95
508.372	87
508.588	80
508.805	81
509.021	75
509.238	83
509.454	80
509.67	81
509.887	85
510.103	86
510.319	82
510.536	93
510.752	77
510.968	81
511.184	73
511.401	71
511.617	90
511.833	69
512.049	94
512.265	80
512.481	79
512.698	76
512.914	66
513.13	81
513.346	80
513.562	77
513.778	66
513.994	78
514.21	84
514.426	77
514.642	95
514.858	88
515.074	85
515.29	67
515.506	86
515.721	81
515.937	73
516.153	81
516.369	89
516.585	77
516.801	76
517.016	79
517.232	94
517.448	67
517.664	97
517.879	81
518.095	88
518.311	76
518.527	87
518.742	74
518.958	89
519.173	80
519.389	85
519.605	69
519.82	74
520.036	75
520.251	70
520.467	95
520.682	84
520.898	82
521.113	82
521.329	84
521.544	72
521.76	90
521.975	80
522.19	98
522.406	87
522.621	94
522.836	82
523.052	80
523.267	84
523.482	72
523.698	78
523.913	88
524.128	62
524.343	88
524.559	77
524.774	74
524.989	84
525.204	83
525.419	78
525.634	88
525.849	80
526.064	60
526.28	79
526.495	90
526.71	88
526.925	78
527.14	88
527.355	62
527.57	71
527.785	84
527.999	97
528.214	79
528.429	88
528.644	86
528.859	71
529.074	87
529.289	70
529.503	81
529.718	73
529.933	79
530.148	78
530.363	79
530.577	90
530.792	86
531.007	88
531.221	82
531.436	71
531.651	87
531.865	84
532.08	97
532.295	72
532.509	78
532.724	87
532.938	91
533.153	71
533.367	90
533.582	88
533.796	77
534.011	78
534.225	90
534.44	74
534.654	83
534.868	73
535.083	84
535.297	78
535.511	75
535.726	72
535.94	90
536.154	92
536.369	89
536.583	84
536.797	80
537.011	84
537.225	72
537.44	81
537.654	96
537.868	72
538.082	94
538.296	80
538.51	78
538.724	78
538.938	69
539.153	78
539.367	86
539.581	68
539.795	65
540.009	67
540.222	98
540.436	86
540.65	83
540.864	79
541.078	92
541.292	77
541.506	81
541.72	76
541.934	75
542.147	97
542.361	79
542.575	84
542.789	67
543.002	81
543.216	86
543.43	79
543.644	76
543.857	69
544.071	85
544.285	79
544.498	78
544.712	97
544.925	81
545.139	85
545.352	90
545.566	84
545.779	71
545.993	80
546.206	86
546.42	84
546.633	85
546.847	87
547.06	79
547.274	81
547.487	81
547.7	86
547.914	72
548.127	74
548.34	85
548.554	77
548.767	93
548.98	96
549.193	83
549.407	89
549.62	85
549.833	73
550.046	87
550.259	86
550.473	77
550.686	71
550.899	77
551.112	83
551.325	78
551.538	70
551.751	76
551.964	86
552.177	72
552.39	81
552.603	73
552.816	87
553.029	87
553.242	80
553.455	88
553.667	77
553.88	85
554.093	76
554.306	73
554.519	77
554.732	92
554.944	68
555.157	89
555.37	86
555.583	89
555.795	76
556.008	73
556.221	69
556.433	90
556.646	63
556.859	81
557.071	84
557.284	78
557.496	75
557.709	87
557.921	77
558.134	80
558.346	85
558.559	86
558.771	87
558.984	90
559.196	83
559.409	92
559.621	88
559.833	76
560.046	79
560.258	87
560.47	85
560.683	84
560.895	66
561.107	78
561.32	80
561.532	78
561.744	82
561.956	80
562.168	73
562.381	92
562.593	92
562.805	84
563.017	84
563.229	90
563.441	86
563.653	80
563.865	74
564.077	78
564.289	81
564.501	83
564.713	80
564.925	90
565.137	80
565.349	90
565.561	82
565.773	66
565.985	74
566.197	89
566.408	69
566.62	94
566.832	83
567.044	70
567.255	92
567.467	90
567.679	89
567.891	85
568.102	81
568.314	94
568.526	72
568.737	81
568.949	91
569.161	76
569.372	84
569.584	77
569.795	97
570.007	83
570.218	74
570.43	86
570.641	85
570.853	85
571.064	82
571.276	75
571.487	80
571.698	80
571.91	84
572.121	79
572.333	83
572.544	84
572.755	78
572.966	72
573.178	75
573.389	70
573.6	75
573.811	73
574.023	82
574.234	80
574.445	58
574.656	72
574.867	85
575.078	86
575.289	68
575.501	87
575.712	96
575.923	86
576.134	80
576.345	76
576.556	85
576.767	82
576.978	78
577.188	80
577.399	70
577.61	86
577.821	79
578.032	84
578.243	93
578.454	72
578.665	84
578.875	83
579.086	71
579.297	91
579.508	88
579.718	90
579.929	82
580.14	80
580.35	79
580.561	87
580.772	78
580.982	66
581.193	91
581.403	83
581.614	85
581.825	96
582.035	75
582.246	84
582.456	100
582.667	95
582.877	77
583.087	88
583.298	91
583.508	64
583.719	85
583.929	88
584.139	76
584.35	84
584.56	81
584.77	74
584.981	79
585.191	84
585.401	73
585.611	84
585.821	101
586.032	80
586.242	84
586.452	80
586.662	83
586.872	91
587.082	81
587.292	80
587.502	80
587.713	83
587.923	79
588.133	77
588.343	85
588.553	75
588.762	72
588.972	77
589.182	77
589.392	85
589.602	85
589.812	79
590.022	72
590.232	73
590.441	83
590.651	81
590.861	93
