Data from Background_1_HRD10591_00031.txt Node
Date: Wed Nov 05 14:39:13 EST 2025
User: Yrep
Spectrometer: HR+D1059
Trigger mode: 1
Integration Time (sec): 1.000000E-1
Scans to average: 1
Electric dark correction enabled: true
Nonlinearity correction enabled: false
Boxcar width: 0
XAxis mode: Wavelengths
Number of Pixels in Spectrum: 2048
>>>>>Begin Spectral Data<<<<<
223.165	-9.56
223.4	-9.56
223.635	-9.56
223.869	-14.56
224.104	-29.56
224.338	-14.56
224.573	-24.56
224.808	-5.56
225.042	-7.56
225.277	-6.56
225.511	1.44
225.746	11.44
225.98	6.44
226.215	11.44
226.449	9.44
226.683	14.44
226.918	34.44
227.152	23.44
227.387	30.44
227.621	57.44
227.856	44.44
228.09	29.44
228.324	47.44
228.559	55.44
228.793	51.44
229.027	64.44
229.262	58.44
229.496	59.44
229.73	64.44
229.964	56.44
230.199	60.44
230.433	76.44
230.667	65.44
230.901	72.44
231.136	64.44
231.37	70.44
231.604	84.44
231.838	84.44
232.072	78.44
232.306	57.44
232.541	90.44
232.775	74.44
233.009	72.44
233.243	65.44
233.477	77.44
233.711	61.44
233.945	76.44
234.179	89.44
234.413	80.44
234.647	78.44
234.881	66.44
235.115	74.44
235.349	82.44
235.583	71.44
235.817	84.44
236.051	70.44
236.285	79.44
236.519	72.44
236.753	65.44
236.987	74.44
237.221	68.44
237.455	65.44
237.689	62.44
237.922	87.44
238.156	74.44
238.39	80.44
238.624	83.44
238.858	73.44
239.091	60.44
239.325	60.44
239.559	65.44
239.793	78.44
240.027	83.44
240.26	80.44
240.494	68.44
240.728	78.44
240.961	74.44
241.195	71.44
241.429	85.44
241.662	80.44
241.896	68.44
242.13	62.44
242.363	65.44
242.597	77.44
242.83	67.44
243.064	74.44
243.298	58.44
243.531	85.44
243.765	70.44
243.998	67.44
244.232	72.44
244.465	73.44
244.699	78.44
244.932	63.44
245.166	62.44
245.399	74.44
245.633	58.44
245.866	60.44
246.099	62.44
246.333	63.44
246.566	65.44
246.8	72.44
247.033	65.44
247.266	66.44
247.5	74.44
247.733	64.44
247.966	64.44
248.2	73.44
248.433	81.44
248.666	76.44
248.899	74.44
249.133	70.44
249.366	81.44
249.599	76.44
249.832	81.44
250.066	62.44
250.299	82.44
250.532	85.44
250.765	66.44
250.998	66.44
251.231	81.44
251.465	82.44
251.698	65.44
251.931	73.44
252.164	80.44
252.397	63.44
252.63	73.44
252.863	74.44
253.096	75.44
253.329	77.44
253.562	74.44
253.795	66.44
254.028	72.44
254.261	76.44
254.494	84.44
254.727	84.44
254.96	70.44
255.193	77.44
255.426	77.44
255.659	90.44
255.892	70.44
256.124	73.44
256.357	78.44
256.59	69.44
256.823	82.44
257.056	78.44
257.289	84.44
257.521	77.44
257.754	63.44
257.987	76.44
258.22	77.44
258.452	69.44
258.685	66.44
258.918	80.44
259.151	71.44
259.383	66.44
259.616	73.44
259.849	74.44
260.081	69.44
260.314	80.44
260.547	69.44
260.779	66.44
261.012	61.44
261.244	79.44
261.477	83.44
261.71	78.44
261.942	74.44
262.175	72.44
262.407	84.44
262.64	77.44
262.872	70.44
263.105	67.44
263.337	65.44
263.57	84.44
263.802	80.44
264.035	78.44
264.267	81.44
264.499	80.44
264.732	79.44
264.964	75.44
265.197	80.44
265.429	88.44
265.661	76.44
265.894	69.44
266.126	92.44
266.358	77.44
266.591	77.44
266.823	80.44
267.055	80.44
267.287	72.44
267.52	64.44
267.752	74.44
267.984	87.44
268.216	90.44
268.448	75.44
268.681	74.44
268.913	68.44
269.145	66.44
269.377	70.44
269.609	100.44
269.841	86.44
270.073	67.44
270.306	83.44
270.538	72.44
270.77	73.44
271.002	75.44
271.234	72.44
271.466	87.44
271.698	81.44
271.93	86.44
272.162	88.44
272.394	83.44
272.626	83.44
272.858	70.44
273.09	74.44
273.322	78.44
273.553	73.44
273.785	87.44
274.017	72.44
274.249	72.44
274.481	77.44
274.713	65.44
274.945	78.44
275.176	80.44
275.408	80.44
275.64	81.44
275.872	83.44
276.104	86.44
276.335	86.44
276.567	91.44
276.799	79.44
277.031	76.44
277.262	81.44
277.494	72.44
277.726	74.44
277.957	76.44
278.189	64.44
278.421	72.44
278.652	67.44
278.884	67.44
279.115	76.44
279.347	77.44
279.579	85.44
279.81	79.44
280.042	85.44
280.273	79.44
280.505	81.44
280.736	73.44
280.968	72.44
281.199	56.44
281.431	94.44
281.662	78.44
281.894	73.44
282.125	65.44
282.356	67.44
282.588	88.44
282.819	77.44
283.051	85.44
283.282	70.44
283.513	79.44
283.745	76.44
283.976	70.44
284.207	87.44
284.439	93.44
284.67	92.44
284.901	71.44
285.132	68.44
285.364	77.44
285.595	81.44
285.826	74.44
286.057	75.44
286.288	80.44
286.52	87.44
286.751	98.44
286.982	77.44
287.213	86.44
287.444	82.44
287.675	78.44
287.906	78.44
288.138	79.44
288.369	80.44
288.6	83.44
288.831	79.44
289.062	87.44
289.293	86.44
289.524	65.44
289.755	72.44
289.986	84.44
290.217	58.44
290.448	82.44
290.679	81.44
290.91	81.44
291.141	84.44
291.371	73.44
291.602	56.44
291.833	81.44
292.064	65.44
292.295	88.44
292.526	79.44
292.757	94.44
292.987	81.44
293.218	75.44
293.449	80.44
293.68	92.44
293.91	83.44
294.141	91.44
294.372	95.44
294.603	84.44
294.833	70.44
295.064	66.44
295.295	94.44
295.525	81.44
295.756	72.44
295.987	92.44
296.217	85.44
296.448	81.44
296.679	72.44
296.909	77.44
297.14	80.44
297.37	79.44
297.601	72.44
297.831	79.44
298.062	81.44
298.292	75.44
298.523	84.44
298.753	78.44
298.984	81.44
299.214	72.44
299.445	82.44
299.675	92.44
299.905	82.44
300.136	79.44
300.366	73.44
300.597	78.44
300.827	84.44
301.057	73.44
301.288	84.44
301.518	91.44
301.748	79.44
301.979	80.44
302.209	82.44
302.439	91.44
302.669	80.44
302.9	79.44
303.13	79.44
303.36	94.44
303.59	91.44
303.82	81.44
304.051	75.44
304.281	73.44
304.511	90.44
304.741	58.44
304.971	68.44
305.201	80.44
305.431	82.44
305.661	86.44
305.891	77.44
306.121	70.44
306.352	81.44
306.582	82.44
306.812	71.44
307.042	75.44
307.272	77.44
307.502	70.44
307.731	85.44
307.961	84.44
308.191	98.44
308.421	80.44
308.651	78.44
308.881	84.44
309.111	86.44
309.341	78.44
309.571	93.44
309.8	71.44
310.03	70.44
310.26	80.44
310.49	75.44
310.72	78.44
310.949	90.44
311.179	70.44
311.409	69.44
311.639	77.44
311.868	91.44
312.098	89.44
312.328	79.44
312.557	71.44
312.787	81.44
313.017	95.44
313.246	78.44
313.476	87.44
313.706	88.44
313.935	82.44
314.165	73.44
314.394	76.44
314.624	69.44
314.853	74.44
315.083	86.44
315.312	82.44
315.542	77.44
315.771	74.44
316.001	89.44
316.23	80.44
316.46	68.44
316.689	79.44
316.919	73.44
317.148	81.44
317.377	96.44
317.607	97.44
317.836	75.44
318.065	95.44
318.295	99.44
318.524	75.44
318.753	85.44
318.983	79.44
319.212	76.44
319.441	76.44
319.67	83.44
319.9	85.44
320.129	77.44
320.358	92.44
320.587	84.44
320.816	73.44
321.046	67.44
321.275	73.44
321.504	82.44
321.733	64.44
321.962	76.44
322.191	85.44
322.42	81.44
322.649	67.44
322.878	87.44
323.108	73.44
323.337	75.44
323.566	92.44
323.795	77.44
324.024	85.44
324.253	94.44
324.482	90.44
324.71	79.44
324.939	74.44
325.168	80.44
325.397	70.44
325.626	92.44
325.855	78.44
326.084	76.44
326.313	80.44
326.542	79.44
326.77	97.44
326.999	76.44
327.228	73.44
327.457	87.44
327.686	74.44
327.914	84.44
328.143	85.44
328.372	76.44
328.6	76.44
328.829	88.44
329.058	82.44
329.287	71.44
329.515	76.44
329.744	77.44
329.972	78.44
330.201	86.44
330.43	88.44
330.658	78.44
330.887	84.44
331.115	73.44
331.344	74.44
331.572	80.44
331.801	88.44
332.03	71.44
332.258	70.44
332.486	90.44
332.715	86.44
332.943	79.44
333.172	82.44
333.4	90.44
333.629	78.44
333.857	75.44
334.085	80.44
334.314	79.44
334.542	74.44
334.771	84.44
334.999	92.44
335.227	88.44
335.455	85.44
335.684	90.44
335.912	71.44
336.14	78.44
336.369	72.44
336.597	81.44
336.825	87.44
337.053	77.44
337.281	89.44
337.51	80.44
337.738	85.44
337.966	84.44
338.194	74.44
338.422	77.44
338.65	79.44
338.878	79.44
339.106	91.44
339.334	78.44
339.562	67.44
339.79	86.44
340.018	91.44
340.246	78.44
340.474	79.44
340.702	92.44
340.93	81.44
341.158	81.44
341.386	100.44
341.614	86.44
341.842	86.44
342.07	85.44
342.298	87.44
342.526	76.44
342.754	83.44
342.981	63.44
343.209	77.44
343.437	97.44
343.665	61.44
343.893	82.44
344.12	93.44
344.348	79.44
344.576	71.44
344.804	79.44
345.031	78.44
345.259	72.44
345.487	90.44
345.714	88.44
345.942	80.44
346.17	83.44
346.397	82.44
346.625	75.44
346.853	72.44
347.08	72.44
347.308	74.44
347.535	84.44
347.763	84.44
347.99	75.44
348.218	88.44
348.445	77.44
348.673	81.44
348.9	74.44
349.128	84.44
349.355	76.44
349.583	81.44
349.81	88.44
350.037	76.44
350.265	78.44
350.492	77.44
350.72	85.44
350.947	84.44
351.174	68.44
351.402	85.44
351.629	73.44
351.856	66.44
352.083	73.44
352.311	74.44
352.538	67.44
352.765	78.44
352.992	100.44
353.22	90.44
353.447	69.44
353.674	79.44
353.901	83.44
354.128	84.44
354.355	84.44
354.583	89.44
354.81	71.44
355.037	80.44
355.264	89.44
355.491	76.44
355.718	82.44
355.945	85.44
356.172	80.44
356.399	86.44
356.626	89.44
356.853	77.44
357.08	73.44
357.307	86.44
357.534	76.44
357.761	78.44
357.988	88.44
358.215	75.44
358.441	80.44
358.668	63.44
358.895	80.44
359.122	88.44
359.349	69.44
359.576	77.44
359.802	66.44
360.029	63.44
360.256	79.44
360.483	91.44
360.709	86.44
360.936	81.44
361.163	85.44
361.39	84.44
361.616	75.44
361.843	78.44
362.07	86.44
362.296	71.44
362.523	80.44
362.749	93.44
362.976	79.44
363.203	84.44
363.429	75.44
363.656	77.44
363.882	76.44
364.109	86.44
364.335	72.44
364.562	76.44
364.788	65.44
365.015	74.44
365.241	95.44
365.468	74.44
365.694	83.44
365.92	75.44
366.147	76.44
366.373	77.44
366.599	81.44
366.826	79.44
367.052	79.44
367.278	82.44
367.505	72.44
367.731	93.44
367.957	73.44
368.184	84.44
368.41	86.44
368.636	85.44
368.862	80.44
369.089	73.44
369.315	70.44
369.541	92.44
369.767	83.44
369.993	91.44
370.219	66.44
370.445	86.44
370.672	85.44
370.898	87.44
371.124	66.44
371.35	76.44
371.576	80.44
371.802	78.44
372.028	73.44
372.254	70.44
372.48	90.44
372.706	90.44
372.932	74.44
373.158	89.44
373.384	80.44
373.61	90.44
373.835	83.44
374.061	80.44
374.287	70.44
374.513	81.44
374.739	72.44
374.965	85.44
375.191	76.44
375.416	80.44
375.642	88.44
375.868	79.44
376.094	87.44
376.319	72.44
376.545	84.44
376.771	76.44
376.997	74.44
377.222	80.44
377.448	74.44
377.674	77.44
377.899	67.44
378.125	93.44
378.35	83.44
378.576	80.44
378.802	84.44
379.027	74.44
379.253	73.44
379.478	65.44
379.704	78.44
379.929	73.44
380.155	90.44
380.38	81.44
380.606	84.44
380.831	81.44
381.057	87.44
381.282	80.44
381.507	66.44
381.733	78.44
381.958	84.44
382.184	74.44
382.409	81.44
382.634	76.44
382.86	73.44
383.085	73.44
383.31	69.44
383.535	88.44
383.761	82.44
383.986	84.44
384.211	70.44
384.436	86.44
384.662	88.44
384.887	77.44
385.112	73.44
385.337	72.44
385.562	89.44
385.787	74.44
386.013	85.44
386.238	88.44
386.463	77.44
386.688	68.44
386.913	89.44
387.138	85.44
387.363	85.44
387.588	85.44
387.813	83.44
388.038	76.44
388.263	73.44
388.488	59.44
388.713	73.44
388.938	76.44
389.163	60.44
389.387	64.44
389.612	77.44
389.837	74.44
390.062	82.44
390.287	70.44
390.512	85.44
390.736	89.44
390.961	80.44
391.186	59.44
391.411	84.44
391.636	73.44
391.86	91.44
392.085	78.44
392.31	70.44
392.534	80.44
392.759	78.44
392.984	59.44
393.208	84.44
393.433	76.44
393.658	88.44
393.882	78.44
394.107	66.44
394.331	81.44
394.556	76.44
394.78	82.44
395.005	96.44
395.229	76.44
395.454	74.44
395.678	87.44
395.903	84.44
396.127	75.44
396.352	89.44
396.576	82.44
396.801	78.44
397.025	84.44
397.249	83.44
397.474	69.44
397.698	75.44
397.922	73.44
398.147	67.44
398.371	80.44
398.595	77.44
398.82	87.44
399.044	80.44
399.268	81.44
399.492	78.44
399.717	79.44
399.941	75.44
400.165	77.44
400.389	79.44
400.613	79.44
400.837	85.44
401.062	80.44
401.286	70.44
401.51	84.44
401.734	78.44
401.958	65.44
402.182	91.44
402.406	84.44
402.63	95.44
402.854	60.44
403.078	67.44
403.302	74.44
403.526	78.44
403.75	79.44
403.974	79.44
404.198	79.44
404.422	92.44
404.645	78.44
404.869	87.44
405.093	76.44
405.317	88.44
405.541	81.44
405.765	87.44
405.988	80.44
406.212	75.44
406.436	70.44
406.66	73.44
406.883	82.44
407.107	80.44
407.331	70.44
407.555	71.44
407.778	84.44
408.002	84.44
408.226	69.44
408.449	77.44
408.673	71.44
408.896	76.44
409.12	72.44
409.344	82.44
409.567	78.44
409.791	82.44
410.014	87.44
410.238	72.44
410.461	79.44
410.685	72.44
410.908	72.44
411.132	87.44
411.355	70.44
411.578	83.44
411.802	90.44
412.025	81.44
412.249	81.44
412.472	87.44
412.695	78.44
412.919	80.44
413.142	82.44
413.365	77.44
413.589	64.44
413.812	74.44
414.035	72.44
414.258	84.44
414.482	74.44
414.705	90.44
414.928	71.44
415.151	72.44
415.374	80.44
415.597	76.44
415.821	82.44
416.044	81.44
416.267	72.44
416.49	76.44
416.713	81.44
416.936	85.44
417.159	85.44
417.382	96.44
417.605	82.44
417.828	86.44
418.051	72.44
418.274	82.44
418.497	63.44
418.72	73.44
418.943	88.44
419.166	80.44
419.389	70.44
419.611	80.44
419.834	84.44
420.057	89.44
420.28	89.44
420.503	88.44
420.726	70.44
420.948	67.44
421.171	79.44
421.394	68.44
421.617	72.44
421.839	72.44
422.062	63.44
422.285	69.44
422.507	76.44
422.73	74.44
422.953	62.44
423.175	82.44
423.398	73.44
423.621	73.44
423.843	69.44
424.066	73.44
424.288	64.44
424.511	74.44
424.733	89.44
424.956	77.44
425.178	82.44
425.401	71.44
425.623	80.44
425.846	77.44
426.068	72.44
426.291	69.44
426.513	87.44
426.735	66.44
426.958	84.44
427.18	78.44
427.402	92.44
427.625	86.44
427.847	81.44
428.069	88.44
428.292	76.44
428.514	76.44
428.736	74.44
428.958	66.44
429.181	84.44
429.403	61.44
429.625	88.44
429.847	93.44
430.069	72.44
430.292	81.44
430.514	81.44
430.736	65.44
430.958	85.44
431.18	78.44
431.402	78.44
431.624	65.44
431.846	81.44
432.068	72.44
432.29	54.44
432.512	90.44
432.734	76.44
432.956	89.44
433.178	76.44
433.4	77.44
433.622	85.44
433.844	78.44
434.066	78.44
434.287	70.44
434.509	69.44
434.731	74.44
434.953	75.44
435.175	66.44
435.397	77.44
435.618	71.44
435.84	80.44
436.062	66.44
436.284	86.44
436.505	91.44
436.727	80.44
436.949	75.44
437.17	73.44
437.392	83.44
437.614	73.44
437.835	74.44
438.057	76.44
438.278	70.44
438.5	73.44
438.721	86.44
438.943	72.44
439.165	66.44
439.386	77.44
439.608	81.44
439.829	88.44
440.05	69.44
440.272	61.44
440.493	79.44
440.715	71.44
440.936	81.44
441.158	75.44
441.379	66.44
441.6	80.44
441.822	87.44
442.043	90.44
442.264	75.44
442.486	76.44
442.707	64.44
442.928	71.44
443.149	69.44
443.371	75.44
443.592	70.44
443.813	89.44
444.034	81.44
444.255	77.44
444.476	65.44
444.698	84.44
444.919	75.44
445.14	130.44
445.361	100.44
445.582	90.44
445.803	83.44
446.024	76.44
446.245	80.44
446.466	69.44
446.687	77.44
446.908	74.44
447.129	75.44
447.35	93.44
447.571	87.44
447.792	74.44
448.013	95.44
448.234	76.44
448.455	75.44
448.675	63.44
448.896	74.44
449.117	87.44
449.338	73.44
449.559	72.44
449.779	65.44
450	89.44
450.221	72.44
450.442	77.44
450.662	83.44
450.883	73.44
451.104	86.44
451.324	80.44
451.545	88.44
451.766	86.44
451.986	62.44
452.207	66.44
452.428	79.44
452.648	80.44
452.869	76.44
453.089	80.44
453.31	81.44
453.53	80.44
453.751	81.44
453.971	77.44
454.192	76.44
454.412	74.44
454.633	78.44
454.853	72.44
455.073	79.44
455.294	85.44
455.514	79.44
455.734	87.44
455.955	72.44
456.175	88.44
456.395	81.44
456.616	86.44
456.836	76.44
457.056	84.44
457.276	61.44
457.497	71.44
457.717	71.44
457.937	80.44
458.157	72.44
458.377	92.44
458.598	85.44
458.818	77.44
459.038	55.44
459.258	89.44
459.478	85.44
459.698	75.44
459.918	88.44
460.138	73.44
460.358	72.44
460.578	81.44
460.798	77.44
461.018	75.44
461.238	70.44
461.458	85.44
461.678	77.44
461.898	76.44
462.118	61.44
462.338	77.44
462.558	86.44
462.777	76.44
462.997	83.44
463.217	85.44
463.437	80.44
463.657	71.44
463.876	87.44
464.096	73.44
464.316	72.44
464.536	66.44
464.755	77.44
464.975	76.44
465.195	56.44
465.414	89.44
465.634	87.44
465.854	88.44
466.073	79.44
466.293	85.44
466.512	65.44
466.732	77.44
466.951	73.44
467.171	73.44
467.391	84.44
467.61	81.44
467.829	83.44
468.049	80.44
468.268	82.44
468.488	80.44
468.707	60.44
468.927	75.44
469.146	81.44
469.365	70.44
469.585	72.44
469.804	68.44
470.023	70.44
470.243	83.44
470.462	85.44
470.681	67.44
470.901	74.44
471.12	79.44
471.339	83.44
471.558	71.44
471.777	75.44
471.997	70.44
472.216	86.44
472.435	72.44
472.654	70.44
472.873	90.44
473.092	88.44
473.311	94.44
473.53	76.44
473.749	82.44
473.968	77.44
474.187	73.44
474.406	75.44
474.625	88.44
474.844	71.44
475.063	65.44
475.282	74.44
475.501	80.44
475.72	80.44
475.939	76.44
476.158	79.44
476.377	72.44
476.596	69.44
476.814	74.44
477.033	71.44
477.252	80.44
477.471	79.44
477.69	69.44
477.908	74.44
478.127	83.44
478.346	61.44
478.564	66.44
478.783	88.44
479.002	82.44
479.22	65.44
479.439	70.44
479.658	66.44
479.876	77.44
480.095	72.44
480.313	85.44
480.532	91.44
480.751	67.44
480.969	91.44
481.188	76.44
481.406	67.44
481.624	76.44
481.843	72.44
482.061	88.44
482.28	66.44
482.498	76.44
482.717	70.44
482.935	77.44
483.153	72.44
483.372	80.44
483.59	85.44
483.808	78.44
484.027	80.44
484.245	73.44
484.463	62.44
484.681	86.44
484.9	74.44
485.118	67.44
485.336	85.44
485.554	73.44
485.772	75.44
485.99	74.44
486.209	80.44
486.427	77.44
486.645	78.44
486.863	82.44
487.081	86.44
487.299	80.44
487.517	78.44
487.735	84.44
487.953	89.44
488.171	84.44
488.389	59.44
488.607	72.44
488.825	72.44
489.043	73.44
489.261	89.44
489.479	84.44
489.696	86.44
489.914	67.44
490.132	67.44
490.35	86.44
490.568	86.44
490.786	83.44
491.003	64.44
491.221	71.44
491.439	82.44
491.657	83.44
491.874	82.44
492.092	76.44
492.31	69.44
492.527	70.44
492.745	69.44
492.963	87.44
493.18	80.44
493.398	76.44
493.615	75.44
493.833	79.44
494.05	74.44
494.268	87.44
494.485	92.44
494.703	72.44
494.92	76.44
495.138	72.44
495.355	84.44
495.573	84.44
495.79	87.44
496.008	86.44
496.225	77.44
496.442	86.44
496.66	93.44
496.877	80.44
497.094	79.44
497.312	75.44
497.529	76.44
497.746	84.44
497.963	83.44
498.181	77.44
498.398	76.44
498.615	79.44
498.832	67.44
499.049	77.44
499.267	81.44
499.484	88.44
499.701	81.44
499.918	71.44
500.135	92.44
500.352	81.44
500.569	84.44
500.786	88.44
501.003	62.44
501.22	86.44
501.437	72.44
501.654	70.44
501.871	66.44
502.088	65.44
502.305	82.44
502.522	67.44
502.739	100.44
502.956	77.44
503.172	89.44
503.389	87.44
503.606	81.44
503.823	83.44
504.04	71.44
504.256	70.44
504.473	87.44
504.69	82.44
504.907	87.44
505.123	73.44
505.34	85.44
505.557	85.44
505.773	87.44
505.99	67.44
506.207	78.44
506.423	77.44
506.64	77.44
506.856	69.44
507.073	81.44
507.289	83.44
507.506	77.44
507.722	64.44
507.939	82.44
508.155	76.44
508.372	75.44
508.588	82.44
508.805	79.44
509.021	70.44
509.238	74.44
509.454	73.44
509.67	60.44
509.887	79.44
510.103	85.44
510.319	87.44
510.536	77.44
510.752	72.44
510.968	93.44
511.184	64.44
511.401	66.44
511.617	82.44
511.833	69.44
512.049	80.44
512.265	70.44
512.481	93.44
512.698	85.44
512.914	68.44
513.13	66.44
513.346	84.44
513.562	81.44
513.778	62.44
513.994	81.44
514.21	79.44
514.426	81.44
514.642	87.44
514.858	76.44
515.074	78.44
515.29	73.44
515.506	81.44
515.721	91.44
515.937	71.44
516.153	79.44
516.369	82.44
516.585	82.44
516.801	81.44
517.016	68.44
517.232	83.44
517.448	75.44
517.664	69.44
517.879	80.44
518.095	90.44
518.311	70.44
518.527	70.44
518.742	85.44
518.958	72.44
519.173	77.44
519.389	73.44
519.605	72.44
519.82	79.44
520.036	84.44
520.251	85.44
