Data from Background_1_HRD10591_00057.txt Node
Date: Wed Nov 05 14:39:26 EST 2025
User: Yrep
Spectrometer: HR+D1059
Trigger mode: 1
Integration Time (sec): 1.000000E-1
Scans to average: 1
Electric dark correction enabled: true
Nonlinearity correction enabled: false
Boxcar width: 0
XAxis mode: Wavelengths
Number of Pixels in Spectrum: 2048
>>>>>Begin Spectral Data<<<<<
223.165	-21.25
223.4	-21.25
223.635	-21.25
223.869	-7.25
224.104	-11.25
224.338	-4.25
224.573	0.75
224.808	-12.25
225.042	-7.25
225.277	-15.25
225.511	-12.25
225.746	-9.25
225.98	-5.25
226.215	19.75
226.449	22.75
226.683	18.75
226.918	20.75
227.152	22.75
227.387	22.75
227.621	33.75
227.856	54.75
228.09	42.75
228.324	50.75
228.559	60.75
228.793	52.75
229.027	57.75
229.262	71.75
229.496	65.75
229.73	79.75
229.964	75.75
230.199	61.75
230.433	52.75
230.667	70.75
230.901	84.75
231.136	81.75
231.37	72.75
231.604	81.75
231.838	82.75
232.072	74.75
232.306	75.75
232.541	77.75
232.775	76.75
233.009	85.75
233.243	77.75
233.477	75.75
233.711	73.75
233.945	86.75
234.179	80.75
234.413	83.75
234.647	84.75
234.881	76.75
235.115	78.75
235.349	78.75
235.583	82.75
235.817	69.75
236.051	73.75
236.285	71.75
236.519	77.75
236.753	78.75
236.987	74.75
237.221	73.75
237.455	66.75
237.689	81.75
237.922	80.75
238.156	86.75
238.39	64.75
238.624	82.75
238.858	79.75
239.091	65.75
239.325	82.75
239.559	73.75
239.793	82.75
240.027	77.75
240.26	81.75
240.494	78.75
240.728	85.75
240.961	71.75
241.195	81.75
241.429	77.75
241.662	74.75
241.896	95.75
242.13	68.75
242.363	78.75
242.597	88.75
242.83	68.75
243.064	80.75
243.298	80.75
243.531	64.75
243.765	88.75
243.998	80.75
244.232	76.75
244.465	68.75
244.699	81.75
244.932	77.75
245.166	70.75
245.399	74.75
245.633	76.75
245.866	86.75
246.099	73.75
246.333	69.75
246.566	82.75
246.8	65.75
247.033	78.75
247.266	66.75
247.5	68.75
247.733	84.75
247.966	75.75
248.2	85.75
248.433	76.75
248.666	86.75
248.899	82.75
249.133	80.75
249.366	80.75
249.599	84.75
249.832	76.75
250.066	75.75
250.299	74.75
250.532	76.75
250.765	79.75
250.998	62.75
251.231	85.75
251.465	80.75
251.698	72.75
251.931	63.75
252.164	90.75
252.397	83.75
252.63	65.75
252.863	79.75
253.096	90.75
253.329	90.75
253.562	94.75
253.795	69.75
254.028	69.75
254.261	79.75
254.494	87.75
254.727	74.75
254.96	80.75
255.193	90.75
255.426	83.75
255.659	70.75
255.892	88.75
256.124	77.75
256.357	74.75
256.59	84.75
256.823	84.75
257.056	73.75
257.289	77.75
257.521	80.75
257.754	70.75
257.987	88.75
258.22	81.75
258.452	67.75
258.685	91.75
258.918	74.75
259.151	72.75
259.383	68.75
259.616	97.75
259.849	84.75
260.081	79.75
260.314	88.75
260.547	86.75
260.779	92.75
261.012	80.75
261.244	72.75
261.477	85.75
261.71	76.75
261.942	85.75
262.175	74.75
262.407	68.75
262.64	71.75
262.872	98.75
263.105	77.75
263.337	93.75
263.57	85.75
263.802	93.75
264.035	81.75
264.267	77.75
264.499	74.75
264.732	85.75
264.964	84.75
265.197	101.75
265.429	87.75
265.661	88.75
265.894	78.75
266.126	74.75
266.358	73.75
266.591	72.75
266.823	70.75
267.055	79.75
267.287	77.75
267.52	73.75
267.752	88.75
267.984	79.75
268.216	83.75
268.448	98.75
268.681	92.75
268.913	90.75
269.145	84.75
269.377	66.75
269.609	78.75
269.841	86.75
270.073	75.75
270.306	82.75
270.538	73.75
270.77	82.75
271.002	68.75
271.234	82.75
271.466	86.75
271.698	79.75
271.93	88.75
272.162	70.75
272.394	69.75
272.626	83.75
272.858	78.75
273.09	78.75
273.322	74.75
273.553	84.75
273.785	90.75
274.017	81.75
274.249	79.75
274.481	76.75
274.713	83.75
274.945	93.75
275.176	75.75
275.408	88.75
275.64	82.75
275.872	86.75
276.104	89.75
276.335	77.75
276.567	87.75
276.799	75.75
277.031	69.75
277.262	76.75
277.494	72.75
277.726	96.75
277.957	86.75
278.189	96.75
278.421	89.75
278.652	81.75
278.884	83.75
279.115	66.75
279.347	61.75
279.579	77.75
279.81	72.75
280.042	81.75
280.273	88.75
280.505	80.75
280.736	93.75
280.968	93.75
281.199	94.75
281.431	73.75
281.662	82.75
281.894	67.75
282.125	85.75
282.356	83.75
282.588	90.75
282.819	96.75
283.051	82.75
283.282	77.75
283.513	54.75
283.745	82.75
283.976	98.75
284.207	80.75
284.439	79.75
284.67	83.75
284.901	79.75
285.132	76.75
285.364	68.75
285.595	90.75
285.826	90.75
286.057	85.75
286.288	80.75
286.52	74.75
286.751	81.75
286.982	83.75
287.213	81.75
287.444	75.75
287.675	90.75
287.906	90.75
288.138	88.75
288.369	91.75
288.6	81.75
288.831	70.75
289.062	84.75
289.293	86.75
289.524	94.75
289.755	71.75
289.986	76.75
290.217	80.75
290.448	89.75
290.679	88.75
290.91	78.75
291.141	90.75
291.371	82.75
291.602	97.75
291.833	82.75
292.064	89.75
292.295	81.75
292.526	84.75
292.757	82.75
292.987	85.75
293.218	74.75
293.449	79.75
293.68	95.75
293.91	87.75
294.141	86.75
294.372	85.75
294.603	84.75
294.833	78.75
295.064	80.75
295.295	75.75
295.525	71.75
295.756	78.75
295.987	84.75
296.217	78.75
296.448	84.75
296.679	80.75
296.909	100.75
297.14	80.75
297.37	72.75
297.601	69.75
297.831	79.75
298.062	75.75
298.292	87.75
298.523	79.75
298.753	84.75
298.984	96.75
299.214	77.75
299.445	83.75
299.675	74.75
299.905	88.75
300.136	84.75
300.366	77.75
300.597	86.75
300.827	94.75
301.057	85.75
301.288	88.75
301.518	74.75
301.748	101.75
301.979	102.75
302.209	82.75
302.439	94.75
302.669	73.75
302.9	82.75
303.13	89.75
303.36	88.75
303.59	76.75
303.82	105.75
304.051	88.75
304.281	82.75
304.511	81.75
304.741	92.75
304.971	78.75
305.201	81.75
305.431	82.75
305.661	87.75
305.891	86.75
306.121	74.75
306.352	83.75
306.582	88.75
306.812	82.75
307.042	80.75
307.272	96.75
307.502	68.75
307.731	83.75
307.961	90.75
308.191	91.75
308.421	88.75
308.651	100.75
308.881	93.75
309.111	88.75
309.341	80.75
309.571	82.75
309.8	77.75
310.03	88.75
310.26	86.75
310.49	85.75
310.72	73.75
310.949	81.75
311.179	92.75
311.409	85.75
311.639	84.75
311.868	94.75
312.098	71.75
312.328	75.75
312.557	76.75
312.787	84.75
313.017	80.75
313.246	89.75
313.476	100.75
313.706	84.75
313.935	79.75
314.165	88.75
314.394	95.75
314.624	76.75
314.853	89.75
315.083	109.75
315.312	81.75
315.542	81.75
315.771	97.75
316.001	94.75
316.23	81.75
316.46	78.75
316.689	75.75
316.919	92.75
317.148	90.75
317.377	85.75
317.607	81.75
317.836	96.75
318.065	90.75
318.295	85.75
318.524	96.75
318.753	76.75
318.983	83.75
319.212	84.75
319.441	86.75
319.67	83.75
319.9	94.75
320.129	85.75
320.358	84.75
320.587	88.75
320.816	92.75
321.046	77.75
321.275	77.75
321.504	78.75
321.733	100.75
321.962	84.75
322.191	81.75
322.42	96.75
322.649	83.75
322.878	87.75
323.108	91.75
323.337	76.75
323.566	75.75
323.795	83.75
324.024	86.75
324.253	82.75
324.482	94.75
324.71	75.75
324.939	97.75
325.168	79.75
325.397	92.75
325.626	96.75
325.855	92.75
326.084	92.75
326.313	87.75
326.542	94.75
326.77	94.75
326.999	93.75
327.228	71.75
327.457	88.75
327.686	86.75
327.914	90.75
328.143	74.75
328.372	79.75
328.6	90.75
328.829	80.75
329.058	94.75
329.287	88.75
329.515	80.75
329.744	90.75
329.972	79.75
330.201	71.75
330.43	75.75
330.658	80.75
330.887	91.75
331.115	77.75
331.344	101.75
331.572	89.75
331.801	77.75
332.03	82.75
332.258	78.75
332.486	94.75
332.715	89.75
332.943	84.75
333.172	85.75
333.4	81.75
333.629	86.75
333.857	95.75
334.085	84.75
334.314	78.75
334.542	93.75
334.771	84.75
334.999	86.75
335.227	93.75
335.455	89.75
335.684	83.75
335.912	77.75
336.14	80.75
336.369	93.75
336.597	79.75
336.825	88.75
337.053	90.75
337.281	72.75
337.51	86.75
337.738	93.75
337.966	92.75
338.194	84.75
338.422	91.75
338.65	91.75
338.878	100.75
339.106	83.75
339.334	74.75
339.562	86.75
339.79	68.75
340.018	89.75
340.246	91.75
340.474	98.75
340.702	75.75
340.93	94.75
341.158	83.75
341.386	76.75
341.614	82.75
341.842	82.75
342.07	91.75
342.298	94.75
342.526	84.75
342.754	80.75
342.981	96.75
343.209	88.75
343.437	99.75
343.665	82.75
343.893	75.75
344.12	85.75
344.348	81.75
344.576	92.75
344.804	102.75
345.031	89.75
345.259	96.75
345.487	73.75
345.714	81.75
345.942	72.75
346.17	80.75
346.397	77.75
346.625	76.75
346.853	77.75
347.08	80.75
347.308	84.75
347.535	79.75
347.763	92.75
347.99	80.75
348.218	88.75
348.445	77.75
348.673	77.75
348.9	85.75
349.128	109.75
349.355	89.75
349.583	89.75
349.81	94.75
350.037	87.75
350.265	76.75
350.492	78.75
350.72	89.75
350.947	79.75
351.174	83.75
351.402	73.75
351.629	84.75
351.856	82.75
352.083	80.75
352.311	81.75
352.538	88.75
352.765	104.75
352.992	97.75
353.22	97.75
353.447	79.75
353.674	83.75
353.901	82.75
354.128	84.75
354.355	75.75
354.583	89.75
354.81	83.75
355.037	79.75
355.264	76.75
355.491	76.75
355.718	93.75
355.945	89.75
356.172	83.75
356.399	95.75
356.626	68.75
356.853	90.75
357.08	83.75
357.307	96.75
357.534	87.75
357.761	84.75
357.988	96.75
358.215	87.75
358.441	102.75
358.668	81.75
358.895	83.75
359.122	91.75
359.349	77.75
359.576	70.75
359.802	78.75
360.029	88.75
360.256	84.75
360.483	80.75
360.709	101.75
360.936	90.75
361.163	90.75
361.39	85.75
361.616	68.75
361.843	83.75
362.07	94.75
362.296	86.75
362.523	70.75
362.749	85.75
362.976	81.75
363.203	92.75
363.429	82.75
363.656	88.75
363.882	81.75
364.109	94.75
364.335	80.75
364.562	74.75
364.788	90.75
365.015	83.75
365.241	79.75
365.468	87.75
365.694	77.75
365.92	93.75
366.147	82.75
366.373	80.75
366.599	81.75
366.826	75.75
367.052	82.75
367.278	78.75
367.505	81.75
367.731	76.75
367.957	98.75
368.184	84.75
368.41	88.75
368.636	86.75
368.862	99.75
369.089	70.75
369.315	82.75
369.541	95.75
369.767	73.75
369.993	87.75
370.219	74.75
370.445	83.75
370.672	76.75
370.898	97.75
371.124	75.75
371.35	84.75
371.576	91.75
371.802	80.75
372.028	74.75
372.254	77.75
372.48	93.75
372.706	82.75
372.932	70.75
373.158	77.75
373.384	97.75
373.61	74.75
373.835	84.75
374.061	75.75
374.287	91.75
374.513	90.75
374.739	102.75
374.965	76.75
375.191	88.75
375.416	74.75
375.642	94.75
375.868	69.75
376.094	70.75
376.319	84.75
376.545	88.75
376.771	79.75
376.997	88.75
377.222	79.75
377.448	81.75
377.674	80.75
377.899	78.75
378.125	69.75
378.35	82.75
378.576	85.75
378.802	91.75
379.027	82.75
379.253	86.75
379.478	82.75
379.704	80.75
379.929	74.75
380.155	69.75
380.38	81.75
380.606	88.75
380.831	100.75
381.057	96.75
381.282	78.75
381.507	96.75
381.733	88.75
381.958	85.75
382.184	83.75
382.409	79.75
382.634	91.75
382.86	78.75
383.085	85.75
383.31	78.75
383.535	80.75
383.761	84.75
383.986	69.75
384.211	83.75
384.436	72.75
384.662	67.75
384.887	91.75
385.112	70.75
385.337	82.75
385.562	69.75
385.787	81.75
386.013	77.75
386.238	93.75
386.463	86.75
386.688	89.75
386.913	84.75
387.138	85.75
387.363	88.75
387.588	88.75
387.813	96.75
388.038	79.75
388.263	86.75
388.488	77.75
388.713	82.75
388.938	78.75
389.163	84.75
389.387	91.75
389.612	79.75
389.837	77.75
390.062	77.75
390.287	83.75
390.512	74.75
390.736	92.75
390.961	80.75
391.186	78.75
391.411	82.75
391.636	85.75
391.86	75.75
392.085	84.75
392.31	75.75
392.534	90.75
392.759	88.75
392.984	69.75
393.208	78.75
393.433	87.75
393.658	81.75
393.882	90.75
394.107	96.75
394.331	74.75
394.556	85.75
394.78	71.75
395.005	67.75
395.229	94.75
395.454	77.75
395.678	88.75
395.903	80.75
396.127	92.75
396.352	80.75
396.576	68.75
396.801	92.75
397.025	75.75
397.249	91.75
397.474	88.75
397.698	89.75
397.922	75.75
398.147	89.75
398.371	77.75
398.595	80.75
398.82	89.75
399.044	71.75
399.268	81.75
399.492	77.75
399.717	85.75
399.941	83.75
400.165	90.75
400.389	84.75
400.613	70.75
400.837	86.75
401.062	92.75
401.286	86.75
401.51	78.75
401.734	90.75
401.958	88.75
402.182	72.75
402.406	77.75
402.63	83.75
402.854	70.75
403.078	80.75
403.302	81.75
403.526	80.75
403.75	86.75
403.974	88.75
404.198	75.75
404.422	70.75
404.645	85.75
404.869	73.75
405.093	77.75
405.317	78.75
405.541	85.75
405.765	76.75
405.988	86.75
406.212	93.75
406.436	83.75
406.66	69.75
406.883	83.75
407.107	82.75
407.331	82.75
407.555	70.75
407.778	90.75
408.002	77.75
408.226	97.75
408.449	70.75
408.673	93.75
408.896	69.75
409.12	90.75
409.344	75.75
409.567	79.75
409.791	85.75
410.014	74.75
410.238	83.75
410.461	79.75
410.685	85.75
410.908	84.75
411.132	83.75
411.355	74.75
411.578	74.75
411.802	76.75
412.025	79.75
412.249	92.75
412.472	81.75
412.695	82.75
412.919	89.75
413.142	93.75
413.365	78.75
413.589	81.75
413.812	74.75
414.035	89.75
414.258	81.75
414.482	82.75
414.705	62.75
414.928	86.75
415.151	80.75
415.374	88.75
415.597	79.75
415.821	86.75
416.044	81.75
416.267	80.75
416.49	78.75
416.713	86.75
416.936	99.75
417.159	92.75
417.382	82.75
417.605	82.75
417.828	81.75
418.051	78.75
418.274	78.75
418.497	70.75
418.72	86.75
418.943	91.75
419.166	81.75
419.389	89.75
419.611	78.75
419.834	82.75
420.057	74.75
420.28	88.75
420.503	85.75
420.726	85.75
420.948	84.75
421.171	85.75
421.394	80.75
421.617	82.75
421.839	82.75
422.062	84.75
422.285	77.75
422.507	77.75
422.73	90.75
422.953	76.75
423.175	82.75
423.398	78.75
423.621	86.75
423.843	61.75
424.066	75.75
424.288	88.75
424.511	58.75
424.733	76.75
424.956	78.75
425.178	88.75
425.401	88.75
425.623	68.75
425.846	86.75
426.068	95.75
426.291	79.75
426.513	75.75
426.735	82.75
426.958	80.75
427.18	81.75
427.402	93.75
427.625	77.75
427.847	79.75
428.069	66.75
428.292	81.75
428.514	78.75
428.736	74.75
428.958	76.75
429.181	81.75
429.403	82.75
429.625	84.75
429.847	84.75
430.069	92.75
430.292	84.75
430.514	88.75
430.736	83.75
430.958	95.75
431.18	90.75
431.402	90.75
431.624	81.75
431.846	73.75
432.068	77.75
432.29	83.75
432.512	81.75
432.734	75.75
432.956	76.75
433.178	85.75
433.4	81.75
433.622	89.75
433.844	90.75
434.066	67.75
434.287	76.75
434.509	82.75
434.731	83.75
434.953	71.75
435.175	90.75
435.397	72.75
435.618	82.75
435.84	84.75
436.062	81.75
436.284	92.75
436.505	85.75
436.727	84.75
436.949	83.75
437.17	73.75
437.392	71.75
437.614	82.75
437.835	71.75
438.057	82.75
438.278	83.75
438.5	69.75
438.721	80.75
438.943	76.75
439.165	74.75
439.386	85.75
439.608	84.75
439.829	78.75
440.05	74.75
440.272	86.75
440.493	87.75
440.715	84.75
440.936	83.75
441.158	69.75
441.379	85.75
441.6	73.75
441.822	100.75
442.043	94.75
442.264	79.75
442.486	82.75
442.707	76.75
442.928	79.75
443.149	96.75
443.371	88.75
443.592	75.75
443.813	90.75
444.034	80.75
444.255	80.75
444.476	89.75
444.698	82.75
444.919	78.75
445.14	143.75
445.361	121.75
445.582	85.75
445.803	89.75
446.024	81.75
446.245	84.75
446.466	78.75
446.687	79.75
446.908	90.75
447.129	89.75
447.35	74.75
447.571	86.75
447.792	67.75
448.013	80.75
448.234	69.75
448.455	81.75
448.675	82.75
448.896	77.75
449.117	85.75
449.338	75.75
449.559	82.75
449.779	74.75
450	68.75
450.221	81.75
450.442	74.75
450.662	82.75
450.883	85.75
451.104	90.75
451.324	71.75
451.545	90.75
451.766	84.75
451.986	86.75
452.207	88.75
452.428	83.75
452.648	83.75
452.869	80.75
453.089	76.75
453.31	70.75
453.53	86.75
453.751	82.75
453.971	93.75
454.192	86.75
454.412	78.75
454.633	80.75
454.853	91.75
455.073	85.75
455.294	80.75
455.514	65.75
455.734	84.75
455.955	82.75
456.175	82.75
456.395	82.75
456.616	83.75
456.836	88.75
457.056	85.75
457.276	90.75
457.497	84.75
457.717	92.75
457.937	89.75
458.157	81.75
458.377	90.75
458.598	75.75
458.818	84.75
459.038	82.75
459.258	84.75
459.478	74.75
459.698	83.75
459.918	83.75
460.138	71.75
460.358	81.75
460.578	73.75
460.798	86.75
461.018	88.75
461.238	80.75
461.458	97.75
461.678	79.75
461.898	85.75
462.118	86.75
462.338	84.75
462.558	71.75
462.777	79.75
462.997	101.75
463.217	96.75
463.437	83.75
463.657	89.75
463.876	76.75
464.096	65.75
464.316	74.75
464.536	82.75
464.755	89.75
464.975	66.75
465.195	80.75
465.414	76.75
465.634	79.75
465.854	85.75
466.073	84.75
466.293	63.75
466.512	82.75
466.732	82.75
466.951	84.75
467.171	77.75
467.391	91.75
467.61	72.75
467.829	94.75
468.049	64.75
468.268	79.75
468.488	80.75
468.707	76.75
468.927	78.75
469.146	89.75
469.365	89.75
469.585	78.75
469.804	84.75
470.023	65.75
470.243	88.75
470.462	84.75
470.681	88.75
470.901	70.75
471.12	82.75
471.339	88.75
471.558	70.75
471.777	88.75
471.997	86.75
472.216	92.75
472.435	75.75
472.654	84.75
472.873	82.75
473.092	77.75
473.311	83.75
473.53	77.75
473.749	100.75
473.968	81.75
474.187	80.75
474.406	85.75
474.625	91.75
474.844	85.75
475.063	81.75
475.282	86.75
475.501	79.75
475.72	79.75
475.939	83.75
476.158	88.75
476.377	76.75
476.596	85.75
476.814	72.75
477.033	94.75
477.252	87.75
477.471	83.75
477.69	91.75
477.908	92.75
478.127	101.75
478.346	74.75
478.564	85.75
478.783	80.75
479.002	71.75
479.22	92.75
479.439	95.75
479.658	80.75
479.876	84.75
480.095	83.75
480.313	85.75
480.532	76.75
480.751	79.75
480.969	85.75
481.188	77.75
481.406	94.75
481.624	88.75
481.843	77.75
482.061	76.75
482.28	89.75
482.498	66.75
482.717	68.75
482.935	89.75
483.153	76.75
483.372	87.75
483.59	92.75
483.808	82.75
484.027	91.75
484.245	80.75
484.463	92.75
484.681	90.75
484.9	74.75
485.118	74.75
485.336	80.75
485.554	96.75
485.772	89.75
485.99	76.75
486.209	78.75
486.427	90.75
486.645	65.75
486.863	71.75
487.081	89.75
487.299	90.75
487.517	85.75
487.735	84.75
487.953	76.75
488.171	90.75
488.389	72.75
488.607	82.75
488.825	75.75
489.043	69.75
489.261	70.75
489.479	85.75
489.696	94.75
489.914	73.75
490.132	73.75
490.35	67.75
490.568	87.75
490.786	74.75
491.003	81.75
491.221	89.75
491.439	96.75
491.657	80.75
491.874	85.75
492.092	70.75
492.31	81.75
492.527	70.75
492.745	81.75
492.963	85.75
493.18	85.75
493.398	83.75
493.615	76.75
493.833	71.75
494.05	78.75
494.268	77.75
494.485	91.75
494.703	93.75
494.92	86.75
495.138	84.75
495.355	77.75
495.573	82.75
495.79	82.75
496.008	90.75
496.225	80.75
496.442	88.75
496.66	82.75
496.877	96.75
497.094	81.75
497.312	60.75
497.529	97.75
497.746	87.75
497.963	70.75
498.181	83.75
498.398	78.75
498.615	83.75
498.832	73.75
499.049	74.75
499.267	90.75
499.484	80.75
499.701	67.75
499.918	89.75
500.135	81.75
500.352	81.75
500.569	83.75
500.786	83.75
501.003	82.75
501.22	94.75
501.437	73.75
501.654	83.75
501.871	77.75
502.088	84.75
502.305	79.75
502.522	83.75
502.739	89.75
502.956	82.75
503.172	72.75
503.389	75.75
503.606	84.75
503.823	75.75
504.04	81.75
504.256	87.75
504.473	88.75
504.69	78.75
504.907	85.75
505.123	88.75
505.34	78.75
505.557	79.75
505.773	80.75
505.99	81.75
506.207	78.75
506.423	79.75
506.64	82.75
506.856	68.75
507.073	73.75
507.289	95.75
507.506	89.75
507.722	74.75
507.939	82.75
508.155	84.75
508.372	70.75
508.588	83.75
508.805	83.75
509.021	81.75
509.238	80.75
509.454	85.75
509.67	85.75
509.887	82.75
510.103	82.75
510.319	84.75
510.536	80.75
510.752	80.75
510.968	86.75
511.184	83.75
511.401	69.75
511.617	85.75
511.833	70.75
512.049	82.75
512.265	91.75
512.481	90.75
512.698	85.75
512.914	85.75
513.13	93.75
513.346	67.75
513.562	92.75
513.778	83.75
513.994	78.75
514.21	83.75
514.426	78.75
514.642	85.75
514.858	80.75
515.074	93.75
515.29	79.75
515.506	81.75
515.721	89.75
515.937	97.75
516.153	88.75
516.369	94.75
516.585	108.75
516.801	82.75
517.016	74.75
517.232	81.75
517.448	76.75
517.664	80.75
517.879	77.75
518.095	73.75
518.311	71.75
518.527	78.75
518.742	93.75
518.958	86.75
519.173	79.75
519.389	80.75
519.605	85.75
519.82	74.75
