Data from Background_1_HRD10591_00019.txt Node
Date: Wed Nov 05 14:39:07 EST 2025
User: Yrep
Spectrometer: HR+D1059
Trigger mode: 1
Integration Time (sec): 1.000000E-1
Scans to average: 1
Electric dark correction enabled: true
Nonlinearity correction enabled: false
Boxcar width: 0
XAxis mode: Wavelengths
Number of Pixels in Spectrum: 2048
>>>>>Begin Spectral Data<<<<<
223.165	-5.81
223.4	-5.81
223.635	-5.81
223.869	-21.81
224.104	-24.81
224.338	-25.81
224.573	-13.81
224.808	-15.81
225.042	-2.81
225.277	-10.81
225.511	0.19
225.746	11.19
225.98	10.19
226.215	5.19
226.449	26.19
226.683	18.19
226.918	17.19
227.152	33.19
227.387	30.19
227.621	32.19
227.856	50.19
228.09	46.19
228.324	48.19
228.559	60.19
228.793	49.19
229.027	59.19
229.262	71.19
229.496	67.19
229.73	64.19
229.964	66.19
230.199	70.19
230.433	77.19
230.667	65.19
230.901	70.19
231.136	81.19
231.37	82.19
231.604	71.19
231.838	73.19
232.072	79.19
232.306	86.19
232.541	81.19
232.775	77.19
233.009	84.19
233.243	77.19
233.477	78.19
233.711	73.19
233.945	85.19
234.179	83.19
234.413	75.19
234.647	72.19
234.881	83.19
235.115	79.19
235.349	68.19
235.583	74.19
235.817	66.19
236.051	65.19
236.285	80.19
236.519	67.19
236.753	85.19
236.987	71.19
237.221	74.19
237.455	79.19
237.689	80.19
237.922	80.19
238.156	72.19
238.39	80.19
238.624	79.19
238.858	82.19
239.091	71.19
239.325	73.19
239.559	82.19
239.793	69.19
240.027	61.19
240.26	78.19
240.494	72.19
240.728	71.19
240.961	78.19
241.195	87.19
241.429	89.19
241.662	64.19
241.896	65.19
242.13	72.19
242.363	70.19
242.597	66.19
242.83	86.19
243.064	89.19
243.298	90.19
243.531	75.19
243.765	70.19
243.998	79.19
244.232	79.19
244.465	86.19
244.699	81.19
244.932	63.19
245.166	71.19
245.399	74.19
245.633	56.19
245.866	71.19
246.099	77.19
246.333	70.19
246.566	73.19
246.8	82.19
247.033	77.19
247.266	70.19
247.5	86.19
247.733	68.19
247.966	67.19
248.2	86.19
248.433	81.19
248.666	79.19
248.899	89.19
249.133	74.19
249.366	73.19
249.599	65.19
249.832	73.19
250.066	73.19
250.299	79.19
250.532	70.19
250.765	93.19
250.998	66.19
251.231	79.19
251.465	71.19
251.698	70.19
251.931	66.19
252.164	73.19
252.397	82.19
252.63	75.19
252.863	67.19
253.096	76.19
253.329	79.19
253.562	82.19
253.795	73.19
254.028	87.19
254.261	83.19
254.494	78.19
254.727	74.19
254.96	78.19
255.193	76.19
255.426	71.19
255.659	85.19
255.892	75.19
256.124	66.19
256.357	89.19
256.59	71.19
256.823	81.19
257.056	84.19
257.289	81.19
257.521	74.19
257.754	85.19
257.987	76.19
258.22	74.19
258.452	74.19
258.685	92.19
258.918	92.19
259.151	75.19
259.383	86.19
259.616	67.19
259.849	75.19
260.081	80.19
260.314	89.19
260.547	54.19
260.779	78.19
261.012	75.19
261.244	82.19
261.477	87.19
261.71	75.19
261.942	63.19
262.175	78.19
262.407	67.19
262.64	73.19
262.872	81.19
263.105	75.19
263.337	86.19
263.57	78.19
263.802	66.19
264.035	76.19
264.267	71.19
264.499	82.19
264.732	76.19
264.964	82.19
265.197	65.19
265.429	66.19
265.661	89.19
265.894	79.19
266.126	74.19
266.358	78.19
266.591	73.19
266.823	76.19
267.055	77.19
267.287	93.19
267.52	82.19
267.752	77.19
267.984	80.19
268.216	88.19
268.448	81.19
268.681	83.19
268.913	53.19
269.145	87.19
269.377	88.19
269.609	74.19
269.841	86.19
270.073	86.19
270.306	75.19
270.538	89.19
270.77	81.19
271.002	83.19
271.234	77.19
271.466	79.19
271.698	79.19
271.93	87.19
272.162	81.19
272.394	79.19
272.626	67.19
272.858	90.19
273.09	79.19
273.322	77.19
273.553	65.19
273.785	74.19
274.017	74.19
274.249	80.19
274.481	79.19
274.713	85.19
274.945	90.19
275.176	84.19
275.408	96.19
275.64	69.19
275.872	75.19
276.104	75.19
276.335	77.19
276.567	63.19
276.799	76.19
277.031	78.19
277.262	62.19
277.494	92.19
277.726	68.19
277.957	80.19
278.189	83.19
278.421	84.19
278.652	78.19
278.884	78.19
279.115	71.19
279.347	86.19
279.579	76.19
279.81	74.19
280.042	55.19
280.273	89.19
280.505	82.19
280.736	90.19
280.968	80.19
281.199	70.19
281.431	62.19
281.662	93.19
281.894	78.19
282.125	73.19
282.356	83.19
282.588	79.19
282.819	76.19
283.051	77.19
283.282	80.19
283.513	87.19
283.745	77.19
283.976	59.19
284.207	75.19
284.439	80.19
284.67	83.19
284.901	87.19
285.132	80.19
285.364	99.19
285.595	71.19
285.826	76.19
286.057	93.19
286.288	78.19
286.52	77.19
286.751	79.19
286.982	82.19
287.213	88.19
287.444	83.19
287.675	80.19
287.906	73.19
288.138	83.19
288.369	73.19
288.6	82.19
288.831	83.19
289.062	91.19
289.293	81.19
289.524	93.19
289.755	59.19
289.986	82.19
290.217	101.19
290.448	95.19
290.679	81.19
290.91	76.19
291.141	82.19
291.371	92.19
291.602	90.19
291.833	74.19
292.064	90.19
292.295	94.19
292.526	63.19
292.757	83.19
292.987	81.19
293.218	82.19
293.449	71.19
293.68	74.19
293.91	61.19
294.141	69.19
294.372	77.19
294.603	80.19
294.833	81.19
295.064	71.19
295.295	74.19
295.525	78.19
295.756	85.19
295.987	62.19
296.217	71.19
296.448	84.19
296.679	67.19
296.909	87.19
297.14	73.19
297.37	72.19
297.601	68.19
297.831	79.19
298.062	71.19
298.292	69.19
298.523	79.19
298.753	81.19
298.984	79.19
299.214	76.19
299.445	91.19
299.675	98.19
299.905	75.19
300.136	76.19
300.366	86.19
300.597	76.19
300.827	62.19
301.057	72.19
301.288	70.19
301.518	73.19
301.748	77.19
301.979	89.19
302.209	90.19
302.439	91.19
302.669	87.19
302.9	89.19
303.13	71.19
303.36	80.19
303.59	84.19
303.82	94.19
304.051	76.19
304.281	78.19
304.511	96.19
304.741	80.19
304.971	73.19
305.201	71.19
305.431	91.19
305.661	94.19
305.891	94.19
306.121	76.19
306.352	84.19
306.582	99.19
306.812	81.19
307.042	81.19
307.272	77.19
307.502	93.19
307.731	74.19
307.961	76.19
308.191	74.19
308.421	83.19
308.651	77.19
308.881	78.19
309.111	66.19
309.341	91.19
309.571	70.19
309.8	88.19
310.03	79.19
310.26	82.19
310.49	73.19
310.72	89.19
310.949	77.19
311.179	80.19
311.409	82.19
311.639	71.19
311.868	77.19
312.098	81.19
312.328	75.19
312.557	97.19
312.787	94.19
313.017	77.19
313.246	80.19
313.476	78.19
313.706	82.19
313.935	73.19
314.165	76.19
314.394	80.19
314.624	73.19
314.853	75.19
315.083	68.19
315.312	73.19
315.542	70.19
315.771	92.19
316.001	87.19
316.23	71.19
316.46	88.19
316.689	91.19
316.919	75.19
317.148	90.19
317.377	81.19
317.607	68.19
317.836	87.19
318.065	81.19
318.295	87.19
318.524	79.19
318.753	76.19
318.983	89.19
319.212	77.19
319.441	73.19
319.67	88.19
319.9	87.19
320.129	73.19
320.358	92.19
320.587	82.19
320.816	82.19
321.046	74.19
321.275	70.19
321.504	71.19
321.733	79.19
321.962	85.19
322.191	81.19
322.42	70.19
322.649	78.19
322.878	72.19
323.108	75.19
323.337	89.19
323.566	79.19
323.795	75.19
324.024	75.19
324.253	79.19
324.482	75.19
324.71	82.19
324.939	81.19
325.168	80.19
325.397	71.19
325.626	88.19
325.855	80.19
326.084	81.19
326.313	98.19
326.542	87.19
326.77	78.19
326.999	74.19
327.228	78.19
327.457	71.19
327.686	75.19
327.914	88.19
328.143	89.19
328.372	97.19
328.6	93.19
328.829	79.19
329.058	79.19
329.287	79.19
329.515	83.19
329.744	63.19
329.972	77.19
330.201	82.19
330.43	85.19
330.658	83.19
330.887	93.19
331.115	66.19
331.344	78.19
331.572	99.19
331.801	77.19
332.03	70.19
332.258	77.19
332.486	84.19
332.715	93.19
332.943	76.19
333.172	89.19
333.4	77.19
333.629	80.19
333.857	62.19
334.085	82.19
334.314	93.19
334.542	86.19
334.771	93.19
334.999	92.19
335.227	68.19
335.455	72.19
335.684	81.19
335.912	87.19
336.14	89.19
336.369	84.19
336.597	83.19
336.825	76.19
337.053	82.19
337.281	73.19
337.51	82.19
337.738	81.19
337.966	85.19
338.194	90.19
338.422	72.19
338.65	75.19
338.878	87.19
339.106	79.19
339.334	74.19
339.562	71.19
339.79	79.19
340.018	82.19
340.246	87.19
340.474	75.19
340.702	85.19
340.93	64.19
341.158	72.19
341.386	98.19
341.614	85.19
341.842	77.19
342.07	65.19
342.298	88.19
342.526	79.19
342.754	77.19
342.981	79.19
343.209	93.19
343.437	89.19
343.665	76.19
343.893	64.19
344.12	87.19
344.348	81.19
344.576	90.19
344.804	68.19
345.031	81.19
345.259	93.19
345.487	81.19
345.714	78.19
345.942	84.19
346.17	89.19
346.397	75.19
346.625	84.19
346.853	83.19
347.08	94.19
347.308	82.19
347.535	60.19
347.763	76.19
347.99	83.19
348.218	64.19
348.445	81.19
348.673	81.19
348.9	73.19
349.128	91.19
349.355	81.19
349.583	80.19
349.81	74.19
350.037	82.19
350.265	83.19
350.492	65.19
350.72	88.19
350.947	76.19
351.174	74.19
351.402	77.19
351.629	70.19
351.856	74.19
352.083	72.19
352.311	85.19
352.538	74.19
352.765	91.19
352.992	84.19
353.22	77.19
353.447	71.19
353.674	79.19
353.901	79.19
354.128	95.19
354.355	85.19
354.583	81.19
354.81	86.19
355.037	71.19
355.264	87.19
355.491	67.19
355.718	77.19
355.945	78.19
356.172	78.19
356.399	93.19
356.626	91.19
356.853	83.19
357.08	67.19
357.307	76.19
357.534	97.19
357.761	84.19
357.988	87.19
358.215	82.19
358.441	89.19
358.668	85.19
358.895	89.19
359.122	71.19
359.349	92.19
359.576	77.19
359.802	72.19
360.029	75.19
360.256	77.19
360.483	82.19
360.709	75.19
360.936	89.19
361.163	82.19
361.39	75.19
361.616	90.19
361.843	84.19
362.07	88.19
362.296	78.19
362.523	76.19
362.749	89.19
362.976	94.19
363.203	95.19
363.429	82.19
363.656	88.19
363.882	80.19
364.109	68.19
364.335	80.19
364.562	71.19
364.788	82.19
365.015	77.19
365.241	80.19
365.468	91.19
365.694	94.19
365.92	84.19
366.147	92.19
366.373	69.19
366.599	82.19
366.826	98.19
367.052	90.19
367.278	82.19
367.505	66.19
367.731	90.19
367.957	65.19
368.184	78.19
368.41	79.19
368.636	87.19
368.862	86.19
369.089	78.19
369.315	73.19
369.541	86.19
369.767	67.19
369.993	77.19
370.219	91.19
370.445	86.19
370.672	87.19
370.898	67.19
371.124	76.19
371.35	75.19
371.576	87.19
371.802	84.19
372.028	70.19
372.254	79.19
372.48	78.19
372.706	82.19
372.932	82.19
373.158	67.19
373.384	88.19
373.61	77.19
373.835	77.19
374.061	86.19
374.287	71.19
374.513	87.19
374.739	80.19
374.965	84.19
375.191	71.19
375.416	75.19
375.642	82.19
375.868	79.19
376.094	63.19
376.319	88.19
376.545	69.19
376.771	76.19
376.997	79.19
377.222	87.19
377.448	81.19
377.674	66.19
377.899	78.19
378.125	81.19
378.35	75.19
378.576	82.19
378.802	71.19
379.027	82.19
379.253	101.19
379.478	86.19
379.704	85.19
379.929	79.19
380.155	77.19
380.38	75.19
380.606	80.19
380.831	72.19
381.057	80.19
381.282	78.19
381.507	77.19
381.733	80.19
381.958	87.19
382.184	86.19
382.409	88.19
382.634	80.19
382.86	84.19
383.085	83.19
383.31	67.19
383.535	90.19
383.761	80.19
383.986	89.19
384.211	77.19
384.436	79.19
384.662	91.19
384.887	81.19
385.112	82.19
385.337	81.19
385.562	80.19
385.787	74.19
386.013	76.19
386.238	96.19
386.463	73.19
386.688	105.19
386.913	86.19
387.138	66.19
387.363	87.19
387.588	85.19
387.813	95.19
388.038	86.19
388.263	76.19
388.488	75.19
388.713	82.19
388.938	87.19
389.163	61.19
389.387	90.19
389.612	92.19
389.837	91.19
390.062	87.19
390.287	72.19
390.512	82.19
390.736	82.19
390.961	84.19
391.186	93.19
391.411	78.19
391.636	81.19
391.86	82.19
392.085	80.19
392.31	63.19
392.534	83.19
392.759	67.19
392.984	66.19
393.208	74.19
393.433	90.19
393.658	75.19
393.882	63.19
394.107	79.19
394.331	93.19
394.556	82.19
394.78	82.19
395.005	81.19
395.229	72.19
395.454	95.19
395.678	88.19
395.903	83.19
396.127	84.19
396.352	74.19
396.576	71.19
396.801	74.19
397.025	77.19
397.249	64.19
397.474	72.19
397.698	60.19
397.922	68.19
398.147	74.19
398.371	86.19
398.595	84.19
398.82	65.19
399.044	71.19
399.268	67.19
399.492	74.19
399.717	70.19
399.941	77.19
400.165	85.19
400.389	64.19
400.613	73.19
400.837	78.19
401.062	78.19
401.286	90.19
401.51	90.19
401.734	84.19
401.958	68.19
402.182	80.19
402.406	83.19
402.63	75.19
402.854	78.19
403.078	73.19
403.302	74.19
403.526	97.19
403.75	81.19
403.974	80.19
404.198	93.19
404.422	67.19
404.645	88.19
404.869	77.19
405.093	77.19
405.317	80.19
405.541	57.19
405.765	75.19
405.988	74.19
406.212	70.19
406.436	85.19
406.66	73.19
406.883	82.19
407.107	72.19
407.331	83.19
407.555	89.19
407.778	86.19
408.002	96.19
408.226	87.19
408.449	69.19
408.673	75.19
408.896	77.19
409.12	81.19
409.344	79.19
409.567	88.19
409.791	77.19
410.014	78.19
410.238	84.19
410.461	72.19
410.685	77.19
410.908	70.19
411.132	72.19
411.355	72.19
411.578	79.19
411.802	92.19
412.025	86.19
412.249	92.19
412.472	75.19
412.695	78.19
412.919	86.19
413.142	81.19
413.365	81.19
413.589	76.19
413.812	80.19
414.035	85.19
414.258	89.19
414.482	74.19
414.705	79.19
414.928	91.19
415.151	83.19
415.374	68.19
415.597	77.19
415.821	78.19
416.044	75.19
416.267	77.19
416.49	67.19
416.713	78.19
416.936	68.19
417.159	80.19
417.382	81.19
417.605	78.19
417.828	87.19
418.051	82.19
418.274	76.19
418.497	74.19
418.72	69.19
418.943	87.19
419.166	73.19
419.389	73.19
419.611	82.19
419.834	73.19
420.057	93.19
420.28	76.19
420.503	70.19
420.726	70.19
420.948	86.19
421.171	68.19
421.394	85.19
421.617	80.19
421.839	74.19
422.062	77.19
422.285	75.19
422.507	76.19
422.73	74.19
422.953	81.19
423.175	79.19
423.398	81.19
423.621	85.19
423.843	94.19
424.066	89.19
424.288	76.19
424.511	67.19
424.733	71.19
424.956	73.19
425.178	82.19
425.401	72.19
425.623	72.19
425.846	68.19
426.068	85.19
426.291	81.19
426.513	71.19
426.735	85.19
426.958	75.19
427.18	73.19
427.402	71.19
427.625	84.19
427.847	92.19
428.069	81.19
428.292	80.19
428.514	61.19
428.736	75.19
428.958	82.19
429.181	80.19
429.403	87.19
429.625	80.19
429.847	75.19
430.069	77.19
430.292	87.19
430.514	68.19
430.736	74.19
430.958	88.19
431.18	80.19
431.402	78.19
431.624	75.19
431.846	72.19
432.068	77.19
432.29	71.19
432.512	81.19
432.734	72.19
432.956	80.19
433.178	92.19
433.4	85.19
433.622	91.19
433.844	86.19
434.066	66.19
434.287	71.19
434.509	84.19
434.731	81.19
434.953	74.19
435.175	77.19
435.397	90.19
435.618	83.19
435.84	83.19
436.062	91.19
436.284	71.19
436.505	66.19
436.727	81.19
436.949	81.19
437.17	73.19
437.392	67.19
437.614	81.19
437.835	67.19
438.057	86.19
438.278	88.19
438.5	80.19
438.721	82.19
438.943	81.19
439.165	81.19
439.386	81.19
439.608	87.19
439.829	85.19
440.05	83.19
440.272	79.19
440.493	74.19
440.715	75.19
440.936	79.19
441.158	68.19
441.379	85.19
441.6	81.19
441.822	74.19
442.043	72.19
442.264	83.19
442.486	91.19
442.707	82.19
442.928	81.19
443.149	80.19
443.371	68.19
443.592	84.19
443.813	64.19
444.034	67.19
444.255	83.19
444.476	59.19
444.698	81.19
444.919	82.19
445.14	141.19
445.361	103.19
445.582	78.19
445.803	62.19
446.024	81.19
446.245	85.19
446.466	85.19
446.687	73.19
446.908	67.19
447.129	89.19
447.35	59.19
447.571	85.19
447.792	77.19
448.013	75.19
448.234	80.19
448.455	62.19
448.675	70.19
448.896	83.19
449.117	86.19
449.338	91.19
449.559	73.19
449.779	81.19
450	71.19
450.221	82.19
450.442	78.19
450.662	79.19
450.883	71.19
451.104	89.19
451.324	79.19
451.545	79.19
451.766	87.19
451.986	67.19
452.207	78.19
452.428	62.19
452.648	73.19
452.869	81.19
453.089	79.19
453.31	69.19
453.53	72.19
453.751	63.19
453.971	80.19
454.192	76.19
454.412	71.19
454.633	66.19
454.853	71.19
455.073	77.19
455.294	79.19
455.514	91.19
455.734	63.19
455.955	83.19
456.175	72.19
456.395	59.19
456.616	85.19
456.836	93.19
457.056	89.19
457.276	74.19
457.497	78.19
457.717	78.19
457.937	87.19
458.157	81.19
458.377	82.19
458.598	75.19
458.818	64.19
459.038	79.19
459.258	83.19
459.478	81.19
459.698	67.19
459.918	96.19
460.138	79.19
460.358	73.19
460.578	74.19
460.798	87.19
461.018	81.19
461.238	77.19
461.458	79.19
461.678	89.19
461.898	83.19
462.118	78.19
462.338	81.19
462.558	82.19
462.777	79.19
462.997	59.19
463.217	71.19
463.437	67.19
463.657	75.19
463.876	72.19
464.096	98.19
464.316	69.19
464.536	82.19
464.755	67.19
464.975	87.19
465.195	72.19
465.414	89.19
465.634	86.19
465.854	84.19
466.073	80.19
466.293	72.19
466.512	82.19
466.732	90.19
466.951	83.19
467.171	69.19
467.391	75.19
467.61	68.19
467.829	81.19
468.049	77.19
468.268	67.19
468.488	82.19
468.707	82.19
468.927	69.19
469.146	84.19
469.365	88.19
469.585	74.19
469.804	74.19
470.023	68.19
470.243	83.19
470.462	81.19
470.681	81.19
470.901	80.19
471.12	80.19
471.339	79.19
471.558	83.19
471.777	76.19
471.997	74.19
472.216	87.19
472.435	66.19
472.654	80.19
472.873	85.19
473.092	80.19
473.311	85.19
473.53	75.19
473.749	87.19
473.968	83.19
474.187	82.19
474.406	89.19
474.625	95.19
474.844	87.19
475.063	65.19
475.282	78.19
475.501	77.19
475.72	85.19
475.939	77.19
476.158	55.19
476.377	88.19
476.596	73.19
476.814	90.19
477.033	75.19
477.252	75.19
477.471	74.19
477.69	87.19
477.908	74.19
478.127	85.19
478.346	81.19
478.564	80.19
478.783	78.19
479.002	75.19
479.22	75.19
479.439	73.19
479.658	85.19
479.876	72.19
480.095	70.19
480.313	74.19
480.532	65.19
480.751	79.19
480.969	74.19
481.188	76.19
481.406	74.19
481.624	68.19
481.843	70.19
482.061	81.19
482.28	86.19
482.498	79.19
482.717	93.19
482.935	81.19
483.153	80.19
483.372	73.19
483.59	89.19
483.808	74.19
484.027	64.19
484.245	70.19
484.463	71.19
484.681	80.19
484.9	67.19
485.118	89.19
485.336	82.19
485.554	76.19
485.772	83.19
485.99	79.19
486.209	93.19
486.427	82.19
486.645	73.19
486.863	73.19
487.081	76.19
487.299	85.19
487.517	83.19
487.735	90.19
487.953	83.19
488.171	79.19
488.389	70.19
488.607	81.19
488.825	88.19
489.043	71.19
489.261	83.19
489.479	72.19
489.696	77.19
489.914	66.19
490.132	69.19
490.35	85.19
490.568	88.19
490.786	74.19
491.003	73.19
491.221	88.19
491.439	85.19
491.657	83.19
491.874	79.19
492.092	85.19
492.31	93.19
492.527	70.19
492.745	72.19
492.963	83.19
493.18	73.19
493.398	89.19
493.615	87.19
493.833	71.19
494.05	68.19
494.268	72.19
494.485	81.19
494.703	78.19
494.92	71.19
495.138	77.19
495.355	87.19
495.573	74.19
495.79	61.19
496.008	83.19
496.225	90.19
496.442	75.19
496.66	88.19
496.877	82.19
497.094	86.19
497.312	87.19
497.529	79.19
497.746	82.19
497.963	82.19
498.181	83.19
498.398	73.19
498.615	74.19
498.832	81.19
499.049	74.19
499.267	83.19
499.484	74.19
499.701	77.19
499.918	75.19
500.135	83.19
500.352	90.19
500.569	77.19
500.786	79.19
501.003	67.19
501.22	66.19
501.437	80.19
501.654	85.19
501.871	91.19
502.088	93.19
502.305	76.19
502.522	85.19
502.739	79.19
502.956	83.19
503.172	79.19
503.389	85.19
503.606	59.19
503.823	73.19
504.04	95.19
504.256	70.19
504.473	76.19
504.69	78.19
504.907	86.19
505.123	76.19
505.34	83.19
505.557	61.19
505.773	86.19
505.99	78.19
506.207	72.19
506.423	74.19
506.64	82.19
506.856	70.19
507.073	79.19
507.289	73.19
507.506	87.19
507.722	85.19
507.939	85.19
508.155	80.19
508.372	73.19
508.588	78.19
508.805	63.19
509.021	79.19
509.238	74.19
509.454	81.19
509.67	76.19
509.887	87.19
510.103	69.19
510.319	83.19
510.536	81.19
510.752	83.19
510.968	88.19
511.184	72.19
511.401	71.19
511.617	89.19
511.833	76.19
512.049	87.19
512.265	85.19
512.481	86.19
512.698	83.19
512.914	75.19
513.13	83.19
513.346	73.19
513.562	75.19
513.778	87.19
513.994	89.19
514.21	84.19
514.426	79.19
514.642	62.19
514.858	79.19
515.074	79.19
515.29	76.19
515.506	74.19
515.721	79.19
515.937	95.19
516.153	71.19
516.369	80.19
516.585	73.19
516.801	80.19
517.016	84.19
517.232	81.19
517.448	85.19
517.664	76.19
517.879	79.19
518.095	84.19
518.311	86.19
518.527	81.19
518.742	79.19
518.958	88.19
519.173	80.19
519.389	70.19
519.605	82.19
519.82	88.19
520.036	87.19
520.251	83.19
