Data from Background_1_HRD10591_00046.txt Node
Date: Wed Nov 05 14:39:20 EST 2025
User: Yrep
Spectrometer: HR+D1059
Trigger mode: 1
Integration Time (sec): 1.000000E-1
Scans to average: 1
Electric dark correction enabled: true
Nonlinearity correction enabled: false
Boxcar width: 0
XAxis mode: Wavelengths
Number of Pixels in Spectrum: 2048
>>>>>Begin Spectral Data<<<<<
223.165	-27.44
223.4	-27.44
223.635	-27.44
223.869	-42.44
224.104	-10.44
224.338	-17.44
224.573	-11.44
224.808	-12.44
225.042	-0.44
225.277	-11.44
225.511	-0.44
225.746	5.56
225.98	22.56
226.215	4.56
226.449	13.56
226.683	23.56
226.918	27.56
227.152	36.56
227.387	36.56
227.621	34.56
227.856	43.56
228.09	34.56
228.324	58.56
228.559	61.56
228.793	61.56
229.027	57.56
229.262	72.56
229.496	70.56
229.73	71.56
229.964	70.56
230.199	72.56
230.433	65.56
230.667	85.56
230.901	73.56
231.136	86.56
231.37	85.56
231.604	79.56
231.838	72.56
232.072	83.56
232.306	74.56
232.541	86.56
232.775	93.56
233.009	92.56
233.243	69.56
233.477	80.56
233.711	79.56
233.945	82.56
234.179	75.56
234.413	92.56
234.647	84.56
234.881	87.56
235.115	93.56
235.349	80.56
235.583	91.56
235.817	68.56
236.051	75.56
236.285	65.56
236.519	75.56
236.753	88.56
236.987	88.56
237.221	92.56
237.455	83.56
237.689	89.56
237.922	88.56
238.156	94.56
238.39	68.56
238.624	85.56
238.858	77.56
239.091	76.56
239.325	75.56
239.559	74.56
239.793	78.56
240.027	87.56
240.26	73.56
240.494	73.56
240.728	69.56
240.961	81.56
241.195	85.56
241.429	88.56
241.662	86.56
241.896	100.56
242.13	98.56
242.363	81.56
242.597	81.56
242.83	89.56
243.064	83.56
243.298	57.56
243.531	71.56
243.765	80.56
243.998	75.56
244.232	87.56
244.465	70.56
244.699	91.56
244.932	68.56
245.166	76.56
245.399	77.56
245.633	92.56
245.866	68.56
246.099	78.56
246.333	103.56
246.566	66.56
246.8	87.56
247.033	81.56
247.266	64.56
247.5	76.56
247.733	65.56
247.966	70.56
248.2	87.56
248.433	70.56
248.666	70.56
248.899	78.56
249.133	87.56
249.366	77.56
249.599	80.56
249.832	83.56
250.066	90.56
250.299	74.56
250.532	88.56
250.765	81.56
250.998	72.56
251.231	78.56
251.465	87.56
251.698	72.56
251.931	83.56
252.164	89.56
252.397	84.56
252.63	66.56
252.863	73.56
253.096	65.56
253.329	77.56
253.562	87.56
253.795	91.56
254.028	94.56
254.261	86.56
254.494	84.56
254.727	93.56
254.96	80.56
255.193	87.56
255.426	69.56
255.659	81.56
255.892	92.56
256.124	89.56
256.357	79.56
256.59	94.56
256.823	76.56
257.056	80.56
257.289	76.56
257.521	88.56
257.754	77.56
257.987	83.56
258.22	91.56
258.452	80.56
258.685	88.56
258.918	93.56
259.151	67.56
259.383	71.56
259.616	81.56
259.849	77.56
260.081	80.56
260.314	88.56
260.547	82.56
260.779	88.56
261.012	97.56
261.244	80.56
261.477	91.56
261.71	71.56
261.942	90.56
262.175	85.56
262.407	90.56
262.64	95.56
262.872	74.56
263.105	77.56
263.337	101.56
263.57	85.56
263.802	77.56
264.035	82.56
264.267	85.56
264.499	83.56
264.732	83.56
264.964	67.56
265.197	90.56
265.429	91.56
265.661	94.56
265.894	86.56
266.126	74.56
266.358	79.56
266.591	83.56
266.823	78.56
267.055	88.56
267.287	94.56
267.52	90.56
267.752	91.56
267.984	89.56
268.216	92.56
268.448	85.56
268.681	92.56
268.913	96.56
269.145	81.56
269.377	89.56
269.609	74.56
269.841	79.56
270.073	74.56
270.306	77.56
270.538	87.56
270.77	92.56
271.002	87.56
271.234	71.56
271.466	80.56
271.698	70.56
271.93	91.56
272.162	85.56
272.394	98.56
272.626	85.56
272.858	85.56
273.09	83.56
273.322	87.56
273.553	87.56
273.785	66.56
274.017	77.56
274.249	85.56
274.481	89.56
274.713	88.56
274.945	96.56
275.176	97.56
275.408	99.56
275.64	78.56
275.872	74.56
276.104	98.56
276.335	91.56
276.567	96.56
276.799	70.56
277.031	87.56
277.262	81.56
277.494	88.56
277.726	85.56
277.957	76.56
278.189	77.56
278.421	78.56
278.652	93.56
278.884	97.56
279.115	97.56
279.347	99.56
279.579	78.56
279.81	86.56
280.042	89.56
280.273	90.56
280.505	80.56
280.736	93.56
280.968	84.56
281.199	85.56
281.431	85.56
281.662	79.56
281.894	85.56
282.125	84.56
282.356	77.56
282.588	88.56
282.819	85.56
283.051	82.56
283.282	80.56
283.513	81.56
283.745	81.56
283.976	88.56
284.207	81.56
284.439	93.56
284.67	107.56
284.901	81.56
285.132	72.56
285.364	79.56
285.595	91.56
285.826	96.56
286.057	99.56
286.288	89.56
286.52	99.56
286.751	78.56
286.982	79.56
287.213	100.56
287.444	74.56
287.675	73.56
287.906	87.56
288.138	81.56
288.369	87.56
288.6	89.56
288.831	89.56
289.062	87.56
289.293	96.56
289.524	93.56
289.755	92.56
289.986	87.56
290.217	86.56
290.448	81.56
290.679	81.56
290.91	85.56
291.141	89.56
291.371	74.56
291.602	84.56
291.833	72.56
292.064	104.56
292.295	88.56
292.526	80.56
292.757	86.56
292.987	84.56
293.218	81.56
293.449	73.56
293.68	88.56
293.91	93.56
294.141	89.56
294.372	81.56
294.603	78.56
294.833	87.56
295.064	80.56
295.295	104.56
295.525	90.56
295.756	86.56
295.987	87.56
296.217	95.56
296.448	86.56
296.679	91.56
296.909	81.56
297.14	83.56
297.37	85.56
297.601	71.56
297.831	92.56
298.062	93.56
298.292	107.56
298.523	86.56
298.753	85.56
298.984	81.56
299.214	85.56
299.445	88.56
299.675	84.56
299.905	85.56
300.136	86.56
300.366	74.56
300.597	84.56
300.827	75.56
301.057	84.56
301.288	91.56
301.518	99.56
301.748	77.56
301.979	97.56
302.209	84.56
302.439	89.56
302.669	90.56
302.9	73.56
303.13	88.56
303.36	90.56
303.59	89.56
303.82	82.56
304.051	80.56
304.281	93.56
304.511	80.56
304.741	90.56
304.971	86.56
305.201	92.56
305.431	81.56
305.661	96.56
305.891	69.56
306.121	101.56
306.352	92.56
306.582	92.56
306.812	87.56
307.042	68.56
307.272	81.56
307.502	83.56
307.731	79.56
307.961	86.56
308.191	89.56
308.421	86.56
308.651	90.56
308.881	78.56
309.111	80.56
309.341	77.56
309.571	99.56
309.8	94.56
310.03	82.56
310.26	92.56
310.49	71.56
310.72	89.56
310.949	95.56
311.179	72.56
311.409	95.56
311.639	84.56
311.868	103.56
312.098	96.56
312.328	101.56
312.557	89.56
312.787	97.56
313.017	95.56
313.246	84.56
313.476	87.56
313.706	74.56
313.935	83.56
314.165	96.56
314.394	83.56
314.624	83.56
314.853	100.56
315.083	80.56
315.312	78.56
315.542	83.56
315.771	99.56
316.001	88.56
316.23	88.56
316.46	99.56
316.689	88.56
316.919	86.56
317.148	83.56
317.377	84.56
317.607	91.56
317.836	86.56
318.065	91.56
318.295	84.56
318.524	79.56
318.753	89.56
318.983	76.56
319.212	87.56
319.441	79.56
319.67	83.56
319.9	82.56
320.129	104.56
320.358	95.56
320.587	100.56
320.816	88.56
321.046	78.56
321.275	88.56
321.504	79.56
321.733	87.56
321.962	90.56
322.191	85.56
322.42	79.56
322.649	88.56
322.878	90.56
323.108	100.56
323.337	105.56
323.566	68.56
323.795	101.56
324.024	77.56
324.253	91.56
324.482	89.56
324.71	88.56
324.939	84.56
325.168	81.56
325.397	89.56
325.626	86.56
325.855	102.56
326.084	100.56
326.313	93.56
326.542	75.56
326.77	87.56
326.999	103.56
327.228	71.56
327.457	86.56
327.686	70.56
327.914	74.56
328.143	86.56
328.372	80.56
328.6	79.56
328.829	84.56
329.058	72.56
329.287	78.56
329.515	88.56
329.744	84.56
329.972	82.56
330.201	84.56
330.43	86.56
330.658	78.56
330.887	84.56
331.115	90.56
331.344	86.56
331.572	88.56
331.801	85.56
332.03	99.56
332.258	77.56
332.486	87.56
332.715	86.56
332.943	95.56
333.172	85.56
333.4	87.56
333.629	76.56
333.857	77.56
334.085	96.56
334.314	86.56
334.542	83.56
334.771	94.56
334.999	85.56
335.227	89.56
335.455	82.56
335.684	88.56
335.912	76.56
336.14	96.56
336.369	87.56
336.597	87.56
336.825	89.56
337.053	84.56
337.281	84.56
337.51	84.56
337.738	93.56
337.966	95.56
338.194	75.56
338.422	101.56
338.65	94.56
338.878	91.56
339.106	81.56
339.334	106.56
339.562	87.56
339.79	88.56
340.018	85.56
340.246	97.56
340.474	100.56
340.702	69.56
340.93	86.56
341.158	85.56
341.386	95.56
341.614	94.56
341.842	88.56
342.07	75.56
342.298	85.56
342.526	91.56
342.754	86.56
342.981	92.56
343.209	80.56
343.437	88.56
343.665	91.56
343.893	99.56
344.12	79.56
344.348	82.56
344.576	97.56
344.804	79.56
345.031	82.56
345.259	81.56
345.487	100.56
345.714	77.56
345.942	99.56
346.17	93.56
346.397	85.56
346.625	92.56
346.853	84.56
347.08	73.56
347.308	92.56
347.535	77.56
347.763	79.56
347.99	94.56
348.218	87.56
348.445	87.56
348.673	77.56
348.9	71.56
349.128	80.56
349.355	87.56
349.583	72.56
349.81	84.56
350.037	87.56
350.265	83.56
350.492	81.56
350.72	78.56
350.947	85.56
351.174	88.56
351.402	85.56
351.629	99.56
351.856	81.56
352.083	75.56
352.311	83.56
352.538	94.56
352.765	87.56
352.992	93.56
353.22	89.56
353.447	83.56
353.674	83.56
353.901	94.56
354.128	81.56
354.355	78.56
354.583	87.56
354.81	90.56
355.037	88.56
355.264	95.56
355.491	83.56
355.718	94.56
355.945	72.56
356.172	86.56
356.399	70.56
356.626	88.56
356.853	91.56
357.08	80.56
357.307	97.56
357.534	88.56
357.761	84.56
357.988	95.56
358.215	85.56
358.441	84.56
358.668	81.56
358.895	87.56
359.122	81.56
359.349	83.56
359.576	84.56
359.802	82.56
360.029	79.56
360.256	91.56
360.483	69.56
360.709	72.56
360.936	71.56
361.163	93.56
361.39	74.56
361.616	85.56
361.843	80.56
362.07	91.56
362.296	80.56
362.523	92.56
362.749	88.56
362.976	76.56
363.203	93.56
363.429	85.56
363.656	79.56
363.882	82.56
364.109	75.56
364.335	88.56
364.562	62.56
364.788	95.56
365.015	87.56
365.241	94.56
365.468	88.56
365.694	87.56
365.92	86.56
366.147	88.56
366.373	84.56
366.599	71.56
366.826	82.56
367.052	90.56
367.278	99.56
367.505	71.56
367.731	83.56
367.957	85.56
368.184	87.56
368.41	77.56
368.636	84.56
368.862	97.56
369.089	84.56
369.315	89.56
369.541	87.56
369.767	98.56
369.993	92.56
370.219	82.56
370.445	83.56
370.672	86.56
370.898	80.56
371.124	88.56
371.35	85.56
371.576	84.56
371.802	95.56
372.028	83.56
372.254	86.56
372.48	95.56
372.706	92.56
372.932	61.56
373.158	88.56
373.384	91.56
373.61	87.56
373.835	89.56
374.061	70.56
374.287	87.56
374.513	85.56
374.739	88.56
374.965	77.56
375.191	100.56
375.416	77.56
375.642	88.56
375.868	93.56
376.094	93.56
376.319	79.56
376.545	81.56
376.771	88.56
376.997	95.56
377.222	75.56
377.448	86.56
377.674	87.56
377.899	83.56
378.125	88.56
378.35	75.56
378.576	77.56
378.802	73.56
379.027	91.56
379.253	101.56
379.478	87.56
379.704	88.56
379.929	78.56
380.155	84.56
380.38	89.56
380.606	90.56
380.831	69.56
381.057	83.56
381.282	95.56
381.507	99.56
381.733	101.56
381.958	83.56
382.184	79.56
382.409	76.56
382.634	87.56
382.86	93.56
383.085	90.56
383.31	92.56
383.535	84.56
383.761	92.56
383.986	87.56
384.211	85.56
384.436	87.56
384.662	93.56
384.887	79.56
385.112	82.56
385.337	91.56
385.562	89.56
385.787	83.56
386.013	93.56
386.238	71.56
386.463	88.56
386.688	91.56
386.913	88.56
387.138	81.56
387.363	96.56
387.588	81.56
387.813	85.56
388.038	74.56
388.263	71.56
388.488	88.56
388.713	85.56
388.938	72.56
389.163	89.56
389.387	104.56
389.612	75.56
389.837	94.56
390.062	97.56
390.287	85.56
390.512	74.56
390.736	85.56
390.961	92.56
391.186	80.56
391.411	77.56
391.636	71.56
391.86	82.56
392.085	78.56
392.31	98.56
392.534	84.56
392.759	82.56
392.984	85.56
393.208	81.56
393.433	79.56
393.658	88.56
393.882	91.56
394.107	83.56
394.331	71.56
394.556	101.56
394.78	95.56
395.005	83.56
395.229	85.56
395.454	97.56
395.678	88.56
395.903	77.56
396.127	83.56
396.352	95.56
396.576	77.56
396.801	79.56
397.025	75.56
397.249	91.56
397.474	87.56
397.698	79.56
397.922	88.56
398.147	85.56
398.371	83.56
398.595	93.56
398.82	78.56
399.044	72.56
399.268	97.56
399.492	75.56
399.717	81.56
399.941	85.56
400.165	89.56
400.389	100.56
400.613	87.56
400.837	78.56
401.062	83.56
401.286	75.56
401.51	88.56
401.734	85.56
401.958	87.56
402.182	74.56
402.406	79.56
402.63	84.56
402.854	87.56
403.078	73.56
403.302	79.56
403.526	77.56
403.75	86.56
403.974	86.56
404.198	95.56
404.422	86.56
404.645	78.56
404.869	78.56
405.093	77.56
405.317	81.56
405.541	76.56
405.765	80.56
405.988	84.56
406.212	99.56
406.436	86.56
406.66	87.56
406.883	82.56
407.107	84.56
407.331	88.56
407.555	79.56
407.778	68.56
408.002	81.56
408.226	83.56
408.449	56.56
408.673	84.56
408.896	86.56
409.12	71.56
409.344	87.56
409.567	98.56
409.791	91.56
410.014	86.56
410.238	79.56
410.461	81.56
410.685	81.56
410.908	75.56
411.132	72.56
411.355	87.56
411.578	77.56
411.802	68.56
412.025	73.56
412.249	74.56
412.472	91.56
412.695	76.56
412.919	70.56
413.142	86.56
413.365	90.56
413.589	81.56
413.812	84.56
414.035	94.56
414.258	88.56
414.482	96.56
414.705	89.56
414.928	98.56
415.151	71.56
415.374	80.56
415.597	81.56
415.821	77.56
416.044	68.56
416.267	72.56
416.49	77.56
416.713	93.56
416.936	84.56
417.159	87.56
417.382	93.56
417.605	70.56
417.828	87.56
418.051	84.56
418.274	83.56
418.497	79.56
418.72	82.56
418.943	83.56
419.166	72.56
419.389	77.56
419.611	81.56
419.834	80.56
420.057	72.56
420.28	79.56
420.503	77.56
420.726	88.56
420.948	82.56
421.171	72.56
421.394	91.56
421.617	75.56
421.839	92.56
422.062	79.56
422.285	69.56
422.507	73.56
422.73	67.56
422.953	75.56
423.175	84.56
423.398	80.56
423.621	100.56
423.843	85.56
424.066	78.56
424.288	83.56
424.511	66.56
424.733	80.56
424.956	67.56
425.178	77.56
425.401	73.56
425.623	79.56
425.846	84.56
426.068	92.56
426.291	69.56
426.513	86.56
426.735	99.56
426.958	78.56
427.18	92.56
427.402	96.56
427.625	93.56
427.847	84.56
428.069	82.56
428.292	82.56
428.514	76.56
428.736	82.56
428.958	86.56
429.181	80.56
429.403	76.56
429.625	90.56
429.847	64.56
430.069	84.56
430.292	89.56
430.514	75.56
430.736	84.56
430.958	86.56
431.18	79.56
431.402	84.56
431.624	88.56
431.846	73.56
432.068	81.56
432.29	81.56
432.512	81.56
432.734	92.56
432.956	73.56
433.178	67.56
433.4	74.56
433.622	71.56
433.844	80.56
434.066	81.56
434.287	85.56
434.509	68.56
434.731	90.56
434.953	86.56
435.175	72.56
435.397	96.56
435.618	89.56
435.84	86.56
436.062	77.56
436.284	70.56
436.505	71.56
436.727	84.56
436.949	82.56
437.17	64.56
437.392	75.56
437.614	84.56
437.835	86.56
438.057	79.56
438.278	67.56
438.5	89.56
438.721	95.56
438.943	70.56
439.165	72.56
439.386	77.56
439.608	77.56
439.829	79.56
440.05	85.56
440.272	73.56
440.493	73.56
440.715	79.56
440.936	87.56
441.158	75.56
441.379	71.56
441.6	75.56
441.822	74.56
442.043	68.56
442.264	74.56
442.486	76.56
442.707	80.56
442.928	89.56
443.149	99.56
443.371	79.56
443.592	80.56
443.813	80.56
444.034	73.56
444.255	79.56
444.476	80.56
444.698	90.56
444.919	78.56
445.14	134.56
445.361	104.56
445.582	72.56
445.803	67.56
446.024	85.56
446.245	74.56
446.466	72.56
446.687	82.56
446.908	80.56
447.129	83.56
447.35	73.56
447.571	79.56
447.792	71.56
448.013	81.56
448.234	86.56
448.455	96.56
448.675	84.56
448.896	85.56
449.117	80.56
449.338	85.56
449.559	74.56
449.779	84.56
450	86.56
450.221	81.56
450.442	87.56
450.662	83.56
450.883	66.56
451.104	80.56
451.324	80.56
451.545	92.56
451.766	74.56
451.986	64.56
452.207	77.56
452.428	75.56
452.648	84.56
452.869	87.56
453.089	79.56
453.31	64.56
453.53	83.56
453.751	89.56
453.971	77.56
454.192	81.56
454.412	70.56
454.633	69.56
454.853	86.56
455.073	75.56
455.294	85.56
455.514	85.56
455.734	78.56
455.955	72.56
456.175	91.56
456.395	77.56
456.616	85.56
456.836	70.56
457.056	83.56
457.276	75.56
457.497	89.56
457.717	91.56
457.937	74.56
458.157	82.56
458.377	82.56
458.598	89.56
458.818	83.56
459.038	73.56
459.258	71.56
459.478	95.56
459.698	77.56
459.918	79.56
460.138	81.56
460.358	88.56
460.578	62.56
460.798	96.56
461.018	87.56
461.238	70.56
461.458	71.56
461.678	77.56
461.898	89.56
462.118	82.56
462.338	66.56
462.558	92.56
462.777	81.56
462.997	84.56
463.217	89.56
463.437	85.56
463.657	73.56
463.876	69.56
464.096	87.56
464.316	90.56
464.536	91.56
464.755	85.56
464.975	81.56
465.195	81.56
465.414	78.56
465.634	85.56
465.854	68.56
466.073	91.56
466.293	79.56
466.512	90.56
466.732	80.56
466.951	77.56
467.171	84.56
467.391	82.56
467.61	93.56
467.829	74.56
468.049	91.56
468.268	74.56
468.488	68.56
468.707	73.56
468.927	80.56
469.146	66.56
469.365	85.56
469.585	78.56
469.804	85.56
470.023	84.56
470.243	96.56
470.462	82.56
470.681	79.56
470.901	88.56
471.12	82.56
471.339	89.56
471.558	78.56
471.777	71.56
471.997	73.56
472.216	85.56
472.435	79.56
472.654	83.56
472.873	83.56
473.092	73.56
473.311	89.56
473.53	86.56
473.749	85.56
473.968	100.56
474.187	100.56
474.406	80.56
474.625	81.56
474.844	83.56
475.063	74.56
475.282	81.56
475.501	83.56
475.72	85.56
475.939	74.56
476.158	84.56
476.377	79.56
476.596	73.56
476.814	90.56
477.033	80.56
477.252	94.56
477.471	79.56
477.69	88.56
477.908	97.56
478.127	73.56
478.346	79.56
478.564	78.56
478.783	93.56
479.002	90.56
479.22	68.56
479.439	79.56
479.658	78.56
479.876	83.56
480.095	82.56
480.313	92.56
480.532	69.56
480.751	89.56
480.969	89.56
481.188	78.56
481.406	80.56
481.624	89.56
481.843	74.56
482.061	81.56
482.28	72.56
482.498	85.56
482.717	88.56
482.935	81.56
483.153	86.56
483.372	77.56
483.59	93.56
483.808	85.56
484.027	83.56
484.245	94.56
484.463	81.56
484.681	73.56
484.9	93.56
485.118	86.56
485.336	94.56
485.554	87.56
485.772	91.56
485.99	62.56
486.209	81.56
486.427	83.56
486.645	73.56
486.863	80.56
487.081	85.56
487.299	84.56
487.517	87.56
487.735	86.56
487.953	76.56
488.171	85.56
488.389	89.56
488.607	70.56
488.825	85.56
489.043	88.56
489.261	88.56
489.479	84.56
489.696	87.56
489.914	86.56
490.132	95.56
490.35	83.56
490.568	83.56
490.786	80.56
491.003	78.56
491.221	77.56
491.439	72.56
491.657	85.56
491.874	92.56
492.092	77.56
492.31	88.56
492.527	68.56
492.745	76.56
492.963	78.56
493.18	82.56
493.398	93.56
493.615	94.56
493.833	86.56
494.05	79.56
494.268	82.56
494.485	89.56
494.703	76.56
494.92	94.56
495.138	73.56
495.355	93.56
495.573	93.56
495.79	87.56
496.008	89.56
496.225	72.56
496.442	77.56
496.66	71.56
496.877	87.56
497.094	92.56
497.312	85.56
497.529	91.56
497.746	98.56
497.963	85.56
498.181	75.56
498.398	79.56
498.615	80.56
498.832	87.56
499.049	82.56
499.267	82.56
499.484	92.56
499.701	90.56
499.918	87.56
500.135	85.56
500.352	83.56
500.569	80.56
500.786	74.56
501.003	73.56
501.22	79.56
501.437	97.56
501.654	80.56
501.871	95.56
502.088	84.56
502.305	79.56
502.522	75.56
502.739	90.56
502.956	91.56
503.172	78.56
503.389	96.56
503.606	90.56
503.823	79.56
504.04	84.56
504.256	80.56
504.473	80.56
504.69	82.56
504.907	88.56
505.123	92.56
505.34	88.56
505.557	78.56
505.773	76.56
505.99	92.56
506.207	88.56
506.423	91.56
506.64	81.56
506.856	82.56
507.073	83.56
507.289	79.56
507.506	103.56
507.722	95.56
507.939	79.56
508.155	85.56
508.372	94.56
508.588	74.56
508.805	84.56
509.021	79.56
509.238	89.56
509.454	93.56
509.67	79.56
509.887	87.56
510.103	93.56
510.319	93.56
510.536	74.56
510.752	78.56
510.968	86.56
511.184	71.56
511.401	81.56
511.617	77.56
511.833	86.56
512.049	95.56
512.265	91.56
512.481	77.56
512.698	100.56
512.914	93.56
513.13	84.56
513.346	86.56
513.562	94.56
513.778	87.56
513.994	78.56
514.21	90.56
514.426	98.56
514.642	90.56
514.858	95.56
515.074	84.56
515.29	87.56
515.506	86.56
515.721	97.56
515.937	95.56
516.153	71.56
516.369	76.56
516.585	85.56
516.801	73.56
517.016	86.56
517.232	79.56
517.448	85.56
517.664	74.56
517.879	78.56
518.095	70.56
518.311	96.56
518.527	91.56
518.742	85.56
518.958	86.56
519.173	83.56
519.389	90.56
519.605	86.56
