Data from Background_1_HRD10591_00012.txt Node
Date: Wed Nov 05 14:39:04 EST 2025
User: Yrep
Spectrometer: HR+D1059
Trigger mode: 1
Integration Time (sec): 1.000000E-1
Scans to average: 1
Electric dark correction enabled: true
Nonlinearity correction enabled: false
Boxcar width: 0
XAxis mode: Wavelengths
Number of Pixels in Spectrum: 2048
>>>>>Begin Spectral Data<<<<<
223.165	-14.5
223.4	-14.5
223.635	-14.5
223.869	-22.5
224.104	-20.5
224.338	3.5
224.573	-22.5
224.808	-12.5
225.042	-9.5
225.277	1.5
225.511	-5.5
225.746	-2.5
225.98	4.5
226.215	19.5
226.449	8.5
226.683	12.5
226.918	22.5
227.152	37.5
227.387	32.5
227.621	46.5
227.856	59.5
228.09	39.5
228.324	50.5
228.559	49.5
228.793	54.5
229.027	39.5
229.262	52.5
229.496	69.5
229.73	65.5
229.964	65.5
230.199	78.5
230.433	84.5
230.667	86.5
230.901	66.5
231.136	76.5
231.37	85.5
231.604	88.5
231.838	79.5
232.072	84.5
232.306	79.5
232.541	76.5
232.775	72.5
233.009	79.5
233.243	79.5
233.477	78.5
233.711	72.5
233.945	83.5
234.179	83.5
234.413	83.5
234.647	76.5
234.881	81.5
235.115	83.5
235.349	70.5
235.583	70.5
235.817	71.5
236.051	73.5
236.285	74.5
236.519	67.5
236.753	77.5
236.987	74.5
237.221	92.5
237.455	94.5
237.689	79.5
237.922	76.5
238.156	75.5
238.39	79.5
238.624	71.5
238.858	74.5
239.091	87.5
239.325	74.5
239.559	58.5
239.793	82.5
240.027	89.5
240.26	77.5
240.494	84.5
240.728	71.5
240.961	76.5
241.195	89.5
241.429	74.5
241.662	86.5
241.896	92.5
242.13	74.5
242.363	64.5
242.597	78.5
242.83	73.5
243.064	70.5
243.298	85.5
243.531	82.5
243.765	79.5
243.998	74.5
244.232	77.5
244.465	80.5
244.699	73.5
244.932	73.5
245.166	76.5
245.399	77.5
245.633	81.5
245.866	79.5
246.099	91.5
246.333	84.5
246.566	85.5
246.8	92.5
247.033	68.5
247.266	83.5
247.5	87.5
247.733	70.5
247.966	80.5
248.2	84.5
248.433	75.5
248.666	76.5
248.899	88.5
249.133	86.5
249.366	87.5
249.599	78.5
249.832	68.5
250.066	69.5
250.299	89.5
250.532	82.5
250.765	74.5
250.998	77.5
251.231	76.5
251.465	84.5
251.698	88.5
251.931	64.5
252.164	80.5
252.397	81.5
252.63	80.5
252.863	81.5
253.096	80.5
253.329	71.5
253.562	84.5
253.795	75.5
254.028	97.5
254.261	68.5
254.494	71.5
254.727	95.5
254.96	85.5
255.193	72.5
255.426	61.5
255.659	73.5
255.892	76.5
256.124	84.5
256.357	75.5
256.59	81.5
256.823	88.5
257.056	88.5
257.289	83.5
257.521	85.5
257.754	82.5
257.987	77.5
258.22	79.5
258.452	77.5
258.685	74.5
258.918	81.5
259.151	87.5
259.383	84.5
259.616	91.5
259.849	87.5
260.081	82.5
260.314	84.5
260.547	78.5
260.779	80.5
261.012	76.5
261.244	71.5
261.477	85.5
261.71	77.5
261.942	82.5
262.175	79.5
262.407	69.5
262.64	84.5
262.872	68.5
263.105	74.5
263.337	82.5
263.57	77.5
263.802	88.5
264.035	81.5
264.267	81.5
264.499	79.5
264.732	69.5
264.964	89.5
265.197	95.5
265.429	89.5
265.661	74.5
265.894	66.5
266.126	84.5
266.358	89.5
266.591	77.5
266.823	80.5
267.055	97.5
267.287	85.5
267.52	65.5
267.752	59.5
267.984	73.5
268.216	93.5
268.448	82.5
268.681	79.5
268.913	83.5
269.145	88.5
269.377	90.5
269.609	70.5
269.841	68.5
270.073	75.5
270.306	88.5
270.538	92.5
270.77	75.5
271.002	87.5
271.234	69.5
271.466	66.5
271.698	76.5
271.93	76.5
272.162	85.5
272.394	88.5
272.626	92.5
272.858	73.5
273.09	75.5
273.322	87.5
273.553	80.5
273.785	79.5
274.017	73.5
274.249	73.5
274.481	60.5
274.713	73.5
274.945	82.5
275.176	93.5
275.408	93.5
275.64	86.5
275.872	85.5
276.104	76.5
276.335	76.5
276.567	97.5
276.799	73.5
277.031	100.5
277.262	80.5
277.494	77.5
277.726	99.5
277.957	92.5
278.189	84.5
278.421	77.5
278.652	87.5
278.884	85.5
279.115	84.5
279.347	80.5
279.579	90.5
279.81	81.5
280.042	85.5
280.273	93.5
280.505	80.5
280.736	88.5
280.968	76.5
281.199	88.5
281.431	81.5
281.662	83.5
281.894	82.5
282.125	79.5
282.356	82.5
282.588	81.5
282.819	84.5
283.051	89.5
283.282	79.5
283.513	75.5
283.745	94.5
283.976	83.5
284.207	73.5
284.439	81.5
284.67	85.5
284.901	84.5
285.132	95.5
285.364	79.5
285.595	81.5
285.826	82.5
286.057	84.5
286.288	89.5
286.52	90.5
286.751	91.5
286.982	88.5
287.213	84.5
287.444	105.5
287.675	85.5
287.906	103.5
288.138	73.5
288.369	58.5
288.6	67.5
288.831	78.5
289.062	81.5
289.293	73.5
289.524	70.5
289.755	82.5
289.986	88.5
290.217	79.5
290.448	75.5
290.679	82.5
290.91	79.5
291.141	82.5
291.371	77.5
291.602	79.5
291.833	69.5
292.064	89.5
292.295	84.5
292.526	80.5
292.757	76.5
292.987	74.5
293.218	75.5
293.449	94.5
293.68	76.5
293.91	76.5
294.141	83.5
294.372	76.5
294.603	84.5
294.833	91.5
295.064	82.5
295.295	81.5
295.525	79.5
295.756	86.5
295.987	79.5
296.217	88.5
296.448	89.5
296.679	81.5
296.909	87.5
297.14	90.5
297.37	94.5
297.601	81.5
297.831	89.5
298.062	81.5
298.292	82.5
298.523	89.5
298.753	73.5
298.984	87.5
299.214	96.5
299.445	88.5
299.675	82.5
299.905	82.5
300.136	77.5
300.366	90.5
300.597	74.5
300.827	84.5
301.057	91.5
301.288	97.5
301.518	74.5
301.748	77.5
301.979	95.5
302.209	90.5
302.439	82.5
302.669	77.5
302.9	72.5
303.13	63.5
303.36	79.5
303.59	89.5
303.82	67.5
304.051	83.5
304.281	92.5
304.511	82.5
304.741	93.5
304.971	88.5
305.201	89.5
305.431	81.5
305.661	88.5
305.891	82.5
306.121	82.5
306.352	86.5
306.582	80.5
306.812	77.5
307.042	89.5
307.272	82.5
307.502	84.5
307.731	76.5
307.961	86.5
308.191	85.5
308.421	83.5
308.651	95.5
308.881	83.5
309.111	79.5
309.341	81.5
309.571	81.5
309.8	68.5
310.03	77.5
310.26	76.5
310.49	70.5
310.72	81.5
310.949	74.5
311.179	82.5
311.409	79.5
311.639	73.5
311.868	77.5
312.098	83.5
312.328	91.5
312.557	85.5
312.787	69.5
313.017	85.5
313.246	78.5
313.476	89.5
313.706	89.5
313.935	87.5
314.165	91.5
314.394	84.5
314.624	73.5
314.853	69.5
315.083	94.5
315.312	71.5
315.542	87.5
315.771	82.5
316.001	81.5
316.23	94.5
316.46	95.5
316.689	80.5
316.919	88.5
317.148	85.5
317.377	85.5
317.607	76.5
317.836	79.5
318.065	91.5
318.295	85.5
318.524	72.5
318.753	81.5
318.983	86.5
319.212	95.5
319.441	80.5
319.67	81.5
319.9	81.5
320.129	86.5
320.358	82.5
320.587	87.5
320.816	76.5
321.046	100.5
321.275	95.5
321.504	69.5
321.733	79.5
321.962	95.5
322.191	96.5
322.42	83.5
322.649	83.5
322.878	78.5
323.108	94.5
323.337	77.5
323.566	81.5
323.795	96.5
324.024	80.5
324.253	89.5
324.482	82.5
324.71	83.5
324.939	83.5
325.168	90.5
325.397	95.5
325.626	99.5
325.855	93.5
326.084	87.5
326.313	83.5
326.542	92.5
326.77	75.5
326.999	88.5
327.228	93.5
327.457	89.5
327.686	75.5
327.914	79.5
328.143	92.5
328.372	88.5
328.6	90.5
328.829	79.5
329.058	87.5
329.287	88.5
329.515	79.5
329.744	76.5
329.972	77.5
330.201	94.5
330.43	75.5
330.658	79.5
330.887	85.5
331.115	95.5
331.344	85.5
331.572	71.5
331.801	75.5
332.03	87.5
332.258	78.5
332.486	90.5
332.715	68.5
332.943	86.5
333.172	89.5
333.4	82.5
333.629	77.5
333.857	71.5
334.085	86.5
334.314	88.5
334.542	77.5
334.771	88.5
334.999	76.5
335.227	92.5
335.455	85.5
335.684	93.5
335.912	69.5
336.14	86.5
336.369	75.5
336.597	81.5
336.825	80.5
337.053	88.5
337.281	80.5
337.51	90.5
337.738	85.5
337.966	94.5
338.194	87.5
338.422	87.5
338.65	78.5
338.878	89.5
339.106	86.5
339.334	76.5
339.562	82.5
339.79	83.5
340.018	78.5
340.246	80.5
340.474	77.5
340.702	82.5
340.93	86.5
341.158	88.5
341.386	77.5
341.614	69.5
341.842	79.5
342.07	85.5
342.298	75.5
342.526	83.5
342.754	75.5
342.981	85.5
343.209	72.5
343.437	90.5
343.665	96.5
343.893	90.5
344.12	76.5
344.348	75.5
344.576	94.5
344.804	79.5
345.031	90.5
345.259	89.5
345.487	80.5
345.714	74.5
345.942	83.5
346.17	92.5
346.397	87.5
346.625	76.5
346.853	59.5
347.08	84.5
347.308	90.5
347.535	76.5
347.763	78.5
347.99	85.5
348.218	85.5
348.445	80.5
348.673	85.5
348.9	80.5
349.128	83.5
349.355	82.5
349.583	90.5
349.81	72.5
350.037	84.5
350.265	86.5
350.492	84.5
350.72	71.5
350.947	73.5
351.174	84.5
351.402	74.5
351.629	81.5
351.856	82.5
352.083	99.5
352.311	89.5
352.538	79.5
352.765	91.5
352.992	87.5
353.22	67.5
353.447	82.5
353.674	89.5
353.901	100.5
354.128	100.5
354.355	103.5
354.583	82.5
354.81	88.5
355.037	80.5
355.264	86.5
355.491	72.5
355.718	72.5
355.945	96.5
356.172	85.5
356.399	75.5
356.626	82.5
356.853	85.5
357.08	90.5
357.307	88.5
357.534	88.5
357.761	87.5
357.988	84.5
358.215	86.5
358.441	74.5
358.668	89.5
358.895	76.5
359.122	90.5
359.349	96.5
359.576	73.5
359.802	71.5
360.029	76.5
360.256	85.5
360.483	82.5
360.709	97.5
360.936	77.5
361.163	87.5
361.39	73.5
361.616	77.5
361.843	84.5
362.07	91.5
362.296	90.5
362.523	85.5
362.749	83.5
362.976	74.5
363.203	91.5
363.429	73.5
363.656	75.5
363.882	78.5
364.109	82.5
364.335	86.5
364.562	92.5
364.788	85.5
365.015	85.5
365.241	81.5
365.468	79.5
365.694	77.5
365.92	100.5
366.147	88.5
366.373	78.5
366.599	71.5
366.826	83.5
367.052	86.5
367.278	102.5
367.505	91.5
367.731	88.5
367.957	84.5
368.184	80.5
368.41	100.5
368.636	93.5
368.862	97.5
369.089	93.5
369.315	90.5
369.541	80.5
369.767	91.5
369.993	100.5
370.219	79.5
370.445	78.5
370.672	80.5
370.898	83.5
371.124	88.5
371.35	75.5
371.576	74.5
371.802	81.5
372.028	64.5
372.254	89.5
372.48	85.5
372.706	88.5
372.932	90.5
373.158	88.5
373.384	83.5
373.61	79.5
373.835	82.5
374.061	70.5
374.287	86.5
374.513	94.5
374.739	81.5
374.965	75.5
375.191	77.5
375.416	88.5
375.642	97.5
375.868	90.5
376.094	80.5
376.319	84.5
376.545	91.5
376.771	67.5
376.997	91.5
377.222	69.5
377.448	83.5
377.674	76.5
377.899	85.5
378.125	84.5
378.35	82.5
378.576	77.5
378.802	76.5
379.027	65.5
379.253	76.5
379.478	97.5
379.704	70.5
379.929	79.5
380.155	77.5
380.38	78.5
380.606	78.5
380.831	64.5
381.057	89.5
381.282	94.5
381.507	88.5
381.733	80.5
381.958	83.5
382.184	85.5
382.409	78.5
382.634	85.5
382.86	80.5
383.085	87.5
383.31	73.5
383.535	73.5
383.761	80.5
383.986	96.5
384.211	73.5
384.436	83.5
384.662	90.5
384.887	82.5
385.112	80.5
385.337	93.5
385.562	79.5
385.787	90.5
386.013	96.5
386.238	92.5
386.463	85.5
386.688	103.5
386.913	75.5
387.138	95.5
387.363	86.5
387.588	70.5
387.813	80.5
388.038	90.5
388.263	99.5
388.488	86.5
388.713	85.5
388.938	80.5
389.163	71.5
389.387	82.5
389.612	70.5
389.837	88.5
390.062	83.5
390.287	87.5
390.512	80.5
390.736	84.5
390.961	98.5
391.186	80.5
391.411	77.5
391.636	89.5
391.86	92.5
392.085	68.5
392.31	71.5
392.534	63.5
392.759	78.5
392.984	84.5
393.208	79.5
393.433	93.5
393.658	89.5
393.882	81.5
394.107	57.5
394.331	64.5
394.556	85.5
394.78	93.5
395.005	84.5
395.229	76.5
395.454	77.5
395.678	89.5
395.903	81.5
396.127	78.5
396.352	91.5
396.576	94.5
396.801	85.5
397.025	89.5
397.249	68.5
397.474	84.5
397.698	83.5
397.922	84.5
398.147	90.5
398.371	84.5
398.595	73.5
398.82	87.5
399.044	73.5
399.268	63.5
399.492	85.5
399.717	77.5
399.941	99.5
400.165	101.5
400.389	67.5
400.613	80.5
400.837	85.5
401.062	72.5
401.286	92.5
401.51	77.5
401.734	86.5
401.958	77.5
402.182	77.5
402.406	85.5
402.63	96.5
402.854	67.5
403.078	70.5
403.302	76.5
403.526	89.5
403.75	75.5
403.974	79.5
404.198	75.5
404.422	75.5
404.645	84.5
404.869	74.5
405.093	87.5
405.317	67.5
405.541	81.5
405.765	73.5
405.988	76.5
406.212	94.5
406.436	85.5
406.66	82.5
406.883	82.5
407.107	79.5
407.331	99.5
407.555	79.5
407.778	82.5
408.002	91.5
408.226	76.5
408.449	81.5
408.673	87.5
408.896	79.5
409.12	77.5
409.344	90.5
409.567	84.5
409.791	81.5
410.014	85.5
410.238	89.5
410.461	103.5
410.685	96.5
410.908	83.5
411.132	88.5
411.355	61.5
411.578	76.5
411.802	83.5
412.025	88.5
412.249	82.5
412.472	75.5
412.695	73.5
412.919	87.5
413.142	73.5
413.365	87.5
413.589	76.5
413.812	73.5
414.035	77.5
414.258	77.5
414.482	77.5
414.705	67.5
414.928	83.5
415.151	85.5
415.374	76.5
415.597	80.5
415.821	66.5
416.044	68.5
416.267	74.5
416.49	91.5
416.713	88.5
416.936	77.5
417.159	85.5
417.382	73.5
417.605	69.5
417.828	82.5
418.051	62.5
418.274	80.5
418.497	91.5
418.72	72.5
418.943	78.5
419.166	94.5
419.389	72.5
419.611	81.5
419.834	75.5
420.057	78.5
420.28	95.5
420.503	80.5
420.726	81.5
420.948	84.5
421.171	83.5
421.394	68.5
421.617	83.5
421.839	61.5
422.062	75.5
422.285	73.5
422.507	78.5
422.73	73.5
422.953	77.5
423.175	88.5
423.398	79.5
423.621	77.5
423.843	73.5
424.066	70.5
424.288	86.5
424.511	65.5
424.733	84.5
424.956	77.5
425.178	92.5
425.401	68.5
425.623	85.5
425.846	85.5
426.068	74.5
426.291	86.5
426.513	68.5
426.735	81.5
426.958	74.5
427.18	71.5
427.402	74.5
427.625	75.5
427.847	87.5
428.069	69.5
428.292	72.5
428.514	75.5
428.736	74.5
428.958	85.5
429.181	78.5
429.403	76.5
429.625	70.5
429.847	80.5
430.069	75.5
430.292	80.5
430.514	67.5
430.736	79.5
430.958	89.5
431.18	63.5
431.402	80.5
431.624	81.5
431.846	79.5
432.068	90.5
432.29	81.5
432.512	87.5
432.734	87.5
432.956	79.5
433.178	87.5
433.4	82.5
433.622	82.5
433.844	88.5
434.066	77.5
434.287	76.5
434.509	84.5
434.731	86.5
434.953	87.5
435.175	83.5
435.397	87.5
435.618	75.5
435.84	87.5
436.062	79.5
436.284	71.5
436.505	79.5
436.727	89.5
436.949	83.5
437.17	86.5
437.392	81.5
437.614	87.5
437.835	81.5
438.057	77.5
438.278	96.5
438.5	87.5
438.721	70.5
438.943	89.5
439.165	82.5
439.386	85.5
439.608	92.5
439.829	82.5
440.05	81.5
440.272	77.5
440.493	79.5
440.715	58.5
440.936	77.5
441.158	99.5
441.379	78.5
441.6	77.5
441.822	75.5
442.043	89.5
442.264	75.5
442.486	75.5
442.707	69.5
442.928	81.5
443.149	84.5
443.371	75.5
443.592	87.5
443.813	84.5
444.034	76.5
444.255	70.5
444.476	97.5
444.698	68.5
444.919	78.5
445.14	146.5
445.361	119.5
445.582	75.5
445.803	83.5
446.024	70.5
446.245	77.5
446.466	85.5
446.687	80.5
446.908	79.5
447.129	90.5
447.35	81.5
447.571	75.5
447.792	90.5
448.013	86.5
448.234	79.5
448.455	78.5
448.675	85.5
448.896	82.5
449.117	81.5
449.338	67.5
449.559	100.5
449.779	88.5
450	90.5
450.221	80.5
450.442	78.5
450.662	87.5
450.883	80.5
451.104	84.5
451.324	84.5
451.545	68.5
451.766	77.5
451.986	71.5
452.207	87.5
452.428	75.5
452.648	89.5
452.869	85.5
453.089	68.5
453.31	78.5
453.53	83.5
453.751	77.5
453.971	85.5
454.192	73.5
454.412	91.5
454.633	95.5
454.853	77.5
455.073	86.5
455.294	76.5
455.514	75.5
455.734	79.5
455.955	83.5
456.175	81.5
456.395	77.5
456.616	79.5
456.836	68.5
457.056	78.5
457.276	87.5
457.497	80.5
457.717	96.5
457.937	88.5
458.157	83.5
458.377	74.5
458.598	95.5
458.818	75.5
459.038	75.5
459.258	77.5
459.478	55.5
459.698	71.5
459.918	84.5
460.138	83.5
460.358	89.5
460.578	89.5
460.798	80.5
461.018	69.5
461.238	87.5
461.458	65.5
461.678	83.5
461.898	84.5
462.118	76.5
462.338	76.5
462.558	83.5
462.777	74.5
462.997	85.5
463.217	67.5
463.437	87.5
463.657	79.5
463.876	74.5
464.096	73.5
464.316	89.5
464.536	100.5
464.755	71.5
464.975	86.5
465.195	84.5
465.414	76.5
465.634	58.5
465.854	78.5
466.073	77.5
466.293	82.5
466.512	73.5
466.732	71.5
466.951	62.5
467.171	83.5
467.391	78.5
467.61	59.5
467.829	69.5
468.049	79.5
468.268	73.5
468.488	76.5
468.707	91.5
468.927	68.5
469.146	82.5
469.365	81.5
469.585	85.5
469.804	98.5
470.023	83.5
470.243	80.5
470.462	89.5
470.681	78.5
470.901	80.5
471.12	80.5
471.339	67.5
471.558	76.5
471.777	81.5
471.997	90.5
472.216	81.5
472.435	94.5
472.654	95.5
472.873	85.5
473.092	80.5
473.311	73.5
473.53	87.5
473.749	88.5
473.968	78.5
474.187	80.5
474.406	66.5
474.625	72.5
474.844	76.5
475.063	60.5
475.282	83.5
475.501	73.5
475.72	78.5
475.939	83.5
476.158	92.5
476.377	95.5
476.596	75.5
476.814	92.5
477.033	71.5
477.252	82.5
477.471	78.5
477.69	88.5
477.908	93.5
478.127	82.5
478.346	85.5
478.564	79.5
478.783	70.5
479.002	66.5
479.22	79.5
479.439	79.5
479.658	91.5
479.876	81.5
480.095	82.5
480.313	79.5
480.532	92.5
480.751	89.5
480.969	90.5
481.188	80.5
481.406	78.5
481.624	79.5
481.843	64.5
482.061	70.5
482.28	68.5
482.498	79.5
482.717	73.5
482.935	72.5
483.153	76.5
483.372	67.5
483.59	77.5
483.808	80.5
484.027	74.5
484.245	86.5
484.463	70.5
484.681	79.5
484.9	86.5
485.118	93.5
485.336	78.5
485.554	81.5
485.772	83.5
485.99	64.5
486.209	81.5
486.427	79.5
486.645	69.5
486.863	76.5
487.081	80.5
487.299	83.5
487.517	86.5
487.735	87.5
487.953	59.5
488.171	71.5
488.389	87.5
488.607	69.5
488.825	75.5
489.043	80.5
489.261	89.5
489.479	92.5
489.696	79.5
489.914	89.5
490.132	76.5
490.35	72.5
490.568	87.5
490.786	78.5
491.003	78.5
491.221	63.5
491.439	79.5
491.657	81.5
491.874	88.5
492.092	79.5
492.31	84.5
492.527	72.5
492.745	79.5
492.963	83.5
493.18	82.5
493.398	73.5
493.615	87.5
493.833	92.5
494.05	69.5
494.268	81.5
494.485	64.5
494.703	70.5
494.92	72.5
495.138	91.5
495.355	75.5
495.573	93.5
495.79	81.5
496.008	91.5
496.225	77.5
496.442	74.5
496.66	81.5
496.877	78.5
497.094	87.5
497.312	75.5
497.529	84.5
497.746	83.5
497.963	81.5
498.181	72.5
498.398	73.5
498.615	89.5
498.832	72.5
499.049	86.5
499.267	95.5
499.484	83.5
499.701	84.5
499.918	80.5
500.135	76.5
500.352	96.5
500.569	83.5
500.786	83.5
501.003	67.5
501.22	80.5
501.437	87.5
501.654	87.5
501.871	83.5
502.088	90.5
502.305	75.5
502.522	88.5
502.739	75.5
502.956	81.5
503.172	89.5
503.389	76.5
503.606	70.5
503.823	76.5
504.04	86.5
504.256	76.5
504.473	79.5
504.69	93.5
504.907	73.5
505.123	84.5
505.34	68.5
505.557	76.5
505.773	88.5
505.99	88.5
506.207	81.5
506.423	76.5
506.64	85.5
506.856	77.5
507.073	64.5
507.289	87.5
507.506	65.5
507.722	79.5
507.939	91.5
508.155	83.5
508.372	84.5
508.588	83.5
508.805	87.5
509.021	81.5
509.238	69.5
509.454	88.5
509.67	82.5
509.887	76.5
510.103	81.5
510.319	84.5
510.536	78.5
510.752	82.5
510.968	69.5
511.184	64.5
511.401	83.5
511.617	93.5
511.833	73.5
512.049	88.5
512.265	82.5
512.481	79.5
512.698	82.5
512.914	86.5
513.13	76.5
513.346	94.5
513.562	87.5
513.778	85.5
513.994	70.5
514.21	81.5
514.426	73.5
514.642	84.5
514.858	89.5
515.074	75.5
515.29	83.5
515.506	78.5
515.721	77.5
515.937	77.5
516.153	87.5
516.369	79.5
516.585	81.5
516.801	86.5
517.016	83.5
517.232	89.5
517.448	95.5
517.664	79.5
517.879	75.5
518.095	91.5
518.311	83.5
518.527	82.5
518.742	74.5
518.958	80.5
519.173	87.5
519.389	87.5
519.605	67.5
519.82	73.5
520.036	70.5
520.251	83.5
520.467	83.5
520.682	74.5
520.898	81.5
521.113	87.5
521.329	82.5
521.544	68.5
521.76	88.5
521.975	79.5
522.19	84.5
522.406	81.5
522.621	74.5
522.836	80.5
523.052	87.5
523.267	83.5
523.482	79.5
523.698	68.5
523.913	88.5
524.128	84.5
524.343	85.5
524.559	82.5
524.774	85.5
524.989	82.5
525.204	82.5
525.419	67.5
525.634	81.5
525.849	78.5
526.064	80.5
526.28	83.5
526.495	73.5
526.71	85.5
526.925	75.5
527.14	71.5
527.355	77.5
527.57	83.5
527.785	96.5
527.999	79.5
528.214	83.5
528.429	88.5
528.644	89.5
528.859	80.5
529.074	77.5
529.289	92.5
529.503	77.5
529.718	76.5
529.933	68.5
530.148	77.5
530.363	94.5
530.577	74.5
530.792	66.5
531.007	83.5
531.221	76.5
531.436	71.5
531.651	85.5
531.865	78.5
532.08	87.5
532.295	85.5
532.509	85.5
532.724	73.5
532.938	75.5
533.153	82.5
533.367	69.5
533.582	78.5
533.796	88.5
534.011	81.5
534.225	92.5
534.44	94.5
534.654	87.5
534.868	70.5
535.083	87.5
535.297	85.5
535.511	81.5
535.726	82.5
535.94	74.5
536.154	86.5
536.369	82.5
536.583	88.5
536.797	81.5
537.011	79.5
537.225	83.5
537.44	68.5
537.654	83.5
537.868	70.5
538.082	81.5
538.296	73.5
538.51	80.5
538.724	81.5
538.938	85.5
539.153	74.5
539.367	80.5
539.581	79.5
539.795	64.5
540.009	83.5
540.222	86.5
540.436	85.5
