Data from Background_1_HRD10591_00100.txt Node
Date: Wed Nov 05 14:39:47 EST 2025
User: Yrep
Spectrometer: HR+D1059
Trigger mode: 1
Integration Time (sec): 1.000000E-1
Scans to average: 1
Electric dark correction enabled: true
Nonlinearity correction enabled: false
Boxcar width: 0
XAxis mode: Wavelengths
Number of Pixels in Spectrum: 2048
>>>>>Begin Spectral Data<<<<<
223.165	-20.38
223.4	-20.38
223.635	-20.38
223.869	-13.38
224.104	-13.38
224.338	-26.38
224.573	-5.38
224.808	-25.38
225.042	0.62
225.277	-12.38
225.511	7.62
225.746	-17.38
225.98	9.62
226.215	8.62
226.449	26.62
226.683	31.62
226.918	23.62
227.152	25.62
227.387	38.62
227.621	27.62
227.856	42.62
228.09	36.62
228.324	37.62
228.559	56.62
228.793	61.62
229.027	42.62
229.262	58.62
229.496	73.62
229.73	62.62
229.964	51.62
230.199	68.62
230.433	64.62
230.667	75.62
230.901	87.62
231.136	76.62
231.37	58.62
231.604	74.62
231.838	74.62
232.072	66.62
232.306	65.62
232.541	70.62
232.775	68.62
233.009	77.62
233.243	67.62
233.477	72.62
233.711	69.62
233.945	66.62
234.179	80.62
234.413	82.62
234.647	77.62
234.881	70.62
235.115	68.62
235.349	77.62
235.583	68.62
235.817	68.62
236.051	76.62
236.285	70.62
236.519	79.62
236.753	55.62
236.987	81.62
237.221	83.62
237.455	76.62
237.689	77.62
237.922	76.62
238.156	70.62
238.39	83.62
238.624	68.62
238.858	68.62
239.091	50.62
239.325	60.62
239.559	65.62
239.793	73.62
240.027	80.62
240.26	70.62
240.494	84.62
240.728	72.62
240.961	54.62
241.195	86.62
241.429	70.62
241.662	71.62
241.896	72.62
242.13	82.62
242.363	77.62
242.597	54.62
242.83	68.62
243.064	74.62
243.298	80.62
243.531	72.62
243.765	56.62
243.998	63.62
244.232	89.62
244.465	86.62
244.699	69.62
244.932	71.62
245.166	67.62
245.399	79.62
245.633	67.62
245.866	82.62
246.099	65.62
246.333	84.62
246.566	57.62
246.8	71.62
247.033	71.62
247.266	86.62
247.5	82.62
247.733	81.62
247.966	75.62
248.2	76.62
248.433	70.62
248.666	70.62
248.899	73.62
249.133	74.62
249.366	65.62
249.599	84.62
249.832	74.62
250.066	77.62
250.299	89.62
250.532	77.62
250.765	69.62
250.998	68.62
251.231	80.62
251.465	79.62
251.698	66.62
251.931	76.62
252.164	80.62
252.397	65.62
252.63	90.62
252.863	72.62
253.096	73.62
253.329	82.62
253.562	72.62
253.795	79.62
254.028	80.62
254.261	71.62
254.494	90.62
254.727	68.62
254.96	76.62
255.193	70.62
255.426	85.62
255.659	73.62
255.892	85.62
256.124	75.62
256.357	72.62
256.59	75.62
256.823	82.62
257.056	83.62
257.289	87.62
257.521	81.62
257.754	63.62
257.987	72.62
258.22	80.62
258.452	82.62
258.685	80.62
258.918	74.62
259.151	68.62
259.383	71.62
259.616	56.62
259.849	59.62
260.081	75.62
260.314	73.62
260.547	73.62
260.779	84.62
261.012	76.62
261.244	82.62
261.477	86.62
261.71	63.62
261.942	72.62
262.175	68.62
262.407	81.62
262.64	77.62
262.872	91.62
263.105	89.62
263.337	71.62
263.57	82.62
263.802	88.62
264.035	75.62
264.267	82.62
264.499	86.62
264.732	80.62
264.964	63.62
265.197	73.62
265.429	81.62
265.661	84.62
265.894	76.62
266.126	69.62
266.358	68.62
266.591	89.62
266.823	71.62
267.055	71.62
267.287	68.62
267.52	83.62
267.752	72.62
267.984	68.62
268.216	82.62
268.448	91.62
268.681	82.62
268.913	74.62
269.145	87.62
269.377	75.62
269.609	83.62
269.841	81.62
270.073	70.62
270.306	65.62
270.538	75.62
270.77	96.62
271.002	70.62
271.234	85.62
271.466	86.62
271.698	71.62
271.93	83.62
272.162	88.62
272.394	100.62
272.626	64.62
272.858	85.62
273.09	90.62
273.322	77.62
273.553	76.62
273.785	82.62
274.017	97.62
274.249	66.62
274.481	56.62
274.713	72.62
274.945	77.62
275.176	64.62
275.408	88.62
275.64	78.62
275.872	70.62
276.104	77.62
276.335	73.62
276.567	64.62
276.799	80.62
277.031	63.62
277.262	80.62
277.494	65.62
277.726	79.62
277.957	84.62
278.189	78.62
278.421	80.62
278.652	63.62
278.884	70.62
279.115	75.62
279.347	79.62
279.579	88.62
279.81	86.62
280.042	87.62
280.273	68.62
280.505	76.62
280.736	76.62
280.968	60.62
281.199	68.62
281.431	75.62
281.662	79.62
281.894	84.62
282.125	95.62
282.356	71.62
282.588	84.62
282.819	65.62
283.051	75.62
283.282	80.62
283.513	84.62
283.745	78.62
283.976	77.62
284.207	72.62
284.439	74.62
284.67	72.62
284.901	77.62
285.132	77.62
285.364	68.62
285.595	92.62
285.826	75.62
286.057	82.62
286.288	86.62
286.52	80.62
286.751	85.62
286.982	62.62
287.213	78.62
287.444	79.62
287.675	78.62
287.906	88.62
288.138	88.62
288.369	84.62
288.6	80.62
288.831	78.62
289.062	77.62
289.293	80.62
289.524	84.62
289.755	72.62
289.986	74.62
290.217	84.62
290.448	72.62
290.679	74.62
290.91	76.62
291.141	80.62
291.371	72.62
291.602	85.62
291.833	72.62
292.064	71.62
292.295	80.62
292.526	87.62
292.757	78.62
292.987	72.62
293.218	75.62
293.449	90.62
293.68	66.62
293.91	84.62
294.141	88.62
294.372	78.62
294.603	78.62
294.833	78.62
295.064	93.62
295.295	72.62
295.525	71.62
295.756	79.62
295.987	83.62
296.217	72.62
296.448	88.62
296.679	79.62
296.909	86.62
297.14	82.62
297.37	78.62
297.601	68.62
297.831	90.62
298.062	65.62
298.292	86.62
298.523	85.62
298.753	92.62
298.984	88.62
299.214	90.62
299.445	78.62
299.675	73.62
299.905	82.62
300.136	81.62
300.366	80.62
300.597	75.62
300.827	78.62
301.057	73.62
301.288	60.62
301.518	89.62
301.748	69.62
301.979	94.62
302.209	63.62
302.439	77.62
302.669	86.62
302.9	91.62
303.13	75.62
303.36	84.62
303.59	61.62
303.82	72.62
304.051	92.62
304.281	79.62
304.511	78.62
304.741	83.62
304.971	77.62
305.201	74.62
305.431	95.62
305.661	96.62
305.891	93.62
306.121	92.62
306.352	90.62
306.582	75.62
306.812	77.62
307.042	93.62
307.272	74.62
307.502	78.62
307.731	77.62
307.961	82.62
308.191	70.62
308.421	72.62
308.651	75.62
308.881	89.62
309.111	75.62
309.341	76.62
309.571	96.62
309.8	91.62
310.03	83.62
310.26	82.62
310.49	74.62
310.72	98.62
310.949	91.62
311.179	81.62
311.409	80.62
311.639	87.62
311.868	73.62
312.098	79.62
312.328	87.62
312.557	89.62
312.787	71.62
313.017	95.62
313.246	91.62
313.476	86.62
313.706	77.62
313.935	87.62
314.165	74.62
314.394	85.62
314.624	90.62
314.853	70.62
315.083	67.62
315.312	80.62
315.542	84.62
315.771	76.62
316.001	68.62
316.23	63.62
316.46	94.62
316.689	76.62
316.919	76.62
317.148	74.62
317.377	72.62
317.607	81.62
317.836	87.62
318.065	74.62
318.295	82.62
318.524	77.62
318.753	80.62
318.983	72.62
319.212	79.62
319.441	72.62
319.67	75.62
319.9	74.62
320.129	64.62
320.358	77.62
320.587	82.62
320.816	88.62
321.046	87.62
321.275	81.62
321.504	63.62
321.733	80.62
321.962	92.62
322.191	93.62
322.42	86.62
322.649	84.62
322.878	80.62
323.108	74.62
323.337	68.62
323.566	77.62
323.795	85.62
324.024	78.62
324.253	68.62
324.482	74.62
324.71	76.62
324.939	75.62
325.168	90.62
325.397	81.62
325.626	82.62
325.855	88.62
326.084	74.62
326.313	66.62
326.542	83.62
326.77	70.62
326.999	89.62
327.228	82.62
327.457	99.62
327.686	87.62
327.914	71.62
328.143	79.62
328.372	68.62
328.6	78.62
328.829	72.62
329.058	73.62
329.287	76.62
329.515	78.62
329.744	71.62
329.972	70.62
330.201	85.62
330.43	78.62
330.658	78.62
330.887	79.62
331.115	76.62
331.344	74.62
331.572	83.62
331.801	70.62
332.03	86.62
332.258	95.62
332.486	68.62
332.715	75.62
332.943	77.62
333.172	89.62
333.4	73.62
333.629	88.62
333.857	66.62
334.085	64.62
334.314	75.62
334.542	84.62
334.771	75.62
334.999	78.62
335.227	81.62
335.455	80.62
335.684	84.62
335.912	66.62
336.14	70.62
336.369	82.62
336.597	72.62
336.825	67.62
337.053	72.62
337.281	73.62
337.51	59.62
337.738	82.62
337.966	85.62
338.194	82.62
338.422	90.62
338.65	76.62
338.878	72.62
339.106	88.62
339.334	80.62
339.562	82.62
339.79	80.62
340.018	71.62
340.246	79.62
340.474	79.62
340.702	73.62
340.93	67.62
341.158	80.62
341.386	68.62
341.614	83.62
341.842	77.62
342.07	80.62
342.298	72.62
342.526	65.62
342.754	75.62
342.981	76.62
343.209	83.62
343.437	82.62
343.665	77.62
343.893	84.62
344.12	86.62
344.348	77.62
344.576	87.62
344.804	77.62
345.031	77.62
345.259	85.62
345.487	81.62
345.714	79.62
345.942	81.62
346.17	67.62
346.397	62.62
346.625	73.62
346.853	79.62
347.08	69.62
347.308	86.62
347.535	86.62
347.763	73.62
347.99	85.62
348.218	80.62
348.445	75.62
348.673	67.62
348.9	63.62
349.128	82.62
349.355	85.62
349.583	79.62
349.81	94.62
350.037	87.62
350.265	74.62
350.492	80.62
350.72	80.62
350.947	86.62
351.174	79.62
351.402	71.62
351.629	91.62
351.856	91.62
352.083	69.62
352.311	90.62
352.538	73.62
352.765	83.62
352.992	57.62
353.22	74.62
353.447	78.62
353.674	90.62
353.901	89.62
354.128	84.62
354.355	57.62
354.583	80.62
354.81	86.62
355.037	78.62
355.264	67.62
355.491	72.62
355.718	83.62
355.945	76.62
356.172	86.62
356.399	77.62
356.626	62.62
356.853	69.62
357.08	71.62
357.307	83.62
357.534	90.62
357.761	88.62
357.988	76.62
358.215	76.62
358.441	79.62
358.668	80.62
358.895	85.62
359.122	68.62
359.349	80.62
359.576	74.62
359.802	76.62
360.029	92.62
360.256	88.62
360.483	95.62
360.709	77.62
360.936	81.62
361.163	64.62
361.39	77.62
361.616	73.62
361.843	79.62
362.07	78.62
362.296	82.62
362.523	87.62
362.749	86.62
362.976	69.62
363.203	90.62
363.429	95.62
363.656	62.62
363.882	82.62
364.109	63.62
364.335	79.62
364.562	85.62
364.788	78.62
365.015	76.62
365.241	71.62
365.468	82.62
365.694	74.62
365.92	77.62
366.147	66.62
366.373	77.62
366.599	82.62
366.826	78.62
367.052	82.62
367.278	82.62
367.505	89.62
367.731	76.62
367.957	75.62
368.184	75.62
368.41	82.62
368.636	86.62
368.862	85.62
369.089	99.62
369.315	86.62
369.541	72.62
369.767	82.62
369.993	76.62
370.219	72.62
370.445	78.62
370.672	89.62
370.898	68.62
371.124	75.62
371.35	80.62
371.576	78.62
371.802	82.62
372.028	75.62
372.254	84.62
372.48	80.62
372.706	93.62
372.932	83.62
373.158	74.62
373.384	75.62
373.61	76.62
373.835	68.62
374.061	69.62
374.287	75.62
374.513	77.62
374.739	91.62
374.965	72.62
375.191	72.62
375.416	81.62
375.642	88.62
375.868	79.62
376.094	74.62
376.319	70.62
376.545	84.62
376.771	73.62
376.997	80.62
377.222	79.62
377.448	75.62
377.674	80.62
377.899	80.62
378.125	63.62
378.35	62.62
378.576	71.62
378.802	75.62
379.027	64.62
379.253	84.62
379.478	74.62
379.704	87.62
379.929	85.62
380.155	75.62
380.38	69.62
380.606	85.62
380.831	74.62
381.057	82.62
381.282	70.62
381.507	72.62
381.733	71.62
381.958	74.62
382.184	77.62
382.409	74.62
382.634	72.62
382.86	73.62
383.085	82.62
383.31	67.62
383.535	74.62
383.761	78.62
383.986	83.62
384.211	88.62
384.436	73.62
384.662	76.62
384.887	77.62
385.112	72.62
385.337	85.62
385.562	64.62
385.787	67.62
386.013	79.62
386.238	73.62
386.463	62.62
386.688	94.62
386.913	77.62
387.138	61.62
387.363	75.62
387.588	84.62
387.813	86.62
388.038	79.62
388.263	73.62
388.488	78.62
388.713	74.62
388.938	76.62
389.163	76.62
389.387	83.62
389.612	59.62
389.837	71.62
390.062	84.62
390.287	79.62
390.512	82.62
390.736	77.62
390.961	70.62
391.186	79.62
391.411	71.62
391.636	73.62
391.86	82.62
392.085	71.62
392.31	78.62
392.534	79.62
392.759	81.62
392.984	92.62
393.208	70.62
393.433	82.62
393.658	82.62
393.882	71.62
394.107	70.62
394.331	68.62
394.556	77.62
394.78	84.62
395.005	76.62
395.229	65.62
395.454	87.62
395.678	70.62
395.903	75.62
396.127	87.62
396.352	79.62
396.576	82.62
396.801	72.62
397.025	80.62
397.249	85.62
397.474	72.62
397.698	73.62
397.922	75.62
398.147	67.62
398.371	59.62
398.595	70.62
398.82	73.62
399.044	78.62
399.268	70.62
399.492	70.62
399.717	71.62
399.941	71.62
400.165	68.62
400.389	75.62
400.613	78.62
400.837	70.62
401.062	75.62
401.286	88.62
401.51	65.62
401.734	80.62
401.958	77.62
402.182	68.62
402.406	85.62
402.63	74.62
402.854	66.62
403.078	74.62
403.302	78.62
403.526	77.62
403.75	67.62
403.974	78.62
404.198	80.62
404.422	88.62
404.645	71.62
404.869	63.62
405.093	78.62
405.317	83.62
405.541	79.62
405.765	62.62
405.988	71.62
406.212	70.62
406.436	87.62
406.66	82.62
406.883	70.62
407.107	79.62
407.331	74.62
407.555	81.62
407.778	69.62
408.002	75.62
408.226	72.62
408.449	83.62
408.673	77.62
408.896	75.62
409.12	91.62
409.344	84.62
409.567	77.62
409.791	83.62
410.014	70.62
410.238	71.62
410.461	70.62
410.685	78.62
410.908	80.62
411.132	70.62
411.355	73.62
411.578	84.62
411.802	88.62
412.025	67.62
412.249	91.62
412.472	72.62
412.695	76.62
412.919	74.62
413.142	70.62
413.365	67.62
413.589	72.62
413.812	72.62
414.035	77.62
414.258	76.62
414.482	76.62
414.705	85.62
414.928	74.62
415.151	56.62
415.374	68.62
415.597	90.62
415.821	86.62
416.044	83.62
416.267	86.62
416.49	85.62
416.713	82.62
416.936	68.62
417.159	73.62
417.382	74.62
417.605	77.62
417.828	72.62
418.051	84.62
418.274	70.62
418.497	68.62
418.72	82.62
418.943	72.62
419.166	76.62
419.389	77.62
419.611	77.62
419.834	74.62
420.057	89.62
420.28	85.62
420.503	75.62
420.726	68.62
420.948	87.62
421.171	78.62
421.394	66.62
421.617	60.62
421.839	58.62
422.062	73.62
422.285	85.62
422.507	76.62
422.73	82.62
422.953	71.62
423.175	80.62
423.398	78.62
423.621	84.62
423.843	72.62
424.066	80.62
424.288	79.62
424.511	73.62
424.733	91.62
424.956	82.62
425.178	80.62
425.401	68.62
425.623	72.62
425.846	69.62
426.068	73.62
426.291	79.62
426.513	71.62
426.735	70.62
426.958	70.62
427.18	71.62
427.402	84.62
427.625	77.62
427.847	82.62
428.069	86.62
428.292	75.62
428.514	81.62
428.736	76.62
428.958	78.62
429.181	69.62
429.403	79.62
429.625	72.62
429.847	61.62
430.069	81.62
430.292	85.62
430.514	73.62
430.736	76.62
430.958	71.62
431.18	86.62
431.402	66.62
431.624	79.62
431.846	66.62
432.068	76.62
432.29	80.62
432.512	78.62
432.734	77.62
432.956	90.62
433.178	74.62
433.4	65.62
433.622	67.62
433.844	77.62
434.066	80.62
434.287	80.62
434.509	71.62
434.731	79.62
434.953	74.62
435.175	72.62
435.397	76.62
435.618	76.62
435.84	77.62
436.062	80.62
436.284	78.62
436.505	94.62
436.727	69.62
436.949	72.62
437.17	82.62
437.392	75.62
437.614	74.62
437.835	72.62
438.057	68.62
438.278	72.62
438.5	68.62
438.721	82.62
438.943	71.62
439.165	78.62
439.386	65.62
439.608	72.62
439.829	86.62
440.05	56.62
440.272	73.62
440.493	75.62
440.715	64.62
440.936	78.62
441.158	82.62
441.379	71.62
441.6	84.62
441.822	64.62
442.043	81.62
442.264	77.62
442.486	76.62
442.707	82.62
442.928	64.62
443.149	74.62
443.371	77.62
443.592	64.62
443.813	72.62
444.034	66.62
444.255	82.62
444.476	78.62
444.698	70.62
444.919	79.62
445.14	148.62
445.361	106.62
445.582	66.62
445.803	52.62
446.024	83.62
446.245	81.62
446.466	77.62
446.687	81.62
446.908	80.62
447.129	90.62
447.35	75.62
447.571	74.62
447.792	66.62
448.013	77.62
448.234	72.62
448.455	73.62
448.675	79.62
448.896	84.62
449.117	71.62
449.338	85.62
449.559	65.62
449.779	73.62
450	78.62
450.221	81.62
450.442	76.62
450.662	82.62
450.883	78.62
451.104	76.62
451.324	81.62
451.545	84.62
451.766	75.62
451.986	89.62
452.207	83.62
452.428	65.62
452.648	85.62
452.869	68.62
453.089	64.62
453.31	82.62
453.53	75.62
453.751	70.62
453.971	70.62
454.192	85.62
454.412	90.62
454.633	70.62
454.853	71.62
455.073	75.62
455.294	71.62
455.514	87.62
455.734	73.62
455.955	79.62
456.175	73.62
456.395	75.62
456.616	70.62
456.836	84.62
457.056	87.62
457.276	69.62
457.497	74.62
457.717	63.62
457.937	80.62
458.157	72.62
458.377	76.62
458.598	63.62
458.818	83.62
459.038	72.62
459.258	71.62
459.478	79.62
459.698	74.62
459.918	87.62
460.138	85.62
460.358	80.62
460.578	74.62
460.798	73.62
461.018	79.62
461.238	81.62
461.458	68.62
461.678	78.62
461.898	80.62
462.118	75.62
462.338	84.62
462.558	73.62
462.777	70.62
462.997	79.62
463.217	76.62
463.437	78.62
463.657	70.62
463.876	79.62
464.096	76.62
464.316	85.62
464.536	89.62
464.755	84.62
464.975	88.62
465.195	83.62
465.414	67.62
465.634	74.62
465.854	84.62
466.073	83.62
466.293	84.62
466.512	81.62
466.732	76.62
466.951	74.62
467.171	71.62
467.391	86.62
467.61	80.62
467.829	75.62
468.049	72.62
468.268	83.62
468.488	90.62
468.707	78.62
468.927	70.62
469.146	72.62
469.365	69.62
469.585	66.62
469.804	64.62
470.023	68.62
470.243	76.62
470.462	73.62
470.681	72.62
470.901	58.62
471.12	92.62
471.339	75.62
471.558	91.62
471.777	75.62
471.997	89.62
472.216	80.62
472.435	79.62
472.654	74.62
472.873	69.62
473.092	74.62
473.311	76.62
473.53	82.62
473.749	74.62
473.968	92.62
474.187	78.62
474.406	83.62
474.625	70.62
474.844	76.62
475.063	74.62
475.282	83.62
475.501	78.62
475.72	83.62
475.939	83.62
476.158	73.62
476.377	72.62
476.596	70.62
476.814	69.62
477.033	60.62
477.252	93.62
477.471	79.62
477.69	55.62
477.908	76.62
478.127	82.62
478.346	79.62
478.564	68.62
478.783	78.62
479.002	85.62
479.22	83.62
479.439	75.62
479.658	74.62
479.876	94.62
480.095	75.62
480.313	75.62
480.532	85.62
480.751	101.62
480.969	73.62
481.188	81.62
481.406	74.62
481.624	85.62
481.843	84.62
482.061	74.62
482.28	82.62
482.498	78.62
482.717	87.62
482.935	77.62
483.153	76.62
483.372	77.62
483.59	77.62
483.808	73.62
484.027	78.62
484.245	83.62
484.463	79.62
484.681	92.62
484.9	88.62
485.118	84.62
485.336	70.62
485.554	67.62
485.772	70.62
485.99	84.62
486.209	85.62
486.427	75.62
486.645	68.62
486.863	79.62
487.081	80.62
487.299	70.62
487.517	73.62
487.735	71.62
487.953	81.62
488.171	69.62
488.389	82.62
488.607	74.62
488.825	62.62
489.043	78.62
489.261	67.62
489.479	78.62
489.696	64.62
489.914	72.62
490.132	82.62
490.35	66.62
490.568	59.62
490.786	80.62
491.003	75.62
491.221	79.62
491.439	80.62
491.657	74.62
491.874	83.62
492.092	74.62
492.31	80.62
492.527	74.62
492.745	71.62
492.963	76.62
493.18	54.62
493.398	82.62
493.615	72.62
493.833	78.62
494.05	61.62
494.268	80.62
494.485	84.62
494.703	80.62
494.92	76.62
495.138	76.62
495.355	93.62
495.573	80.62
495.79	70.62
496.008	65.62
496.225	82.62
496.442	78.62
496.66	75.62
496.877	76.62
497.094	76.62
497.312	76.62
497.529	86.62
497.746	83.62
497.963	78.62
498.181	77.62
498.398	64.62
498.615	77.62
498.832	85.62
499.049	80.62
499.267	70.62
499.484	76.62
499.701	78.62
499.918	80.62
500.135	86.62
500.352	78.62
500.569	86.62
500.786	66.62
501.003	68.62
501.22	81.62
501.437	74.62
501.654	79.62
501.871	80.62
502.088	74.62
502.305	88.62
502.522	94.62
502.739	68.62
502.956	85.62
503.172	78.62
503.389	81.62
503.606	78.62
503.823	94.62
504.04	71.62
504.256	72.62
504.473	58.62
504.69	80.62
504.907	87.62
505.123	72.62
505.34	80.62
505.557	72.62
505.773	74.62
505.99	94.62
506.207	76.62
506.423	70.62
506.64	84.62
506.856	56.62
507.073	83.62
507.289	80.62
507.506	91.62
507.722	83.62
507.939	82.62
508.155	103.62
508.372	76.62
508.588	88.62
508.805	72.62
509.021	77.62
509.238	71.62
509.454	76.62
509.67	75.62
509.887	82.62
510.103	85.62
510.319	85.62
510.536	67.62
510.752	80.62
510.968	82.62
511.184	90.62
511.401	87.62
511.617	93.62
511.833	83.62
512.049	86.62
512.265	80.62
512.481	86.62
512.698	66.62
512.914	75.62
513.13	73.62
513.346	70.62
513.562	82.62
513.778	83.62
513.994	76.62
514.21	86.62
514.426	86.62
514.642	74.62
514.858	76.62
515.074	93.62
515.29	75.62
515.506	77.62
515.721	72.62
515.937	78.62
516.153	83.62
516.369	64.62
516.585	77.62
516.801	79.62
517.016	75.62
517.232	73.62
517.448	84.62
517.664	84.62
517.879	63.62
518.095	84.62
518.311	82.62
518.527	78.62
518.742	60.62
518.958	79.62
519.173	78.62
519.389	73.62
519.605	82.62
519.82	67.62
520.036	80.62
520.251	70.62
