Data from Background_1_HRD10591_00001.txt Node
Date: Wed Nov 05 14:38:58 EST 2025
User: Yrep
Spectrometer: HR+D1059
Trigger mode: 1
Integration Time (sec): 1.000000E-1
Scans to average: 1
Electric dark correction enabled: true
Nonlinearity correction enabled: false
Boxcar width: 0
XAxis mode: Wavelengths
Number of Pixels in Spectrum: 2048
>>>>>Begin Spectral Data<<<<<
223.165	-7.5
223.4	-7.5
223.635	-7.5
223.869	-26.5
224.104	-29.5
224.338	-10.5
224.573	-26.5
224.808	-2.5
225.042	-11.5
225.277	-1.5
225.511	-3.5
225.746	2.5
225.98	8.5
226.215	3.5
226.449	24.5
226.683	13.5
226.918	23.5
227.152	43.5
227.387	26.5
227.621	37.5
227.856	47.5
228.09	29.5
228.324	37.5
228.559	52.5
228.793	47.5
229.027	51.5
229.262	58.5
229.496	73.5
229.73	51.5
229.964	64.5
230.199	80.5
230.433	61.5
230.667	73.5
230.901	81.5
231.136	78.5
231.37	79.5
231.604	80.5
231.838	74.5
232.072	77.5
232.306	86.5
232.541	95.5
232.775	66.5
233.009	69.5
233.243	89.5
233.477	80.5
233.711	75.5
233.945	87.5
234.179	82.5
234.413	75.5
234.647	89.5
234.881	85.5
235.115	78.5
235.349	84.5
235.583	73.5
235.817	62.5
236.051	87.5
236.285	78.5
236.519	76.5
236.753	70.5
236.987	77.5
237.221	66.5
237.455	78.5
237.689	79.5
237.922	71.5
238.156	73.5
238.39	72.5
238.624	84.5
238.858	72.5
239.091	85.5
239.325	86.5
239.559	67.5
239.793	62.5
240.027	64.5
240.26	70.5
240.494	73.5
240.728	72.5
240.961	79.5
241.195	61.5
241.429	66.5
241.662	63.5
241.896	78.5
242.13	83.5
242.363	81.5
242.597	55.5
242.83	66.5
243.064	61.5
243.298	69.5
243.531	80.5
243.765	75.5
243.998	61.5
244.232	65.5
244.465	81.5
244.699	81.5
244.932	74.5
245.166	90.5
245.399	74.5
245.633	77.5
245.866	73.5
246.099	77.5
246.333	74.5
246.566	89.5
246.8	77.5
247.033	71.5
247.266	73.5
247.5	61.5
247.733	73.5
247.966	72.5
248.2	80.5
248.433	73.5
248.666	77.5
248.899	73.5
249.133	82.5
249.366	78.5
249.599	83.5
249.832	66.5
250.066	73.5
250.299	79.5
250.532	93.5
250.765	74.5
250.998	67.5
251.231	67.5
251.465	81.5
251.698	89.5
251.931	77.5
252.164	85.5
252.397	68.5
252.63	78.5
252.863	86.5
253.096	90.5
253.329	98.5
253.562	82.5
253.795	67.5
254.028	75.5
254.261	88.5
254.494	66.5
254.727	71.5
254.96	71.5
255.193	74.5
255.426	81.5
255.659	65.5
255.892	82.5
256.124	74.5
256.357	77.5
256.59	77.5
256.823	73.5
257.056	81.5
257.289	76.5
257.521	76.5
257.754	84.5
257.987	72.5
258.22	77.5
258.452	82.5
258.685	79.5
258.918	73.5
259.151	82.5
259.383	75.5
259.616	81.5
259.849	79.5
260.081	89.5
260.314	80.5
260.547	75.5
260.779	71.5
261.012	67.5
261.244	71.5
261.477	76.5
261.71	75.5
261.942	79.5
262.175	85.5
262.407	81.5
262.64	80.5
262.872	74.5
263.105	64.5
263.337	85.5
263.57	68.5
263.802	70.5
264.035	78.5
264.267	81.5
264.499	75.5
264.732	79.5
264.964	76.5
265.197	85.5
265.429	87.5
265.661	80.5
265.894	85.5
266.126	85.5
266.358	83.5
266.591	89.5
266.823	76.5
267.055	79.5
267.287	81.5
267.52	68.5
267.752	94.5
267.984	75.5
268.216	72.5
268.448	81.5
268.681	75.5
268.913	76.5
269.145	81.5
269.377	67.5
269.609	70.5
269.841	85.5
270.073	71.5
270.306	80.5
270.538	83.5
270.77	76.5
271.002	78.5
271.234	93.5
271.466	87.5
271.698	64.5
271.93	61.5
272.162	86.5
272.394	90.5
272.626	73.5
272.858	82.5
273.09	83.5
273.322	82.5
273.553	71.5
273.785	87.5
274.017	82.5
274.249	78.5
274.481	90.5
274.713	89.5
274.945	82.5
275.176	76.5
275.408	91.5
275.64	85.5
275.872	87.5
276.104	77.5
276.335	81.5
276.567	95.5
276.799	79.5
277.031	89.5
277.262	75.5
277.494	85.5
277.726	86.5
277.957	98.5
278.189	80.5
278.421	79.5
278.652	86.5
278.884	91.5
279.115	78.5
279.347	82.5
279.579	78.5
279.81	93.5
280.042	87.5
280.273	87.5
280.505	73.5
280.736	64.5
280.968	86.5
281.199	85.5
281.431	88.5
281.662	92.5
281.894	81.5
282.125	81.5
282.356	88.5
282.588	77.5
282.819	90.5
283.051	91.5
283.282	84.5
283.513	77.5
283.745	84.5
283.976	75.5
284.207	68.5
284.439	70.5
284.67	80.5
284.901	95.5
285.132	82.5
285.364	89.5
285.595	93.5
285.826	81.5
286.057	73.5
286.288	77.5
286.52	69.5
286.751	94.5
286.982	97.5
287.213	87.5
287.444	73.5
287.675	84.5
287.906	79.5
288.138	91.5
288.369	81.5
288.6	86.5
288.831	73.5
289.062	90.5
289.293	86.5
289.524	63.5
289.755	77.5
289.986	87.5
290.217	74.5
290.448	80.5
290.679	88.5
290.91	83.5
291.141	85.5
291.371	83.5
291.602	87.5
291.833	83.5
292.064	90.5
292.295	71.5
292.526	83.5
292.757	77.5
292.987	78.5
293.218	81.5
293.449	87.5
293.68	85.5
293.91	85.5
294.141	76.5
294.372	49.5
294.603	75.5
294.833	84.5
295.064	76.5
295.295	93.5
295.525	80.5
295.756	85.5
295.987	95.5
296.217	83.5
296.448	78.5
296.679	86.5
296.909	76.5
297.14	87.5
297.37	82.5
297.601	79.5
297.831	88.5
298.062	58.5
298.292	85.5
298.523	85.5
298.753	80.5
298.984	81.5
299.214	85.5
299.445	86.5
299.675	90.5
299.905	97.5
300.136	86.5
300.366	93.5
300.597	80.5
300.827	75.5
301.057	82.5
301.288	67.5
301.518	86.5
301.748	77.5
301.979	90.5
302.209	77.5
302.439	85.5
302.669	76.5
302.9	85.5
303.13	73.5
303.36	80.5
303.59	92.5
303.82	89.5
304.051	86.5
304.281	94.5
304.511	81.5
304.741	85.5
304.971	86.5
305.201	82.5
305.431	84.5
305.661	84.5
305.891	74.5
306.121	82.5
306.352	78.5
306.582	94.5
306.812	62.5
307.042	74.5
307.272	94.5
307.502	86.5
307.731	81.5
307.961	83.5
308.191	86.5
308.421	91.5
308.651	79.5
308.881	86.5
309.111	88.5
309.341	81.5
309.571	77.5
309.8	79.5
310.03	75.5
310.26	81.5
310.49	77.5
310.72	84.5
310.949	79.5
311.179	89.5
311.409	77.5
311.639	89.5
311.868	85.5
312.098	97.5
312.328	82.5
312.557	94.5
312.787	80.5
313.017	83.5
313.246	85.5
313.476	81.5
313.706	86.5
313.935	83.5
314.165	82.5
314.394	90.5
314.624	79.5
314.853	87.5
315.083	65.5
315.312	72.5
315.542	88.5
315.771	75.5
316.001	90.5
316.23	84.5
316.46	97.5
316.689	69.5
316.919	79.5
317.148	89.5
317.377	80.5
317.607	73.5
317.836	68.5
318.065	65.5
318.295	82.5
318.524	85.5
318.753	85.5
318.983	74.5
319.212	71.5
319.441	82.5
319.67	84.5
319.9	82.5
320.129	77.5
320.358	81.5
320.587	86.5
320.816	90.5
321.046	77.5
321.275	85.5
321.504	85.5
321.733	87.5
321.962	78.5
322.191	93.5
322.42	88.5
322.649	93.5
322.878	68.5
323.108	76.5
323.337	86.5
323.566	71.5
323.795	97.5
324.024	77.5
324.253	77.5
324.482	85.5
324.71	77.5
324.939	90.5
325.168	87.5
325.397	78.5
325.626	91.5
325.855	77.5
326.084	71.5
326.313	74.5
326.542	83.5
326.77	85.5
326.999	71.5
327.228	98.5
327.457	74.5
327.686	94.5
327.914	77.5
328.143	88.5
328.372	81.5
328.6	90.5
328.829	83.5
329.058	74.5
329.287	90.5
329.515	62.5
329.744	70.5
329.972	82.5
330.201	89.5
330.43	69.5
330.658	87.5
330.887	88.5
331.115	76.5
331.344	91.5
331.572	75.5
331.801	101.5
332.03	91.5
332.258	85.5
332.486	83.5
332.715	93.5
332.943	88.5
333.172	81.5
333.4	83.5
333.629	78.5
333.857	77.5
334.085	82.5
334.314	79.5
334.542	87.5
334.771	82.5
334.999	89.5
335.227	85.5
335.455	73.5
335.684	70.5
335.912	64.5
336.14	82.5
336.369	84.5
336.597	82.5
336.825	74.5
337.053	72.5
337.281	73.5
337.51	88.5
337.738	80.5
337.966	71.5
338.194	81.5
338.422	86.5
338.65	90.5
338.878	93.5
339.106	94.5
339.334	85.5
339.562	84.5
339.79	66.5
340.018	83.5
340.246	87.5
340.474	82.5
340.702	95.5
340.93	87.5
341.158	85.5
341.386	79.5
341.614	78.5
341.842	77.5
342.07	90.5
342.298	87.5
342.526	81.5
342.754	87.5
342.981	101.5
343.209	79.5
343.437	90.5
343.665	63.5
343.893	71.5
344.12	82.5
344.348	77.5
344.576	89.5
344.804	81.5
345.031	81.5
345.259	82.5
345.487	81.5
345.714	89.5
345.942	71.5
346.17	82.5
346.397	91.5
346.625	76.5
346.853	81.5
347.08	88.5
347.308	94.5
347.535	80.5
347.763	69.5
347.99	76.5
348.218	86.5
348.445	79.5
348.673	91.5
348.9	87.5
349.128	96.5
349.355	86.5
349.583	83.5
349.81	80.5
350.037	92.5
350.265	80.5
350.492	88.5
350.72	91.5
350.947	89.5
351.174	80.5
351.402	87.5
351.629	88.5
351.856	75.5
352.083	72.5
352.311	78.5
352.538	82.5
352.765	66.5
352.992	86.5
353.22	101.5
353.447	81.5
353.674	85.5
353.901	86.5
354.128	85.5
354.355	84.5
354.583	90.5
354.81	79.5
355.037	77.5
355.264	91.5
355.491	97.5
355.718	78.5
355.945	85.5
356.172	70.5
356.399	84.5
356.626	76.5
356.853	82.5
357.08	83.5
357.307	76.5
357.534	74.5
357.761	73.5
357.988	87.5
358.215	80.5
358.441	67.5
358.668	86.5
358.895	85.5
359.122	85.5
359.349	89.5
359.576	90.5
359.802	87.5
360.029	77.5
360.256	73.5
360.483	76.5
360.709	71.5
360.936	91.5
361.163	94.5
361.39	82.5
361.616	74.5
361.843	85.5
362.07	92.5
362.296	75.5
362.523	85.5
362.749	72.5
362.976	95.5
363.203	86.5
363.429	76.5
363.656	94.5
363.882	76.5
364.109	81.5
364.335	90.5
364.562	77.5
364.788	65.5
365.015	78.5
365.241	80.5
365.468	84.5
365.694	94.5
365.92	85.5
366.147	77.5
366.373	80.5
366.599	87.5
366.826	77.5
367.052	79.5
367.278	66.5
367.505	91.5
367.731	77.5
367.957	85.5
368.184	73.5
368.41	75.5
368.636	75.5
368.862	69.5
369.089	69.5
369.315	84.5
369.541	87.5
369.767	88.5
369.993	74.5
370.219	73.5
370.445	70.5
370.672	77.5
370.898	82.5
371.124	90.5
371.35	59.5
371.576	71.5
371.802	85.5
372.028	77.5
372.254	82.5
372.48	77.5
372.706	76.5
372.932	68.5
373.158	75.5
373.384	85.5
373.61	90.5
373.835	91.5
374.061	83.5
374.287	74.5
374.513	74.5
374.739	75.5
374.965	74.5
375.191	71.5
375.416	72.5
375.642	81.5
375.868	80.5
376.094	76.5
376.319	87.5
376.545	84.5
376.771	77.5
376.997	81.5
377.222	81.5
377.448	73.5
377.674	83.5
377.899	78.5
378.125	82.5
378.35	76.5
378.576	67.5
378.802	81.5
379.027	89.5
379.253	78.5
379.478	74.5
379.704	80.5
379.929	73.5
380.155	84.5
380.38	87.5
380.606	82.5
380.831	88.5
381.057	89.5
381.282	75.5
381.507	83.5
381.733	82.5
381.958	79.5
382.184	79.5
382.409	98.5
382.634	88.5
382.86	80.5
383.085	75.5
383.31	77.5
383.535	80.5
383.761	77.5
383.986	82.5
384.211	91.5
384.436	80.5
384.662	79.5
384.887	81.5
385.112	79.5
385.337	85.5
385.562	85.5
385.787	81.5
386.013	81.5
386.238	84.5
386.463	86.5
386.688	67.5
386.913	70.5
387.138	80.5
387.363	70.5
387.588	83.5
387.813	82.5
388.038	72.5
388.263	85.5
388.488	81.5
388.713	85.5
388.938	69.5
389.163	78.5
389.387	88.5
389.612	85.5
389.837	91.5
390.062	92.5
390.287	98.5
390.512	71.5
390.736	69.5
390.961	82.5
391.186	73.5
391.411	85.5
391.636	77.5
391.86	65.5
392.085	87.5
392.31	71.5
392.534	70.5
392.759	87.5
392.984	81.5
393.208	78.5
393.433	98.5
393.658	91.5
393.882	88.5
394.107	72.5
394.331	66.5
394.556	79.5
394.78	83.5
395.005	90.5
395.229	89.5
395.454	87.5
395.678	82.5
395.903	80.5
396.127	93.5
396.352	75.5
396.576	80.5
396.801	87.5
397.025	69.5
397.249	70.5
397.474	87.5
397.698	97.5
397.922	75.5
398.147	76.5
398.371	85.5
398.595	89.5
398.82	82.5
399.044	75.5
399.268	76.5
399.492	83.5
399.717	81.5
399.941	81.5
400.165	88.5
400.389	80.5
400.613	83.5
400.837	70.5
401.062	85.5
401.286	70.5
401.51	82.5
401.734	80.5
401.958	82.5
402.182	75.5
402.406	82.5
402.63	74.5
402.854	72.5
403.078	77.5
403.302	82.5
403.526	82.5
403.75	69.5
403.974	75.5
404.198	73.5
404.422	83.5
404.645	84.5
404.869	74.5
405.093	69.5
405.317	75.5
405.541	71.5
405.765	81.5
405.988	75.5
406.212	95.5
406.436	75.5
406.66	87.5
406.883	102.5
407.107	93.5
407.331	69.5
407.555	66.5
407.778	85.5
408.002	73.5
408.226	71.5
408.449	93.5
408.673	81.5
408.896	68.5
409.12	81.5
409.344	81.5
409.567	87.5
409.791	72.5
410.014	71.5
410.238	87.5
410.461	78.5
410.685	79.5
410.908	82.5
411.132	79.5
411.355	66.5
411.578	88.5
411.802	82.5
412.025	78.5
412.249	81.5
412.472	68.5
412.695	70.5
412.919	67.5
413.142	77.5
413.365	92.5
413.589	84.5
413.812	83.5
414.035	107.5
414.258	70.5
414.482	67.5
414.705	88.5
414.928	81.5
415.151	76.5
415.374	80.5
415.597	93.5
415.821	82.5
416.044	83.5
416.267	77.5
416.49	62.5
416.713	82.5
416.936	77.5
417.159	64.5
417.382	74.5
417.605	83.5
417.828	75.5
418.051	75.5
418.274	79.5
418.497	73.5
418.72	74.5
418.943	80.5
419.166	87.5
419.389	85.5
419.611	70.5
419.834	80.5
420.057	79.5
420.28	75.5
420.503	75.5
420.726	74.5
420.948	69.5
421.171	93.5
421.394	78.5
421.617	64.5
421.839	79.5
422.062	85.5
422.285	68.5
422.507	96.5
422.73	89.5
422.953	74.5
423.175	77.5
423.398	74.5
423.621	94.5
423.843	81.5
424.066	79.5
424.288	66.5
424.511	77.5
424.733	79.5
424.956	86.5
425.178	69.5
425.401	82.5
425.623	78.5
425.846	86.5
426.068	80.5
426.291	83.5
426.513	87.5
426.735	82.5
426.958	73.5
427.18	90.5
427.402	77.5
427.625	79.5
427.847	75.5
428.069	76.5
428.292	86.5
428.514	75.5
428.736	85.5
428.958	79.5
429.181	77.5
429.403	63.5
429.625	93.5
429.847	93.5
430.069	90.5
430.292	74.5
430.514	89.5
430.736	87.5
430.958	77.5
431.18	84.5
431.402	76.5
431.624	80.5
431.846	80.5
432.068	87.5
432.29	82.5
432.512	79.5
432.734	92.5
432.956	75.5
433.178	78.5
433.4	93.5
433.622	84.5
433.844	83.5
434.066	81.5
434.287	66.5
434.509	85.5
434.731	67.5
434.953	82.5
435.175	79.5
435.397	83.5
435.618	71.5
435.84	79.5
436.062	70.5
436.284	87.5
436.505	78.5
436.727	93.5
436.949	74.5
437.17	75.5
437.392	80.5
437.614	68.5
437.835	79.5
438.057	94.5
438.278	82.5
438.5	81.5
438.721	82.5
438.943	85.5
439.165	77.5
439.386	77.5
439.608	86.5
439.829	80.5
440.05	74.5
440.272	77.5
440.493	83.5
440.715	84.5
440.936	75.5
441.158	82.5
441.379	76.5
441.6	81.5
441.822	80.5
442.043	88.5
442.264	67.5
442.486	79.5
442.707	86.5
442.928	70.5
443.149	74.5
443.371	77.5
443.592	77.5
443.813	89.5
444.034	89.5
444.255	78.5
444.476	92.5
444.698	85.5
444.919	80.5
445.14	147.5
445.361	109.5
445.582	93.5
445.803	57.5
446.024	76.5
446.245	77.5
446.466	80.5
446.687	77.5
446.908	74.5
447.129	80.5
447.35	76.5
447.571	75.5
447.792	86.5
448.013	75.5
448.234	105.5
448.455	83.5
448.675	87.5
448.896	68.5
449.117	81.5
449.338	85.5
449.559	84.5
449.779	80.5
450	80.5
450.221	85.5
450.442	81.5
450.662	65.5
450.883	86.5
451.104	90.5
451.324	80.5
451.545	77.5
451.766	78.5
451.986	87.5
452.207	85.5
452.428	83.5
452.648	75.5
452.869	71.5
453.089	88.5
453.31	68.5
453.53	80.5
453.751	69.5
453.971	85.5
454.192	80.5
454.412	97.5
454.633	73.5
454.853	81.5
455.073	81.5
455.294	87.5
455.514	77.5
455.734	85.5
455.955	102.5
456.175	81.5
456.395	74.5
456.616	74.5
456.836	76.5
457.056	73.5
457.276	85.5
457.497	93.5
457.717	74.5
457.937	73.5
458.157	76.5
458.377	74.5
458.598	79.5
458.818	77.5
459.038	87.5
459.258	83.5
459.478	82.5
459.698	78.5
459.918	81.5
460.138	85.5
460.358	77.5
460.578	74.5
460.798	81.5
461.018	68.5
461.238	75.5
461.458	77.5
461.678	83.5
461.898	80.5
462.118	79.5
462.338	69.5
462.558	85.5
462.777	91.5
462.997	66.5
463.217	90.5
463.437	77.5
463.657	70.5
463.876	78.5
464.096	89.5
464.316	80.5
464.536	75.5
464.755	80.5
464.975	69.5
465.195	78.5
465.414	73.5
465.634	81.5
465.854	75.5
466.073	91.5
466.293	81.5
466.512	87.5
466.732	63.5
466.951	78.5
467.171	79.5
467.391	79.5
467.61	74.5
467.829	68.5
468.049	83.5
468.268	74.5
468.488	80.5
468.707	76.5
468.927	65.5
469.146	81.5
469.365	90.5
469.585	80.5
469.804	81.5
470.023	75.5
470.243	85.5
470.462	82.5
470.681	83.5
470.901	77.5
471.12	89.5
471.339	85.5
471.558	90.5
471.777	84.5
471.997	82.5
472.216	87.5
472.435	86.5
472.654	76.5
472.873	91.5
473.092	83.5
473.311	79.5
473.53	74.5
473.749	75.5
473.968	96.5
474.187	89.5
474.406	73.5
474.625	93.5
474.844	81.5
475.063	66.5
475.282	81.5
475.501	78.5
475.72	81.5
475.939	71.5
476.158	82.5
476.377	77.5
476.596	81.5
476.814	77.5
477.033	80.5
477.252	99.5
477.471	82.5
477.69	79.5
477.908	90.5
478.127	88.5
478.346	77.5
478.564	70.5
478.783	75.5
479.002	81.5
479.22	73.5
479.439	79.5
479.658	81.5
479.876	83.5
480.095	77.5
480.313	74.5
480.532	90.5
480.751	80.5
480.969	78.5
481.188	82.5
481.406	88.5
481.624	76.5
481.843	89.5
482.061	81.5
482.28	67.5
482.498	77.5
482.717	74.5
482.935	82.5
483.153	90.5
483.372	88.5
483.59	74.5
483.808	72.5
484.027	74.5
484.245	99.5
484.463	76.5
484.681	85.5
484.9	77.5
485.118	76.5
485.336	77.5
485.554	86.5
485.772	82.5
485.99	92.5
486.209	80.5
486.427	68.5
486.645	86.5
486.863	87.5
487.081	82.5
487.299	77.5
487.517	70.5
487.735	70.5
487.953	77.5
488.171	71.5
488.389	81.5
488.607	89.5
488.825	92.5
489.043	79.5
489.261	90.5
489.479	77.5
489.696	77.5
489.914	66.5
490.132	74.5
490.35	79.5
490.568	81.5
490.786	77.5
491.003	91.5
491.221	81.5
491.439	93.5
491.657	76.5
491.874	81.5
492.092	82.5
492.31	73.5
492.527	77.5
492.745	70.5
492.963	90.5
493.18	74.5
493.398	81.5
493.615	64.5
493.833	88.5
494.05	78.5
494.268	69.5
494.485	92.5
494.703	68.5
494.92	83.5
495.138	84.5
495.355	79.5
495.573	81.5
495.79	86.5
496.008	57.5
496.225	76.5
496.442	79.5
496.66	78.5
496.877	85.5
497.094	94.5
497.312	93.5
497.529	91.5
497.746	76.5
497.963	99.5
498.181	74.5
498.398	76.5
498.615	66.5
498.832	86.5
499.049	81.5
499.267	80.5
499.484	86.5
499.701	89.5
499.918	89.5
500.135	89.5
500.352	62.5
500.569	85.5
500.786	83.5
501.003	90.5
501.22	79.5
501.437	75.5
501.654	72.5
501.871	83.5
502.088	63.5
502.305	72.5
502.522	85.5
502.739	86.5
502.956	80.5
503.172	85.5
503.389	83.5
503.606	75.5
503.823	81.5
504.04	90.5
504.256	81.5
504.473	75.5
504.69	97.5
504.907	98.5
505.123	86.5
505.34	73.5
505.557	88.5
505.773	93.5
505.99	84.5
506.207	70.5
506.423	72.5
506.64	68.5
506.856	97.5
507.073	87.5
507.289	88.5
507.506	81.5
507.722	90.5
507.939	61.5
508.155	69.5
508.372	89.5
508.588	86.5
508.805	88.5
509.021	84.5
509.238	97.5
509.454	88.5
509.67	66.5
509.887	79.5
510.103	82.5
510.319	81.5
510.536	92.5
510.752	89.5
510.968	67.5
511.184	85.5
511.401	85.5
511.617	95.5
511.833	89.5
512.049	79.5
512.265	82.5
512.481	81.5
512.698	85.5
512.914	93.5
513.13	92.5
513.346	95.5
513.562	77.5
513.778	77.5
513.994	73.5
514.21	79.5
514.426	101.5
514.642	78.5
514.858	85.5
515.074	94.5
515.29	95.5
515.506	79.5
515.721	75.5
515.937	81.5
516.153	74.5
516.369	76.5
516.585	101.5
516.801	81.5
517.016	75.5
517.232	76.5
517.448	72.5
517.664	79.5
517.879	92.5
518.095	88.5
518.311	93.5
518.527	81.5
518.742	89.5
518.958	73.5
519.173	78.5
519.389	89.5
519.605	99.5
519.82	81.5
520.036	65.5
520.251	96.5
520.467	80.5
520.682	88.5
520.898	89.5
521.113	74.5
521.329	82.5
521.544	86.5
521.76	80.5
521.975	75.5
522.19	75.5
522.406	86.5
522.621	78.5
522.836	83.5
523.052	93.5
523.267	73.5
523.482	88.5
523.698	92.5
523.913	87.5
524.128	75.5
524.343	78.5
524.559	74.5
524.774	69.5
524.989	79.5
525.204	85.5
525.419	81.5
525.634	84.5
525.849	73.5
526.064	88.5
526.28	83.5
526.495	81.5
526.71	88.5
526.925	80.5
527.14	86.5
527.355	85.5
527.57	91.5
527.785	82.5
527.999	77.5
528.214	95.5
528.429	88.5
528.644	87.5
528.859	89.5
529.074	77.5
529.289	75.5
529.503	76.5
529.718	80.5
529.933	73.5
530.148	83.5
530.363	91.5
530.577	90.5
530.792	89.5
531.007	80.5
531.221	83.5
531.436	86.5
531.651	72.5
531.865	80.5
532.08	78.5
532.295	79.5
532.509	86.5
532.724	83.5
532.938	81.5
533.153	79.5
533.367	80.5
533.582	91.5
533.796	70.5
534.011	71.5
534.225	58.5
534.44	87.5
534.654	74.5
534.868	80.5
535.083	81.5
535.297	83.5
535.511	85.5
535.726	66.5
535.94	79.5
536.154	98.5
536.369	77.5
536.583	85.5
536.797	81.5
537.011	70.5
537.225	88.5
537.44	89.5
537.654	64.5
537.868	72.5
538.082	76.5
538.296	82.5
538.51	74.5
538.724	82.5
538.938	96.5
539.153	80.5
539.367	83.5
539.581	88.5
539.795	95.5
540.009	85.5
540.222	92.5
540.436	73.5
