Data from Background_1_HRD10591_00035.txt Node
Date: Wed Nov 05 14:39:15 EST 2025
User: Yrep
Spectrometer: HR+D1059
Trigger mode: 1
Integration Time (sec): 1.000000E-1
Scans to average: 1
Electric dark correction enabled: true
Nonlinearity correction enabled: false
Boxcar width: 0
XAxis mode: Wavelengths
Number of Pixels in Spectrum: 2048
>>>>>Begin Spectral Data<<<<<
223.165	-30.12
223.4	-30.12
223.635	-30.12
223.869	-23.12
224.104	-17.12
224.338	-20.12
224.573	-13.12
224.808	-4.12
225.042	-2.12
225.277	-18.12
225.511	-8.12
225.746	-9.12
225.98	12.88
226.215	20.88
226.449	26.88
226.683	25.88
226.918	37.88
227.152	20.88
227.387	38.88
227.621	46.88
227.856	57.88
228.09	43.88
228.324	44.88
228.559	52.88
228.793	57.88
229.027	60.88
229.262	60.88
229.496	64.88
229.73	73.88
229.964	82.88
230.199	69.88
230.433	73.88
230.667	86.88
230.901	67.88
231.136	87.88
231.37	76.88
231.604	77.88
231.838	76.88
232.072	84.88
232.306	86.88
232.541	88.88
232.775	80.88
233.009	79.88
233.243	73.88
233.477	81.88
233.711	68.88
233.945	56.88
234.179	72.88
234.413	81.88
234.647	78.88
234.881	87.88
235.115	62.88
235.349	75.88
235.583	75.88
235.817	72.88
236.051	70.88
236.285	68.88
236.519	81.88
236.753	90.88
236.987	70.88
237.221	75.88
237.455	72.88
237.689	70.88
237.922	64.88
238.156	67.88
238.39	71.88
238.624	70.88
238.858	73.88
239.091	72.88
239.325	75.88
239.559	75.88
239.793	72.88
240.027	84.88
240.26	70.88
240.494	81.88
240.728	80.88
240.961	66.88
241.195	84.88
241.429	76.88
241.662	81.88
241.896	63.88
242.13	77.88
242.363	76.88
242.597	72.88
242.83	76.88
243.064	86.88
243.298	80.88
243.531	87.88
243.765	62.88
243.998	70.88
244.232	76.88
244.465	76.88
244.699	71.88
244.932	62.88
245.166	69.88
245.399	91.88
245.633	83.88
245.866	80.88
246.099	75.88
246.333	68.88
246.566	75.88
246.8	73.88
247.033	68.88
247.266	83.88
247.5	71.88
247.733	77.88
247.966	70.88
248.2	64.88
248.433	78.88
248.666	72.88
248.899	64.88
249.133	74.88
249.366	78.88
249.599	94.88
249.832	84.88
250.066	70.88
250.299	77.88
250.532	89.88
250.765	79.88
250.998	79.88
251.231	78.88
251.465	68.88
251.698	82.88
251.931	86.88
252.164	77.88
252.397	72.88
252.63	80.88
252.863	68.88
253.096	75.88
253.329	92.88
253.562	88.88
253.795	85.88
254.028	75.88
254.261	85.88
254.494	67.88
254.727	79.88
254.96	70.88
255.193	74.88
255.426	81.88
255.659	69.88
255.892	72.88
256.124	67.88
256.357	76.88
256.59	63.88
256.823	78.88
257.056	82.88
257.289	80.88
257.521	73.88
257.754	84.88
257.987	81.88
258.22	62.88
258.452	76.88
258.685	69.88
258.918	81.88
259.151	80.88
259.383	79.88
259.616	75.88
259.849	86.88
260.081	78.88
260.314	79.88
260.547	80.88
260.779	85.88
261.012	78.88
261.244	86.88
261.477	54.88
261.71	81.88
261.942	75.88
262.175	70.88
262.407	85.88
262.64	73.88
262.872	79.88
263.105	74.88
263.337	81.88
263.57	70.88
263.802	81.88
264.035	88.88
264.267	80.88
264.499	71.88
264.732	77.88
264.964	85.88
265.197	64.88
265.429	74.88
265.661	57.88
265.894	85.88
266.126	73.88
266.358	72.88
266.591	82.88
266.823	77.88
267.055	83.88
267.287	72.88
267.52	70.88
267.752	62.88
267.984	89.88
268.216	85.88
268.448	75.88
268.681	76.88
268.913	79.88
269.145	79.88
269.377	84.88
269.609	79.88
269.841	78.88
270.073	94.88
270.306	80.88
270.538	83.88
270.77	80.88
271.002	75.88
271.234	85.88
271.466	83.88
271.698	82.88
271.93	53.88
272.162	75.88
272.394	81.88
272.626	73.88
272.858	88.88
273.09	79.88
273.322	88.88
273.553	78.88
273.785	90.88
274.017	78.88
274.249	75.88
274.481	73.88
274.713	73.88
274.945	71.88
275.176	77.88
275.408	76.88
275.64	90.88
275.872	76.88
276.104	86.88
276.335	81.88
276.567	71.88
276.799	75.88
277.031	75.88
277.262	72.88
277.494	80.88
277.726	76.88
277.957	93.88
278.189	74.88
278.421	86.88
278.652	90.88
278.884	92.88
279.115	93.88
279.347	77.88
279.579	78.88
279.81	71.88
280.042	87.88
280.273	67.88
280.505	76.88
280.736	82.88
280.968	72.88
281.199	71.88
281.431	78.88
281.662	86.88
281.894	73.88
282.125	78.88
282.356	82.88
282.588	65.88
282.819	77.88
283.051	81.88
283.282	69.88
283.513	91.88
283.745	81.88
283.976	81.88
284.207	84.88
284.439	78.88
284.67	95.88
284.901	80.88
285.132	90.88
285.364	97.88
285.595	90.88
285.826	93.88
286.057	78.88
286.288	88.88
286.52	73.88
286.751	72.88
286.982	81.88
287.213	95.88
287.444	85.88
287.675	92.88
287.906	75.88
288.138	77.88
288.369	81.88
288.6	70.88
288.831	76.88
289.062	71.88
289.293	75.88
289.524	61.88
289.755	69.88
289.986	68.88
290.217	80.88
290.448	57.88
290.679	76.88
290.91	80.88
291.141	83.88
291.371	77.88
291.602	93.88
291.833	92.88
292.064	82.88
292.295	79.88
292.526	87.88
292.757	78.88
292.987	78.88
293.218	92.88
293.449	93.88
293.68	90.88
293.91	85.88
294.141	86.88
294.372	71.88
294.603	69.88
294.833	86.88
295.064	79.88
295.295	78.88
295.525	79.88
295.756	80.88
295.987	85.88
296.217	88.88
296.448	76.88
296.679	75.88
296.909	78.88
297.14	80.88
297.37	86.88
297.601	74.88
297.831	79.88
298.062	78.88
298.292	65.88
298.523	70.88
298.753	66.88
298.984	82.88
299.214	84.88
299.445	95.88
299.675	72.88
299.905	94.88
300.136	78.88
300.366	76.88
300.597	95.88
300.827	76.88
301.057	77.88
301.288	72.88
301.518	94.88
301.748	87.88
301.979	91.88
302.209	84.88
302.439	84.88
302.669	72.88
302.9	76.88
303.13	78.88
303.36	77.88
303.59	82.88
303.82	87.88
304.051	88.88
304.281	76.88
304.511	89.88
304.741	91.88
304.971	93.88
305.201	93.88
305.431	77.88
305.661	81.88
305.891	92.88
306.121	84.88
306.352	77.88
306.582	97.88
306.812	88.88
307.042	82.88
307.272	85.88
307.502	80.88
307.731	84.88
307.961	82.88
308.191	73.88
308.421	76.88
308.651	76.88
308.881	76.88
309.111	89.88
309.341	76.88
309.571	90.88
309.8	87.88
310.03	82.88
310.26	77.88
310.49	84.88
310.72	83.88
310.949	70.88
311.179	76.88
311.409	88.88
311.639	101.88
311.868	91.88
312.098	74.88
312.328	73.88
312.557	93.88
312.787	89.88
313.017	77.88
313.246	89.88
313.476	92.88
313.706	70.88
313.935	68.88
314.165	75.88
314.394	84.88
314.624	78.88
314.853	83.88
315.083	78.88
315.312	62.88
315.542	90.88
315.771	75.88
316.001	92.88
316.23	82.88
316.46	75.88
316.689	79.88
316.919	79.88
317.148	83.88
317.377	78.88
317.607	79.88
317.836	75.88
318.065	73.88
318.295	82.88
318.524	86.88
318.753	83.88
318.983	79.88
319.212	69.88
319.441	66.88
319.67	80.88
319.9	69.88
320.129	92.88
320.358	86.88
320.587	78.88
320.816	78.88
321.046	81.88
321.275	70.88
321.504	91.88
321.733	84.88
321.962	79.88
322.191	77.88
322.42	80.88
322.649	87.88
322.878	76.88
323.108	92.88
323.337	81.88
323.566	68.88
323.795	80.88
324.024	76.88
324.253	88.88
324.482	79.88
324.71	90.88
324.939	85.88
325.168	80.88
325.397	86.88
325.626	79.88
325.855	80.88
326.084	83.88
326.313	90.88
326.542	90.88
326.77	92.88
326.999	80.88
327.228	77.88
327.457	72.88
327.686	70.88
327.914	89.88
328.143	72.88
328.372	68.88
328.6	76.88
328.829	77.88
329.058	87.88
329.287	67.88
329.515	82.88
329.744	81.88
329.972	80.88
330.201	66.88
330.43	98.88
330.658	66.88
330.887	86.88
331.115	88.88
331.344	74.88
331.572	84.88
331.801	80.88
332.03	75.88
332.258	93.88
332.486	84.88
332.715	98.88
332.943	86.88
333.172	90.88
333.4	93.88
333.629	87.88
333.857	91.88
334.085	79.88
334.314	74.88
334.542	80.88
334.771	78.88
334.999	83.88
335.227	69.88
335.455	84.88
335.684	64.88
335.912	77.88
336.14	89.88
336.369	74.88
336.597	75.88
336.825	77.88
337.053	82.88
337.281	80.88
337.51	72.88
337.738	80.88
337.966	74.88
338.194	84.88
338.422	83.88
338.65	98.88
338.878	80.88
339.106	83.88
339.334	93.88
339.562	80.88
339.79	82.88
340.018	82.88
340.246	73.88
340.474	84.88
340.702	69.88
340.93	86.88
341.158	78.88
341.386	89.88
341.614	74.88
341.842	73.88
342.07	71.88
342.298	76.88
342.526	85.88
342.754	77.88
342.981	82.88
343.209	72.88
343.437	89.88
343.665	86.88
343.893	66.88
344.12	69.88
344.348	66.88
344.576	72.88
344.804	63.88
345.031	77.88
345.259	66.88
345.487	75.88
345.714	89.88
345.942	93.88
346.17	91.88
346.397	90.88
346.625	85.88
346.853	90.88
347.08	93.88
347.308	90.88
347.535	84.88
347.763	79.88
347.99	80.88
348.218	88.88
348.445	89.88
348.673	85.88
348.9	75.88
349.128	83.88
349.355	57.88
349.583	78.88
349.81	82.88
350.037	84.88
350.265	70.88
350.492	81.88
350.72	77.88
350.947	81.88
351.174	86.88
351.402	88.88
351.629	84.88
351.856	80.88
352.083	68.88
352.311	76.88
352.538	75.88
352.765	90.88
352.992	82.88
353.22	86.88
353.447	75.88
353.674	69.88
353.901	84.88
354.128	96.88
354.355	93.88
354.583	78.88
354.81	69.88
355.037	79.88
355.264	86.88
355.491	70.88
355.718	78.88
355.945	81.88
356.172	74.88
356.399	81.88
356.626	80.88
356.853	75.88
357.08	82.88
357.307	93.88
357.534	65.88
357.761	96.88
357.988	85.88
358.215	80.88
358.441	79.88
358.668	73.88
358.895	85.88
359.122	89.88
359.349	96.88
359.576	79.88
359.802	85.88
360.029	75.88
360.256	81.88
360.483	52.88
360.709	80.88
360.936	95.88
361.163	89.88
361.39	75.88
361.616	86.88
361.843	96.88
362.07	86.88
362.296	81.88
362.523	77.88
362.749	78.88
362.976	86.88
363.203	99.88
363.429	85.88
363.656	74.88
363.882	83.88
364.109	79.88
364.335	78.88
364.562	80.88
364.788	73.88
365.015	73.88
365.241	90.88
365.468	69.88
365.694	74.88
365.92	81.88
366.147	82.88
366.373	71.88
366.599	93.88
366.826	81.88
367.052	94.88
367.278	86.88
367.505	87.88
367.731	97.88
367.957	88.88
368.184	82.88
368.41	70.88
368.636	76.88
368.862	72.88
369.089	87.88
369.315	80.88
369.541	68.88
369.767	73.88
369.993	79.88
370.219	74.88
370.445	82.88
370.672	77.88
370.898	68.88
371.124	67.88
371.35	92.88
371.576	78.88
371.802	78.88
372.028	67.88
372.254	71.88
372.48	69.88
372.706	85.88
372.932	63.88
373.158	83.88
373.384	69.88
373.61	76.88
373.835	78.88
374.061	81.88
374.287	85.88
374.513	79.88
374.739	85.88
374.965	76.88
375.191	70.88
375.416	84.88
375.642	70.88
375.868	69.88
376.094	79.88
376.319	80.88
376.545	86.88
376.771	72.88
376.997	70.88
377.222	70.88
377.448	77.88
377.674	82.88
377.899	85.88
378.125	86.88
378.35	69.88
378.576	71.88
378.802	95.88
379.027	70.88
379.253	72.88
379.478	85.88
379.704	73.88
379.929	82.88
380.155	81.88
380.38	85.88
380.606	72.88
380.831	71.88
381.057	79.88
381.282	77.88
381.507	89.88
381.733	66.88
381.958	70.88
382.184	90.88
382.409	74.88
382.634	70.88
382.86	82.88
383.085	80.88
383.31	66.88
383.535	75.88
383.761	65.88
383.986	86.88
384.211	70.88
384.436	75.88
384.662	64.88
384.887	75.88
385.112	76.88
385.337	66.88
385.562	72.88
385.787	88.88
386.013	96.88
386.238	93.88
386.463	71.88
386.688	88.88
386.913	76.88
387.138	92.88
387.363	84.88
387.588	73.88
387.813	86.88
388.038	79.88
388.263	76.88
388.488	88.88
388.713	71.88
388.938	85.88
389.163	74.88
389.387	73.88
389.612	78.88
389.837	79.88
390.062	85.88
390.287	65.88
390.512	70.88
390.736	83.88
390.961	79.88
391.186	84.88
391.411	74.88
391.636	74.88
391.86	76.88
392.085	88.88
392.31	73.88
392.534	73.88
392.759	72.88
392.984	60.88
393.208	76.88
393.433	73.88
393.658	88.88
393.882	73.88
394.107	72.88
394.331	77.88
394.556	76.88
394.78	78.88
395.005	82.88
395.229	57.88
395.454	77.88
395.678	80.88
395.903	70.88
396.127	70.88
396.352	79.88
396.576	59.88
396.801	91.88
397.025	77.88
397.249	80.88
397.474	87.88
397.698	76.88
397.922	74.88
398.147	76.88
398.371	69.88
398.595	80.88
398.82	86.88
399.044	80.88
399.268	71.88
399.492	60.88
399.717	73.88
399.941	72.88
400.165	88.88
400.389	89.88
400.613	72.88
400.837	69.88
401.062	69.88
401.286	84.88
401.51	69.88
401.734	73.88
401.958	69.88
402.182	80.88
402.406	71.88
402.63	79.88
402.854	78.88
403.078	72.88
403.302	82.88
403.526	92.88
403.75	75.88
403.974	84.88
404.198	77.88
404.422	89.88
404.645	79.88
404.869	59.88
405.093	81.88
405.317	82.88
405.541	84.88
405.765	74.88
405.988	71.88
406.212	75.88
406.436	68.88
406.66	77.88
406.883	68.88
407.107	67.88
407.331	85.88
407.555	79.88
407.778	68.88
408.002	90.88
408.226	88.88
408.449	81.88
408.673	76.88
408.896	73.88
409.12	77.88
409.344	92.88
409.567	71.88
409.791	77.88
410.014	67.88
410.238	82.88
410.461	84.88
410.685	82.88
410.908	81.88
411.132	93.88
411.355	74.88
411.578	82.88
411.802	78.88
412.025	79.88
412.249	84.88
412.472	73.88
412.695	86.88
412.919	74.88
413.142	84.88
413.365	78.88
413.589	81.88
413.812	70.88
414.035	83.88
414.258	79.88
414.482	82.88
414.705	74.88
414.928	76.88
415.151	79.88
415.374	82.88
415.597	67.88
415.821	75.88
416.044	77.88
416.267	75.88
416.49	75.88
416.713	84.88
416.936	73.88
417.159	76.88
417.382	72.88
417.605	86.88
417.828	70.88
418.051	72.88
418.274	75.88
418.497	97.88
418.72	86.88
418.943	78.88
419.166	70.88
419.389	72.88
419.611	66.88
419.834	81.88
420.057	80.88
420.28	101.88
420.503	86.88
420.726	69.88
420.948	72.88
421.171	71.88
421.394	80.88
421.617	71.88
421.839	74.88
422.062	75.88
422.285	78.88
422.507	90.88
422.73	79.88
422.953	74.88
423.175	63.88
423.398	72.88
423.621	71.88
423.843	65.88
424.066	72.88
424.288	74.88
424.511	72.88
424.733	70.88
424.956	70.88
425.178	90.88
425.401	87.88
425.623	76.88
425.846	72.88
426.068	72.88
426.291	87.88
426.513	74.88
426.735	79.88
426.958	74.88
427.18	69.88
427.402	63.88
427.625	87.88
427.847	76.88
428.069	71.88
428.292	72.88
428.514	77.88
428.736	71.88
428.958	60.88
429.181	78.88
429.403	78.88
429.625	89.88
429.847	74.88
430.069	79.88
430.292	64.88
430.514	80.88
430.736	58.88
430.958	81.88
431.18	76.88
431.402	80.88
431.624	88.88
431.846	71.88
432.068	92.88
432.29	67.88
432.512	81.88
432.734	76.88
432.956	63.88
433.178	78.88
433.4	65.88
433.622	70.88
433.844	65.88
434.066	77.88
434.287	85.88
434.509	79.88
434.731	78.88
434.953	77.88
435.175	70.88
435.397	86.88
435.618	81.88
435.84	92.88
436.062	75.88
436.284	78.88
436.505	70.88
436.727	66.88
436.949	65.88
437.17	69.88
437.392	86.88
437.614	76.88
437.835	69.88
438.057	79.88
438.278	74.88
438.5	65.88
438.721	78.88
438.943	73.88
439.165	86.88
439.386	69.88
439.608	71.88
439.829	71.88
440.05	79.88
440.272	74.88
440.493	83.88
440.715	79.88
440.936	81.88
441.158	74.88
441.379	80.88
441.6	69.88
441.822	72.88
442.043	79.88
442.264	73.88
442.486	76.88
442.707	81.88
442.928	78.88
443.149	78.88
443.371	85.88
443.592	70.88
443.813	73.88
444.034	75.88
444.255	72.88
444.476	71.88
444.698	90.88
444.919	65.88
445.14	134.88
445.361	110.88
445.582	96.88
445.803	76.88
446.024	81.88
446.245	68.88
446.466	74.88
446.687	72.88
446.908	71.88
447.129	78.88
447.35	76.88
447.571	66.88
447.792	70.88
448.013	91.88
448.234	65.88
448.455	80.88
448.675	90.88
448.896	71.88
449.117	81.88
449.338	77.88
449.559	67.88
449.779	86.88
450	71.88
450.221	76.88
450.442	86.88
450.662	87.88
450.883	83.88
451.104	78.88
451.324	67.88
451.545	81.88
451.766	60.88
451.986	81.88
452.207	83.88
452.428	90.88
452.648	77.88
452.869	76.88
453.089	75.88
453.31	84.88
453.53	65.88
453.751	82.88
453.971	75.88
454.192	77.88
454.412	82.88
454.633	90.88
454.853	88.88
455.073	67.88
455.294	88.88
455.514	68.88
455.734	66.88
455.955	70.88
456.175	78.88
456.395	71.88
456.616	70.88
456.836	74.88
457.056	73.88
457.276	72.88
457.497	73.88
457.717	87.88
457.937	79.88
458.157	74.88
458.377	77.88
458.598	76.88
458.818	83.88
459.038	70.88
459.258	72.88
459.478	80.88
459.698	68.88
459.918	91.88
460.138	70.88
460.358	66.88
460.578	88.88
460.798	83.88
461.018	65.88
461.238	74.88
461.458	59.88
461.678	70.88
461.898	80.88
462.118	77.88
462.338	82.88
462.558	68.88
462.777	75.88
462.997	70.88
463.217	85.88
463.437	74.88
463.657	76.88
463.876	80.88
464.096	75.88
464.316	69.88
464.536	80.88
464.755	80.88
464.975	90.88
465.195	74.88
465.414	84.88
465.634	74.88
465.854	71.88
466.073	85.88
466.293	78.88
466.512	78.88
466.732	60.88
466.951	83.88
467.171	81.88
467.391	97.88
467.61	73.88
467.829	73.88
468.049	76.88
468.268	81.88
468.488	80.88
468.707	84.88
468.927	76.88
469.146	79.88
469.365	73.88
469.585	75.88
469.804	75.88
470.023	71.88
470.243	81.88
470.462	87.88
470.681	77.88
470.901	74.88
471.12	76.88
471.339	79.88
471.558	85.88
471.777	66.88
471.997	69.88
472.216	76.88
472.435	81.88
472.654	78.88
472.873	93.88
473.092	71.88
473.311	89.88
473.53	80.88
473.749	88.88
473.968	86.88
474.187	87.88
474.406	73.88
474.625	86.88
474.844	80.88
475.063	80.88
475.282	74.88
475.501	69.88
475.72	80.88
475.939	89.88
476.158	82.88
476.377	63.88
476.596	72.88
476.814	80.88
477.033	69.88
477.252	94.88
477.471	87.88
477.69	71.88
477.908	80.88
478.127	80.88
478.346	82.88
478.564	70.88
478.783	72.88
479.002	88.88
479.22	91.88
479.439	71.88
479.658	76.88
479.876	70.88
480.095	80.88
480.313	96.88
480.532	76.88
480.751	73.88
480.969	85.88
481.188	88.88
481.406	77.88
481.624	76.88
481.843	59.88
482.061	62.88
482.28	73.88
482.498	80.88
482.717	83.88
482.935	77.88
483.153	84.88
483.372	80.88
483.59	86.88
483.808	84.88
484.027	84.88
484.245	93.88
484.463	69.88
484.681	95.88
484.9	86.88
485.118	86.88
485.336	82.88
485.554	80.88
485.772	70.88
485.99	83.88
486.209	77.88
486.427	84.88
486.645	91.88
486.863	85.88
487.081	72.88
487.299	84.88
487.517	76.88
487.735	74.88
487.953	77.88
488.171	76.88
488.389	73.88
488.607	79.88
488.825	74.88
489.043	83.88
489.261	72.88
489.479	76.88
489.696	76.88
489.914	66.88
490.132	76.88
490.35	79.88
490.568	77.88
490.786	95.88
491.003	81.88
491.221	72.88
491.439	71.88
491.657	74.88
491.874	75.88
492.092	79.88
492.31	73.88
492.527	81.88
492.745	87.88
492.963	78.88
493.18	75.88
493.398	72.88
493.615	72.88
493.833	87.88
494.05	65.88
494.268	65.88
494.485	85.88
494.703	93.88
494.92	79.88
495.138	79.88
495.355	77.88
495.573	66.88
495.79	75.88
496.008	76.88
496.225	78.88
496.442	72.88
496.66	95.88
496.877	90.88
497.094	80.88
497.312	77.88
497.529	69.88
497.746	76.88
497.963	69.88
498.181	76.88
498.398	78.88
498.615	82.88
498.832	71.88
499.049	65.88
499.267	68.88
499.484	86.88
499.701	65.88
499.918	82.88
500.135	80.88
500.352	74.88
500.569	84.88
500.786	84.88
501.003	74.88
501.22	75.88
501.437	85.88
501.654	61.88
501.871	75.88
502.088	79.88
502.305	80.88
502.522	84.88
502.739	68.88
502.956	82.88
503.172	76.88
503.389	86.88
503.606	72.88
503.823	69.88
504.04	85.88
504.256	72.88
504.473	69.88
504.69	81.88
504.907	88.88
505.123	67.88
505.34	76.88
505.557	80.88
505.773	79.88
505.99	76.88
506.207	75.88
506.423	77.88
506.64	87.88
506.856	76.88
507.073	84.88
507.289	78.88
507.506	74.88
507.722	85.88
507.939	87.88
508.155	70.88
508.372	80.88
508.588	82.88
508.805	68.88
509.021	82.88
509.238	72.88
509.454	74.88
509.67	81.88
509.887	79.88
510.103	72.88
510.319	91.88
510.536	82.88
510.752	83.88
510.968	84.88
511.184	75.88
511.401	73.88
511.617	61.88
511.833	96.88
512.049	91.88
512.265	67.88
512.481	78.88
512.698	82.88
512.914	72.88
513.13	85.88
513.346	80.88
513.562	82.88
513.778	84.88
513.994	70.88
514.21	78.88
514.426	78.88
514.642	84.88
514.858	85.88
515.074	87.88
515.29	82.88
515.506	78.88
515.721	82.88
515.937	79.88
516.153	84.88
516.369	72.88
516.585	81.88
516.801	72.88
517.016	70.88
517.232	75.88
517.448	89.88
517.664	75.88
517.879	77.88
518.095	81.88
518.311	88.88
518.527	86.88
518.742	86.88
518.958	78.88
519.173	80.88
519.389	98.88
519.605	78.88
519.82	85.88
520.036	65.88
520.251	80.88
