Data from Background_1_HRD10591_00039.txt Node
Date: Wed Nov 05 14:39:17 EST 2025
User: Yrep
Spectrometer: HR+D1059
Trigger mode: 1
Integration Time (sec): 1.000000E-1
Scans to average: 1
Electric dark correction enabled: true
Nonlinearity correction enabled: false
Boxcar width: 0
XAxis mode: Wavelengths
Number of Pixels in Spectrum: 2048
>>>>>Begin Spectral Data<<<<<
223.165	-23.88
223.4	-23.88
223.635	-23.88
223.869	-11.88
224.104	-18.88
224.338	-2.88
224.573	-4.88
224.808	-19.88
225.042	-11.88
225.277	-2.88
225.511	-3.88
225.746	14.12
225.98	8.12
226.215	3.12
226.449	6.12
226.683	22.12
226.918	13.12
227.152	34.12
227.387	38.12
227.621	40.12
227.856	48.12
228.09	47.12
228.324	56.12
228.559	58.12
228.793	59.12
229.027	70.12
229.262	56.12
229.496	76.12
229.73	59.12
229.964	74.12
230.199	62.12
230.433	81.12
230.667	90.12
230.901	77.12
231.136	87.12
231.37	61.12
231.604	84.12
231.838	75.12
232.072	93.12
232.306	83.12
232.541	67.12
232.775	83.12
233.009	83.12
233.243	88.12
233.477	76.12
233.711	75.12
233.945	77.12
234.179	81.12
234.413	81.12
234.647	81.12
234.881	92.12
235.115	72.12
235.349	84.12
235.583	86.12
235.817	84.12
236.051	77.12
236.285	90.12
236.519	83.12
236.753	74.12
236.987	79.12
237.221	73.12
237.455	79.12
237.689	75.12
237.922	82.12
238.156	78.12
238.39	70.12
238.624	71.12
238.858	64.12
239.091	68.12
239.325	86.12
239.559	88.12
239.793	87.12
240.027	78.12
240.26	72.12
240.494	79.12
240.728	84.12
240.961	80.12
241.195	70.12
241.429	76.12
241.662	62.12
241.896	84.12
242.13	92.12
242.363	79.12
242.597	57.12
242.83	76.12
243.064	85.12
243.298	79.12
243.531	77.12
243.765	83.12
243.998	72.12
244.232	85.12
244.465	76.12
244.699	70.12
244.932	85.12
245.166	80.12
245.399	70.12
245.633	80.12
245.866	76.12
246.099	76.12
246.333	66.12
246.566	79.12
246.8	78.12
247.033	80.12
247.266	67.12
247.5	80.12
247.733	77.12
247.966	81.12
248.2	69.12
248.433	82.12
248.666	82.12
248.899	81.12
249.133	86.12
249.366	79.12
249.599	86.12
249.832	86.12
250.066	77.12
250.299	64.12
250.532	78.12
250.765	79.12
250.998	67.12
251.231	70.12
251.465	91.12
251.698	85.12
251.931	80.12
252.164	71.12
252.397	83.12
252.63	80.12
252.863	91.12
253.096	91.12
253.329	89.12
253.562	68.12
253.795	77.12
254.028	70.12
254.261	74.12
254.494	75.12
254.727	84.12
254.96	82.12
255.193	88.12
255.426	77.12
255.659	79.12
255.892	84.12
256.124	83.12
256.357	80.12
256.59	87.12
256.823	83.12
257.056	77.12
257.289	97.12
257.521	80.12
257.754	85.12
257.987	80.12
258.22	78.12
258.452	74.12
258.685	83.12
258.918	96.12
259.151	78.12
259.383	83.12
259.616	68.12
259.849	77.12
260.081	92.12
260.314	89.12
260.547	68.12
260.779	88.12
261.012	80.12
261.244	83.12
261.477	91.12
261.71	83.12
261.942	82.12
262.175	76.12
262.407	69.12
262.64	76.12
262.872	88.12
263.105	88.12
263.337	73.12
263.57	69.12
263.802	70.12
264.035	84.12
264.267	77.12
264.499	78.12
264.732	79.12
264.964	75.12
265.197	80.12
265.429	83.12
265.661	98.12
265.894	85.12
266.126	90.12
266.358	86.12
266.591	86.12
266.823	61.12
267.055	87.12
267.287	89.12
267.52	81.12
267.752	87.12
267.984	75.12
268.216	81.12
268.448	82.12
268.681	77.12
268.913	93.12
269.145	78.12
269.377	91.12
269.609	91.12
269.841	79.12
270.073	89.12
270.306	85.12
270.538	93.12
270.77	74.12
271.002	64.12
271.234	66.12
271.466	77.12
271.698	81.12
271.93	79.12
272.162	78.12
272.394	86.12
272.626	84.12
272.858	77.12
273.09	81.12
273.322	99.12
273.553	90.12
273.785	92.12
274.017	86.12
274.249	78.12
274.481	85.12
274.713	68.12
274.945	90.12
275.176	79.12
275.408	88.12
275.64	78.12
275.872	82.12
276.104	93.12
276.335	85.12
276.567	81.12
276.799	78.12
277.031	85.12
277.262	81.12
277.494	92.12
277.726	78.12
277.957	85.12
278.189	78.12
278.421	82.12
278.652	69.12
278.884	74.12
279.115	77.12
279.347	92.12
279.579	65.12
279.81	86.12
280.042	72.12
280.273	78.12
280.505	90.12
280.736	87.12
280.968	78.12
281.199	86.12
281.431	86.12
281.662	89.12
281.894	88.12
282.125	79.12
282.356	101.12
282.588	97.12
282.819	88.12
283.051	77.12
283.282	89.12
283.513	98.12
283.745	83.12
283.976	91.12
284.207	82.12
284.439	76.12
284.67	90.12
284.901	92.12
285.132	80.12
285.364	89.12
285.595	93.12
285.826	89.12
286.057	81.12
286.288	84.12
286.52	82.12
286.751	79.12
286.982	78.12
287.213	85.12
287.444	86.12
287.675	98.12
287.906	85.12
288.138	92.12
288.369	88.12
288.6	94.12
288.831	94.12
289.062	92.12
289.293	83.12
289.524	61.12
289.755	90.12
289.986	99.12
290.217	82.12
290.448	68.12
290.679	82.12
290.91	90.12
291.141	87.12
291.371	85.12
291.602	96.12
291.833	86.12
292.064	96.12
292.295	85.12
292.526	78.12
292.757	77.12
292.987	90.12
293.218	78.12
293.449	92.12
293.68	93.12
293.91	81.12
294.141	89.12
294.372	80.12
294.603	71.12
294.833	84.12
295.064	82.12
295.295	89.12
295.525	85.12
295.756	97.12
295.987	96.12
296.217	80.12
296.448	85.12
296.679	86.12
296.909	89.12
297.14	90.12
297.37	88.12
297.601	84.12
297.831	94.12
298.062	93.12
298.292	94.12
298.523	90.12
298.753	94.12
298.984	80.12
299.214	71.12
299.445	77.12
299.675	87.12
299.905	104.12
300.136	89.12
300.366	69.12
300.597	86.12
300.827	93.12
301.057	84.12
301.288	89.12
301.518	86.12
301.748	88.12
301.979	88.12
302.209	90.12
302.439	95.12
302.669	76.12
302.9	88.12
303.13	92.12
303.36	100.12
303.59	80.12
303.82	86.12
304.051	87.12
304.281	66.12
304.511	89.12
304.741	80.12
304.971	92.12
305.201	87.12
305.431	92.12
305.661	77.12
305.891	92.12
306.121	90.12
306.352	79.12
306.582	91.12
306.812	93.12
307.042	84.12
307.272	94.12
307.502	94.12
307.731	71.12
307.961	98.12
308.191	78.12
308.421	72.12
308.651	81.12
308.881	90.12
309.111	93.12
309.341	83.12
309.571	78.12
309.8	88.12
310.03	90.12
310.26	76.12
310.49	80.12
310.72	79.12
310.949	84.12
311.179	84.12
311.409	94.12
311.639	75.12
311.868	96.12
312.098	86.12
312.328	70.12
312.557	95.12
312.787	92.12
313.017	78.12
313.246	76.12
313.476	91.12
313.706	85.12
313.935	80.12
314.165	93.12
314.394	90.12
314.624	93.12
314.853	84.12
315.083	82.12
315.312	85.12
315.542	85.12
315.771	73.12
316.001	84.12
316.23	98.12
316.46	90.12
316.689	85.12
316.919	88.12
317.148	82.12
317.377	85.12
317.607	83.12
317.836	96.12
318.065	86.12
318.295	81.12
318.524	85.12
318.753	76.12
318.983	84.12
319.212	95.12
319.441	88.12
319.67	111.12
319.9	84.12
320.129	80.12
320.358	85.12
320.587	80.12
320.816	71.12
321.046	83.12
321.275	88.12
321.504	78.12
321.733	100.12
321.962	85.12
322.191	89.12
322.42	93.12
322.649	90.12
322.878	77.12
323.108	88.12
323.337	88.12
323.566	87.12
323.795	86.12
324.024	68.12
324.253	76.12
324.482	72.12
324.71	86.12
324.939	83.12
325.168	80.12
325.397	92.12
325.626	100.12
325.855	95.12
326.084	94.12
326.313	85.12
326.542	82.12
326.77	80.12
326.999	81.12
327.228	98.12
327.457	88.12
327.686	82.12
327.914	80.12
328.143	74.12
328.372	85.12
328.6	93.12
328.829	76.12
329.058	84.12
329.287	85.12
329.515	94.12
329.744	81.12
329.972	68.12
330.201	85.12
330.43	89.12
330.658	89.12
330.887	82.12
331.115	100.12
331.344	101.12
331.572	94.12
331.801	86.12
332.03	88.12
332.258	79.12
332.486	73.12
332.715	85.12
332.943	79.12
333.172	86.12
333.4	72.12
333.629	85.12
333.857	70.12
334.085	86.12
334.314	97.12
334.542	81.12
334.771	84.12
334.999	101.12
335.227	90.12
335.455	84.12
335.684	106.12
335.912	82.12
336.14	83.12
336.369	83.12
336.597	80.12
336.825	78.12
337.053	87.12
337.281	80.12
337.51	86.12
337.738	83.12
337.966	90.12
338.194	81.12
338.422	92.12
338.65	70.12
338.878	77.12
339.106	80.12
339.334	86.12
339.562	68.12
339.79	90.12
340.018	82.12
340.246	75.12
340.474	82.12
340.702	86.12
340.93	78.12
341.158	92.12
341.386	71.12
341.614	84.12
341.842	82.12
342.07	82.12
342.298	80.12
342.526	93.12
342.754	79.12
342.981	75.12
343.209	96.12
343.437	98.12
343.665	85.12
343.893	91.12
344.12	88.12
344.348	90.12
344.576	84.12
344.804	80.12
345.031	76.12
345.259	88.12
345.487	89.12
345.714	78.12
345.942	79.12
346.17	87.12
346.397	78.12
346.625	97.12
346.853	83.12
347.08	77.12
347.308	93.12
347.535	90.12
347.763	77.12
347.99	99.12
348.218	78.12
348.445	74.12
348.673	93.12
348.9	94.12
349.128	77.12
349.355	76.12
349.583	81.12
349.81	93.12
350.037	94.12
350.265	77.12
350.492	73.12
350.72	80.12
350.947	92.12
351.174	86.12
351.402	87.12
351.629	76.12
351.856	92.12
352.083	82.12
352.311	84.12
352.538	74.12
352.765	88.12
352.992	80.12
353.22	87.12
353.447	108.12
353.674	74.12
353.901	96.12
354.128	83.12
354.355	82.12
354.583	83.12
354.81	82.12
355.037	87.12
355.264	76.12
355.491	92.12
355.718	92.12
355.945	74.12
356.172	86.12
356.399	79.12
356.626	82.12
356.853	78.12
357.08	90.12
357.307	80.12
357.534	74.12
357.761	89.12
357.988	87.12
358.215	82.12
358.441	96.12
358.668	98.12
358.895	90.12
359.122	94.12
359.349	81.12
359.576	90.12
359.802	88.12
360.029	81.12
360.256	92.12
360.483	97.12
360.709	83.12
360.936	91.12
361.163	84.12
361.39	90.12
361.616	92.12
361.843	82.12
362.07	85.12
362.296	79.12
362.523	90.12
362.749	82.12
362.976	89.12
363.203	94.12
363.429	86.12
363.656	82.12
363.882	91.12
364.109	80.12
364.335	98.12
364.562	81.12
364.788	93.12
365.015	84.12
365.241	84.12
365.468	92.12
365.694	81.12
365.92	76.12
366.147	83.12
366.373	81.12
366.599	89.12
366.826	88.12
367.052	75.12
367.278	77.12
367.505	82.12
367.731	96.12
367.957	91.12
368.184	85.12
368.41	84.12
368.636	88.12
368.862	82.12
369.089	83.12
369.315	76.12
369.541	87.12
369.767	83.12
369.993	87.12
370.219	86.12
370.445	93.12
370.672	90.12
370.898	75.12
371.124	89.12
371.35	82.12
371.576	72.12
371.802	87.12
372.028	84.12
372.254	77.12
372.48	74.12
372.706	89.12
372.932	82.12
373.158	77.12
373.384	89.12
373.61	90.12
373.835	86.12
374.061	82.12
374.287	92.12
374.513	73.12
374.739	77.12
374.965	82.12
375.191	80.12
375.416	65.12
375.642	72.12
375.868	96.12
376.094	82.12
376.319	86.12
376.545	85.12
376.771	81.12
376.997	76.12
377.222	80.12
377.448	87.12
377.674	80.12
377.899	94.12
378.125	85.12
378.35	82.12
378.576	89.12
378.802	88.12
379.027	73.12
379.253	94.12
379.478	88.12
379.704	83.12
379.929	86.12
380.155	93.12
380.38	90.12
380.606	84.12
380.831	77.12
381.057	78.12
381.282	85.12
381.507	78.12
381.733	73.12
381.958	78.12
382.184	77.12
382.409	75.12
382.634	91.12
382.86	90.12
383.085	76.12
383.31	80.12
383.535	80.12
383.761	86.12
383.986	83.12
384.211	97.12
384.436	76.12
384.662	86.12
384.887	81.12
385.112	92.12
385.337	78.12
385.562	80.12
385.787	79.12
386.013	77.12
386.238	92.12
386.463	80.12
386.688	101.12
386.913	82.12
387.138	90.12
387.363	88.12
387.588	95.12
387.813	79.12
388.038	84.12
388.263	82.12
388.488	90.12
388.713	81.12
388.938	74.12
389.163	85.12
389.387	84.12
389.612	94.12
389.837	91.12
390.062	82.12
390.287	97.12
390.512	73.12
390.736	81.12
390.961	75.12
391.186	74.12
391.411	81.12
391.636	80.12
391.86	80.12
392.085	92.12
392.31	85.12
392.534	80.12
392.759	91.12
392.984	90.12
393.208	86.12
393.433	92.12
393.658	86.12
393.882	74.12
394.107	76.12
394.331	85.12
394.556	84.12
394.78	70.12
395.005	94.12
395.229	82.12
395.454	100.12
395.678	92.12
395.903	78.12
396.127	75.12
396.352	79.12
396.576	84.12
396.801	88.12
397.025	73.12
397.249	81.12
397.474	82.12
397.698	86.12
397.922	90.12
398.147	84.12
398.371	86.12
398.595	82.12
398.82	86.12
399.044	82.12
399.268	83.12
399.492	83.12
399.717	79.12
399.941	101.12
400.165	84.12
400.389	74.12
400.613	84.12
400.837	74.12
401.062	69.12
401.286	74.12
401.51	81.12
401.734	75.12
401.958	85.12
402.182	79.12
402.406	88.12
402.63	90.12
402.854	88.12
403.078	91.12
403.302	79.12
403.526	79.12
403.75	83.12
403.974	81.12
404.198	101.12
404.422	75.12
404.645	90.12
404.869	84.12
405.093	86.12
405.317	79.12
405.541	91.12
405.765	84.12
405.988	86.12
406.212	88.12
406.436	90.12
406.66	79.12
406.883	69.12
407.107	83.12
407.331	83.12
407.555	92.12
407.778	78.12
408.002	84.12
408.226	100.12
408.449	69.12
408.673	78.12
408.896	78.12
409.12	89.12
409.344	86.12
409.567	87.12
409.791	74.12
410.014	68.12
410.238	86.12
410.461	92.12
410.685	76.12
410.908	85.12
411.132	105.12
411.355	76.12
411.578	88.12
411.802	92.12
412.025	82.12
412.249	88.12
412.472	78.12
412.695	89.12
412.919	75.12
413.142	78.12
413.365	74.12
413.589	82.12
413.812	71.12
414.035	77.12
414.258	78.12
414.482	88.12
414.705	84.12
414.928	76.12
415.151	84.12
415.374	82.12
415.597	74.12
415.821	93.12
416.044	82.12
416.267	68.12
416.49	84.12
416.713	86.12
416.936	84.12
417.159	75.12
417.382	76.12
417.605	83.12
417.828	95.12
418.051	89.12
418.274	93.12
418.497	91.12
418.72	92.12
418.943	95.12
419.166	75.12
419.389	84.12
419.611	95.12
419.834	70.12
420.057	78.12
420.28	94.12
420.503	84.12
420.726	96.12
420.948	70.12
421.171	97.12
421.394	86.12
421.617	80.12
421.839	70.12
422.062	85.12
422.285	82.12
422.507	85.12
422.73	78.12
422.953	82.12
423.175	84.12
423.398	73.12
423.621	90.12
423.843	86.12
424.066	86.12
424.288	96.12
424.511	82.12
424.733	82.12
424.956	85.12
425.178	76.12
425.401	82.12
425.623	82.12
425.846	71.12
426.068	75.12
426.291	75.12
426.513	70.12
426.735	85.12
426.958	86.12
427.18	74.12
427.402	96.12
427.625	80.12
427.847	95.12
428.069	90.12
428.292	85.12
428.514	68.12
428.736	84.12
428.958	91.12
429.181	90.12
429.403	65.12
429.625	79.12
429.847	77.12
430.069	80.12
430.292	87.12
430.514	90.12
430.736	89.12
430.958	84.12
431.18	74.12
431.402	85.12
431.624	84.12
431.846	82.12
432.068	91.12
432.29	89.12
432.512	105.12
432.734	71.12
432.956	94.12
433.178	79.12
433.4	78.12
433.622	68.12
433.844	82.12
434.066	106.12
434.287	84.12
434.509	86.12
434.731	78.12
434.953	73.12
435.175	81.12
435.397	82.12
435.618	95.12
435.84	82.12
436.062	89.12
436.284	94.12
436.505	83.12
436.727	102.12
436.949	85.12
437.17	86.12
437.392	84.12
437.614	75.12
437.835	74.12
438.057	85.12
438.278	82.12
438.5	93.12
438.721	70.12
438.943	75.12
439.165	76.12
439.386	81.12
439.608	86.12
439.829	93.12
440.05	69.12
440.272	81.12
440.493	90.12
440.715	82.12
440.936	88.12
441.158	96.12
441.379	86.12
441.6	77.12
441.822	84.12
442.043	82.12
442.264	91.12
442.486	78.12
442.707	81.12
442.928	84.12
443.149	86.12
443.371	92.12
443.592	77.12
443.813	91.12
444.034	80.12
444.255	95.12
444.476	72.12
444.698	78.12
444.919	95.12
445.14	158.12
445.361	113.12
445.582	87.12
445.803	94.12
446.024	84.12
446.245	79.12
446.466	84.12
446.687	87.12
446.908	95.12
447.129	80.12
447.35	85.12
447.571	85.12
447.792	94.12
448.013	72.12
448.234	79.12
448.455	92.12
448.675	88.12
448.896	95.12
449.117	74.12
449.338	77.12
449.559	78.12
449.779	82.12
450	96.12
450.221	86.12
450.442	65.12
450.662	77.12
450.883	84.12
451.104	84.12
451.324	80.12
451.545	86.12
451.766	81.12
451.986	77.12
452.207	91.12
452.428	74.12
452.648	91.12
452.869	95.12
453.089	76.12
453.31	84.12
453.53	89.12
453.751	60.12
453.971	84.12
454.192	77.12
454.412	80.12
454.633	69.12
454.853	74.12
455.073	78.12
455.294	90.12
455.514	93.12
455.734	86.12
455.955	81.12
456.175	93.12
456.395	80.12
456.616	90.12
456.836	89.12
457.056	100.12
457.276	85.12
457.497	80.12
457.717	81.12
457.937	78.12
458.157	81.12
458.377	81.12
458.598	95.12
458.818	82.12
459.038	79.12
459.258	77.12
459.478	81.12
459.698	88.12
459.918	88.12
460.138	72.12
460.358	78.12
460.578	79.12
460.798	89.12
461.018	81.12
461.238	91.12
461.458	94.12
461.678	81.12
461.898	83.12
462.118	79.12
462.338	68.12
462.558	76.12
462.777	78.12
462.997	89.12
463.217	76.12
463.437	79.12
463.657	96.12
463.876	89.12
464.096	78.12
464.316	74.12
464.536	87.12
464.755	78.12
464.975	78.12
465.195	92.12
465.414	88.12
465.634	82.12
465.854	94.12
466.073	92.12
466.293	87.12
466.512	83.12
466.732	84.12
466.951	78.12
467.171	84.12
467.391	77.12
467.61	92.12
467.829	87.12
468.049	84.12
468.268	84.12
468.488	92.12
468.707	79.12
468.927	82.12
469.146	81.12
469.365	74.12
469.585	86.12
469.804	81.12
470.023	79.12
470.243	96.12
470.462	73.12
470.681	75.12
470.901	81.12
471.12	84.12
471.339	71.12
471.558	96.12
471.777	92.12
471.997	93.12
472.216	96.12
472.435	82.12
472.654	83.12
472.873	88.12
473.092	82.12
473.311	94.12
473.53	86.12
473.749	67.12
473.968	78.12
474.187	86.12
474.406	76.12
474.625	83.12
474.844	79.12
475.063	86.12
475.282	88.12
475.501	79.12
475.72	83.12
475.939	86.12
476.158	87.12
476.377	82.12
476.596	75.12
476.814	81.12
477.033	78.12
477.252	85.12
477.471	73.12
477.69	90.12
477.908	68.12
478.127	84.12
478.346	74.12
478.564	88.12
478.783	92.12
479.002	64.12
479.22	80.12
479.439	82.12
479.658	82.12
479.876	86.12
480.095	78.12
480.313	92.12
480.532	88.12
480.751	97.12
480.969	71.12
481.188	77.12
481.406	76.12
481.624	85.12
481.843	80.12
482.061	79.12
482.28	92.12
482.498	83.12
482.717	97.12
482.935	89.12
483.153	85.12
483.372	67.12
483.59	72.12
483.808	90.12
484.027	104.12
484.245	94.12
484.463	92.12
484.681	84.12
484.9	76.12
485.118	94.12
485.336	93.12
485.554	89.12
485.772	83.12
485.99	108.12
486.209	78.12
486.427	83.12
486.645	80.12
486.863	76.12
487.081	101.12
487.299	78.12
487.517	87.12
487.735	87.12
487.953	84.12
488.171	100.12
488.389	91.12
488.607	75.12
488.825	92.12
489.043	79.12
489.261	84.12
489.479	85.12
489.696	90.12
489.914	96.12
490.132	95.12
490.35	101.12
490.568	83.12
490.786	86.12
491.003	84.12
491.221	89.12
491.439	85.12
491.657	89.12
491.874	92.12
492.092	100.12
492.31	77.12
492.527	72.12
492.745	67.12
492.963	88.12
493.18	78.12
493.398	92.12
493.615	98.12
493.833	81.12
494.05	96.12
494.268	82.12
494.485	93.12
494.703	92.12
494.92	76.12
495.138	79.12
495.355	85.12
495.573	89.12
495.79	96.12
496.008	89.12
496.225	77.12
496.442	78.12
496.66	83.12
496.877	82.12
497.094	82.12
497.312	88.12
497.529	93.12
497.746	72.12
497.963	81.12
498.181	95.12
498.398	82.12
498.615	80.12
498.832	83.12
499.049	84.12
499.267	81.12
499.484	88.12
499.701	98.12
499.918	81.12
500.135	74.12
500.352	89.12
500.569	93.12
500.786	81.12
501.003	69.12
501.22	83.12
501.437	72.12
501.654	75.12
501.871	83.12
502.088	109.12
502.305	79.12
502.522	86.12
502.739	86.12
502.956	94.12
503.172	97.12
503.389	86.12
503.606	90.12
503.823	77.12
504.04	83.12
504.256	92.12
504.473	74.12
504.69	67.12
504.907	87.12
505.123	76.12
505.34	93.12
505.557	80.12
505.773	80.12
505.99	80.12
506.207	90.12
506.423	96.12
506.64	84.12
506.856	91.12
507.073	90.12
507.289	96.12
507.506	82.12
507.722	67.12
507.939	78.12
508.155	84.12
508.372	99.12
508.588	85.12
508.805	79.12
509.021	86.12
509.238	91.12
509.454	93.12
509.67	89.12
509.887	75.12
510.103	86.12
510.319	86.12
510.536	86.12
510.752	97.12
510.968	88.12
511.184	94.12
511.401	91.12
511.617	84.12
511.833	78.12
512.049	87.12
512.265	84.12
512.481	79.12
512.698	88.12
512.914	82.12
513.13	78.12
513.346	74.12
513.562	78.12
513.778	73.12
513.994	101.12
514.21	86.12
514.426	82.12
514.642	81.12
514.858	88.12
515.074	75.12
515.29	68.12
515.506	91.12
515.721	84.12
515.937	84.12
516.153	61.12
516.369	93.12
516.585	94.12
516.801	90.12
517.016	91.12
517.232	80.12
517.448	81.12
517.664	91.12
517.879	76.12
518.095	83.12
518.311	70.12
518.527	85.12
518.742	94.12
518.958	90.12
519.173	81.12
519.389	87.12
519.605	93.12
519.82	84.12
