Data from Background_1_HRD10591_00068.txt Node
Date: Wed Nov 05 14:39:31 EST 2025
User: Yrep
Spectrometer: HR+D1059
Trigger mode: 1
Integration Time (sec): 1.000000E-1
Scans to average: 1
Electric dark correction enabled: true
Nonlinearity correction enabled: false
Boxcar width: 0
XAxis mode: Wavelengths
Number of Pixels in Spectrum: 2048
>>>>>Begin Spectral Data<<<<<
223.165	-19.69
223.4	-19.69
223.635	-19.69
223.869	-19.69
224.104	-18.69
224.338	1.31
224.573	-17.69
224.808	-10.69
225.042	-7.69
225.277	-16.69
225.511	-1.69
225.746	6.31
225.98	1.31
226.215	19.31
226.449	4.31
226.683	16.31
226.918	32.31
227.152	31.31
227.387	41.31
227.621	35.31
227.856	43.31
228.09	29.31
228.324	27.31
228.559	49.31
228.793	59.31
229.027	79.31
229.262	43.31
229.496	76.31
229.73	67.31
229.964	67.31
230.199	64.31
230.433	63.31
230.667	65.31
230.901	83.31
231.136	77.31
231.37	63.31
231.604	83.31
231.838	85.31
232.072	71.31
232.306	73.31
232.541	83.31
232.775	89.31
233.009	81.31
233.243	89.31
233.477	74.31
233.711	89.31
233.945	76.31
234.179	95.31
234.413	81.31
234.647	76.31
234.881	60.31
235.115	80.31
235.349	73.31
235.583	77.31
235.817	68.31
236.051	86.31
236.285	68.31
236.519	69.31
236.753	73.31
236.987	75.31
237.221	83.31
237.455	72.31
237.689	64.31
237.922	75.31
238.156	71.31
238.39	73.31
238.624	64.31
238.858	74.31
239.091	72.31
239.325	67.31
239.559	61.31
239.793	66.31
240.027	61.31
240.26	59.31
240.494	67.31
240.728	70.31
240.961	75.31
241.195	72.31
241.429	86.31
241.662	77.31
241.896	72.31
242.13	69.31
242.363	47.31
242.597	69.31
242.83	69.31
243.064	88.31
243.298	75.31
243.531	74.31
243.765	57.31
243.998	69.31
244.232	79.31
244.465	61.31
244.699	71.31
244.932	57.31
245.166	75.31
245.399	80.31
245.633	83.31
245.866	75.31
246.099	61.31
246.333	71.31
246.566	64.31
246.8	73.31
247.033	82.31
247.266	63.31
247.5	61.31
247.733	77.31
247.966	81.31
248.2	86.31
248.433	73.31
248.666	85.31
248.899	76.31
249.133	69.31
249.366	88.31
249.599	69.31
249.832	83.31
250.066	73.31
250.299	70.31
250.532	76.31
250.765	70.31
250.998	74.31
251.231	88.31
251.465	79.31
251.698	62.31
251.931	73.31
252.164	77.31
252.397	65.31
252.63	72.31
252.863	89.31
253.096	73.31
253.329	91.31
253.562	71.31
253.795	66.31
254.028	83.31
254.261	76.31
254.494	77.31
254.727	76.31
254.96	74.31
255.193	81.31
255.426	91.31
255.659	63.31
255.892	71.31
256.124	72.31
256.357	72.31
256.59	64.31
256.823	66.31
257.056	71.31
257.289	71.31
257.521	63.31
257.754	77.31
257.987	81.31
258.22	86.31
258.452	71.31
258.685	67.31
258.918	69.31
259.151	93.31
259.383	76.31
259.616	82.31
259.849	85.31
260.081	77.31
260.314	83.31
260.547	81.31
260.779	74.31
261.012	76.31
261.244	68.31
261.477	78.31
261.71	79.31
261.942	85.31
262.175	83.31
262.407	77.31
262.64	75.31
262.872	84.31
263.105	75.31
263.337	73.31
263.57	82.31
263.802	75.31
264.035	79.31
264.267	75.31
264.499	78.31
264.732	83.31
264.964	75.31
265.197	80.31
265.429	75.31
265.661	85.31
265.894	71.31
266.126	78.31
266.358	72.31
266.591	80.31
266.823	78.31
267.055	73.31
267.287	95.31
267.52	88.31
267.752	75.31
267.984	79.31
268.216	82.31
268.448	76.31
268.681	91.31
268.913	86.31
269.145	81.31
269.377	75.31
269.609	78.31
269.841	76.31
270.073	87.31
270.306	75.31
270.538	79.31
270.77	80.31
271.002	79.31
271.234	72.31
271.466	84.31
271.698	84.31
271.93	72.31
272.162	76.31
272.394	78.31
272.626	73.31
272.858	91.31
273.09	85.31
273.322	71.31
273.553	83.31
273.785	65.31
274.017	75.31
274.249	84.31
274.481	87.31
274.713	83.31
274.945	83.31
275.176	79.31
275.408	71.31
275.64	68.31
275.872	72.31
276.104	65.31
276.335	67.31
276.567	85.31
276.799	94.31
277.031	75.31
277.262	72.31
277.494	75.31
277.726	74.31
277.957	83.31
278.189	72.31
278.421	96.31
278.652	77.31
278.884	74.31
279.115	70.31
279.347	77.31
279.579	86.31
279.81	71.31
280.042	75.31
280.273	68.31
280.505	72.31
280.736	78.31
280.968	89.31
281.199	67.31
281.431	74.31
281.662	70.31
281.894	78.31
282.125	80.31
282.356	70.31
282.588	78.31
282.819	83.31
283.051	79.31
283.282	81.31
283.513	87.31
283.745	78.31
283.976	87.31
284.207	81.31
284.439	67.31
284.67	80.31
284.901	75.31
285.132	76.31
285.364	80.31
285.595	89.31
285.826	73.31
286.057	76.31
286.288	79.31
286.52	86.31
286.751	79.31
286.982	71.31
287.213	77.31
287.444	78.31
287.675	79.31
287.906	71.31
288.138	63.31
288.369	71.31
288.6	82.31
288.831	74.31
289.062	82.31
289.293	83.31
289.524	80.31
289.755	77.31
289.986	67.31
290.217	78.31
290.448	79.31
290.679	81.31
290.91	80.31
291.141	89.31
291.371	80.31
291.602	83.31
291.833	83.31
292.064	81.31
292.295	83.31
292.526	81.31
292.757	76.31
292.987	77.31
293.218	77.31
293.449	73.31
293.68	69.31
293.91	75.31
294.141	86.31
294.372	91.31
294.603	91.31
294.833	83.31
295.064	63.31
295.295	78.31
295.525	79.31
295.756	92.31
295.987	90.31
296.217	84.31
296.448	71.31
296.679	75.31
296.909	72.31
297.14	91.31
297.37	91.31
297.601	76.31
297.831	74.31
298.062	89.31
298.292	81.31
298.523	80.31
298.753	87.31
298.984	91.31
299.214	72.31
299.445	84.31
299.675	90.31
299.905	83.31
300.136	70.31
300.366	85.31
300.597	89.31
300.827	81.31
301.057	87.31
301.288	73.31
301.518	91.31
301.748	73.31
301.979	87.31
302.209	84.31
302.439	85.31
302.669	80.31
302.9	97.31
303.13	83.31
303.36	71.31
303.59	80.31
303.82	88.31
304.051	77.31
304.281	70.31
304.511	81.31
304.741	72.31
304.971	63.31
305.201	76.31
305.431	83.31
305.661	75.31
305.891	77.31
306.121	92.31
306.352	73.31
306.582	77.31
306.812	80.31
307.042	76.31
307.272	80.31
307.502	92.31
307.731	77.31
307.961	102.31
308.191	72.31
308.421	68.31
308.651	72.31
308.881	68.31
309.111	90.31
309.341	91.31
309.571	69.31
309.8	79.31
310.03	81.31
310.26	99.31
310.49	91.31
310.72	70.31
310.949	76.31
311.179	83.31
311.409	65.31
311.639	76.31
311.868	93.31
312.098	85.31
312.328	80.31
312.557	88.31
312.787	76.31
313.017	85.31
313.246	73.31
313.476	69.31
313.706	79.31
313.935	79.31
314.165	91.31
314.394	79.31
314.624	64.31
314.853	75.31
315.083	72.31
315.312	61.31
315.542	71.31
315.771	83.31
316.001	94.31
316.23	93.31
316.46	80.31
316.689	74.31
316.919	83.31
317.148	80.31
317.377	78.31
317.607	104.31
317.836	96.31
318.065	86.31
318.295	76.31
318.524	99.31
318.753	83.31
318.983	69.31
319.212	81.31
319.441	76.31
319.67	79.31
319.9	83.31
320.129	89.31
320.358	71.31
320.587	70.31
320.816	83.31
321.046	77.31
321.275	84.31
321.504	88.31
321.733	85.31
321.962	83.31
322.191	78.31
322.42	83.31
322.649	80.31
322.878	89.31
323.108	80.31
323.337	77.31
323.566	76.31
323.795	68.31
324.024	61.31
324.253	84.31
324.482	78.31
324.71	84.31
324.939	76.31
325.168	73.31
325.397	75.31
325.626	89.31
325.855	73.31
326.084	83.31
326.313	86.31
326.542	79.31
326.77	79.31
326.999	90.31
327.228	73.31
327.457	64.31
327.686	79.31
327.914	78.31
328.143	87.31
328.372	64.31
328.6	80.31
328.829	83.31
329.058	79.31
329.287	65.31
329.515	69.31
329.744	72.31
329.972	82.31
330.201	73.31
330.43	86.31
330.658	82.31
330.887	90.31
331.115	84.31
331.344	82.31
331.572	91.31
331.801	66.31
332.03	68.31
332.258	97.31
332.486	83.31
332.715	81.31
332.943	82.31
333.172	64.31
333.4	75.31
333.629	83.31
333.857	84.31
334.085	87.31
334.314	72.31
334.542	73.31
334.771	72.31
334.999	86.31
335.227	78.31
335.455	85.31
335.684	81.31
335.912	83.31
336.14	77.31
336.369	77.31
336.597	80.31
336.825	90.31
337.053	75.31
337.281	83.31
337.51	79.31
337.738	79.31
337.966	86.31
338.194	83.31
338.422	79.31
338.65	87.31
338.878	80.31
339.106	90.31
339.334	77.31
339.562	91.31
339.79	81.31
340.018	72.31
340.246	68.31
340.474	89.31
340.702	70.31
340.93	84.31
341.158	79.31
341.386	76.31
341.614	86.31
341.842	89.31
342.07	83.31
342.298	77.31
342.526	73.31
342.754	87.31
342.981	75.31
343.209	69.31
343.437	91.31
343.665	78.31
343.893	88.31
344.12	77.31
344.348	66.31
344.576	92.31
344.804	86.31
345.031	78.31
345.259	61.31
345.487	85.31
345.714	72.31
345.942	75.31
346.17	75.31
346.397	84.31
346.625	83.31
346.853	82.31
347.08	71.31
347.308	76.31
347.535	79.31
347.763	91.31
347.99	73.31
348.218	78.31
348.445	69.31
348.673	83.31
348.9	79.31
349.128	80.31
349.355	70.31
349.583	77.31
349.81	73.31
350.037	85.31
350.265	66.31
350.492	75.31
350.72	74.31
350.947	82.31
351.174	89.31
351.402	87.31
351.629	65.31
351.856	88.31
352.083	61.31
352.311	73.31
352.538	68.31
352.765	119.31
352.992	92.31
353.22	71.31
353.447	72.31
353.674	80.31
353.901	83.31
354.128	70.31
354.355	70.31
354.583	81.31
354.81	79.31
355.037	79.31
355.264	88.31
355.491	79.31
355.718	91.31
355.945	89.31
356.172	97.31
356.399	66.31
356.626	61.31
356.853	67.31
357.08	84.31
357.307	83.31
357.534	82.31
357.761	87.31
357.988	73.31
358.215	86.31
358.441	81.31
358.668	58.31
358.895	81.31
359.122	83.31
359.349	81.31
359.576	80.31
359.802	77.31
360.029	96.31
360.256	74.31
360.483	80.31
360.709	87.31
360.936	84.31
361.163	79.31
361.39	68.31
361.616	79.31
361.843	78.31
362.07	72.31
362.296	71.31
362.523	72.31
362.749	65.31
362.976	92.31
363.203	77.31
363.429	84.31
363.656	81.31
363.882	72.31
364.109	71.31
364.335	79.31
364.562	76.31
364.788	72.31
365.015	83.31
365.241	71.31
365.468	71.31
365.694	80.31
365.92	79.31
366.147	79.31
366.373	76.31
366.599	69.31
366.826	78.31
367.052	82.31
367.278	85.31
367.505	69.31
367.731	74.31
367.957	74.31
368.184	77.31
368.41	83.31
368.636	88.31
368.862	86.31
369.089	81.31
369.315	75.31
369.541	73.31
369.767	69.31
369.993	78.31
370.219	69.31
370.445	75.31
370.672	77.31
370.898	66.31
371.124	73.31
371.35	78.31
371.576	84.31
371.802	76.31
372.028	64.31
372.254	75.31
372.48	87.31
372.706	71.31
372.932	71.31
373.158	76.31
373.384	71.31
373.61	77.31
373.835	94.31
374.061	80.31
374.287	64.31
374.513	79.31
374.739	79.31
374.965	72.31
375.191	91.31
375.416	85.31
375.642	89.31
375.868	84.31
376.094	76.31
376.319	73.31
376.545	85.31
376.771	89.31
376.997	92.31
377.222	80.31
377.448	77.31
377.674	79.31
377.899	88.31
378.125	79.31
378.35	74.31
378.576	70.31
378.802	79.31
379.027	80.31
379.253	87.31
379.478	71.31
379.704	78.31
379.929	74.31
380.155	78.31
380.38	77.31
380.606	92.31
380.831	85.31
381.057	79.31
381.282	72.31
381.507	72.31
381.733	79.31
381.958	75.31
382.184	62.31
382.409	61.31
382.634	76.31
382.86	72.31
383.085	83.31
383.31	75.31
383.535	68.31
383.761	86.31
383.986	90.31
384.211	73.31
384.436	65.31
384.662	80.31
384.887	77.31
385.112	72.31
385.337	76.31
385.562	76.31
385.787	71.31
386.013	78.31
386.238	86.31
386.463	83.31
386.688	86.31
386.913	83.31
387.138	83.31
387.363	79.31
387.588	78.31
387.813	80.31
388.038	72.31
388.263	81.31
388.488	77.31
388.713	79.31
388.938	85.31
389.163	80.31
389.387	71.31
389.612	74.31
389.837	77.31
390.062	73.31
390.287	81.31
390.512	79.31
390.736	69.31
390.961	78.31
391.186	79.31
391.411	95.31
391.636	78.31
391.86	87.31
392.085	61.31
392.31	75.31
392.534	71.31
392.759	77.31
392.984	74.31
393.208	74.31
393.433	84.31
393.658	75.31
393.882	71.31
394.107	86.31
394.331	63.31
394.556	77.31
394.78	71.31
395.005	79.31
395.229	79.31
395.454	80.31
395.678	77.31
395.903	87.31
396.127	80.31
396.352	78.31
396.576	81.31
396.801	86.31
397.025	80.31
397.249	78.31
397.474	102.31
397.698	89.31
397.922	86.31
398.147	75.31
398.371	62.31
398.595	76.31
398.82	65.31
399.044	89.31
399.268	71.31
399.492	71.31
399.717	71.31
399.941	71.31
400.165	79.31
400.389	74.31
400.613	77.31
400.837	78.31
401.062	82.31
401.286	89.31
401.51	95.31
401.734	71.31
401.958	74.31
402.182	74.31
402.406	74.31
402.63	73.31
402.854	90.31
403.078	71.31
403.302	77.31
403.526	61.31
403.75	70.31
403.974	75.31
404.198	72.31
404.422	87.31
404.645	81.31
404.869	78.31
405.093	79.31
405.317	78.31
405.541	72.31
405.765	67.31
405.988	77.31
406.212	83.31
406.436	73.31
406.66	77.31
406.883	74.31
407.107	73.31
407.331	82.31
407.555	63.31
407.778	73.31
408.002	72.31
408.226	80.31
408.449	70.31
408.673	84.31
408.896	65.31
409.12	75.31
409.344	70.31
409.567	84.31
409.791	88.31
410.014	70.31
410.238	57.31
410.461	81.31
410.685	88.31
410.908	79.31
411.132	75.31
411.355	80.31
411.578	69.31
411.802	68.31
412.025	67.31
412.249	76.31
412.472	89.31
412.695	69.31
412.919	70.31
413.142	84.31
413.365	79.31
413.589	71.31
413.812	64.31
414.035	90.31
414.258	79.31
414.482	71.31
414.705	74.31
414.928	95.31
415.151	65.31
415.374	74.31
415.597	74.31
415.821	65.31
416.044	83.31
416.267	76.31
416.49	75.31
416.713	92.31
416.936	72.31
417.159	83.31
417.382	80.31
417.605	80.31
417.828	85.31
418.051	72.31
418.274	88.31
418.497	76.31
418.72	75.31
418.943	79.31
419.166	75.31
419.389	68.31
419.611	83.31
419.834	73.31
420.057	77.31
420.28	88.31
420.503	72.31
420.726	75.31
420.948	78.31
421.171	69.31
421.394	77.31
421.617	88.31
421.839	79.31
422.062	67.31
422.285	66.31
422.507	80.31
422.73	74.31
422.953	76.31
423.175	78.31
423.398	80.31
423.621	75.31
423.843	75.31
424.066	62.31
424.288	72.31
424.511	65.31
424.733	77.31
424.956	66.31
425.178	83.31
425.401	66.31
425.623	66.31
425.846	65.31
426.068	69.31
426.291	86.31
426.513	64.31
426.735	64.31
426.958	83.31
427.18	83.31
427.402	70.31
427.625	84.31
427.847	79.31
428.069	96.31
428.292	78.31
428.514	66.31
428.736	75.31
428.958	78.31
429.181	83.31
429.403	79.31
429.625	95.31
429.847	74.31
430.069	75.31
430.292	87.31
430.514	75.31
430.736	68.31
430.958	80.31
431.18	87.31
431.402	79.31
431.624	75.31
431.846	74.31
432.068	76.31
432.29	65.31
432.512	77.31
432.734	70.31
432.956	84.31
433.178	72.31
433.4	79.31
433.622	89.31
433.844	71.31
434.066	84.31
434.287	81.31
434.509	61.31
434.731	76.31
434.953	69.31
435.175	86.31
435.397	84.31
435.618	70.31
435.84	75.31
436.062	81.31
436.284	86.31
436.505	80.31
436.727	84.31
436.949	77.31
437.17	84.31
437.392	78.31
437.614	82.31
437.835	66.31
438.057	81.31
438.278	69.31
438.5	69.31
438.721	71.31
438.943	71.31
439.165	78.31
439.386	62.31
439.608	67.31
439.829	78.31
440.05	69.31
440.272	71.31
440.493	81.31
440.715	68.31
440.936	91.31
441.158	91.31
441.379	69.31
441.6	79.31
441.822	89.31
442.043	75.31
442.264	75.31
442.486	71.31
442.707	87.31
442.928	75.31
443.149	61.31
443.371	93.31
443.592	71.31
443.813	76.31
444.034	90.31
444.255	80.31
444.476	75.31
444.698	71.31
444.919	71.31
445.14	133.31
445.361	109.31
445.582	74.31
445.803	76.31
446.024	66.31
446.245	84.31
446.466	64.31
446.687	59.31
446.908	74.31
447.129	66.31
447.35	68.31
447.571	75.31
447.792	71.31
448.013	86.31
448.234	90.31
448.455	65.31
448.675	80.31
448.896	90.31
449.117	84.31
449.338	81.31
449.559	93.31
449.779	65.31
450	62.31
450.221	81.31
450.442	85.31
450.662	89.31
450.883	80.31
451.104	81.31
451.324	65.31
451.545	87.31
451.766	81.31
451.986	80.31
452.207	72.31
452.428	83.31
452.648	73.31
452.869	68.31
453.089	75.31
453.31	61.31
453.53	72.31
453.751	76.31
453.971	65.31
454.192	77.31
454.412	74.31
454.633	65.31
454.853	79.31
455.073	69.31
455.294	63.31
455.514	77.31
455.734	75.31
455.955	74.31
456.175	78.31
456.395	87.31
456.616	78.31
456.836	72.31
457.056	79.31
457.276	67.31
457.497	88.31
457.717	85.31
457.937	80.31
458.157	59.31
458.377	77.31
458.598	71.31
458.818	77.31
459.038	96.31
459.258	81.31
459.478	68.31
459.698	76.31
459.918	79.31
460.138	72.31
460.358	81.31
460.578	72.31
460.798	88.31
461.018	75.31
461.238	71.31
461.458	85.31
461.678	77.31
461.898	55.31
462.118	81.31
462.338	81.31
462.558	95.31
462.777	76.31
462.997	76.31
463.217	90.31
463.437	69.31
463.657	80.31
463.876	90.31
464.096	86.31
464.316	79.31
464.536	61.31
464.755	84.31
464.975	73.31
465.195	83.31
465.414	99.31
465.634	96.31
465.854	86.31
466.073	78.31
466.293	83.31
466.512	65.31
466.732	70.31
466.951	85.31
467.171	85.31
467.391	84.31
467.61	70.31
467.829	72.31
468.049	89.31
468.268	50.31
468.488	81.31
468.707	79.31
468.927	65.31
469.146	72.31
469.365	99.31
469.585	99.31
469.804	87.31
470.023	78.31
470.243	78.31
470.462	62.31
470.681	75.31
470.901	61.31
471.12	86.31
471.339	68.31
471.558	64.31
471.777	75.31
471.997	75.31
472.216	72.31
472.435	84.31
472.654	88.31
472.873	81.31
473.092	89.31
473.311	79.31
473.53	83.31
473.749	80.31
473.968	89.31
474.187	86.31
474.406	80.31
474.625	81.31
474.844	67.31
475.063	84.31
475.282	72.31
475.501	80.31
475.72	82.31
475.939	81.31
476.158	73.31
476.377	84.31
476.596	84.31
476.814	84.31
477.033	79.31
477.252	81.31
477.471	75.31
477.69	72.31
477.908	79.31
478.127	76.31
478.346	63.31
478.564	77.31
478.783	57.31
479.002	59.31
479.22	67.31
479.439	88.31
479.658	74.31
479.876	69.31
480.095	76.31
480.313	80.31
480.532	74.31
480.751	80.31
480.969	81.31
481.188	79.31
481.406	75.31
481.624	83.31
481.843	84.31
482.061	80.31
482.28	69.31
482.498	85.31
482.717	85.31
482.935	72.31
483.153	77.31
483.372	89.31
483.59	74.31
483.808	91.31
484.027	88.31
484.245	96.31
484.463	88.31
484.681	88.31
484.9	74.31
485.118	84.31
485.336	86.31
485.554	66.31
485.772	70.31
485.99	68.31
486.209	74.31
486.427	71.31
486.645	68.31
486.863	84.31
487.081	73.31
487.299	79.31
487.517	83.31
487.735	71.31
487.953	66.31
488.171	68.31
488.389	90.31
488.607	73.31
488.825	73.31
489.043	94.31
489.261	83.31
489.479	87.31
489.696	81.31
489.914	89.31
490.132	83.31
490.35	89.31
490.568	77.31
490.786	69.31
491.003	66.31
491.221	66.31
491.439	62.31
491.657	72.31
491.874	85.31
492.092	71.31
492.31	73.31
492.527	80.31
492.745	73.31
492.963	71.31
493.18	89.31
493.398	88.31
493.615	81.31
493.833	71.31
494.05	68.31
494.268	78.31
494.485	73.31
494.703	76.31
494.92	68.31
495.138	63.31
495.355	71.31
495.573	79.31
495.79	73.31
496.008	76.31
496.225	85.31
496.442	85.31
496.66	67.31
496.877	81.31
497.094	90.31
497.312	81.31
497.529	77.31
497.746	91.31
497.963	75.31
498.181	69.31
498.398	64.31
498.615	85.31
498.832	79.31
499.049	80.31
499.267	86.31
499.484	71.31
499.701	86.31
499.918	84.31
500.135	75.31
500.352	84.31
500.569	77.31
500.786	83.31
501.003	79.31
501.22	89.31
501.437	80.31
501.654	72.31
501.871	71.31
502.088	67.31
502.305	73.31
502.522	70.31
502.739	73.31
502.956	84.31
503.172	75.31
503.389	64.31
503.606	77.31
503.823	80.31
504.04	86.31
504.256	85.31
504.473	92.31
504.69	79.31
504.907	83.31
505.123	84.31
505.34	82.31
505.557	82.31
505.773	66.31
505.99	75.31
506.207	63.31
506.423	77.31
506.64	85.31
506.856	88.31
507.073	77.31
507.289	70.31
507.506	83.31
507.722	85.31
507.939	72.31
508.155	79.31
508.372	76.31
508.588	74.31
508.805	82.31
509.021	86.31
509.238	78.31
509.454	82.31
509.67	69.31
509.887	72.31
510.103	78.31
510.319	95.31
510.536	67.31
510.752	76.31
510.968	77.31
511.184	89.31
511.401	78.31
511.617	80.31
511.833	69.31
512.049	84.31
512.265	93.31
512.481	83.31
512.698	55.31
512.914	76.31
513.13	76.31
513.346	86.31
513.562	64.31
513.778	74.31
513.994	83.31
514.21	75.31
514.426	84.31
514.642	79.31
514.858	81.31
515.074	83.31
515.29	79.31
515.506	78.31
515.721	81.31
515.937	86.31
516.153	87.31
516.369	91.31
516.585	93.31
516.801	78.31
517.016	76.31
517.232	70.31
517.448	85.31
517.664	78.31
517.879	84.31
518.095	75.31
518.311	77.31
518.527	85.31
518.742	67.31
518.958	70.31
519.173	81.31
519.389	80.31
519.605	64.31
519.82	79.31
520.036	78.31
520.251	98.31
