Data from Background_1_HRD10591_00002.txt Node
Date: Wed Nov 05 14:38:59 EST 2025
User: Yrep
Spectrometer: HR+D1059
Trigger mode: 1
Integration Time (sec): 1.000000E-1
Scans to average: 1
Electric dark correction enabled: true
Nonlinearity correction enabled: false
Boxcar width: 0
XAxis mode: Wavelengths
Number of Pixels in Spectrum: 2048
>>>>>Begin Spectral Data<<<<<
223.165	-14.44
223.4	-14.44
223.635	-14.44
223.869	-17.44
224.104	-19.44
224.338	-26.44
224.573	-19.44
224.808	-14.44
225.042	-14.44
225.277	1.56
225.511	-9.44
225.746	6.56
225.98	13.56
226.215	17.56
226.449	24.56
226.683	17.56
226.918	19.56
227.152	34.56
227.387	36.56
227.621	47.56
227.856	47.56
228.09	53.56
228.324	48.56
228.559	60.56
228.793	64.56
229.027	49.56
229.262	63.56
229.496	80.56
229.73	69.56
229.964	69.56
230.199	72.56
230.433	82.56
230.667	73.56
230.901	81.56
231.136	80.56
231.37	68.56
231.604	81.56
231.838	81.56
232.072	79.56
232.306	59.56
232.541	82.56
232.775	88.56
233.009	84.56
233.243	71.56
233.477	77.56
233.711	85.56
233.945	76.56
234.179	85.56
234.413	85.56
234.647	74.56
234.881	77.56
235.115	73.56
235.349	84.56
235.583	74.56
235.817	84.56
236.051	60.56
236.285	84.56
236.519	84.56
236.753	80.56
236.987	78.56
237.221	75.56
237.455	71.56
237.689	73.56
237.922	100.56
238.156	75.56
238.39	78.56
238.624	80.56
238.858	90.56
239.091	94.56
239.325	63.56
239.559	83.56
239.793	81.56
240.027	82.56
240.26	77.56
240.494	79.56
240.728	68.56
240.961	76.56
241.195	59.56
241.429	79.56
241.662	68.56
241.896	74.56
242.13	84.56
242.363	82.56
242.597	82.56
242.83	77.56
243.064	84.56
243.298	70.56
243.531	81.56
243.765	71.56
243.998	73.56
244.232	86.56
244.465	59.56
244.699	67.56
244.932	73.56
245.166	86.56
245.399	90.56
245.633	87.56
245.866	78.56
246.099	80.56
246.333	83.56
246.566	68.56
246.8	84.56
247.033	80.56
247.266	76.56
247.5	85.56
247.733	81.56
247.966	83.56
248.2	92.56
248.433	89.56
248.666	89.56
248.899	76.56
249.133	78.56
249.366	86.56
249.599	76.56
249.832	76.56
250.066	75.56
250.299	82.56
250.532	80.56
250.765	83.56
250.998	82.56
251.231	92.56
251.465	83.56
251.698	88.56
251.931	78.56
252.164	76.56
252.397	86.56
252.63	90.56
252.863	92.56
253.096	86.56
253.329	75.56
253.562	80.56
253.795	74.56
254.028	73.56
254.261	79.56
254.494	59.56
254.727	84.56
254.96	75.56
255.193	95.56
255.426	94.56
255.659	81.56
255.892	82.56
256.124	69.56
256.357	88.56
256.59	84.56
256.823	96.56
257.056	81.56
257.289	89.56
257.521	78.56
257.754	87.56
257.987	79.56
258.22	94.56
258.452	82.56
258.685	82.56
258.918	76.56
259.151	82.56
259.383	83.56
259.616	82.56
259.849	84.56
260.081	87.56
260.314	82.56
260.547	69.56
260.779	81.56
261.012	79.56
261.244	75.56
261.477	86.56
261.71	82.56
261.942	80.56
262.175	80.56
262.407	78.56
262.64	80.56
262.872	80.56
263.105	88.56
263.337	80.56
263.57	80.56
263.802	78.56
264.035	78.56
264.267	74.56
264.499	78.56
264.732	82.56
264.964	68.56
265.197	90.56
265.429	101.56
265.661	85.56
265.894	95.56
266.126	96.56
266.358	82.56
266.591	81.56
266.823	92.56
267.055	82.56
267.287	98.56
267.52	74.56
267.752	90.56
267.984	66.56
268.216	80.56
268.448	76.56
268.681	74.56
268.913	76.56
269.145	76.56
269.377	84.56
269.609	70.56
269.841	95.56
270.073	86.56
270.306	81.56
270.538	89.56
270.77	76.56
271.002	82.56
271.234	85.56
271.466	85.56
271.698	81.56
271.93	90.56
272.162	88.56
272.394	77.56
272.626	83.56
272.858	78.56
273.09	84.56
273.322	73.56
273.553	95.56
273.785	85.56
274.017	89.56
274.249	100.56
274.481	89.56
274.713	82.56
274.945	76.56
275.176	90.56
275.408	76.56
275.64	83.56
275.872	73.56
276.104	84.56
276.335	92.56
276.567	86.56
276.799	89.56
277.031	79.56
277.262	78.56
277.494	94.56
277.726	92.56
277.957	104.56
278.189	94.56
278.421	84.56
278.652	88.56
278.884	72.56
279.115	88.56
279.347	83.56
279.579	73.56
279.81	65.56
280.042	70.56
280.273	88.56
280.505	85.56
280.736	92.56
280.968	71.56
281.199	64.56
281.431	76.56
281.662	73.56
281.894	81.56
282.125	86.56
282.356	84.56
282.588	97.56
282.819	101.56
283.051	81.56
283.282	92.56
283.513	97.56
283.745	67.56
283.976	72.56
284.207	82.56
284.439	88.56
284.67	89.56
284.901	84.56
285.132	93.56
285.364	76.56
285.595	89.56
285.826	76.56
286.057	67.56
286.288	95.56
286.52	85.56
286.751	92.56
286.982	91.56
287.213	88.56
287.444	81.56
287.675	77.56
287.906	82.56
288.138	86.56
288.369	87.56
288.6	90.56
288.831	101.56
289.062	82.56
289.293	91.56
289.524	66.56
289.755	72.56
289.986	83.56
290.217	85.56
290.448	77.56
290.679	96.56
290.91	90.56
291.141	72.56
291.371	74.56
291.602	83.56
291.833	97.56
292.064	85.56
292.295	82.56
292.526	99.56
292.757	80.56
292.987	79.56
293.218	89.56
293.449	91.56
293.68	73.56
293.91	91.56
294.141	86.56
294.372	85.56
294.603	65.56
294.833	84.56
295.064	81.56
295.295	78.56
295.525	71.56
295.756	85.56
295.987	72.56
296.217	90.56
296.448	83.56
296.679	87.56
296.909	96.56
297.14	86.56
297.37	97.56
297.601	92.56
297.831	83.56
298.062	84.56
298.292	93.56
298.523	77.56
298.753	88.56
298.984	96.56
299.214	86.56
299.445	82.56
299.675	86.56
299.905	93.56
300.136	90.56
300.366	74.56
300.597	97.56
300.827	89.56
301.057	85.56
301.288	93.56
301.518	89.56
301.748	104.56
301.979	96.56
302.209	88.56
302.439	74.56
302.669	71.56
302.9	71.56
303.13	90.56
303.36	96.56
303.59	77.56
303.82	76.56
304.051	84.56
304.281	83.56
304.511	93.56
304.741	86.56
304.971	74.56
305.201	91.56
305.431	85.56
305.661	88.56
305.891	82.56
306.121	73.56
306.352	94.56
306.582	76.56
306.812	71.56
307.042	81.56
307.272	88.56
307.502	75.56
307.731	73.56
307.961	81.56
308.191	85.56
308.421	81.56
308.651	82.56
308.881	101.56
309.111	95.56
309.341	94.56
309.571	81.56
309.8	95.56
310.03	77.56
310.26	74.56
310.49	93.56
310.72	88.56
310.949	88.56
311.179	79.56
311.409	92.56
311.639	66.56
311.868	91.56
312.098	86.56
312.328	76.56
312.557	82.56
312.787	100.56
313.017	84.56
313.246	83.56
313.476	88.56
313.706	85.56
313.935	90.56
314.165	82.56
314.394	67.56
314.624	85.56
314.853	84.56
315.083	88.56
315.312	97.56
315.542	78.56
315.771	70.56
316.001	81.56
316.23	93.56
316.46	77.56
316.689	74.56
316.919	91.56
317.148	86.56
317.377	76.56
317.607	84.56
317.836	92.56
318.065	85.56
318.295	85.56
318.524	84.56
318.753	73.56
318.983	78.56
319.212	89.56
319.441	86.56
319.67	70.56
319.9	84.56
320.129	68.56
320.358	78.56
320.587	84.56
320.816	90.56
321.046	72.56
321.275	69.56
321.504	91.56
321.733	91.56
321.962	91.56
322.191	90.56
322.42	100.56
322.649	79.56
322.878	87.56
323.108	88.56
323.337	78.56
323.566	86.56
323.795	102.56
324.024	96.56
324.253	89.56
324.482	75.56
324.71	74.56
324.939	106.56
325.168	82.56
325.397	75.56
325.626	96.56
325.855	79.56
326.084	70.56
326.313	73.56
326.542	78.56
326.77	79.56
326.999	76.56
327.228	90.56
327.457	97.56
327.686	91.56
327.914	85.56
328.143	90.56
328.372	81.56
328.6	87.56
328.829	90.56
329.058	97.56
329.287	88.56
329.515	82.56
329.744	83.56
329.972	100.56
330.201	93.56
330.43	65.56
330.658	80.56
330.887	85.56
331.115	83.56
331.344	73.56
331.572	85.56
331.801	88.56
332.03	84.56
332.258	82.56
332.486	85.56
332.715	76.56
332.943	73.56
333.172	67.56
333.4	72.56
333.629	76.56
333.857	87.56
334.085	78.56
334.314	83.56
334.542	88.56
334.771	84.56
334.999	74.56
335.227	76.56
335.455	74.56
335.684	85.56
335.912	89.56
336.14	82.56
336.369	82.56
336.597	80.56
336.825	81.56
337.053	69.56
337.281	94.56
337.51	80.56
337.738	96.56
337.966	84.56
338.194	80.56
338.422	75.56
338.65	89.56
338.878	98.56
339.106	65.56
339.334	82.56
339.562	94.56
339.79	91.56
340.018	96.56
340.246	99.56
340.474	80.56
340.702	78.56
340.93	95.56
341.158	88.56
341.386	77.56
341.614	84.56
341.842	88.56
342.07	78.56
342.298	82.56
342.526	83.56
342.754	80.56
342.981	84.56
343.209	77.56
343.437	75.56
343.665	77.56
343.893	89.56
344.12	88.56
344.348	89.56
344.576	79.56
344.804	100.56
345.031	79.56
345.259	78.56
345.487	90.56
345.714	88.56
345.942	96.56
346.17	67.56
346.397	74.56
346.625	96.56
346.853	79.56
347.08	70.56
347.308	78.56
347.535	84.56
347.763	81.56
347.99	86.56
348.218	88.56
348.445	82.56
348.673	74.56
348.9	81.56
349.128	80.56
349.355	89.56
349.583	100.56
349.81	84.56
350.037	81.56
350.265	86.56
350.492	80.56
350.72	90.56
350.947	89.56
351.174	100.56
351.402	76.56
351.629	100.56
351.856	86.56
352.083	77.56
352.311	87.56
352.538	91.56
352.765	93.56
352.992	74.56
353.22	92.56
353.447	78.56
353.674	101.56
353.901	84.56
354.128	83.56
354.355	80.56
354.583	91.56
354.81	90.56
355.037	82.56
355.264	89.56
355.491	69.56
355.718	76.56
355.945	89.56
356.172	89.56
356.399	71.56
356.626	78.56
356.853	64.56
357.08	82.56
357.307	95.56
357.534	91.56
357.761	92.56
357.988	93.56
358.215	80.56
358.441	86.56
358.668	84.56
358.895	82.56
359.122	88.56
359.349	82.56
359.576	74.56
359.802	87.56
360.029	79.56
360.256	96.56
360.483	85.56
360.709	81.56
360.936	77.56
361.163	88.56
361.39	76.56
361.616	85.56
361.843	90.56
362.07	79.56
362.296	67.56
362.523	87.56
362.749	88.56
362.976	90.56
363.203	85.56
363.429	77.56
363.656	84.56
363.882	93.56
364.109	91.56
364.335	100.56
364.562	81.56
364.788	76.56
365.015	96.56
365.241	84.56
365.468	88.56
365.694	65.56
365.92	82.56
366.147	80.56
366.373	67.56
366.599	82.56
366.826	72.56
367.052	86.56
367.278	80.56
367.505	92.56
367.731	81.56
367.957	88.56
368.184	93.56
368.41	98.56
368.636	70.56
368.862	90.56
369.089	78.56
369.315	96.56
369.541	84.56
369.767	88.56
369.993	96.56
370.219	70.56
370.445	93.56
370.672	89.56
370.898	91.56
371.124	75.56
371.35	74.56
371.576	88.56
371.802	78.56
372.028	90.56
372.254	90.56
372.48	83.56
372.706	90.56
372.932	81.56
373.158	71.56
373.384	77.56
373.61	84.56
373.835	81.56
374.061	76.56
374.287	88.56
374.513	82.56
374.739	81.56
374.965	79.56
375.191	78.56
375.416	91.56
375.642	93.56
375.868	86.56
376.094	74.56
376.319	78.56
376.545	79.56
376.771	74.56
376.997	70.56
377.222	81.56
377.448	96.56
377.674	90.56
377.899	93.56
378.125	82.56
378.35	86.56
378.576	68.56
378.802	88.56
379.027	92.56
379.253	78.56
379.478	81.56
379.704	80.56
379.929	70.56
380.155	85.56
380.38	90.56
380.606	74.56
380.831	74.56
381.057	94.56
381.282	73.56
381.507	88.56
381.733	82.56
381.958	82.56
382.184	81.56
382.409	77.56
382.634	81.56
382.86	91.56
383.085	83.56
383.31	88.56
383.535	97.56
383.761	85.56
383.986	68.56
384.211	59.56
384.436	89.56
384.662	89.56
384.887	85.56
385.112	83.56
385.337	85.56
385.562	76.56
385.787	96.56
386.013	75.56
386.238	72.56
386.463	88.56
386.688	95.56
386.913	78.56
387.138	90.56
387.363	80.56
387.588	86.56
387.813	75.56
388.038	83.56
388.263	91.56
388.488	66.56
388.713	80.56
388.938	70.56
389.163	84.56
389.387	86.56
389.612	88.56
389.837	87.56
390.062	82.56
390.287	73.56
390.512	77.56
390.736	82.56
390.961	79.56
391.186	69.56
391.411	88.56
391.636	87.56
391.86	87.56
392.085	70.56
392.31	78.56
392.534	77.56
392.759	79.56
392.984	90.56
393.208	81.56
393.433	91.56
393.658	84.56
393.882	77.56
394.107	73.56
394.331	81.56
394.556	82.56
394.78	86.56
395.005	86.56
395.229	68.56
395.454	75.56
395.678	89.56
395.903	74.56
396.127	77.56
396.352	68.56
396.576	90.56
396.801	71.56
397.025	76.56
397.249	82.56
397.474	77.56
397.698	70.56
397.922	93.56
398.147	92.56
398.371	92.56
398.595	75.56
398.82	90.56
399.044	80.56
399.268	98.56
399.492	85.56
399.717	91.56
399.941	75.56
400.165	76.56
400.389	76.56
400.613	70.56
400.837	79.56
401.062	80.56
401.286	90.56
401.51	83.56
401.734	86.56
401.958	90.56
402.182	79.56
402.406	67.56
402.63	78.56
402.854	74.56
403.078	77.56
403.302	85.56
403.526	85.56
403.75	73.56
403.974	79.56
404.198	67.56
404.422	93.56
404.645	68.56
404.869	80.56
405.093	77.56
405.317	84.56
405.541	89.56
405.765	84.56
405.988	71.56
406.212	88.56
406.436	84.56
406.66	60.56
406.883	84.56
407.107	87.56
407.331	88.56
407.555	85.56
407.778	79.56
408.002	80.56
408.226	78.56
408.449	77.56
408.673	78.56
408.896	88.56
409.12	88.56
409.344	82.56
409.567	80.56
409.791	73.56
410.014	82.56
410.238	81.56
410.461	81.56
410.685	86.56
410.908	68.56
411.132	90.56
411.355	95.56
411.578	93.56
411.802	88.56
412.025	80.56
412.249	82.56
412.472	67.56
412.695	93.56
412.919	82.56
413.142	70.56
413.365	89.56
413.589	87.56
413.812	88.56
414.035	99.56
414.258	80.56
414.482	95.56
414.705	79.56
414.928	80.56
415.151	89.56
415.374	80.56
415.597	78.56
415.821	78.56
416.044	105.56
416.267	73.56
416.49	87.56
416.713	85.56
416.936	84.56
417.159	91.56
417.382	82.56
417.605	71.56
417.828	73.56
418.051	77.56
418.274	60.56
418.497	86.56
418.72	88.56
418.943	96.56
419.166	80.56
419.389	90.56
419.611	92.56
419.834	78.56
420.057	80.56
420.28	81.56
420.503	69.56
420.726	80.56
420.948	82.56
421.171	82.56
421.394	82.56
421.617	85.56
421.839	69.56
422.062	84.56
422.285	86.56
422.507	80.56
422.73	76.56
422.953	81.56
423.175	74.56
423.398	89.56
423.621	89.56
423.843	86.56
424.066	81.56
424.288	70.56
424.511	88.56
424.733	81.56
424.956	78.56
425.178	80.56
425.401	73.56
425.623	78.56
425.846	76.56
426.068	80.56
426.291	89.56
426.513	88.56
426.735	80.56
426.958	91.56
427.18	74.56
427.402	84.56
427.625	81.56
427.847	78.56
428.069	95.56
428.292	75.56
428.514	84.56
428.736	91.56
428.958	84.56
429.181	82.56
429.403	82.56
429.625	76.56
429.847	87.56
430.069	80.56
430.292	69.56
430.514	89.56
430.736	80.56
430.958	88.56
431.18	87.56
431.402	88.56
431.624	91.56
431.846	77.56
432.068	83.56
432.29	81.56
432.512	88.56
432.734	76.56
432.956	104.56
433.178	98.56
433.4	76.56
433.622	74.56
433.844	83.56
434.066	86.56
434.287	86.56
434.509	83.56
434.731	88.56
434.953	87.56
435.175	77.56
435.397	78.56
435.618	73.56
435.84	70.56
436.062	66.56
436.284	82.56
436.505	79.56
436.727	81.56
436.949	90.56
437.17	70.56
437.392	83.56
437.614	71.56
437.835	88.56
438.057	84.56
438.278	72.56
438.5	82.56
438.721	77.56
438.943	82.56
439.165	78.56
439.386	91.56
439.608	100.56
439.829	86.56
440.05	79.56
440.272	90.56
440.493	80.56
440.715	89.56
440.936	74.56
441.158	92.56
441.379	77.56
441.6	84.56
441.822	57.56
442.043	79.56
442.264	84.56
442.486	81.56
442.707	85.56
442.928	81.56
443.149	91.56
443.371	83.56
443.592	85.56
443.813	73.56
444.034	88.56
444.255	70.56
444.476	87.56
444.698	88.56
444.919	85.56
445.14	151.56
445.361	117.56
445.582	80.56
445.803	85.56
446.024	80.56
446.245	83.56
446.466	87.56
446.687	84.56
446.908	83.56
447.129	80.56
447.35	90.56
447.571	76.56
447.792	72.56
448.013	65.56
448.234	82.56
448.455	85.56
448.675	69.56
448.896	89.56
449.117	81.56
449.338	82.56
449.559	72.56
449.779	81.56
450	91.56
450.221	91.56
450.442	87.56
450.662	91.56
450.883	83.56
451.104	76.56
451.324	89.56
451.545	100.56
451.766	94.56
451.986	83.56
452.207	82.56
452.428	82.56
452.648	95.56
452.869	78.56
453.089	94.56
453.31	71.56
453.53	74.56
453.751	92.56
453.971	93.56
454.192	76.56
454.412	94.56
454.633	75.56
454.853	62.56
455.073	82.56
455.294	90.56
455.514	91.56
455.734	79.56
455.955	80.56
456.175	82.56
456.395	66.56
456.616	81.56
456.836	73.56
457.056	82.56
457.276	82.56
457.497	86.56
457.717	69.56
457.937	76.56
458.157	90.56
458.377	91.56
458.598	94.56
458.818	71.56
459.038	86.56
459.258	84.56
459.478	85.56
459.698	81.56
459.918	89.56
460.138	86.56
460.358	88.56
460.578	88.56
460.798	93.56
461.018	88.56
461.238	70.56
461.458	88.56
461.678	77.56
461.898	82.56
462.118	76.56
462.338	84.56
462.558	78.56
462.777	74.56
462.997	80.56
463.217	79.56
463.437	89.56
463.657	76.56
463.876	77.56
464.096	76.56
464.316	75.56
464.536	105.56
464.755	85.56
464.975	79.56
465.195	80.56
465.414	85.56
465.634	89.56
465.854	88.56
466.073	81.56
466.293	87.56
466.512	91.56
466.732	92.56
466.951	68.56
467.171	90.56
467.391	86.56
467.61	85.56
467.829	71.56
468.049	81.56
468.268	88.56
468.488	83.56
468.707	83.56
468.927	97.56
469.146	82.56
469.365	87.56
469.585	77.56
469.804	84.56
470.023	85.56
470.243	85.56
470.462	90.56
470.681	98.56
470.901	92.56
471.12	75.56
471.339	98.56
471.558	80.56
471.777	85.56
471.997	81.56
472.216	91.56
472.435	78.56
472.654	85.56
472.873	86.56
473.092	95.56
473.311	86.56
473.53	94.56
473.749	92.56
473.968	83.56
474.187	92.56
474.406	86.56
474.625	92.56
474.844	80.56
475.063	70.56
475.282	69.56
475.501	77.56
475.72	91.56
475.939	84.56
476.158	84.56
476.377	81.56
476.596	79.56
476.814	83.56
477.033	90.56
477.252	74.56
477.471	79.56
477.69	87.56
477.908	73.56
478.127	87.56
478.346	80.56
478.564	63.56
478.783	96.56
479.002	77.56
479.22	88.56
479.439	86.56
479.658	100.56
479.876	95.56
480.095	95.56
480.313	91.56
480.532	88.56
480.751	86.56
480.969	84.56
481.188	81.56
481.406	85.56
481.624	80.56
481.843	86.56
482.061	97.56
482.28	96.56
482.498	88.56
482.717	95.56
482.935	94.56
483.153	94.56
483.372	80.56
483.59	82.56
483.808	84.56
484.027	78.56
484.245	85.56
484.463	84.56
484.681	84.56
484.9	85.56
485.118	82.56
485.336	73.56
485.554	85.56
485.772	84.56
485.99	86.56
486.209	70.56
486.427	86.56
486.645	83.56
486.863	86.56
487.081	85.56
487.299	82.56
487.517	88.56
487.735	64.56
487.953	91.56
488.171	78.56
488.389	89.56
488.607	92.56
488.825	82.56
489.043	81.56
489.261	93.56
489.479	92.56
489.696	81.56
489.914	94.56
490.132	77.56
490.35	94.56
490.568	84.56
490.786	82.56
491.003	80.56
491.221	75.56
491.439	82.56
491.657	80.56
491.874	83.56
492.092	86.56
492.31	81.56
492.527	81.56
492.745	83.56
492.963	82.56
493.18	86.56
493.398	82.56
493.615	85.56
493.833	77.56
494.05	91.56
494.268	75.56
494.485	84.56
494.703	88.56
494.92	77.56
495.138	78.56
495.355	98.56
495.573	94.56
495.79	85.56
496.008	82.56
496.225	70.56
496.442	88.56
496.66	80.56
496.877	83.56
497.094	77.56
497.312	78.56
497.529	82.56
497.746	93.56
497.963	77.56
498.181	80.56
498.398	84.56
498.615	78.56
498.832	88.56
499.049	82.56
499.267	88.56
499.484	91.56
499.701	79.56
499.918	90.56
500.135	89.56
500.352	84.56
500.569	81.56
500.786	85.56
501.003	85.56
501.22	79.56
501.437	93.56
501.654	92.56
501.871	76.56
502.088	85.56
502.305	90.56
502.522	76.56
502.739	87.56
502.956	94.56
503.172	72.56
503.389	82.56
503.606	78.56
503.823	74.56
504.04	88.56
504.256	74.56
504.473	86.56
504.69	96.56
504.907	88.56
505.123	78.56
505.34	88.56
505.557	94.56
505.773	67.56
505.99	83.56
506.207	78.56
506.423	84.56
506.64	97.56
506.856	78.56
507.073	90.56
507.289	86.56
507.506	70.56
507.722	93.56
507.939	72.56
508.155	93.56
508.372	73.56
508.588	65.56
508.805	88.56
509.021	88.56
509.238	90.56
509.454	92.56
509.67	90.56
509.887	81.56
510.103	88.56
510.319	70.56
510.536	86.56
510.752	81.56
510.968	77.56
511.184	85.56
511.401	76.56
511.617	94.56
511.833	98.56
512.049	100.56
512.265	70.56
512.481	65.56
512.698	89.56
512.914	77.56
513.13	65.56
513.346	88.56
513.562	82.56
513.778	82.56
513.994	74.56
514.21	72.56
514.426	91.56
514.642	92.56
514.858	77.56
515.074	78.56
515.29	97.56
515.506	59.56
515.721	91.56
515.937	87.56
516.153	92.56
516.369	89.56
516.585	82.56
516.801	84.56
517.016	82.56
517.232	84.56
517.448	68.56
517.664	89.56
517.879	81.56
518.095	75.56
518.311	93.56
518.527	76.56
518.742	84.56
518.958	76.56
519.173	86.56
519.389	87.56
519.605	88.56
519.82	77.56
