Data from Background_1_HRD10591_00043.txt Node
Date: Wed Nov 05 14:39:19 EST 2025
User: Yrep
Spectrometer: HR+D1059
Trigger mode: 1
Integration Time (sec): 1.000000E-1
Scans to average: 1
Electric dark correction enabled: true
Nonlinearity correction enabled: false
Boxcar width: 0
XAxis mode: Wavelengths
Number of Pixels in Spectrum: 2048
>>>>>Begin Spectral Data<<<<<
223.165	-20.88
223.4	-20.88
223.635	-20.88
223.869	-12.88
224.104	-8.88
224.338	-19.88
224.573	-10.88
224.808	-12.88
225.042	-8.88
225.277	-5.88
225.511	4.12
225.746	10.12
225.98	-0.88
226.215	17.12
226.449	31.12
226.683	0.12
226.918	13.12
227.152	26.12
227.387	46.12
227.621	31.12
227.856	54.12
228.09	61.12
228.324	54.12
228.559	63.12
228.793	64.12
229.027	68.12
229.262	66.12
229.496	72.12
229.73	62.12
229.964	82.12
230.199	75.12
230.433	77.12
230.667	85.12
230.901	74.12
231.136	67.12
231.37	77.12
231.604	84.12
231.838	85.12
232.072	83.12
232.306	83.12
232.541	85.12
232.775	77.12
233.009	81.12
233.243	78.12
233.477	87.12
233.711	82.12
233.945	87.12
234.179	87.12
234.413	86.12
234.647	77.12
234.881	91.12
235.115	90.12
235.349	76.12
235.583	79.12
235.817	68.12
236.051	86.12
236.285	78.12
236.519	84.12
236.753	94.12
236.987	91.12
237.221	77.12
237.455	76.12
237.689	79.12
237.922	82.12
238.156	74.12
238.39	81.12
238.624	82.12
238.858	80.12
239.091	87.12
239.325	75.12
239.559	77.12
239.793	78.12
240.027	78.12
240.26	80.12
240.494	77.12
240.728	70.12
240.961	75.12
241.195	71.12
241.429	84.12
241.662	94.12
241.896	85.12
242.13	67.12
242.363	70.12
242.597	73.12
242.83	81.12
243.064	83.12
243.298	68.12
243.531	74.12
243.765	86.12
243.998	98.12
244.232	83.12
244.465	80.12
244.699	82.12
244.932	78.12
245.166	79.12
245.399	99.12
245.633	89.12
245.866	93.12
246.099	81.12
246.333	76.12
246.566	85.12
246.8	75.12
247.033	90.12
247.266	93.12
247.5	86.12
247.733	78.12
247.966	75.12
248.2	81.12
248.433	84.12
248.666	60.12
248.899	72.12
249.133	84.12
249.366	80.12
249.599	91.12
249.832	83.12
250.066	89.12
250.299	87.12
250.532	87.12
250.765	86.12
250.998	78.12
251.231	92.12
251.465	81.12
251.698	89.12
251.931	71.12
252.164	78.12
252.397	96.12
252.63	93.12
252.863	83.12
253.096	86.12
253.329	99.12
253.562	75.12
253.795	85.12
254.028	91.12
254.261	91.12
254.494	88.12
254.727	79.12
254.96	81.12
255.193	72.12
255.426	86.12
255.659	77.12
255.892	89.12
256.124	89.12
256.357	71.12
256.59	79.12
256.823	84.12
257.056	79.12
257.289	83.12
257.521	79.12
257.754	97.12
257.987	88.12
258.22	86.12
258.452	73.12
258.685	89.12
258.918	87.12
259.151	94.12
259.383	89.12
259.616	77.12
259.849	89.12
260.081	91.12
260.314	80.12
260.547	85.12
260.779	97.12
261.012	91.12
261.244	91.12
261.477	78.12
261.71	82.12
261.942	78.12
262.175	86.12
262.407	85.12
262.64	75.12
262.872	83.12
263.105	67.12
263.337	82.12
263.57	73.12
263.802	87.12
264.035	78.12
264.267	85.12
264.499	91.12
264.732	94.12
264.964	86.12
265.197	85.12
265.429	91.12
265.661	78.12
265.894	93.12
266.126	92.12
266.358	85.12
266.591	90.12
266.823	89.12
267.055	86.12
267.287	73.12
267.52	87.12
267.752	96.12
267.984	77.12
268.216	92.12
268.448	84.12
268.681	84.12
268.913	82.12
269.145	84.12
269.377	95.12
269.609	71.12
269.841	78.12
270.073	95.12
270.306	84.12
270.538	89.12
270.77	93.12
271.002	85.12
271.234	79.12
271.466	102.12
271.698	97.12
271.93	84.12
272.162	92.12
272.394	75.12
272.626	86.12
272.858	86.12
273.09	93.12
273.322	77.12
273.553	74.12
273.785	91.12
274.017	92.12
274.249	81.12
274.481	94.12
274.713	92.12
274.945	77.12
275.176	65.12
275.408	93.12
275.64	81.12
275.872	93.12
276.104	107.12
276.335	89.12
276.567	94.12
276.799	99.12
277.031	72.12
277.262	80.12
277.494	94.12
277.726	84.12
277.957	73.12
278.189	74.12
278.421	84.12
278.652	84.12
278.884	86.12
279.115	104.12
279.347	86.12
279.579	77.12
279.81	77.12
280.042	87.12
280.273	90.12
280.505	86.12
280.736	77.12
280.968	95.12
281.199	84.12
281.431	89.12
281.662	92.12
281.894	75.12
282.125	93.12
282.356	98.12
282.588	97.12
282.819	81.12
283.051	84.12
283.282	60.12
283.513	73.12
283.745	85.12
283.976	90.12
284.207	96.12
284.439	105.12
284.67	90.12
284.901	87.12
285.132	85.12
285.364	82.12
285.595	101.12
285.826	84.12
286.057	86.12
286.288	76.12
286.52	109.12
286.751	75.12
286.982	81.12
287.213	84.12
287.444	86.12
287.675	91.12
287.906	100.12
288.138	98.12
288.369	82.12
288.6	89.12
288.831	98.12
289.062	85.12
289.293	85.12
289.524	89.12
289.755	85.12
289.986	85.12
290.217	95.12
290.448	81.12
290.679	102.12
290.91	84.12
291.141	86.12
291.371	99.12
291.602	96.12
291.833	81.12
292.064	91.12
292.295	72.12
292.526	70.12
292.757	83.12
292.987	91.12
293.218	86.12
293.449	81.12
293.68	70.12
293.91	101.12
294.141	94.12
294.372	92.12
294.603	79.12
294.833	90.12
295.064	77.12
295.295	95.12
295.525	89.12
295.756	78.12
295.987	87.12
296.217	94.12
296.448	92.12
296.679	80.12
296.909	94.12
297.14	97.12
297.37	98.12
297.601	94.12
297.831	95.12
298.062	87.12
298.292	98.12
298.523	107.12
298.753	85.12
298.984	102.12
299.214	89.12
299.445	85.12
299.675	90.12
299.905	81.12
300.136	79.12
300.366	90.12
300.597	104.12
300.827	90.12
301.057	84.12
301.288	106.12
301.518	97.12
301.748	93.12
301.979	98.12
302.209	79.12
302.439	68.12
302.669	83.12
302.9	71.12
303.13	89.12
303.36	81.12
303.59	93.12
303.82	96.12
304.051	82.12
304.281	101.12
304.511	93.12
304.741	78.12
304.971	95.12
305.201	102.12
305.431	94.12
305.661	93.12
305.891	86.12
306.121	91.12
306.352	78.12
306.582	86.12
306.812	87.12
307.042	95.12
307.272	89.12
307.502	89.12
307.731	97.12
307.961	103.12
308.191	83.12
308.421	93.12
308.651	97.12
308.881	90.12
309.111	80.12
309.341	88.12
309.571	75.12
309.8	83.12
310.03	91.12
310.26	83.12
310.49	90.12
310.72	86.12
310.949	100.12
311.179	83.12
311.409	85.12
311.639	71.12
311.868	91.12
312.098	89.12
312.328	88.12
312.557	75.12
312.787	83.12
313.017	81.12
313.246	108.12
313.476	91.12
313.706	103.12
313.935	96.12
314.165	69.12
314.394	80.12
314.624	81.12
314.853	94.12
315.083	86.12
315.312	81.12
315.542	91.12
315.771	95.12
316.001	87.12
316.23	95.12
316.46	91.12
316.689	95.12
316.919	89.12
317.148	81.12
317.377	99.12
317.607	92.12
317.836	95.12
318.065	81.12
318.295	85.12
318.524	95.12
318.753	99.12
318.983	91.12
319.212	94.12
319.441	85.12
319.67	103.12
319.9	86.12
320.129	79.12
320.358	89.12
320.587	92.12
320.816	83.12
321.046	95.12
321.275	90.12
321.504	87.12
321.733	71.12
321.962	91.12
322.191	82.12
322.42	92.12
322.649	93.12
322.878	92.12
323.108	90.12
323.337	82.12
323.566	88.12
323.795	92.12
324.024	82.12
324.253	94.12
324.482	75.12
324.71	101.12
324.939	93.12
325.168	86.12
325.397	92.12
325.626	87.12
325.855	90.12
326.084	100.12
326.313	83.12
326.542	87.12
326.77	96.12
326.999	90.12
327.228	82.12
327.457	101.12
327.686	91.12
327.914	97.12
328.143	78.12
328.372	81.12
328.6	79.12
328.829	92.12
329.058	83.12
329.287	84.12
329.515	106.12
329.744	72.12
329.972	82.12
330.201	94.12
330.43	85.12
330.658	93.12
330.887	102.12
331.115	105.12
331.344	91.12
331.572	87.12
331.801	98.12
332.03	95.12
332.258	97.12
332.486	89.12
332.715	86.12
332.943	80.12
333.172	73.12
333.4	83.12
333.629	77.12
333.857	97.12
334.085	89.12
334.314	90.12
334.542	75.12
334.771	94.12
334.999	93.12
335.227	74.12
335.455	93.12
335.684	93.12
335.912	89.12
336.14	83.12
336.369	96.12
336.597	81.12
336.825	78.12
337.053	98.12
337.281	82.12
337.51	89.12
337.738	81.12
337.966	95.12
338.194	90.12
338.422	88.12
338.65	87.12
338.878	99.12
339.106	83.12
339.334	90.12
339.562	86.12
339.79	96.12
340.018	90.12
340.246	99.12
340.474	92.12
340.702	91.12
340.93	102.12
341.158	84.12
341.386	86.12
341.614	98.12
341.842	70.12
342.07	94.12
342.298	69.12
342.526	94.12
342.754	89.12
342.981	96.12
343.209	100.12
343.437	98.12
343.665	77.12
343.893	82.12
344.12	85.12
344.348	71.12
344.576	85.12
344.804	89.12
345.031	77.12
345.259	102.12
345.487	87.12
345.714	77.12
345.942	83.12
346.17	81.12
346.397	71.12
346.625	95.12
346.853	82.12
347.08	99.12
347.308	83.12
347.535	75.12
347.763	95.12
347.99	87.12
348.218	86.12
348.445	77.12
348.673	82.12
348.9	100.12
349.128	85.12
349.355	84.12
349.583	86.12
349.81	83.12
350.037	83.12
350.265	99.12
350.492	79.12
350.72	78.12
350.947	84.12
351.174	67.12
351.402	89.12
351.629	87.12
351.856	84.12
352.083	85.12
352.311	97.12
352.538	91.12
352.765	93.12
352.992	85.12
353.22	79.12
353.447	78.12
353.674	84.12
353.901	73.12
354.128	89.12
354.355	81.12
354.583	93.12
354.81	87.12
355.037	86.12
355.264	105.12
355.491	90.12
355.718	88.12
355.945	89.12
356.172	83.12
356.399	76.12
356.626	85.12
356.853	91.12
357.08	88.12
357.307	80.12
357.534	82.12
357.761	83.12
357.988	93.12
358.215	95.12
358.441	91.12
358.668	81.12
358.895	91.12
359.122	79.12
359.349	77.12
359.576	85.12
359.802	91.12
360.029	91.12
360.256	75.12
360.483	81.12
360.709	81.12
360.936	86.12
361.163	78.12
361.39	83.12
361.616	73.12
361.843	77.12
362.07	85.12
362.296	78.12
362.523	78.12
362.749	76.12
362.976	81.12
363.203	85.12
363.429	86.12
363.656	78.12
363.882	87.12
364.109	72.12
364.335	81.12
364.562	83.12
364.788	83.12
365.015	89.12
365.241	96.12
365.468	91.12
365.694	88.12
365.92	89.12
366.147	72.12
366.373	89.12
366.599	75.12
366.826	81.12
367.052	93.12
367.278	80.12
367.505	94.12
367.731	93.12
367.957	81.12
368.184	73.12
368.41	90.12
368.636	85.12
368.862	89.12
369.089	85.12
369.315	85.12
369.541	98.12
369.767	84.12
369.993	85.12
370.219	82.12
370.445	90.12
370.672	79.12
370.898	83.12
371.124	77.12
371.35	93.12
371.576	90.12
371.802	71.12
372.028	86.12
372.254	75.12
372.48	84.12
372.706	90.12
372.932	90.12
373.158	93.12
373.384	100.12
373.61	95.12
373.835	81.12
374.061	102.12
374.287	81.12
374.513	75.12
374.739	97.12
374.965	83.12
375.191	89.12
375.416	87.12
375.642	87.12
375.868	88.12
376.094	89.12
376.319	84.12
376.545	85.12
376.771	97.12
376.997	93.12
377.222	90.12
377.448	80.12
377.674	89.12
377.899	79.12
378.125	89.12
378.35	87.12
378.576	91.12
378.802	82.12
379.027	85.12
379.253	88.12
379.478	85.12
379.704	85.12
379.929	90.12
380.155	81.12
380.38	91.12
380.606	89.12
380.831	91.12
381.057	75.12
381.282	90.12
381.507	109.12
381.733	79.12
381.958	77.12
382.184	88.12
382.409	77.12
382.634	99.12
382.86	81.12
383.085	96.12
383.31	89.12
383.535	86.12
383.761	95.12
383.986	94.12
384.211	85.12
384.436	98.12
384.662	103.12
384.887	77.12
385.112	81.12
385.337	79.12
385.562	89.12
385.787	94.12
386.013	73.12
386.238	90.12
386.463	79.12
386.688	98.12
386.913	93.12
387.138	87.12
387.363	88.12
387.588	86.12
387.813	96.12
388.038	76.12
388.263	79.12
388.488	76.12
388.713	79.12
388.938	86.12
389.163	81.12
389.387	95.12
389.612	95.12
389.837	83.12
390.062	86.12
390.287	81.12
390.512	93.12
390.736	84.12
390.961	81.12
391.186	79.12
391.411	66.12
391.636	87.12
391.86	95.12
392.085	72.12
392.31	87.12
392.534	92.12
392.759	88.12
392.984	88.12
393.208	85.12
393.433	84.12
393.658	94.12
393.882	78.12
394.107	97.12
394.331	83.12
394.556	68.12
394.78	96.12
395.005	84.12
395.229	84.12
395.454	90.12
395.678	94.12
395.903	92.12
396.127	84.12
396.352	77.12
396.576	84.12
396.801	81.12
397.025	75.12
397.249	80.12
397.474	74.12
397.698	90.12
397.922	82.12
398.147	87.12
398.371	77.12
398.595	94.12
398.82	69.12
399.044	78.12
399.268	75.12
399.492	74.12
399.717	85.12
399.941	80.12
400.165	86.12
400.389	79.12
400.613	85.12
400.837	65.12
401.062	92.12
401.286	70.12
401.51	83.12
401.734	85.12
401.958	99.12
402.182	90.12
402.406	87.12
402.63	96.12
402.854	75.12
403.078	83.12
403.302	81.12
403.526	91.12
403.75	74.12
403.974	83.12
404.198	87.12
404.422	85.12
404.645	83.12
404.869	86.12
405.093	78.12
405.317	81.12
405.541	82.12
405.765	91.12
405.988	79.12
406.212	89.12
406.436	83.12
406.66	86.12
406.883	77.12
407.107	92.12
407.331	74.12
407.555	93.12
407.778	74.12
408.002	86.12
408.226	95.12
408.449	78.12
408.673	89.12
408.896	80.12
409.12	89.12
409.344	79.12
409.567	83.12
409.791	68.12
410.014	82.12
410.238	74.12
410.461	70.12
410.685	72.12
410.908	79.12
411.132	82.12
411.355	84.12
411.578	97.12
411.802	83.12
412.025	81.12
412.249	85.12
412.472	83.12
412.695	85.12
412.919	81.12
413.142	94.12
413.365	71.12
413.589	90.12
413.812	90.12
414.035	89.12
414.258	86.12
414.482	80.12
414.705	85.12
414.928	72.12
415.151	87.12
415.374	91.12
415.597	89.12
415.821	90.12
416.044	89.12
416.267	73.12
416.49	83.12
416.713	88.12
416.936	81.12
417.159	84.12
417.382	71.12
417.605	82.12
417.828	82.12
418.051	82.12
418.274	83.12
418.497	85.12
418.72	84.12
418.943	86.12
419.166	83.12
419.389	85.12
419.611	81.12
419.834	73.12
420.057	88.12
420.28	100.12
420.503	102.12
420.726	64.12
420.948	94.12
421.171	89.12
421.394	97.12
421.617	93.12
421.839	86.12
422.062	75.12
422.285	89.12
422.507	86.12
422.73	72.12
422.953	75.12
423.175	76.12
423.398	82.12
423.621	91.12
423.843	75.12
424.066	94.12
424.288	93.12
424.511	79.12
424.733	89.12
424.956	82.12
425.178	72.12
425.401	76.12
425.623	79.12
425.846	69.12
426.068	78.12
426.291	82.12
426.513	78.12
426.735	94.12
426.958	87.12
427.18	96.12
427.402	97.12
427.625	86.12
427.847	84.12
428.069	78.12
428.292	91.12
428.514	72.12
428.736	77.12
428.958	90.12
429.181	80.12
429.403	78.12
429.625	86.12
429.847	90.12
430.069	82.12
430.292	77.12
430.514	85.12
430.736	80.12
430.958	78.12
431.18	95.12
431.402	75.12
431.624	90.12
431.846	92.12
432.068	89.12
432.29	81.12
432.512	81.12
432.734	81.12
432.956	86.12
433.178	87.12
433.4	83.12
433.622	88.12
433.844	92.12
434.066	91.12
434.287	81.12
434.509	77.12
434.731	94.12
434.953	80.12
435.175	81.12
435.397	80.12
435.618	83.12
435.84	75.12
436.062	91.12
436.284	84.12
436.505	71.12
436.727	89.12
436.949	77.12
437.17	72.12
437.392	85.12
437.614	79.12
437.835	89.12
438.057	95.12
438.278	87.12
438.5	73.12
438.721	71.12
438.943	86.12
439.165	88.12
439.386	93.12
439.608	91.12
439.829	80.12
440.05	83.12
440.272	78.12
440.493	78.12
440.715	77.12
440.936	88.12
441.158	84.12
441.379	96.12
441.6	90.12
441.822	80.12
442.043	81.12
442.264	81.12
442.486	79.12
442.707	79.12
442.928	92.12
443.149	77.12
443.371	95.12
443.592	77.12
443.813	74.12
444.034	79.12
444.255	82.12
444.476	94.12
444.698	84.12
444.919	85.12
445.14	135.12
445.361	97.12
445.582	96.12
445.803	90.12
446.024	74.12
446.245	71.12
446.466	86.12
446.687	90.12
446.908	84.12
447.129	87.12
447.35	84.12
447.571	76.12
447.792	67.12
448.013	82.12
448.234	71.12
448.455	85.12
448.675	85.12
448.896	90.12
449.117	76.12
449.338	95.12
449.559	86.12
449.779	79.12
450	93.12
450.221	74.12
450.442	81.12
450.662	82.12
450.883	75.12
451.104	93.12
451.324	99.12
451.545	91.12
451.766	78.12
451.986	93.12
452.207	87.12
452.428	72.12
452.648	68.12
452.869	89.12
453.089	81.12
453.31	78.12
453.53	77.12
453.751	83.12
453.971	83.12
454.192	82.12
454.412	86.12
454.633	86.12
454.853	79.12
455.073	81.12
455.294	81.12
455.514	75.12
455.734	77.12
455.955	84.12
456.175	81.12
456.395	86.12
456.616	86.12
456.836	83.12
457.056	84.12
457.276	77.12
457.497	81.12
457.717	71.12
457.937	85.12
458.157	79.12
458.377	79.12
458.598	88.12
458.818	77.12
459.038	73.12
459.258	84.12
459.478	78.12
459.698	76.12
459.918	81.12
460.138	76.12
460.358	77.12
460.578	84.12
460.798	93.12
461.018	81.12
461.238	90.12
461.458	87.12
461.678	107.12
461.898	93.12
462.118	88.12
462.338	88.12
462.558	93.12
462.777	81.12
462.997	83.12
463.217	90.12
463.437	83.12
463.657	77.12
463.876	96.12
464.096	85.12
464.316	97.12
464.536	90.12
464.755	83.12
464.975	74.12
465.195	78.12
465.414	87.12
465.634	71.12
465.854	79.12
466.073	85.12
466.293	73.12
466.512	89.12
466.732	83.12
466.951	93.12
467.171	78.12
467.391	78.12
467.61	83.12
467.829	70.12
468.049	81.12
468.268	81.12
468.488	77.12
468.707	79.12
468.927	83.12
469.146	79.12
469.365	93.12
469.585	97.12
469.804	85.12
470.023	88.12
470.243	90.12
470.462	75.12
470.681	83.12
470.901	82.12
471.12	65.12
471.339	85.12
471.558	85.12
471.777	86.12
471.997	92.12
472.216	82.12
472.435	83.12
472.654	88.12
472.873	81.12
473.092	81.12
473.311	85.12
473.53	76.12
473.749	86.12
473.968	92.12
474.187	90.12
474.406	77.12
474.625	92.12
474.844	75.12
475.063	81.12
475.282	82.12
475.501	86.12
475.72	79.12
475.939	79.12
476.158	84.12
476.377	83.12
476.596	79.12
476.814	64.12
477.033	91.12
477.252	89.12
477.471	96.12
477.69	74.12
477.908	98.12
478.127	73.12
478.346	78.12
478.564	80.12
478.783	86.12
479.002	83.12
479.22	76.12
479.439	85.12
479.658	95.12
479.876	90.12
480.095	92.12
480.313	83.12
480.532	91.12
480.751	81.12
480.969	93.12
481.188	93.12
481.406	73.12
481.624	80.12
481.843	82.12
482.061	89.12
482.28	81.12
482.498	92.12
482.717	80.12
482.935	74.12
483.153	92.12
483.372	83.12
483.59	89.12
483.808	102.12
484.027	85.12
484.245	89.12
484.463	81.12
484.681	78.12
484.9	86.12
485.118	70.12
485.336	76.12
485.554	83.12
485.772	75.12
485.99	82.12
486.209	79.12
486.427	85.12
486.645	83.12
486.863	74.12
487.081	83.12
487.299	78.12
487.517	89.12
487.735	77.12
487.953	93.12
488.171	86.12
488.389	87.12
488.607	97.12
488.825	78.12
489.043	79.12
489.261	92.12
489.479	90.12
489.696	77.12
489.914	87.12
490.132	78.12
490.35	96.12
490.568	81.12
490.786	92.12
491.003	87.12
491.221	80.12
491.439	78.12
491.657	85.12
491.874	91.12
492.092	85.12
492.31	85.12
492.527	76.12
492.745	75.12
492.963	92.12
493.18	85.12
493.398	86.12
493.615	86.12
493.833	76.12
494.05	86.12
494.268	86.12
494.485	83.12
494.703	91.12
494.92	78.12
495.138	88.12
495.355	98.12
495.573	85.12
495.79	85.12
496.008	75.12
496.225	86.12
496.442	76.12
496.66	78.12
496.877	82.12
497.094	101.12
497.312	82.12
497.529	93.12
497.746	78.12
497.963	97.12
498.181	85.12
498.398	90.12
498.615	97.12
498.832	82.12
499.049	82.12
499.267	82.12
499.484	88.12
499.701	87.12
499.918	93.12
500.135	82.12
500.352	84.12
500.569	91.12
500.786	86.12
501.003	98.12
501.22	85.12
501.437	93.12
501.654	92.12
501.871	93.12
502.088	94.12
502.305	87.12
502.522	77.12
502.739	85.12
502.956	87.12
503.172	75.12
503.389	74.12
503.606	85.12
503.823	83.12
504.04	83.12
504.256	91.12
504.473	90.12
504.69	83.12
504.907	79.12
505.123	90.12
505.34	86.12
505.557	78.12
505.773	83.12
505.99	98.12
506.207	82.12
506.423	86.12
506.64	92.12
506.856	83.12
507.073	79.12
507.289	82.12
507.506	84.12
507.722	81.12
507.939	74.12
508.155	77.12
508.372	79.12
508.588	82.12
508.805	80.12
509.021	87.12
509.238	93.12
509.454	93.12
509.67	79.12
509.887	82.12
510.103	89.12
510.319	91.12
510.536	80.12
510.752	86.12
510.968	71.12
511.184	85.12
511.401	89.12
511.617	86.12
511.833	83.12
512.049	82.12
512.265	71.12
512.481	75.12
512.698	84.12
512.914	97.12
513.13	92.12
513.346	86.12
513.562	92.12
513.778	90.12
513.994	89.12
514.21	93.12
514.426	73.12
514.642	79.12
514.858	81.12
515.074	77.12
515.29	83.12
515.506	71.12
515.721	87.12
515.937	84.12
516.153	72.12
516.369	85.12
516.585	93.12
516.801	82.12
517.016	76.12
517.232	85.12
517.448	92.12
517.664	93.12
517.879	102.12
518.095	90.12
518.311	90.12
518.527	92.12
518.742	94.12
518.958	81.12
519.173	83.12
519.389	85.12
519.605	84.12
