Data from Background_1_HRD10591_00047.txt Node
Date: Wed Nov 05 14:39:21 EST 2025
User: Yrep
Spectrometer: HR+D1059
Trigger mode: 1
Integration Time (sec): 1.000000E-1
Scans to average: 1
Electric dark correction enabled: true
Nonlinearity correction enabled: false
Boxcar width: 0
XAxis mode: Wavelengths
Number of Pixels in Spectrum: 2048
>>>>>Begin Spectral Data<<<<<
223.165	-14.25
223.4	-14.25
223.635	-14.25
223.869	-20.25
224.104	-11.25
224.338	-18.25
224.573	-2.25
224.808	-17.25
225.042	-27.25
225.277	-14.25
225.511	-7.25
225.746	7.75
225.98	9.75
226.215	5.75
226.449	30.75
226.683	15.75
226.918	22.75
227.152	39.75
227.387	42.75
227.621	31.75
227.856	47.75
228.09	43.75
228.324	43.75
228.559	53.75
228.793	55.75
229.027	62.75
229.262	53.75
229.496	58.75
229.73	60.75
229.964	60.75
230.199	64.75
230.433	70.75
230.667	72.75
230.901	71.75
231.136	78.75
231.37	78.75
231.604	81.75
231.838	73.75
232.072	66.75
232.306	72.75
232.541	77.75
232.775	84.75
233.009	90.75
233.243	80.75
233.477	90.75
233.711	90.75
233.945	82.75
234.179	67.75
234.413	78.75
234.647	78.75
234.881	80.75
235.115	72.75
235.349	78.75
235.583	78.75
235.817	64.75
236.051	71.75
236.285	75.75
236.519	79.75
236.753	58.75
236.987	72.75
237.221	72.75
237.455	74.75
237.689	71.75
237.922	70.75
238.156	66.75
238.39	56.75
238.624	65.75
238.858	76.75
239.091	71.75
239.325	70.75
239.559	59.75
239.793	63.75
240.027	82.75
240.26	65.75
240.494	66.75
240.728	73.75
240.961	79.75
241.195	76.75
241.429	84.75
241.662	80.75
241.896	68.75
242.13	69.75
242.363	72.75
242.597	60.75
242.83	81.75
243.064	63.75
243.298	83.75
243.531	71.75
243.765	74.75
243.998	72.75
244.232	77.75
244.465	80.75
244.699	64.75
244.932	69.75
245.166	71.75
245.399	63.75
245.633	75.75
245.866	66.75
246.099	78.75
246.333	79.75
246.566	81.75
246.8	76.75
247.033	73.75
247.266	74.75
247.5	75.75
247.733	65.75
247.966	81.75
248.2	71.75
248.433	80.75
248.666	66.75
248.899	69.75
249.133	71.75
249.366	71.75
249.599	83.75
249.832	74.75
250.066	79.75
250.299	74.75
250.532	74.75
250.765	80.75
250.998	72.75
251.231	66.75
251.465	78.75
251.698	75.75
251.931	75.75
252.164	88.75
252.397	82.75
252.63	77.75
252.863	82.75
253.096	72.75
253.329	77.75
253.562	79.75
253.795	72.75
254.028	78.75
254.261	70.75
254.494	84.75
254.727	78.75
254.96	85.75
255.193	67.75
255.426	79.75
255.659	77.75
255.892	83.75
256.124	58.75
256.357	74.75
256.59	71.75
256.823	72.75
257.056	75.75
257.289	63.75
257.521	77.75
257.754	83.75
257.987	71.75
258.22	85.75
258.452	82.75
258.685	81.75
258.918	83.75
259.151	75.75
259.383	63.75
259.616	79.75
259.849	76.75
260.081	75.75
260.314	80.75
260.547	80.75
260.779	59.75
261.012	81.75
261.244	73.75
261.477	79.75
261.71	90.75
261.942	66.75
262.175	78.75
262.407	71.75
262.64	84.75
262.872	80.75
263.105	97.75
263.337	85.75
263.57	79.75
263.802	78.75
264.035	66.75
264.267	74.75
264.499	76.75
264.732	69.75
264.964	71.75
265.197	64.75
265.429	76.75
265.661	68.75
265.894	73.75
266.126	88.75
266.358	83.75
266.591	72.75
266.823	77.75
267.055	80.75
267.287	79.75
267.52	72.75
267.752	67.75
267.984	83.75
268.216	89.75
268.448	80.75
268.681	86.75
268.913	70.75
269.145	71.75
269.377	75.75
269.609	80.75
269.841	65.75
270.073	91.75
270.306	85.75
270.538	84.75
270.77	80.75
271.002	75.75
271.234	67.75
271.466	71.75
271.698	69.75
271.93	76.75
272.162	74.75
272.394	84.75
272.626	89.75
272.858	77.75
273.09	81.75
273.322	86.75
273.553	81.75
273.785	83.75
274.017	83.75
274.249	73.75
274.481	83.75
274.713	73.75
274.945	80.75
275.176	69.75
275.408	96.75
275.64	92.75
275.872	87.75
276.104	61.75
276.335	66.75
276.567	79.75
276.799	67.75
277.031	80.75
277.262	71.75
277.494	74.75
277.726	85.75
277.957	83.75
278.189	86.75
278.421	77.75
278.652	83.75
278.884	87.75
279.115	79.75
279.347	85.75
279.579	81.75
279.81	67.75
280.042	72.75
280.273	78.75
280.505	66.75
280.736	83.75
280.968	84.75
281.199	77.75
281.431	79.75
281.662	84.75
281.894	69.75
282.125	79.75
282.356	73.75
282.588	89.75
282.819	83.75
283.051	78.75
283.282	83.75
283.513	82.75
283.745	79.75
283.976	74.75
284.207	88.75
284.439	63.75
284.67	85.75
284.901	80.75
285.132	89.75
285.364	77.75
285.595	84.75
285.826	69.75
286.057	92.75
286.288	87.75
286.52	93.75
286.751	71.75
286.982	84.75
287.213	75.75
287.444	86.75
287.675	85.75
287.906	83.75
288.138	84.75
288.369	96.75
288.6	66.75
288.831	73.75
289.062	75.75
289.293	72.75
289.524	81.75
289.755	71.75
289.986	83.75
290.217	79.75
290.448	74.75
290.679	76.75
290.91	93.75
291.141	81.75
291.371	80.75
291.602	75.75
291.833	86.75
292.064	75.75
292.295	63.75
292.526	75.75
292.757	64.75
292.987	79.75
293.218	85.75
293.449	74.75
293.68	66.75
293.91	66.75
294.141	68.75
294.372	89.75
294.603	71.75
294.833	89.75
295.064	78.75
295.295	75.75
295.525	69.75
295.756	75.75
295.987	88.75
296.217	93.75
296.448	78.75
296.679	68.75
296.909	76.75
297.14	96.75
297.37	73.75
297.601	83.75
297.831	92.75
298.062	74.75
298.292	75.75
298.523	86.75
298.753	88.75
298.984	86.75
299.214	85.75
299.445	92.75
299.675	106.75
299.905	73.75
300.136	73.75
300.366	89.75
300.597	76.75
300.827	97.75
301.057	69.75
301.288	79.75
301.518	68.75
301.748	82.75
301.979	98.75
302.209	85.75
302.439	81.75
302.669	85.75
302.9	83.75
303.13	90.75
303.36	84.75
303.59	64.75
303.82	79.75
304.051	83.75
304.281	71.75
304.511	89.75
304.741	68.75
304.971	100.75
305.201	86.75
305.431	78.75
305.661	81.75
305.891	71.75
306.121	72.75
306.352	64.75
306.582	63.75
306.812	84.75
307.042	77.75
307.272	86.75
307.502	81.75
307.731	75.75
307.961	71.75
308.191	90.75
308.421	80.75
308.651	84.75
308.881	69.75
309.111	73.75
309.341	65.75
309.571	71.75
309.8	84.75
310.03	83.75
310.26	77.75
310.49	71.75
310.72	76.75
310.949	87.75
311.179	83.75
311.409	77.75
311.639	84.75
311.868	94.75
312.098	74.75
312.328	69.75
312.557	90.75
312.787	71.75
313.017	83.75
313.246	74.75
313.476	67.75
313.706	76.75
313.935	83.75
314.165	81.75
314.394	61.75
314.624	81.75
314.853	83.75
315.083	84.75
315.312	77.75
315.542	77.75
315.771	78.75
316.001	83.75
316.23	80.75
316.46	75.75
316.689	71.75
316.919	72.75
317.148	75.75
317.377	61.75
317.607	68.75
317.836	75.75
318.065	81.75
318.295	92.75
318.524	83.75
318.753	85.75
318.983	81.75
319.212	80.75
319.441	80.75
319.67	68.75
319.9	85.75
320.129	72.75
320.358	75.75
320.587	88.75
320.816	76.75
321.046	55.75
321.275	85.75
321.504	76.75
321.733	87.75
321.962	65.75
322.191	70.75
322.42	87.75
322.649	85.75
322.878	82.75
323.108	71.75
323.337	85.75
323.566	81.75
323.795	77.75
324.024	84.75
324.253	79.75
324.482	78.75
324.71	88.75
324.939	93.75
325.168	83.75
325.397	101.75
325.626	85.75
325.855	63.75
326.084	73.75
326.313	70.75
326.542	89.75
326.77	79.75
326.999	79.75
327.228	68.75
327.457	87.75
327.686	79.75
327.914	56.75
328.143	72.75
328.372	75.75
328.6	71.75
328.829	77.75
329.058	88.75
329.287	73.75
329.515	86.75
329.744	92.75
329.972	79.75
330.201	80.75
330.43	84.75
330.658	68.75
330.887	77.75
331.115	81.75
331.344	74.75
331.572	75.75
331.801	89.75
332.03	77.75
332.258	87.75
332.486	80.75
332.715	72.75
332.943	73.75
333.172	70.75
333.4	61.75
333.629	85.75
333.857	71.75
334.085	63.75
334.314	70.75
334.542	93.75
334.771	75.75
334.999	93.75
335.227	88.75
335.455	73.75
335.684	78.75
335.912	81.75
336.14	71.75
336.369	83.75
336.597	80.75
336.825	81.75
337.053	80.75
337.281	80.75
337.51	80.75
337.738	77.75
337.966	85.75
338.194	59.75
338.422	63.75
338.65	88.75
338.878	72.75
339.106	81.75
339.334	83.75
339.562	71.75
339.79	88.75
340.018	78.75
340.246	66.75
340.474	88.75
340.702	90.75
340.93	74.75
341.158	79.75
341.386	88.75
341.614	93.75
341.842	68.75
342.07	72.75
342.298	72.75
342.526	71.75
342.754	75.75
342.981	82.75
343.209	80.75
343.437	97.75
343.665	84.75
343.893	83.75
344.12	90.75
344.348	83.75
344.576	75.75
344.804	91.75
345.031	77.75
345.259	79.75
345.487	95.75
345.714	80.75
345.942	65.75
346.17	72.75
346.397	64.75
346.625	92.75
346.853	80.75
347.08	85.75
347.308	89.75
347.535	78.75
347.763	75.75
347.99	61.75
348.218	84.75
348.445	71.75
348.673	75.75
348.9	72.75
349.128	88.75
349.355	85.75
349.583	75.75
349.81	66.75
350.037	69.75
350.265	90.75
350.492	61.75
350.72	60.75
350.947	71.75
351.174	86.75
351.402	95.75
351.629	68.75
351.856	87.75
352.083	72.75
352.311	84.75
352.538	86.75
352.765	80.75
352.992	81.75
353.22	65.75
353.447	75.75
353.674	79.75
353.901	83.75
354.128	86.75
354.355	69.75
354.583	73.75
354.81	62.75
355.037	88.75
355.264	83.75
355.491	81.75
355.718	91.75
355.945	68.75
356.172	78.75
356.399	76.75
356.626	86.75
356.853	79.75
357.08	89.75
357.307	65.75
357.534	79.75
357.761	73.75
357.988	80.75
358.215	70.75
358.441	67.75
358.668	71.75
358.895	81.75
359.122	74.75
359.349	76.75
359.576	87.75
359.802	67.75
360.029	86.75
360.256	72.75
360.483	70.75
360.709	86.75
360.936	91.75
361.163	79.75
361.39	68.75
361.616	80.75
361.843	83.75
362.07	59.75
362.296	84.75
362.523	67.75
362.749	57.75
362.976	91.75
363.203	78.75
363.429	78.75
363.656	88.75
363.882	78.75
364.109	75.75
364.335	63.75
364.562	77.75
364.788	82.75
365.015	78.75
365.241	77.75
365.468	73.75
365.694	75.75
365.92	79.75
366.147	75.75
366.373	69.75
366.599	79.75
366.826	76.75
367.052	75.75
367.278	92.75
367.505	80.75
367.731	81.75
367.957	86.75
368.184	73.75
368.41	71.75
368.636	76.75
368.862	80.75
369.089	77.75
369.315	65.75
369.541	79.75
369.767	81.75
369.993	75.75
370.219	80.75
370.445	65.75
370.672	59.75
370.898	77.75
371.124	77.75
371.35	71.75
371.576	71.75
371.802	85.75
372.028	85.75
372.254	75.75
372.48	85.75
372.706	82.75
372.932	89.75
373.158	73.75
373.384	79.75
373.61	77.75
373.835	63.75
374.061	67.75
374.287	71.75
374.513	84.75
374.739	78.75
374.965	77.75
375.191	88.75
375.416	93.75
375.642	78.75
375.868	87.75
376.094	72.75
376.319	72.75
376.545	81.75
376.771	85.75
376.997	73.75
377.222	83.75
377.448	59.75
377.674	72.75
377.899	75.75
378.125	79.75
378.35	88.75
378.576	71.75
378.802	65.75
379.027	67.75
379.253	80.75
379.478	85.75
379.704	85.75
379.929	72.75
380.155	91.75
380.38	51.75
380.606	71.75
380.831	78.75
381.057	80.75
381.282	70.75
381.507	85.75
381.733	65.75
381.958	72.75
382.184	72.75
382.409	81.75
382.634	84.75
382.86	65.75
383.085	69.75
383.31	75.75
383.535	91.75
383.761	69.75
383.986	71.75
384.211	81.75
384.436	72.75
384.662	77.75
384.887	72.75
385.112	73.75
385.337	81.75
385.562	87.75
385.787	76.75
386.013	80.75
386.238	79.75
386.463	77.75
386.688	85.75
386.913	77.75
387.138	57.75
387.363	72.75
387.588	73.75
387.813	81.75
388.038	71.75
388.263	78.75
388.488	88.75
388.713	73.75
388.938	73.75
389.163	72.75
389.387	92.75
389.612	77.75
389.837	88.75
390.062	85.75
390.287	76.75
390.512	64.75
390.736	81.75
390.961	82.75
391.186	71.75
391.411	80.75
391.636	64.75
391.86	68.75
392.085	88.75
392.31	91.75
392.534	85.75
392.759	73.75
392.984	87.75
393.208	73.75
393.433	77.75
393.658	78.75
393.882	80.75
394.107	57.75
394.331	76.75
394.556	71.75
394.78	91.75
395.005	71.75
395.229	75.75
395.454	86.75
395.678	83.75
395.903	67.75
396.127	85.75
396.352	63.75
396.576	85.75
396.801	69.75
397.025	86.75
397.249	71.75
397.474	81.75
397.698	79.75
397.922	83.75
398.147	85.75
398.371	87.75
398.595	76.75
398.82	70.75
399.044	85.75
399.268	69.75
399.492	74.75
399.717	69.75
399.941	81.75
400.165	94.75
400.389	78.75
400.613	76.75
400.837	77.75
401.062	80.75
401.286	71.75
401.51	83.75
401.734	79.75
401.958	87.75
402.182	94.75
402.406	91.75
402.63	81.75
402.854	79.75
403.078	70.75
403.302	73.75
403.526	66.75
403.75	75.75
403.974	73.75
404.198	88.75
404.422	94.75
404.645	82.75
404.869	66.75
405.093	68.75
405.317	63.75
405.541	71.75
405.765	80.75
405.988	66.75
406.212	64.75
406.436	80.75
406.66	67.75
406.883	70.75
407.107	92.75
407.331	56.75
407.555	69.75
407.778	88.75
408.002	93.75
408.226	85.75
408.449	79.75
408.673	77.75
408.896	76.75
409.12	78.75
409.344	88.75
409.567	79.75
409.791	88.75
410.014	91.75
410.238	80.75
410.461	73.75
410.685	67.75
410.908	92.75
411.132	90.75
411.355	55.75
411.578	79.75
411.802	76.75
412.025	89.75
412.249	73.75
412.472	92.75
412.695	75.75
412.919	89.75
413.142	73.75
413.365	82.75
413.589	81.75
413.812	71.75
414.035	75.75
414.258	87.75
414.482	76.75
414.705	83.75
414.928	77.75
415.151	77.75
415.374	65.75
415.597	75.75
415.821	90.75
416.044	70.75
416.267	82.75
416.49	73.75
416.713	75.75
416.936	76.75
417.159	80.75
417.382	82.75
417.605	62.75
417.828	70.75
418.051	63.75
418.274	83.75
418.497	66.75
418.72	70.75
418.943	79.75
419.166	93.75
419.389	73.75
419.611	66.75
419.834	76.75
420.057	80.75
420.28	75.75
420.503	74.75
420.726	64.75
420.948	81.75
421.171	71.75
421.394	59.75
421.617	85.75
421.839	66.75
422.062	83.75
422.285	73.75
422.507	77.75
422.73	80.75
422.953	73.75
423.175	87.75
423.398	65.75
423.621	80.75
423.843	73.75
424.066	68.75
424.288	79.75
424.511	71.75
424.733	73.75
424.956	81.75
425.178	87.75
425.401	71.75
425.623	81.75
425.846	64.75
426.068	85.75
426.291	71.75
426.513	91.75
426.735	84.75
426.958	87.75
427.18	73.75
427.402	64.75
427.625	81.75
427.847	86.75
428.069	75.75
428.292	71.75
428.514	81.75
428.736	76.75
428.958	72.75
429.181	71.75
429.403	76.75
429.625	74.75
429.847	69.75
430.069	77.75
430.292	83.75
430.514	65.75
430.736	73.75
430.958	73.75
431.18	65.75
431.402	76.75
431.624	64.75
431.846	90.75
432.068	70.75
432.29	70.75
432.512	83.75
432.734	78.75
432.956	87.75
433.178	79.75
433.4	77.75
433.622	83.75
433.844	64.75
434.066	74.75
434.287	64.75
434.509	89.75
434.731	81.75
434.953	70.75
435.175	74.75
435.397	68.75
435.618	72.75
435.84	83.75
436.062	81.75
436.284	73.75
436.505	75.75
436.727	85.75
436.949	79.75
437.17	77.75
437.392	88.75
437.614	73.75
437.835	75.75
438.057	68.75
438.278	77.75
438.5	80.75
438.721	88.75
438.943	89.75
439.165	88.75
439.386	79.75
439.608	80.75
439.829	85.75
440.05	77.75
440.272	81.75
440.493	75.75
440.715	74.75
440.936	73.75
441.158	79.75
441.379	71.75
441.6	79.75
441.822	76.75
442.043	75.75
442.264	75.75
442.486	90.75
442.707	80.75
442.928	62.75
443.149	70.75
443.371	70.75
443.592	74.75
443.813	78.75
444.034	89.75
444.255	79.75
444.476	64.75
444.698	90.75
444.919	92.75
445.14	142.75
445.361	109.75
445.582	70.75
445.803	75.75
446.024	77.75
446.245	62.75
446.466	69.75
446.687	72.75
446.908	86.75
447.129	71.75
447.35	70.75
447.571	86.75
447.792	84.75
448.013	74.75
448.234	84.75
448.455	80.75
448.675	74.75
448.896	84.75
449.117	71.75
449.338	71.75
449.559	86.75
449.779	84.75
450	72.75
450.221	62.75
450.442	74.75
450.662	63.75
450.883	87.75
451.104	76.75
451.324	71.75
451.545	65.75
451.766	78.75
451.986	71.75
452.207	80.75
452.428	74.75
452.648	74.75
452.869	70.75
453.089	81.75
453.31	69.75
453.53	77.75
453.751	70.75
453.971	82.75
454.192	63.75
454.412	77.75
454.633	82.75
454.853	55.75
455.073	79.75
455.294	70.75
455.514	90.75
455.734	76.75
455.955	79.75
456.175	83.75
456.395	82.75
456.616	57.75
456.836	77.75
457.056	87.75
457.276	71.75
457.497	78.75
457.717	79.75
457.937	84.75
458.157	80.75
458.377	73.75
458.598	80.75
458.818	64.75
459.038	82.75
459.258	67.75
459.478	71.75
459.698	64.75
459.918	84.75
460.138	71.75
460.358	72.75
460.578	77.75
460.798	83.75
461.018	75.75
461.238	81.75
461.458	83.75
461.678	74.75
461.898	74.75
462.118	86.75
462.338	78.75
462.558	70.75
462.777	71.75
462.997	84.75
463.217	74.75
463.437	68.75
463.657	92.75
463.876	87.75
464.096	81.75
464.316	65.75
464.536	60.75
464.755	82.75
464.975	77.75
465.195	83.75
465.414	69.75
465.634	82.75
465.854	83.75
466.073	80.75
466.293	86.75
466.512	82.75
466.732	83.75
466.951	81.75
467.171	67.75
467.391	68.75
467.61	71.75
467.829	83.75
468.049	79.75
468.268	79.75
468.488	72.75
468.707	75.75
468.927	72.75
469.146	81.75
469.365	73.75
469.585	93.75
469.804	79.75
470.023	72.75
470.243	87.75
470.462	75.75
470.681	85.75
470.901	70.75
471.12	87.75
471.339	91.75
471.558	91.75
471.777	75.75
471.997	79.75
472.216	74.75
472.435	74.75
472.654	77.75
472.873	68.75
473.092	71.75
473.311	75.75
473.53	81.75
473.749	84.75
473.968	79.75
474.187	63.75
474.406	64.75
474.625	65.75
474.844	87.75
475.063	95.75
475.282	61.75
475.501	71.75
475.72	80.75
475.939	91.75
476.158	81.75
476.377	87.75
476.596	73.75
476.814	78.75
477.033	72.75
477.252	89.75
477.471	87.75
477.69	66.75
477.908	71.75
478.127	86.75
478.346	76.75
478.564	73.75
478.783	63.75
479.002	66.75
479.22	78.75
479.439	84.75
479.658	73.75
479.876	71.75
480.095	72.75
480.313	77.75
480.532	82.75
480.751	80.75
480.969	89.75
481.188	73.75
481.406	80.75
481.624	70.75
481.843	66.75
482.061	88.75
482.28	76.75
482.498	84.75
482.717	61.75
482.935	81.75
483.153	77.75
483.372	93.75
483.59	75.75
483.808	78.75
484.027	82.75
484.245	73.75
484.463	73.75
484.681	76.75
484.9	75.75
485.118	85.75
485.336	74.75
485.554	75.75
485.772	85.75
485.99	71.75
486.209	86.75
486.427	76.75
486.645	82.75
486.863	92.75
487.081	70.75
487.299	68.75
487.517	85.75
487.735	82.75
487.953	84.75
488.171	61.75
488.389	72.75
488.607	85.75
488.825	86.75
489.043	83.75
489.261	83.75
489.479	87.75
489.696	86.75
489.914	73.75
490.132	83.75
490.35	90.75
490.568	75.75
490.786	74.75
491.003	84.75
491.221	75.75
491.439	77.75
491.657	76.75
491.874	90.75
492.092	83.75
492.31	74.75
492.527	75.75
492.745	93.75
492.963	85.75
493.18	69.75
493.398	88.75
493.615	71.75
493.833	75.75
494.05	70.75
494.268	83.75
494.485	86.75
494.703	79.75
494.92	83.75
495.138	83.75
495.355	80.75
495.573	78.75
495.79	85.75
496.008	76.75
496.225	73.75
496.442	84.75
496.66	80.75
496.877	76.75
497.094	84.75
497.312	67.75
497.529	67.75
497.746	85.75
497.963	68.75
498.181	68.75
498.398	82.75
498.615	62.75
498.832	78.75
499.049	71.75
499.267	73.75
499.484	74.75
499.701	73.75
499.918	84.75
500.135	70.75
500.352	73.75
500.569	82.75
500.786	81.75
501.003	75.75
501.22	93.75
501.437	89.75
501.654	78.75
501.871	83.75
502.088	78.75
502.305	84.75
502.522	76.75
502.739	84.75
502.956	81.75
503.172	81.75
503.389	74.75
503.606	73.75
503.823	83.75
504.04	69.75
504.256	83.75
504.473	78.75
504.69	79.75
504.907	82.75
505.123	81.75
505.34	89.75
505.557	85.75
505.773	92.75
505.99	72.75
506.207	84.75
506.423	73.75
506.64	71.75
506.856	71.75
507.073	77.75
507.289	71.75
507.506	73.75
507.722	69.75
507.939	65.75
508.155	74.75
508.372	79.75
508.588	87.75
508.805	75.75
509.021	69.75
509.238	76.75
509.454	85.75
509.67	84.75
509.887	83.75
510.103	79.75
510.319	89.75
510.536	75.75
510.752	71.75
510.968	79.75
511.184	88.75
511.401	88.75
511.617	80.75
511.833	63.75
512.049	76.75
512.265	76.75
512.481	76.75
512.698	94.75
512.914	80.75
513.13	85.75
513.346	78.75
513.562	87.75
513.778	75.75
513.994	75.75
514.21	73.75
514.426	69.75
514.642	77.75
514.858	91.75
515.074	80.75
515.29	84.75
515.506	88.75
515.721	69.75
515.937	80.75
516.153	65.75
516.369	86.75
516.585	79.75
516.801	74.75
517.016	87.75
517.232	84.75
517.448	87.75
517.664	87.75
517.879	74.75
518.095	73.75
518.311	83.75
518.527	88.75
518.742	76.75
518.958	81.75
519.173	84.75
519.389	69.75
519.605	69.75
519.82	87.75
520.036	71.75
520.251	84.75
