Data from Background_1_HRD10591_00070.txt Node
Date: Wed Nov 05 14:39:32 EST 2025
User: Yrep
Spectrometer: HR+D1059
Trigger mode: 1
Integration Time (sec): 1.000000E-1
Scans to average: 1
Electric dark correction enabled: true
Nonlinearity correction enabled: false
Boxcar width: 0
XAxis mode: Wavelengths
Number of Pixels in Spectrum: 2048
>>>>>Begin Spectral Data<<<<<
223.165	-20.12
223.4	-20.12
223.635	-20.12
223.869	-17.12
224.104	-14.12
224.338	-12.12
224.573	-13.12
224.808	-6.12
225.042	-2.12
225.277	-2.12
225.511	-19.12
225.746	-6.12
225.98	12.88
226.215	8.88
226.449	-1.12
226.683	21.88
226.918	27.88
227.152	41.88
227.387	31.88
227.621	33.88
227.856	47.88
228.09	41.88
228.324	56.88
228.559	43.88
228.793	53.88
229.027	52.88
229.262	65.88
229.496	58.88
229.73	69.88
229.964	80.88
230.199	72.88
230.433	70.88
230.667	79.88
230.901	82.88
231.136	86.88
231.37	80.88
231.604	90.88
231.838	71.88
232.072	60.88
232.306	74.88
232.541	80.88
232.775	73.88
233.009	77.88
233.243	76.88
233.477	79.88
233.711	79.88
233.945	78.88
234.179	84.88
234.413	82.88
234.647	78.88
234.881	76.88
235.115	70.88
235.349	82.88
235.583	70.88
235.817	74.88
236.051	67.88
236.285	73.88
236.519	69.88
236.753	75.88
236.987	78.88
237.221	77.88
237.455	59.88
237.689	81.88
237.922	83.88
238.156	69.88
238.39	68.88
238.624	70.88
238.858	77.88
239.091	79.88
239.325	76.88
239.559	82.88
239.793	63.88
240.027	69.88
240.26	78.88
240.494	76.88
240.728	73.88
240.961	62.88
241.195	74.88
241.429	75.88
241.662	80.88
241.896	86.88
242.13	80.88
242.363	69.88
242.597	66.88
242.83	73.88
243.064	61.88
243.298	60.88
243.531	86.88
243.765	70.88
243.998	68.88
244.232	84.88
244.465	70.88
244.699	77.88
244.932	67.88
245.166	60.88
245.399	72.88
245.633	75.88
245.866	69.88
246.099	70.88
246.333	81.88
246.566	79.88
246.8	86.88
247.033	84.88
247.266	84.88
247.5	81.88
247.733	80.88
247.966	70.88
248.2	76.88
248.433	80.88
248.666	56.88
248.899	77.88
249.133	64.88
249.366	70.88
249.599	76.88
249.832	85.88
250.066	76.88
250.299	79.88
250.532	61.88
250.765	67.88
250.998	82.88
251.231	81.88
251.465	76.88
251.698	77.88
251.931	97.88
252.164	84.88
252.397	80.88
252.63	75.88
252.863	73.88
253.096	62.88
253.329	80.88
253.562	70.88
253.795	73.88
254.028	72.88
254.261	81.88
254.494	74.88
254.727	82.88
254.96	75.88
255.193	70.88
255.426	63.88
255.659	76.88
255.892	78.88
256.124	81.88
256.357	73.88
256.59	80.88
256.823	76.88
257.056	83.88
257.289	68.88
257.521	83.88
257.754	75.88
257.987	82.88
258.22	86.88
258.452	72.88
258.685	59.88
258.918	76.88
259.151	74.88
259.383	88.88
259.616	76.88
259.849	66.88
260.081	83.88
260.314	86.88
260.547	88.88
260.779	85.88
261.012	93.88
261.244	80.88
261.477	61.88
261.71	78.88
261.942	83.88
262.175	78.88
262.407	96.88
262.64	74.88
262.872	68.88
263.105	72.88
263.337	83.88
263.57	82.88
263.802	80.88
264.035	77.88
264.267	81.88
264.499	82.88
264.732	78.88
264.964	83.88
265.197	74.88
265.429	87.88
265.661	77.88
265.894	86.88
266.126	85.88
266.358	88.88
266.591	82.88
266.823	93.88
267.055	80.88
267.287	85.88
267.52	74.88
267.752	80.88
267.984	74.88
268.216	79.88
268.448	88.88
268.681	87.88
268.913	102.88
269.145	70.88
269.377	80.88
269.609	84.88
269.841	71.88
270.073	66.88
270.306	76.88
270.538	63.88
270.77	79.88
271.002	78.88
271.234	80.88
271.466	82.88
271.698	65.88
271.93	81.88
272.162	70.88
272.394	81.88
272.626	85.88
272.858	83.88
273.09	72.88
273.322	73.88
273.553	80.88
273.785	78.88
274.017	88.88
274.249	80.88
274.481	73.88
274.713	80.88
274.945	73.88
275.176	86.88
275.408	77.88
275.64	80.88
275.872	85.88
276.104	95.88
276.335	86.88
276.567	72.88
276.799	89.88
277.031	78.88
277.262	73.88
277.494	76.88
277.726	94.88
277.957	78.88
278.189	85.88
278.421	74.88
278.652	86.88
278.884	76.88
279.115	98.88
279.347	100.88
279.579	80.88
279.81	71.88
280.042	74.88
280.273	74.88
280.505	75.88
280.736	65.88
280.968	86.88
281.199	87.88
281.431	80.88
281.662	86.88
281.894	81.88
282.125	75.88
282.356	85.88
282.588	67.88
282.819	77.88
283.051	83.88
283.282	70.88
283.513	80.88
283.745	79.88
283.976	94.88
284.207	74.88
284.439	88.88
284.67	90.88
284.901	81.88
285.132	97.88
285.364	84.88
285.595	89.88
285.826	84.88
286.057	77.88
286.288	81.88
286.52	70.88
286.751	98.88
286.982	79.88
287.213	81.88
287.444	90.88
287.675	74.88
287.906	89.88
288.138	76.88
288.369	80.88
288.6	90.88
288.831	66.88
289.062	83.88
289.293	83.88
289.524	79.88
289.755	78.88
289.986	92.88
290.217	79.88
290.448	78.88
290.679	79.88
290.91	81.88
291.141	79.88
291.371	91.88
291.602	89.88
291.833	96.88
292.064	77.88
292.295	84.88
292.526	73.88
292.757	79.88
292.987	85.88
293.218	76.88
293.449	71.88
293.68	88.88
293.91	85.88
294.141	85.88
294.372	80.88
294.603	70.88
294.833	71.88
295.064	92.88
295.295	81.88
295.525	78.88
295.756	83.88
295.987	61.88
296.217	84.88
296.448	85.88
296.679	106.88
296.909	84.88
297.14	89.88
297.37	84.88
297.601	77.88
297.831	96.88
298.062	77.88
298.292	87.88
298.523	90.88
298.753	87.88
298.984	82.88
299.214	75.88
299.445	85.88
299.675	71.88
299.905	85.88
300.136	88.88
300.366	78.88
300.597	80.88
300.827	72.88
301.057	78.88
301.288	69.88
301.518	97.88
301.748	79.88
301.979	97.88
302.209	85.88
302.439	86.88
302.669	93.88
302.9	75.88
303.13	79.88
303.36	82.88
303.59	73.88
303.82	84.88
304.051	90.88
304.281	91.88
304.511	70.88
304.741	80.88
304.971	89.88
305.201	87.88
305.431	77.88
305.661	88.88
305.891	81.88
306.121	82.88
306.352	83.88
306.582	72.88
306.812	82.88
307.042	57.88
307.272	83.88
307.502	78.88
307.731	79.88
307.961	89.88
308.191	92.88
308.421	84.88
308.651	75.88
308.881	87.88
309.111	84.88
309.341	83.88
309.571	92.88
309.8	74.88
310.03	88.88
310.26	92.88
310.49	68.88
310.72	93.88
310.949	80.88
311.179	72.88
311.409	87.88
311.639	78.88
311.868	78.88
312.098	73.88
312.328	88.88
312.557	82.88
312.787	80.88
313.017	86.88
313.246	72.88
313.476	90.88
313.706	83.88
313.935	85.88
314.165	75.88
314.394	74.88
314.624	83.88
314.853	77.88
315.083	92.88
315.312	78.88
315.542	70.88
315.771	72.88
316.001	78.88
316.23	90.88
316.46	88.88
316.689	85.88
316.919	76.88
317.148	80.88
317.377	78.88
317.607	85.88
317.836	75.88
318.065	74.88
318.295	82.88
318.524	98.88
318.753	86.88
318.983	81.88
319.212	86.88
319.441	81.88
319.67	86.88
319.9	91.88
320.129	84.88
320.358	87.88
320.587	100.88
320.816	89.88
321.046	88.88
321.275	93.88
321.504	75.88
321.733	79.88
321.962	88.88
322.191	89.88
322.42	81.88
322.649	88.88
322.878	84.88
323.108	81.88
323.337	86.88
323.566	83.88
323.795	60.88
324.024	77.88
324.253	78.88
324.482	87.88
324.71	89.88
324.939	88.88
325.168	76.88
325.397	84.88
325.626	62.88
325.855	84.88
326.084	92.88
326.313	88.88
326.542	86.88
326.77	98.88
326.999	93.88
327.228	89.88
327.457	85.88
327.686	80.88
327.914	80.88
328.143	81.88
328.372	79.88
328.6	73.88
328.829	82.88
329.058	82.88
329.287	83.88
329.515	86.88
329.744	82.88
329.972	86.88
330.201	67.88
330.43	88.88
330.658	83.88
330.887	88.88
331.115	85.88
331.344	64.88
331.572	85.88
331.801	94.88
332.03	78.88
332.258	80.88
332.486	71.88
332.715	84.88
332.943	72.88
333.172	82.88
333.4	73.88
333.629	88.88
333.857	82.88
334.085	70.88
334.314	80.88
334.542	72.88
334.771	85.88
334.999	82.88
335.227	72.88
335.455	77.88
335.684	80.88
335.912	87.88
336.14	72.88
336.369	78.88
336.597	72.88
336.825	83.88
337.053	86.88
337.281	75.88
337.51	84.88
337.738	94.88
337.966	84.88
338.194	83.88
338.422	79.88
338.65	85.88
338.878	81.88
339.106	79.88
339.334	76.88
339.562	69.88
339.79	84.88
340.018	87.88
340.246	83.88
340.474	72.88
340.702	86.88
340.93	79.88
341.158	66.88
341.386	77.88
341.614	80.88
341.842	86.88
342.07	78.88
342.298	77.88
342.526	81.88
342.754	94.88
342.981	79.88
343.209	93.88
343.437	93.88
343.665	80.88
343.893	75.88
344.12	74.88
344.348	88.88
344.576	76.88
344.804	73.88
345.031	74.88
345.259	84.88
345.487	85.88
345.714	73.88
345.942	83.88
346.17	85.88
346.397	87.88
346.625	93.88
346.853	80.88
347.08	74.88
347.308	87.88
347.535	90.88
347.763	91.88
347.99	86.88
348.218	74.88
348.445	78.88
348.673	84.88
348.9	77.88
349.128	76.88
349.355	85.88
349.583	74.88
349.81	85.88
350.037	69.88
350.265	69.88
350.492	90.88
350.72	76.88
350.947	67.88
351.174	77.88
351.402	86.88
351.629	80.88
351.856	81.88
352.083	78.88
352.311	78.88
352.538	69.88
352.765	78.88
352.992	80.88
353.22	88.88
353.447	73.88
353.674	85.88
353.901	80.88
354.128	102.88
354.355	76.88
354.583	67.88
354.81	88.88
355.037	75.88
355.264	76.88
355.491	82.88
355.718	77.88
355.945	77.88
356.172	79.88
356.399	80.88
356.626	87.88
356.853	78.88
357.08	67.88
357.307	85.88
357.534	73.88
357.761	79.88
357.988	77.88
358.215	84.88
358.441	74.88
358.668	70.88
358.895	81.88
359.122	65.88
359.349	77.88
359.576	80.88
359.802	89.88
360.029	86.88
360.256	75.88
360.483	74.88
360.709	86.88
360.936	82.88
361.163	77.88
361.39	77.88
361.616	82.88
361.843	82.88
362.07	82.88
362.296	78.88
362.523	68.88
362.749	77.88
362.976	81.88
363.203	96.88
363.429	82.88
363.656	101.88
363.882	90.88
364.109	69.88
364.335	81.88
364.562	76.88
364.788	74.88
365.015	95.88
365.241	74.88
365.468	66.88
365.694	75.88
365.92	92.88
366.147	89.88
366.373	77.88
366.599	82.88
366.826	80.88
367.052	83.88
367.278	75.88
367.505	75.88
367.731	74.88
367.957	78.88
368.184	79.88
368.41	78.88
368.636	76.88
368.862	77.88
369.089	78.88
369.315	70.88
369.541	88.88
369.767	77.88
369.993	82.88
370.219	84.88
370.445	89.88
370.672	82.88
370.898	75.88
371.124	73.88
371.35	84.88
371.576	78.88
371.802	78.88
372.028	75.88
372.254	73.88
372.48	71.88
372.706	71.88
372.932	76.88
373.158	82.88
373.384	67.88
373.61	76.88
373.835	81.88
374.061	68.88
374.287	88.88
374.513	76.88
374.739	82.88
374.965	75.88
375.191	72.88
375.416	81.88
375.642	81.88
375.868	82.88
376.094	89.88
376.319	74.88
376.545	86.88
376.771	67.88
376.997	75.88
377.222	79.88
377.448	95.88
377.674	98.88
377.899	81.88
378.125	80.88
378.35	68.88
378.576	83.88
378.802	74.88
379.027	82.88
379.253	79.88
379.478	78.88
379.704	76.88
379.929	77.88
380.155	89.88
380.38	76.88
380.606	75.88
380.831	62.88
381.057	71.88
381.282	88.88
381.507	65.88
381.733	75.88
381.958	58.88
382.184	93.88
382.409	72.88
382.634	70.88
382.86	73.88
383.085	82.88
383.31	86.88
383.535	77.88
383.761	76.88
383.986	80.88
384.211	84.88
384.436	73.88
384.662	66.88
384.887	74.88
385.112	73.88
385.337	81.88
385.562	75.88
385.787	75.88
386.013	70.88
386.238	73.88
386.463	65.88
386.688	79.88
386.913	74.88
387.138	62.88
387.363	80.88
387.588	77.88
387.813	89.88
388.038	80.88
388.263	94.88
388.488	74.88
388.713	88.88
388.938	82.88
389.163	66.88
389.387	65.88
389.612	91.88
389.837	90.88
390.062	74.88
390.287	72.88
390.512	73.88
390.736	64.88
390.961	57.88
391.186	76.88
391.411	79.88
391.636	65.88
391.86	91.88
392.085	83.88
392.31	76.88
392.534	95.88
392.759	99.88
392.984	70.88
393.208	83.88
393.433	72.88
393.658	68.88
393.882	78.88
394.107	86.88
394.331	75.88
394.556	81.88
394.78	61.88
395.005	63.88
395.229	89.88
395.454	80.88
395.678	75.88
395.903	85.88
396.127	76.88
396.352	76.88
396.576	72.88
396.801	82.88
397.025	89.88
397.249	76.88
397.474	81.88
397.698	68.88
397.922	86.88
398.147	69.88
398.371	77.88
398.595	77.88
398.82	86.88
399.044	68.88
399.268	74.88
399.492	91.88
399.717	81.88
399.941	79.88
400.165	86.88
400.389	65.88
400.613	88.88
400.837	79.88
401.062	79.88
401.286	75.88
401.51	85.88
401.734	92.88
401.958	94.88
402.182	94.88
402.406	79.88
402.63	70.88
402.854	91.88
403.078	86.88
403.302	67.88
403.526	73.88
403.75	74.88
403.974	68.88
404.198	65.88
404.422	79.88
404.645	77.88
404.869	68.88
405.093	67.88
405.317	71.88
405.541	77.88
405.765	76.88
405.988	72.88
406.212	75.88
406.436	81.88
406.66	74.88
406.883	92.88
407.107	84.88
407.331	77.88
407.555	79.88
407.778	77.88
408.002	75.88
408.226	78.88
408.449	73.88
408.673	70.88
408.896	88.88
409.12	74.88
409.344	73.88
409.567	70.88
409.791	75.88
410.014	74.88
410.238	85.88
410.461	67.88
410.685	72.88
410.908	74.88
411.132	77.88
411.355	79.88
411.578	80.88
411.802	69.88
412.025	65.88
412.249	87.88
412.472	78.88
412.695	78.88
412.919	98.88
413.142	85.88
413.365	88.88
413.589	71.88
413.812	79.88
414.035	77.88
414.258	76.88
414.482	87.88
414.705	74.88
414.928	75.88
415.151	67.88
415.374	78.88
415.597	76.88
415.821	65.88
416.044	73.88
416.267	74.88
416.49	75.88
416.713	73.88
416.936	66.88
417.159	88.88
417.382	74.88
417.605	73.88
417.828	77.88
418.051	89.88
418.274	91.88
418.497	89.88
418.72	81.88
418.943	77.88
419.166	74.88
419.389	75.88
419.611	82.88
419.834	69.88
420.057	72.88
420.28	84.88
420.503	76.88
420.726	78.88
420.948	91.88
421.171	81.88
421.394	73.88
421.617	89.88
421.839	82.88
422.062	73.88
422.285	80.88
422.507	73.88
422.73	62.88
422.953	76.88
423.175	65.88
423.398	78.88
423.621	89.88
423.843	88.88
424.066	70.88
424.288	72.88
424.511	82.88
424.733	65.88
424.956	80.88
425.178	77.88
425.401	79.88
425.623	76.88
425.846	74.88
426.068	69.88
426.291	73.88
426.513	87.88
426.735	80.88
426.958	75.88
427.18	67.88
427.402	88.88
427.625	86.88
427.847	76.88
428.069	82.88
428.292	72.88
428.514	82.88
428.736	66.88
428.958	77.88
429.181	74.88
429.403	78.88
429.625	65.88
429.847	77.88
430.069	80.88
430.292	80.88
430.514	77.88
430.736	79.88
430.958	85.88
431.18	72.88
431.402	82.88
431.624	79.88
431.846	76.88
432.068	64.88
432.29	85.88
432.512	85.88
432.734	95.88
432.956	68.88
433.178	84.88
433.4	72.88
433.622	84.88
433.844	77.88
434.066	86.88
434.287	69.88
434.509	79.88
434.731	73.88
434.953	76.88
435.175	77.88
435.397	69.88
435.618	79.88
435.84	69.88
436.062	86.88
436.284	87.88
436.505	77.88
436.727	67.88
436.949	83.88
437.17	88.88
437.392	75.88
437.614	75.88
437.835	64.88
438.057	80.88
438.278	75.88
438.5	73.88
438.721	83.88
438.943	87.88
439.165	73.88
439.386	79.88
439.608	80.88
439.829	67.88
440.05	88.88
440.272	83.88
440.493	79.88
440.715	70.88
440.936	73.88
441.158	84.88
441.379	74.88
441.6	89.88
441.822	85.88
442.043	72.88
442.264	73.88
442.486	79.88
442.707	75.88
442.928	80.88
443.149	80.88
443.371	73.88
443.592	78.88
443.813	82.88
444.034	85.88
444.255	71.88
444.476	79.88
444.698	66.88
444.919	68.88
445.14	141.88
445.361	112.88
445.582	85.88
445.803	73.88
446.024	86.88
446.245	86.88
446.466	72.88
446.687	72.88
446.908	73.88
447.129	55.88
447.35	82.88
447.571	85.88
447.792	86.88
448.013	81.88
448.234	89.88
448.455	81.88
448.675	62.88
448.896	69.88
449.117	74.88
449.338	63.88
449.559	76.88
449.779	76.88
450	74.88
450.221	77.88
450.442	80.88
450.662	91.88
450.883	85.88
451.104	86.88
451.324	82.88
451.545	82.88
451.766	81.88
451.986	78.88
452.207	73.88
452.428	66.88
452.648	87.88
452.869	76.88
453.089	91.88
453.31	69.88
453.53	79.88
453.751	70.88
453.971	85.88
454.192	74.88
454.412	96.88
454.633	67.88
454.853	81.88
455.073	80.88
455.294	91.88
455.514	71.88
455.734	77.88
455.955	72.88
456.175	98.88
456.395	75.88
456.616	76.88
456.836	70.88
457.056	75.88
457.276	76.88
457.497	79.88
457.717	75.88
457.937	84.88
458.157	84.88
458.377	84.88
458.598	67.88
458.818	86.88
459.038	81.88
459.258	58.88
459.478	88.88
459.698	81.88
459.918	83.88
460.138	76.88
460.358	74.88
460.578	70.88
460.798	72.88
461.018	78.88
461.238	80.88
461.458	81.88
461.678	83.88
461.898	69.88
462.118	88.88
462.338	91.88
462.558	73.88
462.777	80.88
462.997	72.88
463.217	78.88
463.437	80.88
463.657	79.88
463.876	86.88
464.096	65.88
464.316	66.88
464.536	78.88
464.755	85.88
464.975	79.88
465.195	87.88
465.414	79.88
465.634	64.88
465.854	62.88
466.073	75.88
466.293	86.88
466.512	81.88
466.732	81.88
466.951	72.88
467.171	85.88
467.391	84.88
467.61	84.88
467.829	83.88
468.049	81.88
468.268	67.88
468.488	70.88
468.707	88.88
468.927	74.88
469.146	84.88
469.365	82.88
469.585	73.88
469.804	79.88
470.023	79.88
470.243	77.88
470.462	75.88
470.681	77.88
470.901	76.88
471.12	86.88
471.339	78.88
471.558	79.88
471.777	65.88
471.997	67.88
472.216	85.88
472.435	54.88
472.654	82.88
472.873	77.88
473.092	86.88
473.311	85.88
473.53	85.88
473.749	72.88
473.968	66.88
474.187	78.88
474.406	83.88
474.625	73.88
474.844	86.88
475.063	73.88
475.282	72.88
475.501	85.88
475.72	76.88
475.939	72.88
476.158	81.88
476.377	72.88
476.596	81.88
476.814	85.88
477.033	73.88
477.252	71.88
477.471	70.88
477.69	57.88
477.908	93.88
478.127	90.88
478.346	80.88
478.564	79.88
478.783	85.88
479.002	76.88
479.22	74.88
479.439	88.88
479.658	79.88
479.876	80.88
480.095	66.88
480.313	88.88
480.532	84.88
480.751	66.88
480.969	79.88
481.188	94.88
481.406	80.88
481.624	72.88
481.843	86.88
482.061	63.88
482.28	71.88
482.498	68.88
482.717	77.88
482.935	74.88
483.153	88.88
483.372	85.88
483.59	81.88
483.808	78.88
484.027	76.88
484.245	82.88
484.463	76.88
484.681	76.88
484.9	85.88
485.118	87.88
485.336	79.88
485.554	63.88
485.772	72.88
485.99	79.88
486.209	69.88
486.427	82.88
486.645	72.88
486.863	83.88
487.081	70.88
487.299	71.88
487.517	80.88
487.735	90.88
487.953	75.88
488.171	62.88
488.389	66.88
488.607	82.88
488.825	78.88
489.043	86.88
489.261	73.88
489.479	80.88
489.696	83.88
489.914	70.88
490.132	69.88
490.35	73.88
490.568	72.88
490.786	79.88
491.003	82.88
491.221	76.88
491.439	65.88
491.657	72.88
491.874	84.88
492.092	78.88
492.31	78.88
492.527	87.88
492.745	84.88
492.963	80.88
493.18	85.88
493.398	69.88
493.615	82.88
493.833	81.88
494.05	73.88
494.268	62.88
494.485	83.88
494.703	80.88
494.92	90.88
495.138	83.88
495.355	83.88
495.573	88.88
495.79	86.88
496.008	74.88
496.225	77.88
496.442	75.88
496.66	90.88
496.877	69.88
497.094	82.88
497.312	76.88
497.529	68.88
497.746	89.88
497.963	85.88
498.181	95.88
498.398	85.88
498.615	80.88
498.832	79.88
499.049	77.88
499.267	91.88
499.484	94.88
499.701	77.88
499.918	81.88
500.135	80.88
500.352	93.88
500.569	75.88
500.786	77.88
501.003	91.88
501.22	82.88
501.437	77.88
501.654	70.88
501.871	72.88
502.088	81.88
502.305	78.88
502.522	67.88
502.739	89.88
502.956	84.88
503.172	80.88
503.389	83.88
503.606	86.88
503.823	69.88
504.04	88.88
504.256	76.88
504.473	84.88
504.69	72.88
504.907	86.88
505.123	70.88
505.34	74.88
505.557	76.88
505.773	74.88
505.99	79.88
506.207	85.88
506.423	65.88
506.64	82.88
506.856	80.88
507.073	79.88
507.289	76.88
507.506	68.88
507.722	74.88
507.939	70.88
508.155	93.88
508.372	85.88
508.588	89.88
508.805	69.88
509.021	76.88
509.238	89.88
509.454	85.88
509.67	83.88
509.887	74.88
510.103	84.88
510.319	85.88
510.536	91.88
510.752	90.88
510.968	88.88
511.184	95.88
511.401	79.88
511.617	76.88
511.833	76.88
512.049	61.88
512.265	89.88
512.481	94.88
512.698	81.88
512.914	76.88
513.13	84.88
513.346	84.88
513.562	91.88
513.778	77.88
513.994	75.88
514.21	86.88
514.426	82.88
514.642	79.88
514.858	82.88
515.074	80.88
515.29	89.88
515.506	74.88
515.721	80.88
515.937	77.88
516.153	79.88
516.369	88.88
516.585	76.88
516.801	76.88
517.016	79.88
517.232	77.88
517.448	77.88
517.664	79.88
517.879	74.88
518.095	72.88
518.311	86.88
518.527	80.88
518.742	77.88
518.958	64.88
519.173	87.88
519.389	80.88
519.605	81.88
519.82	74.88
520.036	68.88
