Data from Background_1_HRD10591_00092.txt Node
Date: Wed Nov 05 14:39:43 EST 2025
User: Yrep
Spectrometer: HR+D1059
Trigger mode: 1
Integration Time (sec): 1.000000E-1
Scans to average: 1
Electric dark correction enabled: true
Nonlinearity correction enabled: false
Boxcar width: 0
XAxis mode: Wavelengths
Number of Pixels in Spectrum: 2048
>>>>>Begin Spectral Data<<<<<
223.165	-14.69
223.4	-14.69
223.635	-14.69
223.869	-2.69
224.104	-13.69
224.338	-29.69
224.573	-10.69
224.808	-12.69
225.042	-8.69
225.277	-1.69
225.511	-13.69
225.746	2.31
225.98	6.31
226.215	14.31
226.449	10.31
226.683	23.31
226.918	27.31
227.152	24.31
227.387	33.31
227.621	19.31
227.856	33.31
228.09	50.31
228.324	36.31
228.559	47.31
228.793	62.31
229.027	59.31
229.262	59.31
229.496	59.31
229.73	81.31
229.964	84.31
230.199	80.31
230.433	85.31
230.667	67.31
230.901	74.31
231.136	77.31
231.37	87.31
231.604	74.31
231.838	86.31
232.072	82.31
232.306	89.31
232.541	87.31
232.775	85.31
233.009	94.31
233.243	76.31
233.477	76.31
233.711	77.31
233.945	73.31
234.179	78.31
234.413	64.31
234.647	68.31
234.881	81.31
235.115	75.31
235.349	89.31
235.583	70.31
235.817	82.31
236.051	77.31
236.285	70.31
236.519	97.31
236.753	77.31
236.987	89.31
237.221	69.31
237.455	80.31
237.689	78.31
237.922	72.31
238.156	73.31
238.39	75.31
238.624	59.31
238.858	78.31
239.091	69.31
239.325	79.31
239.559	73.31
239.793	76.31
240.027	77.31
240.26	80.31
240.494	59.31
240.728	90.31
240.961	79.31
241.195	89.31
241.429	68.31
241.662	67.31
241.896	74.31
242.13	96.31
242.363	94.31
242.597	63.31
242.83	71.31
243.064	71.31
243.298	79.31
243.531	80.31
243.765	77.31
243.998	68.31
244.232	74.31
244.465	72.31
244.699	72.31
244.932	70.31
245.166	86.31
245.399	87.31
245.633	66.31
245.866	66.31
246.099	78.31
246.333	85.31
246.566	77.31
246.8	78.31
247.033	78.31
247.266	86.31
247.5	82.31
247.733	89.31
247.966	74.31
248.2	77.31
248.433	75.31
248.666	93.31
248.899	81.31
249.133	71.31
249.366	68.31
249.599	87.31
249.832	73.31
250.066	90.31
250.299	87.31
250.532	70.31
250.765	85.31
250.998	74.31
251.231	81.31
251.465	65.31
251.698	65.31
251.931	73.31
252.164	74.31
252.397	84.31
252.63	69.31
252.863	85.31
253.096	73.31
253.329	74.31
253.562	69.31
253.795	90.31
254.028	77.31
254.261	90.31
254.494	87.31
254.727	71.31
254.96	79.31
255.193	90.31
255.426	78.31
255.659	86.31
255.892	81.31
256.124	79.31
256.357	91.31
256.59	73.31
256.823	50.31
257.056	77.31
257.289	89.31
257.521	74.31
257.754	73.31
257.987	77.31
258.22	74.31
258.452	74.31
258.685	66.31
258.918	74.31
259.151	78.31
259.383	74.31
259.616	82.31
259.849	82.31
260.081	81.31
260.314	81.31
260.547	82.31
260.779	85.31
261.012	87.31
261.244	78.31
261.477	90.31
261.71	73.31
261.942	82.31
262.175	76.31
262.407	76.31
262.64	82.31
262.872	76.31
263.105	85.31
263.337	89.31
263.57	84.31
263.802	88.31
264.035	102.31
264.267	98.31
264.499	75.31
264.732	66.31
264.964	80.31
265.197	66.31
265.429	83.31
265.661	66.31
265.894	89.31
266.126	80.31
266.358	64.31
266.591	74.31
266.823	81.31
267.055	83.31
267.287	74.31
267.52	83.31
267.752	92.31
267.984	84.31
268.216	87.31
268.448	80.31
268.681	82.31
268.913	88.31
269.145	79.31
269.377	73.31
269.609	85.31
269.841	87.31
270.073	77.31
270.306	97.31
270.538	92.31
270.77	85.31
271.002	80.31
271.234	91.31
271.466	76.31
271.698	81.31
271.93	96.31
272.162	82.31
272.394	90.31
272.626	75.31
272.858	75.31
273.09	88.31
273.322	82.31
273.553	67.31
273.785	81.31
274.017	89.31
274.249	82.31
274.481	77.31
274.713	93.31
274.945	83.31
275.176	81.31
275.408	75.31
275.64	80.31
275.872	73.31
276.104	81.31
276.335	87.31
276.567	82.31
276.799	88.31
277.031	76.31
277.262	83.31
277.494	84.31
277.726	57.31
277.957	78.31
278.189	75.31
278.421	72.31
278.652	91.31
278.884	88.31
279.115	87.31
279.347	78.31
279.579	87.31
279.81	60.31
280.042	69.31
280.273	82.31
280.505	80.31
280.736	78.31
280.968	73.31
281.199	87.31
281.431	75.31
281.662	97.31
281.894	67.31
282.125	76.31
282.356	104.31
282.588	85.31
282.819	79.31
283.051	90.31
283.282	68.31
283.513	86.31
283.745	86.31
283.976	87.31
284.207	89.31
284.439	73.31
284.67	70.31
284.901	85.31
285.132	92.31
285.364	77.31
285.595	77.31
285.826	66.31
286.057	67.31
286.288	85.31
286.52	97.31
286.751	71.31
286.982	77.31
287.213	83.31
287.444	83.31
287.675	83.31
287.906	79.31
288.138	90.31
288.369	83.31
288.6	85.31
288.831	90.31
289.062	65.31
289.293	86.31
289.524	82.31
289.755	89.31
289.986	77.31
290.217	79.31
290.448	75.31
290.679	85.31
290.91	92.31
291.141	81.31
291.371	80.31
291.602	79.31
291.833	74.31
292.064	90.31
292.295	88.31
292.526	87.31
292.757	90.31
292.987	87.31
293.218	87.31
293.449	94.31
293.68	69.31
293.91	95.31
294.141	80.31
294.372	81.31
294.603	73.31
294.833	82.31
295.064	82.31
295.295	82.31
295.525	82.31
295.756	92.31
295.987	96.31
296.217	87.31
296.448	77.31
296.679	73.31
296.909	86.31
297.14	88.31
297.37	89.31
297.601	72.31
297.831	74.31
298.062	87.31
298.292	73.31
298.523	83.31
298.753	83.31
298.984	89.31
299.214	73.31
299.445	82.31
299.675	71.31
299.905	82.31
300.136	77.31
300.366	75.31
300.597	75.31
300.827	90.31
301.057	76.31
301.288	79.31
301.518	87.31
301.748	89.31
301.979	95.31
302.209	91.31
302.439	76.31
302.669	77.31
302.9	91.31
303.13	87.31
303.36	77.31
303.59	78.31
303.82	105.31
304.051	77.31
304.281	83.31
304.511	101.31
304.741	95.31
304.971	83.31
305.201	77.31
305.431	81.31
305.661	79.31
305.891	73.31
306.121	91.31
306.352	88.31
306.582	78.31
306.812	87.31
307.042	80.31
307.272	75.31
307.502	88.31
307.731	77.31
307.961	82.31
308.191	77.31
308.421	82.31
308.651	87.31
308.881	85.31
309.111	76.31
309.341	80.31
309.571	77.31
309.8	92.31
310.03	83.31
310.26	86.31
310.49	89.31
310.72	78.31
310.949	79.31
311.179	68.31
311.409	80.31
311.639	80.31
311.868	81.31
312.098	75.31
312.328	83.31
312.557	91.31
312.787	96.31
313.017	67.31
313.246	82.31
313.476	88.31
313.706	82.31
313.935	71.31
314.165	82.31
314.394	75.31
314.624	90.31
314.853	83.31
315.083	66.31
315.312	71.31
315.542	89.31
315.771	79.31
316.001	80.31
316.23	77.31
316.46	81.31
316.689	90.31
316.919	77.31
317.148	67.31
317.377	87.31
317.607	91.31
317.836	71.31
318.065	91.31
318.295	89.31
318.524	73.31
318.753	94.31
318.983	95.31
319.212	87.31
319.441	70.31
319.67	69.31
319.9	85.31
320.129	78.31
320.358	71.31
320.587	86.31
320.816	96.31
321.046	79.31
321.275	97.31
321.504	82.31
321.733	73.31
321.962	87.31
322.191	77.31
322.42	88.31
322.649	91.31
322.878	92.31
323.108	73.31
323.337	66.31
323.566	89.31
323.795	74.31
324.024	77.31
324.253	96.31
324.482	92.31
324.71	84.31
324.939	66.31
325.168	67.31
325.397	78.31
325.626	76.31
325.855	82.31
326.084	80.31
326.313	75.31
326.542	87.31
326.77	93.31
326.999	85.31
327.228	89.31
327.457	67.31
327.686	82.31
327.914	86.31
328.143	89.31
328.372	75.31
328.6	73.31
328.829	87.31
329.058	75.31
329.287	89.31
329.515	96.31
329.744	94.31
329.972	103.31
330.201	90.31
330.43	83.31
330.658	83.31
330.887	82.31
331.115	74.31
331.344	89.31
331.572	90.31
331.801	68.31
332.03	78.31
332.258	89.31
332.486	93.31
332.715	101.31
332.943	83.31
333.172	82.31
333.4	80.31
333.629	81.31
333.857	85.31
334.085	83.31
334.314	67.31
334.542	82.31
334.771	87.31
334.999	73.31
335.227	90.31
335.455	89.31
335.684	72.31
335.912	91.31
336.14	77.31
336.369	77.31
336.597	77.31
336.825	89.31
337.053	79.31
337.281	83.31
337.51	84.31
337.738	79.31
337.966	80.31
338.194	86.31
338.422	86.31
338.65	77.31
338.878	89.31
339.106	75.31
339.334	84.31
339.562	87.31
339.79	77.31
340.018	81.31
340.246	72.31
340.474	78.31
340.702	80.31
340.93	73.31
341.158	73.31
341.386	101.31
341.614	74.31
341.842	83.31
342.07	90.31
342.298	89.31
342.526	85.31
342.754	81.31
342.981	88.31
343.209	78.31
343.437	88.31
343.665	88.31
343.893	74.31
344.12	79.31
344.348	85.31
344.576	92.31
344.804	82.31
345.031	81.31
345.259	66.31
345.487	79.31
345.714	58.31
345.942	79.31
346.17	94.31
346.397	101.31
346.625	73.31
346.853	68.31
347.08	75.31
347.308	84.31
347.535	80.31
347.763	92.31
347.99	60.31
348.218	78.31
348.445	74.31
348.673	85.31
348.9	79.31
349.128	76.31
349.355	84.31
349.583	89.31
349.81	88.31
350.037	88.31
350.265	87.31
350.492	77.31
350.72	73.31
350.947	83.31
351.174	85.31
351.402	68.31
351.629	93.31
351.856	80.31
352.083	68.31
352.311	89.31
352.538	72.31
352.765	88.31
352.992	94.31
353.22	79.31
353.447	85.31
353.674	87.31
353.901	90.31
354.128	87.31
354.355	80.31
354.583	88.31
354.81	86.31
355.037	75.31
355.264	83.31
355.491	85.31
355.718	85.31
355.945	86.31
356.172	84.31
356.399	88.31
356.626	79.31
356.853	85.31
357.08	88.31
357.307	70.31
357.534	81.31
357.761	76.31
357.988	95.31
358.215	81.31
358.441	88.31
358.668	93.31
358.895	75.31
359.122	83.31
359.349	86.31
359.576	99.31
359.802	78.31
360.029	82.31
360.256	70.31
360.483	85.31
360.709	94.31
360.936	88.31
361.163	83.31
361.39	77.31
361.616	74.31
361.843	90.31
362.07	88.31
362.296	87.31
362.523	75.31
362.749	86.31
362.976	71.31
363.203	83.31
363.429	77.31
363.656	90.31
363.882	91.31
364.109	67.31
364.335	80.31
364.562	79.31
364.788	71.31
365.015	84.31
365.241	79.31
365.468	82.31
365.694	85.31
365.92	88.31
366.147	85.31
366.373	76.31
366.599	75.31
366.826	80.31
367.052	82.31
367.278	79.31
367.505	77.31
367.731	96.31
367.957	84.31
368.184	91.31
368.41	67.31
368.636	90.31
368.862	75.31
369.089	70.31
369.315	80.31
369.541	82.31
369.767	68.31
369.993	82.31
370.219	73.31
370.445	92.31
370.672	78.31
370.898	87.31
371.124	80.31
371.35	71.31
371.576	83.31
371.802	81.31
372.028	83.31
372.254	85.31
372.48	62.31
372.706	77.31
372.932	87.31
373.158	89.31
373.384	88.31
373.61	75.31
373.835	89.31
374.061	70.31
374.287	69.31
374.513	77.31
374.739	81.31
374.965	77.31
375.191	83.31
375.416	87.31
375.642	73.31
375.868	63.31
376.094	67.31
376.319	79.31
376.545	77.31
376.771	83.31
376.997	82.31
377.222	83.31
377.448	79.31
377.674	70.31
377.899	78.31
378.125	70.31
378.35	87.31
378.576	92.31
378.802	88.31
379.027	81.31
379.253	82.31
379.478	77.31
379.704	91.31
379.929	80.31
380.155	78.31
380.38	88.31
380.606	73.31
380.831	79.31
381.057	95.31
381.282	83.31
381.507	90.31
381.733	87.31
381.958	79.31
382.184	70.31
382.409	78.31
382.634	83.31
382.86	88.31
383.085	80.31
383.31	78.31
383.535	88.31
383.761	85.31
383.986	83.31
384.211	72.31
384.436	75.31
384.662	92.31
384.887	80.31
385.112	92.31
385.337	80.31
385.562	68.31
385.787	78.31
386.013	90.31
386.238	73.31
386.463	95.31
386.688	87.31
386.913	84.31
387.138	85.31
387.363	91.31
387.588	73.31
387.813	74.31
388.038	75.31
388.263	78.31
388.488	79.31
388.713	75.31
388.938	70.31
389.163	83.31
389.387	74.31
389.612	81.31
389.837	74.31
390.062	87.31
390.287	76.31
390.512	94.31
390.736	81.31
390.961	79.31
391.186	69.31
391.411	77.31
391.636	76.31
391.86	92.31
392.085	83.31
392.31	76.31
392.534	73.31
392.759	62.31
392.984	94.31
393.208	78.31
393.433	69.31
393.658	90.31
393.882	84.31
394.107	79.31
394.331	72.31
394.556	76.31
394.78	67.31
395.005	74.31
395.229	84.31
395.454	90.31
395.678	89.31
395.903	73.31
396.127	75.31
396.352	89.31
396.576	80.31
396.801	72.31
397.025	77.31
397.249	89.31
397.474	94.31
397.698	101.31
397.922	89.31
398.147	83.31
398.371	81.31
398.595	79.31
398.82	92.31
399.044	77.31
399.268	77.31
399.492	75.31
399.717	85.31
399.941	84.31
400.165	78.31
400.389	78.31
400.613	67.31
400.837	69.31
401.062	85.31
401.286	94.31
401.51	66.31
401.734	82.31
401.958	79.31
402.182	78.31
402.406	67.31
402.63	77.31
402.854	94.31
403.078	91.31
403.302	77.31
403.526	73.31
403.75	82.31
403.974	83.31
404.198	67.31
404.422	74.31
404.645	85.31
404.869	67.31
405.093	82.31
405.317	89.31
405.541	89.31
405.765	82.31
405.988	76.31
406.212	73.31
406.436	84.31
406.66	86.31
406.883	75.31
407.107	95.31
407.331	98.31
407.555	82.31
407.778	86.31
408.002	78.31
408.226	74.31
408.449	85.31
408.673	73.31
408.896	84.31
409.12	80.31
409.344	81.31
409.567	85.31
409.791	92.31
410.014	75.31
410.238	86.31
410.461	87.31
410.685	85.31
410.908	73.31
411.132	78.31
411.355	80.31
411.578	86.31
411.802	91.31
412.025	91.31
412.249	90.31
412.472	75.31
412.695	94.31
412.919	67.31
413.142	81.31
413.365	77.31
413.589	81.31
413.812	65.31
414.035	87.31
414.258	92.31
414.482	85.31
414.705	74.31
414.928	71.31
415.151	71.31
415.374	87.31
415.597	74.31
415.821	80.31
416.044	82.31
416.267	88.31
416.49	89.31
416.713	72.31
416.936	78.31
417.159	88.31
417.382	90.31
417.605	85.31
417.828	85.31
418.051	78.31
418.274	101.31
418.497	91.31
418.72	85.31
418.943	73.31
419.166	65.31
419.389	77.31
419.611	87.31
419.834	71.31
420.057	92.31
420.28	82.31
420.503	71.31
420.726	72.31
420.948	83.31
421.171	70.31
421.394	87.31
421.617	85.31
421.839	87.31
422.062	80.31
422.285	92.31
422.507	88.31
422.73	85.31
422.953	88.31
423.175	79.31
423.398	71.31
423.621	66.31
423.843	75.31
424.066	82.31
424.288	84.31
424.511	88.31
424.733	79.31
424.956	73.31
425.178	89.31
425.401	92.31
425.623	91.31
425.846	84.31
426.068	88.31
426.291	91.31
426.513	79.31
426.735	78.31
426.958	78.31
427.18	85.31
427.402	87.31
427.625	72.31
427.847	77.31
428.069	75.31
428.292	77.31
428.514	86.31
428.736	89.31
428.958	83.31
429.181	63.31
429.403	75.31
429.625	91.31
429.847	79.31
430.069	82.31
430.292	90.31
430.514	82.31
430.736	77.31
430.958	79.31
431.18	80.31
431.402	83.31
431.624	71.31
431.846	86.31
432.068	92.31
432.29	83.31
432.512	68.31
432.734	93.31
432.956	84.31
433.178	81.31
433.4	85.31
433.622	76.31
433.844	69.31
434.066	72.31
434.287	69.31
434.509	74.31
434.731	87.31
434.953	72.31
435.175	89.31
435.397	77.31
435.618	86.31
435.84	83.31
436.062	78.31
436.284	78.31
436.505	85.31
436.727	85.31
436.949	82.31
437.17	88.31
437.392	96.31
437.614	78.31
437.835	85.31
438.057	88.31
438.278	71.31
438.5	57.31
438.721	74.31
438.943	84.31
439.165	68.31
439.386	75.31
439.608	81.31
439.829	76.31
440.05	71.31
440.272	82.31
440.493	84.31
440.715	75.31
440.936	62.31
441.158	85.31
441.379	81.31
441.6	85.31
441.822	75.31
442.043	84.31
442.264	89.31
442.486	79.31
442.707	87.31
442.928	80.31
443.149	77.31
443.371	82.31
443.592	74.31
443.813	90.31
444.034	88.31
444.255	84.31
444.476	70.31
444.698	87.31
444.919	73.31
445.14	152.31
445.361	113.31
445.582	80.31
445.803	76.31
446.024	78.31
446.245	81.31
446.466	73.31
446.687	74.31
446.908	72.31
447.129	73.31
447.35	82.31
447.571	69.31
447.792	79.31
448.013	78.31
448.234	77.31
448.455	79.31
448.675	82.31
448.896	59.31
449.117	60.31
449.338	66.31
449.559	94.31
449.779	86.31
450	75.31
450.221	66.31
450.442	74.31
450.662	73.31
450.883	69.31
451.104	87.31
451.324	85.31
451.545	81.31
451.766	79.31
451.986	74.31
452.207	81.31
452.428	103.31
452.648	85.31
452.869	82.31
453.089	74.31
453.31	73.31
453.53	68.31
453.751	86.31
453.971	81.31
454.192	83.31
454.412	80.31
454.633	87.31
454.853	83.31
455.073	83.31
455.294	88.31
455.514	87.31
455.734	92.31
455.955	85.31
456.175	77.31
456.395	70.31
456.616	63.31
456.836	76.31
457.056	85.31
457.276	72.31
457.497	72.31
457.717	73.31
457.937	82.31
458.157	75.31
458.377	81.31
458.598	74.31
458.818	74.31
459.038	70.31
459.258	70.31
459.478	78.31
459.698	79.31
459.918	87.31
460.138	84.31
460.358	85.31
460.578	83.31
460.798	66.31
461.018	90.31
461.238	77.31
461.458	90.31
461.678	83.31
461.898	79.31
462.118	87.31
462.338	82.31
462.558	85.31
462.777	69.31
462.997	86.31
463.217	78.31
463.437	68.31
463.657	95.31
463.876	80.31
464.096	82.31
464.316	81.31
464.536	82.31
464.755	87.31
464.975	85.31
465.195	83.31
465.414	80.31
465.634	72.31
465.854	86.31
466.073	79.31
466.293	81.31
466.512	71.31
466.732	82.31
466.951	82.31
467.171	67.31
467.391	77.31
467.61	73.31
467.829	77.31
468.049	62.31
468.268	83.31
468.488	89.31
468.707	82.31
468.927	89.31
469.146	92.31
469.365	67.31
469.585	77.31
469.804	86.31
470.023	79.31
470.243	93.31
470.462	85.31
470.681	79.31
470.901	88.31
471.12	94.31
471.339	85.31
471.558	79.31
471.777	73.31
471.997	73.31
472.216	73.31
472.435	73.31
472.654	80.31
472.873	72.31
473.092	89.31
473.311	77.31
473.53	74.31
473.749	90.31
473.968	90.31
474.187	78.31
474.406	90.31
474.625	63.31
474.844	103.31
475.063	84.31
475.282	72.31
475.501	82.31
475.72	75.31
475.939	71.31
476.158	71.31
476.377	82.31
476.596	78.31
476.814	91.31
477.033	89.31
477.252	85.31
477.471	72.31
477.69	71.31
477.908	68.31
478.127	79.31
478.346	77.31
478.564	81.31
478.783	85.31
479.002	108.31
479.22	90.31
479.439	81.31
479.658	78.31
479.876	74.31
480.095	86.31
480.313	78.31
480.532	93.31
480.751	81.31
480.969	93.31
481.188	74.31
481.406	85.31
481.624	75.31
481.843	88.31
482.061	78.31
482.28	75.31
482.498	73.31
482.717	92.31
482.935	82.31
483.153	85.31
483.372	91.31
483.59	78.31
483.808	83.31
484.027	78.31
484.245	83.31
484.463	79.31
484.681	77.31
484.9	82.31
485.118	79.31
485.336	78.31
485.554	103.31
485.772	81.31
485.99	75.31
486.209	82.31
486.427	75.31
486.645	75.31
486.863	90.31
487.081	89.31
487.299	91.31
487.517	95.31
487.735	82.31
487.953	80.31
488.171	98.31
488.389	82.31
488.607	79.31
488.825	94.31
489.043	81.31
489.261	86.31
489.479	89.31
489.696	88.31
489.914	63.31
490.132	83.31
490.35	96.31
490.568	79.31
490.786	85.31
491.003	69.31
491.221	86.31
491.439	86.31
491.657	82.31
491.874	78.31
492.092	80.31
492.31	82.31
492.527	73.31
492.745	82.31
492.963	81.31
493.18	85.31
493.398	89.31
493.615	78.31
493.833	87.31
494.05	74.31
494.268	89.31
494.485	79.31
494.703	74.31
494.92	84.31
495.138	77.31
495.355	94.31
495.573	91.31
495.79	74.31
496.008	91.31
496.225	60.31
496.442	70.31
496.66	88.31
496.877	78.31
497.094	81.31
497.312	95.31
497.529	84.31
497.746	85.31
497.963	81.31
498.181	80.31
498.398	94.31
498.615	65.31
498.832	75.31
499.049	84.31
499.267	82.31
499.484	86.31
499.701	82.31
499.918	66.31
500.135	82.31
500.352	77.31
500.569	79.31
500.786	77.31
501.003	87.31
501.22	86.31
501.437	97.31
501.654	77.31
501.871	86.31
502.088	76.31
502.305	70.31
502.522	77.31
502.739	72.31
502.956	89.31
503.172	72.31
503.389	73.31
503.606	77.31
503.823	85.31
504.04	89.31
504.256	99.31
504.473	81.31
504.69	88.31
504.907	84.31
505.123	95.31
505.34	78.31
505.557	91.31
505.773	93.31
505.99	76.31
506.207	63.31
506.423	82.31
506.64	67.31
506.856	69.31
507.073	61.31
507.289	81.31
507.506	92.31
507.722	102.31
507.939	83.31
508.155	81.31
508.372	86.31
508.588	90.31
508.805	91.31
509.021	83.31
509.238	86.31
509.454	72.31
509.67	91.31
509.887	78.31
510.103	77.31
510.319	74.31
510.536	88.31
510.752	84.31
510.968	69.31
511.184	78.31
511.401	70.31
511.617	94.31
511.833	89.31
512.049	86.31
512.265	95.31
512.481	76.31
512.698	83.31
512.914	91.31
513.13	81.31
513.346	77.31
513.562	70.31
513.778	70.31
513.994	74.31
514.21	77.31
514.426	88.31
514.642	85.31
514.858	76.31
515.074	88.31
515.29	83.31
515.506	82.31
515.721	81.31
515.937	74.31
516.153	80.31
516.369	81.31
516.585	83.31
516.801	92.31
517.016	78.31
517.232	74.31
517.448	78.31
517.664	82.31
517.879	92.31
518.095	76.31
518.311	85.31
518.527	82.31
518.742	91.31
518.958	84.31
519.173	88.31
519.389	82.31
519.605	95.31
519.82	87.31
520.036	78.31
