Data from Background_1_HRD10591_00071.txt Node
Date: Wed Nov 05 14:39:33 EST 2025
User: Yrep
Spectrometer: HR+D1059
Trigger mode: 1
Integration Time (sec): 1.000000E-1
Scans to average: 1
Electric dark correction enabled: true
Nonlinearity correction enabled: false
Boxcar width: 0
XAxis mode: Wavelengths
Number of Pixels in Spectrum: 2048
>>>>>Begin Spectral Data<<<<<
223.165	-17.69
223.4	-17.69
223.635	-17.69
223.869	-14.69
224.104	-17.69
224.338	-20.69
224.573	-16.69
224.808	-11.69
225.042	-3.69
225.277	-0.69
225.511	-5.69
225.746	8.31
225.98	2.31
226.215	10.31
226.449	12.31
226.683	33.31
226.918	14.31
227.152	28.31
227.387	32.31
227.621	40.31
227.856	50.31
228.09	59.31
228.324	50.31
228.559	54.31
228.793	65.31
229.027	62.31
229.262	64.31
229.496	61.31
229.73	68.31
229.964	69.31
230.199	70.31
230.433	81.31
230.667	77.31
230.901	87.31
231.136	48.31
231.37	78.31
231.604	79.31
231.838	90.31
232.072	81.31
232.306	84.31
232.541	85.31
232.775	88.31
233.009	88.31
233.243	75.31
233.477	93.31
233.711	77.31
233.945	86.31
234.179	93.31
234.413	88.31
234.647	76.31
234.881	90.31
235.115	81.31
235.349	76.31
235.583	73.31
235.817	87.31
236.051	82.31
236.285	68.31
236.519	76.31
236.753	75.31
236.987	79.31
237.221	58.31
237.455	56.31
237.689	79.31
237.922	75.31
238.156	90.31
238.39	76.31
238.624	68.31
238.858	75.31
239.091	84.31
239.325	68.31
239.559	86.31
239.793	79.31
240.027	70.31
240.26	66.31
240.494	71.31
240.728	66.31
240.961	83.31
241.195	89.31
241.429	75.31
241.662	89.31
241.896	63.31
242.13	83.31
242.363	73.31
242.597	81.31
242.83	89.31
243.064	67.31
243.298	82.31
243.531	88.31
243.765	66.31
243.998	64.31
244.232	75.31
244.465	78.31
244.699	68.31
244.932	76.31
245.166	72.31
245.399	72.31
245.633	75.31
245.866	74.31
246.099	82.31
246.333	92.31
246.566	61.31
246.8	66.31
247.033	79.31
247.266	70.31
247.5	66.31
247.733	70.31
247.966	74.31
248.2	59.31
248.433	82.31
248.666	71.31
248.899	83.31
249.133	74.31
249.366	76.31
249.599	68.31
249.832	76.31
250.066	63.31
250.299	77.31
250.532	80.31
250.765	82.31
250.998	72.31
251.231	76.31
251.465	65.31
251.698	65.31
251.931	76.31
252.164	81.31
252.397	78.31
252.63	85.31
252.863	73.31
253.096	66.31
253.329	75.31
253.562	73.31
253.795	80.31
254.028	82.31
254.261	81.31
254.494	75.31
254.727	85.31
254.96	81.31
255.193	82.31
255.426	80.31
255.659	71.31
255.892	65.31
256.124	74.31
256.357	70.31
256.59	90.31
256.823	75.31
257.056	65.31
257.289	69.31
257.521	82.31
257.754	91.31
257.987	72.31
258.22	75.31
258.452	71.31
258.685	89.31
258.918	88.31
259.151	82.31
259.383	83.31
259.616	79.31
259.849	63.31
260.081	82.31
260.314	83.31
260.547	67.31
260.779	74.31
261.012	86.31
261.244	70.31
261.477	80.31
261.71	83.31
261.942	83.31
262.175	83.31
262.407	80.31
262.64	85.31
262.872	80.31
263.105	69.31
263.337	81.31
263.57	86.31
263.802	77.31
264.035	82.31
264.267	86.31
264.499	85.31
264.732	78.31
264.964	86.31
265.197	82.31
265.429	88.31
265.661	82.31
265.894	88.31
266.126	91.31
266.358	70.31
266.591	70.31
266.823	83.31
267.055	83.31
267.287	85.31
267.52	74.31
267.752	95.31
267.984	77.31
268.216	67.31
268.448	81.31
268.681	94.31
268.913	86.31
269.145	88.31
269.377	89.31
269.609	86.31
269.841	78.31
270.073	85.31
270.306	79.31
270.538	76.31
270.77	90.31
271.002	79.31
271.234	84.31
271.466	89.31
271.698	77.31
271.93	82.31
272.162	78.31
272.394	71.31
272.626	85.31
272.858	80.31
273.09	76.31
273.322	80.31
273.553	88.31
273.785	86.31
274.017	71.31
274.249	79.31
274.481	89.31
274.713	75.31
274.945	80.31
275.176	83.31
275.408	67.31
275.64	66.31
275.872	102.31
276.104	89.31
276.335	85.31
276.567	76.31
276.799	83.31
277.031	68.31
277.262	91.31
277.494	80.31
277.726	74.31
277.957	78.31
278.189	91.31
278.421	76.31
278.652	77.31
278.884	86.31
279.115	63.31
279.347	88.31
279.579	91.31
279.81	95.31
280.042	88.31
280.273	88.31
280.505	87.31
280.736	82.31
280.968	79.31
281.199	76.31
281.431	67.31
281.662	78.31
281.894	74.31
282.125	81.31
282.356	80.31
282.588	91.31
282.819	78.31
283.051	75.31
283.282	84.31
283.513	90.31
283.745	81.31
283.976	88.31
284.207	78.31
284.439	80.31
284.67	85.31
284.901	83.31
285.132	88.31
285.364	71.31
285.595	82.31
285.826	86.31
286.057	74.31
286.288	74.31
286.52	86.31
286.751	88.31
286.982	92.31
287.213	69.31
287.444	87.31
287.675	77.31
287.906	73.31
288.138	77.31
288.369	84.31
288.6	68.31
288.831	91.31
289.062	78.31
289.293	74.31
289.524	95.31
289.755	73.31
289.986	81.31
290.217	91.31
290.448	76.31
290.679	80.31
290.91	94.31
291.141	98.31
291.371	86.31
291.602	85.31
291.833	74.31
292.064	88.31
292.295	72.31
292.526	85.31
292.757	99.31
292.987	98.31
293.218	79.31
293.449	80.31
293.68	84.31
293.91	71.31
294.141	89.31
294.372	76.31
294.603	75.31
294.833	91.31
295.064	72.31
295.295	87.31
295.525	87.31
295.756	88.31
295.987	86.31
296.217	74.31
296.448	74.31
296.679	83.31
296.909	103.31
297.14	52.31
297.37	87.31
297.601	87.31
297.831	85.31
298.062	80.31
298.292	81.31
298.523	78.31
298.753	71.31
298.984	81.31
299.214	87.31
299.445	91.31
299.675	81.31
299.905	88.31
300.136	72.31
300.366	73.31
300.597	81.31
300.827	87.31
301.057	84.31
301.288	76.31
301.518	86.31
301.748	94.31
301.979	88.31
302.209	82.31
302.439	89.31
302.669	77.31
302.9	67.31
303.13	80.31
303.36	89.31
303.59	73.31
303.82	78.31
304.051	83.31
304.281	74.31
304.511	82.31
304.741	79.31
304.971	83.31
305.201	83.31
305.431	86.31
305.661	87.31
305.891	90.31
306.121	87.31
306.352	86.31
306.582	81.31
306.812	88.31
307.042	96.31
307.272	76.31
307.502	87.31
307.731	86.31
307.961	88.31
308.191	76.31
308.421	93.31
308.651	68.31
308.881	82.31
309.111	82.31
309.341	90.31
309.571	79.31
309.8	81.31
310.03	88.31
310.26	87.31
310.49	72.31
310.72	87.31
310.949	63.31
311.179	71.31
311.409	83.31
311.639	95.31
311.868	88.31
312.098	77.31
312.328	75.31
312.557	89.31
312.787	78.31
313.017	68.31
313.246	94.31
313.476	90.31
313.706	90.31
313.935	72.31
314.165	94.31
314.394	82.31
314.624	83.31
314.853	89.31
315.083	76.31
315.312	99.31
315.542	96.31
315.771	86.31
316.001	83.31
316.23	78.31
316.46	89.31
316.689	97.31
316.919	72.31
317.148	78.31
317.377	102.31
317.607	74.31
317.836	80.31
318.065	88.31
318.295	97.31
318.524	78.31
318.753	89.31
318.983	85.31
319.212	86.31
319.441	87.31
319.67	72.31
319.9	89.31
320.129	84.31
320.358	84.31
320.587	98.31
320.816	73.31
321.046	69.31
321.275	86.31
321.504	96.31
321.733	90.31
321.962	86.31
322.191	83.31
322.42	80.31
322.649	86.31
322.878	84.31
323.108	79.31
323.337	82.31
323.566	78.31
323.795	74.31
324.024	81.31
324.253	69.31
324.482	84.31
324.71	73.31
324.939	79.31
325.168	88.31
325.397	84.31
325.626	75.31
325.855	81.31
326.084	77.31
326.313	90.31
326.542	86.31
326.77	75.31
326.999	85.31
327.228	82.31
327.457	83.31
327.686	77.31
327.914	79.31
328.143	93.31
328.372	82.31
328.6	75.31
328.829	86.31
329.058	77.31
329.287	81.31
329.515	83.31
329.744	86.31
329.972	86.31
330.201	68.31
330.43	78.31
330.658	56.31
330.887	82.31
331.115	87.31
331.344	80.31
331.572	69.31
331.801	77.31
332.03	73.31
332.258	79.31
332.486	82.31
332.715	67.31
332.943	100.31
333.172	84.31
333.4	84.31
333.629	92.31
333.857	84.31
334.085	89.31
334.314	87.31
334.542	82.31
334.771	83.31
334.999	90.31
335.227	84.31
335.455	81.31
335.684	93.31
335.912	75.31
336.14	76.31
336.369	80.31
336.597	86.31
336.825	79.31
337.053	88.31
337.281	77.31
337.51	71.31
337.738	71.31
337.966	82.31
338.194	76.31
338.422	86.31
338.65	68.31
338.878	78.31
339.106	84.31
339.334	72.31
339.562	80.31
339.79	72.31
340.018	78.31
340.246	87.31
340.474	87.31
340.702	95.31
340.93	85.31
341.158	83.31
341.386	75.31
341.614	72.31
341.842	76.31
342.07	89.31
342.298	80.31
342.526	80.31
342.754	78.31
342.981	71.31
343.209	71.31
343.437	75.31
343.665	88.31
343.893	89.31
344.12	79.31
344.348	83.31
344.576	87.31
344.804	78.31
345.031	74.31
345.259	86.31
345.487	80.31
345.714	78.31
345.942	78.31
346.17	74.31
346.397	63.31
346.625	96.31
346.853	85.31
347.08	91.31
347.308	97.31
347.535	90.31
347.763	76.31
347.99	94.31
348.218	78.31
348.445	90.31
348.673	80.31
348.9	89.31
349.128	72.31
349.355	76.31
349.583	63.31
349.81	77.31
350.037	76.31
350.265	76.31
350.492	85.31
350.72	95.31
350.947	86.31
351.174	79.31
351.402	76.31
351.629	94.31
351.856	75.31
352.083	86.31
352.311	81.31
352.538	85.31
352.765	83.31
352.992	81.31
353.22	94.31
353.447	78.31
353.674	79.31
353.901	94.31
354.128	85.31
354.355	82.31
354.583	82.31
354.81	83.31
355.037	82.31
355.264	86.31
355.491	69.31
355.718	65.31
355.945	78.31
356.172	74.31
356.399	64.31
356.626	62.31
356.853	73.31
357.08	76.31
357.307	79.31
357.534	71.31
357.761	78.31
357.988	88.31
358.215	85.31
358.441	86.31
358.668	83.31
358.895	85.31
359.122	77.31
359.349	81.31
359.576	89.31
359.802	87.31
360.029	78.31
360.256	75.31
360.483	89.31
360.709	88.31
360.936	99.31
361.163	94.31
361.39	80.31
361.616	95.31
361.843	84.31
362.07	73.31
362.296	86.31
362.523	88.31
362.749	83.31
362.976	83.31
363.203	90.31
363.429	75.31
363.656	82.31
363.882	81.31
364.109	76.31
364.335	84.31
364.562	78.31
364.788	87.31
365.015	82.31
365.241	81.31
365.468	82.31
365.694	74.31
365.92	67.31
366.147	81.31
366.373	68.31
366.599	89.31
366.826	83.31
367.052	76.31
367.278	96.31
367.505	60.31
367.731	89.31
367.957	72.31
368.184	66.31
368.41	75.31
368.636	76.31
368.862	83.31
369.089	83.31
369.315	83.31
369.541	76.31
369.767	76.31
369.993	71.31
370.219	94.31
370.445	88.31
370.672	78.31
370.898	75.31
371.124	86.31
371.35	72.31
371.576	70.31
371.802	82.31
372.028	84.31
372.254	69.31
372.48	67.31
372.706	87.31
372.932	84.31
373.158	87.31
373.384	77.31
373.61	79.31
373.835	72.31
374.061	78.31
374.287	86.31
374.513	85.31
374.739	78.31
374.965	74.31
375.191	86.31
375.416	84.31
375.642	78.31
375.868	82.31
376.094	77.31
376.319	95.31
376.545	90.31
376.771	82.31
376.997	73.31
377.222	89.31
377.448	86.31
377.674	64.31
377.899	76.31
378.125	68.31
378.35	66.31
378.576	77.31
378.802	91.31
379.027	71.31
379.253	85.31
379.478	83.31
379.704	94.31
379.929	84.31
380.155	84.31
380.38	83.31
380.606	72.31
380.831	87.31
381.057	83.31
381.282	83.31
381.507	79.31
381.733	86.31
381.958	86.31
382.184	78.31
382.409	89.31
382.634	86.31
382.86	83.31
383.085	86.31
383.31	80.31
383.535	75.31
383.761	91.31
383.986	81.31
384.211	86.31
384.436	82.31
384.662	81.31
384.887	75.31
385.112	66.31
385.337	90.31
385.562	87.31
385.787	85.31
386.013	90.31
386.238	56.31
386.463	80.31
386.688	94.31
386.913	80.31
387.138	68.31
387.363	76.31
387.588	66.31
387.813	85.31
388.038	76.31
388.263	68.31
388.488	88.31
388.713	74.31
388.938	74.31
389.163	96.31
389.387	82.31
389.612	87.31
389.837	79.31
390.062	77.31
390.287	80.31
390.512	74.31
390.736	87.31
390.961	74.31
391.186	92.31
391.411	88.31
391.636	83.31
391.86	78.31
392.085	78.31
392.31	73.31
392.534	91.31
392.759	88.31
392.984	82.31
393.208	82.31
393.433	82.31
393.658	80.31
393.882	76.31
394.107	76.31
394.331	75.31
394.556	74.31
394.78	77.31
395.005	83.31
395.229	82.31
395.454	85.31
395.678	82.31
395.903	66.31
396.127	76.31
396.352	74.31
396.576	89.31
396.801	80.31
397.025	76.31
397.249	77.31
397.474	89.31
397.698	75.31
397.922	84.31
398.147	79.31
398.371	79.31
398.595	73.31
398.82	79.31
399.044	64.31
399.268	75.31
399.492	81.31
399.717	78.31
399.941	81.31
400.165	85.31
400.389	80.31
400.613	72.31
400.837	76.31
401.062	67.31
401.286	72.31
401.51	77.31
401.734	89.31
401.958	77.31
402.182	82.31
402.406	64.31
402.63	73.31
402.854	67.31
403.078	77.31
403.302	72.31
403.526	79.31
403.75	70.31
403.974	70.31
404.198	78.31
404.422	76.31
404.645	63.31
404.869	69.31
405.093	68.31
405.317	88.31
405.541	78.31
405.765	80.31
405.988	79.31
406.212	77.31
406.436	68.31
406.66	87.31
406.883	69.31
407.107	89.31
407.331	74.31
407.555	66.31
407.778	74.31
408.002	72.31
408.226	62.31
408.449	76.31
408.673	70.31
408.896	88.31
409.12	81.31
409.344	83.31
409.567	81.31
409.791	74.31
410.014	83.31
410.238	81.31
410.461	74.31
410.685	82.31
410.908	86.31
411.132	84.31
411.355	79.31
411.578	78.31
411.802	77.31
412.025	82.31
412.249	77.31
412.472	99.31
412.695	66.31
412.919	79.31
413.142	69.31
413.365	70.31
413.589	91.31
413.812	71.31
414.035	76.31
414.258	68.31
414.482	72.31
414.705	73.31
414.928	67.31
415.151	74.31
415.374	78.31
415.597	77.31
415.821	79.31
416.044	68.31
416.267	59.31
416.49	86.31
416.713	80.31
416.936	86.31
417.159	81.31
417.382	63.31
417.605	90.31
417.828	81.31
418.051	70.31
418.274	82.31
418.497	65.31
418.72	78.31
418.943	76.31
419.166	74.31
419.389	81.31
419.611	83.31
419.834	74.31
420.057	83.31
420.28	88.31
420.503	76.31
420.726	76.31
420.948	68.31
421.171	75.31
421.394	88.31
421.617	83.31
421.839	75.31
422.062	76.31
422.285	78.31
422.507	70.31
422.73	84.31
422.953	72.31
423.175	86.31
423.398	75.31
423.621	72.31
423.843	64.31
424.066	87.31
424.288	68.31
424.511	87.31
424.733	87.31
424.956	79.31
425.178	75.31
425.401	74.31
425.623	74.31
425.846	68.31
426.068	74.31
426.291	77.31
426.513	59.31
426.735	80.31
426.958	76.31
427.18	78.31
427.402	68.31
427.625	65.31
427.847	67.31
428.069	84.31
428.292	92.31
428.514	87.31
428.736	61.31
428.958	60.31
429.181	83.31
429.403	100.31
429.625	81.31
429.847	82.31
430.069	69.31
430.292	72.31
430.514	58.31
430.736	98.31
430.958	77.31
431.18	76.31
431.402	80.31
431.624	80.31
431.846	79.31
432.068	96.31
432.29	91.31
432.512	65.31
432.734	71.31
432.956	81.31
433.178	81.31
433.4	79.31
433.622	85.31
433.844	78.31
434.066	88.31
434.287	78.31
434.509	86.31
434.731	74.31
434.953	66.31
435.175	67.31
435.397	75.31
435.618	90.31
435.84	74.31
436.062	77.31
436.284	66.31
436.505	77.31
436.727	75.31
436.949	80.31
437.17	82.31
437.392	72.31
437.614	74.31
437.835	86.31
438.057	70.31
438.278	85.31
438.5	72.31
438.721	92.31
438.943	82.31
439.165	80.31
439.386	70.31
439.608	80.31
439.829	87.31
440.05	80.31
440.272	79.31
440.493	71.31
440.715	103.31
440.936	74.31
441.158	70.31
441.379	94.31
441.6	67.31
441.822	76.31
442.043	78.31
442.264	87.31
442.486	84.31
442.707	74.31
442.928	87.31
443.149	81.31
443.371	99.31
443.592	72.31
443.813	58.31
444.034	75.31
444.255	82.31
444.476	76.31
444.698	75.31
444.919	94.31
445.14	145.31
445.361	97.31
445.582	80.31
445.803	81.31
446.024	74.31
446.245	74.31
446.466	62.31
446.687	66.31
446.908	84.31
447.129	75.31
447.35	82.31
447.571	91.31
447.792	72.31
448.013	79.31
448.234	71.31
448.455	78.31
448.675	63.31
448.896	82.31
449.117	91.31
449.338	85.31
449.559	88.31
449.779	69.31
450	82.31
450.221	78.31
450.442	71.31
450.662	86.31
450.883	66.31
451.104	80.31
451.324	78.31
451.545	72.31
451.766	76.31
451.986	74.31
452.207	80.31
452.428	67.31
452.648	68.31
452.869	71.31
453.089	74.31
453.31	86.31
453.53	81.31
453.751	68.31
453.971	72.31
454.192	68.31
454.412	82.31
454.633	81.31
454.853	68.31
455.073	66.31
455.294	83.31
455.514	82.31
455.734	74.31
455.955	84.31
456.175	84.31
456.395	71.31
456.616	76.31
456.836	74.31
457.056	73.31
457.276	82.31
457.497	77.31
457.717	79.31
457.937	83.31
458.157	85.31
458.377	78.31
458.598	76.31
458.818	74.31
459.038	74.31
459.258	86.31
459.478	79.31
459.698	72.31
459.918	66.31
460.138	72.31
460.358	70.31
460.578	83.31
460.798	86.31
461.018	80.31
461.238	87.31
461.458	80.31
461.678	74.31
461.898	76.31
462.118	78.31
462.338	76.31
462.558	81.31
462.777	74.31
462.997	80.31
463.217	67.31
463.437	74.31
463.657	78.31
463.876	93.31
464.096	66.31
464.316	92.31
464.536	82.31
464.755	78.31
464.975	80.31
465.195	93.31
465.414	75.31
465.634	72.31
465.854	76.31
466.073	64.31
466.293	78.31
466.512	81.31
466.732	72.31
466.951	87.31
467.171	68.31
467.391	83.31
467.61	75.31
467.829	74.31
468.049	71.31
468.268	75.31
468.488	89.31
468.707	79.31
468.927	73.31
469.146	81.31
469.365	80.31
469.585	62.31
469.804	80.31
470.023	72.31
470.243	75.31
470.462	63.31
470.681	78.31
470.901	70.31
471.12	78.31
471.339	71.31
471.558	85.31
471.777	92.31
471.997	76.31
472.216	77.31
472.435	81.31
472.654	89.31
472.873	87.31
473.092	76.31
473.311	80.31
473.53	69.31
473.749	83.31
473.968	71.31
474.187	76.31
474.406	83.31
474.625	83.31
474.844	87.31
475.063	72.31
475.282	73.31
475.501	82.31
475.72	81.31
475.939	78.31
476.158	61.31
476.377	66.31
476.596	90.31
476.814	74.31
477.033	75.31
477.252	74.31
477.471	81.31
477.69	80.31
477.908	96.31
478.127	83.31
478.346	78.31
478.564	71.31
478.783	66.31
479.002	94.31
479.22	84.31
479.439	76.31
479.658	88.31
479.876	79.31
480.095	89.31
480.313	82.31
480.532	78.31
480.751	78.31
480.969	71.31
481.188	74.31
481.406	96.31
481.624	75.31
481.843	79.31
482.061	74.31
482.28	80.31
482.498	81.31
482.717	74.31
482.935	77.31
483.153	90.31
483.372	82.31
483.59	97.31
483.808	64.31
484.027	82.31
484.245	76.31
484.463	78.31
484.681	89.31
484.9	82.31
485.118	78.31
485.336	88.31
485.554	74.31
485.772	96.31
485.99	97.31
486.209	86.31
486.427	83.31
486.645	86.31
486.863	76.31
487.081	78.31
487.299	80.31
487.517	74.31
487.735	83.31
487.953	81.31
488.171	82.31
488.389	75.31
488.607	87.31
488.825	79.31
489.043	79.31
489.261	88.31
489.479	82.31
489.696	90.31
489.914	76.31
490.132	79.31
490.35	71.31
490.568	75.31
490.786	94.31
491.003	83.31
491.221	72.31
491.439	71.31
491.657	87.31
491.874	86.31
492.092	63.31
492.31	76.31
492.527	69.31
492.745	87.31
492.963	79.31
493.18	92.31
493.398	101.31
493.615	78.31
493.833	70.31
494.05	84.31
494.268	91.31
494.485	75.31
494.703	90.31
494.92	82.31
495.138	68.31
495.355	87.31
495.573	89.31
495.79	85.31
496.008	81.31
496.225	81.31
496.442	72.31
496.66	89.31
496.877	82.31
497.094	89.31
497.312	78.31
497.529	77.31
497.746	89.31
497.963	72.31
498.181	69.31
498.398	81.31
498.615	79.31
498.832	81.31
499.049	67.31
499.267	84.31
499.484	65.31
499.701	69.31
499.918	79.31
500.135	94.31
500.352	68.31
500.569	69.31
500.786	75.31
501.003	74.31
501.22	76.31
501.437	81.31
501.654	61.31
501.871	76.31
502.088	71.31
502.305	98.31
502.522	90.31
502.739	80.31
502.956	84.31
503.172	68.31
503.389	74.31
503.606	91.31
503.823	70.31
504.04	77.31
504.256	83.31
504.473	80.31
504.69	87.31
504.907	94.31
505.123	86.31
505.34	94.31
505.557	75.31
505.773	78.31
505.99	82.31
506.207	81.31
506.423	78.31
506.64	85.31
506.856	81.31
507.073	84.31
507.289	84.31
507.506	76.31
507.722	75.31
507.939	75.31
508.155	95.31
508.372	99.31
508.588	79.31
508.805	69.31
509.021	76.31
509.238	76.31
509.454	63.31
509.67	89.31
509.887	72.31
510.103	91.31
510.319	85.31
510.536	91.31
510.752	78.31
510.968	90.31
511.184	78.31
511.401	91.31
511.617	94.31
511.833	84.31
512.049	74.31
512.265	84.31
512.481	81.31
512.698	86.31
512.914	87.31
513.13	82.31
513.346	87.31
513.562	92.31
513.778	82.31
513.994	72.31
514.21	79.31
514.426	78.31
514.642	76.31
514.858	76.31
515.074	74.31
515.29	75.31
515.506	89.31
515.721	74.31
515.937	78.31
516.153	99.31
516.369	67.31
516.585	94.31
516.801	78.31
517.016	87.31
517.232	86.31
517.448	77.31
517.664	76.31
517.879	82.31
518.095	86.31
518.311	75.31
518.527	72.31
518.742	83.31
518.958	78.31
519.173	84.31
519.389	82.31
519.605	93.31
519.82	88.31
520.036	85.31
