Data from Background_1_HRD10591_00065.txt Node
Date: Wed Nov 05 14:39:30 EST 2025
User: Yrep
Spectrometer: HR+D1059
Trigger mode: 1
Integration Time (sec): 1.000000E-1
Scans to average: 1
Electric dark correction enabled: true
Nonlinearity correction enabled: false
Boxcar width: 0
XAxis mode: Wavelengths
Number of Pixels in Spectrum: 2048
>>>>>Begin Spectral Data<<<<<
223.165	-20.88
223.4	-20.88
223.635	-20.88
223.869	-31.88
224.104	-14.88
224.338	-8.88
224.573	-14.88
224.808	-17.88
225.042	-9.88
225.277	-6.88
225.511	12.12
225.746	9.12
225.98	21.12
226.215	15.12
226.449	11.12
226.683	13.12
226.918	23.12
227.152	21.12
227.387	28.12
227.621	50.12
227.856	35.12
228.09	38.12
228.324	48.12
228.559	49.12
228.793	49.12
229.027	54.12
229.262	59.12
229.496	71.12
229.73	58.12
229.964	71.12
230.199	77.12
230.433	71.12
230.667	76.12
230.901	90.12
231.136	79.12
231.37	84.12
231.604	88.12
231.838	75.12
232.072	68.12
232.306	88.12
232.541	86.12
232.775	78.12
233.009	73.12
233.243	75.12
233.477	78.12
233.711	64.12
233.945	73.12
234.179	62.12
234.413	83.12
234.647	97.12
234.881	72.12
235.115	77.12
235.349	79.12
235.583	80.12
235.817	88.12
236.051	75.12
236.285	80.12
236.519	71.12
236.753	73.12
236.987	66.12
237.221	78.12
237.455	74.12
237.689	79.12
237.922	66.12
238.156	67.12
238.39	53.12
238.624	73.12
238.858	76.12
239.091	88.12
239.325	61.12
239.559	64.12
239.793	79.12
240.027	73.12
240.26	65.12
240.494	73.12
240.728	77.12
240.961	66.12
241.195	80.12
241.429	70.12
241.662	70.12
241.896	71.12
242.13	79.12
242.363	89.12
242.597	74.12
242.83	61.12
243.064	67.12
243.298	66.12
243.531	81.12
243.765	83.12
243.998	66.12
244.232	66.12
244.465	77.12
244.699	82.12
244.932	69.12
245.166	79.12
245.399	77.12
245.633	89.12
245.866	91.12
246.099	74.12
246.333	82.12
246.566	87.12
246.8	79.12
247.033	71.12
247.266	80.12
247.5	81.12
247.733	66.12
247.966	75.12
248.2	79.12
248.433	74.12
248.666	76.12
248.899	75.12
249.133	69.12
249.366	80.12
249.599	72.12
249.832	90.12
250.066	83.12
250.299	63.12
250.532	76.12
250.765	74.12
250.998	71.12
251.231	90.12
251.465	77.12
251.698	74.12
251.931	92.12
252.164	79.12
252.397	65.12
252.63	72.12
252.863	77.12
253.096	77.12
253.329	68.12
253.562	70.12
253.795	85.12
254.028	81.12
254.261	86.12
254.494	81.12
254.727	76.12
254.96	72.12
255.193	71.12
255.426	81.12
255.659	79.12
255.892	78.12
256.124	68.12
256.357	85.12
256.59	53.12
256.823	81.12
257.056	79.12
257.289	70.12
257.521	77.12
257.754	81.12
257.987	96.12
258.22	77.12
258.452	69.12
258.685	81.12
258.918	79.12
259.151	65.12
259.383	81.12
259.616	72.12
259.849	77.12
260.081	74.12
260.314	85.12
260.547	73.12
260.779	65.12
261.012	76.12
261.244	67.12
261.477	66.12
261.71	85.12
261.942	87.12
262.175	96.12
262.407	82.12
262.64	72.12
262.872	63.12
263.105	62.12
263.337	76.12
263.57	68.12
263.802	67.12
264.035	90.12
264.267	78.12
264.499	67.12
264.732	86.12
264.964	73.12
265.197	65.12
265.429	75.12
265.661	70.12
265.894	87.12
266.126	76.12
266.358	81.12
266.591	87.12
266.823	86.12
267.055	65.12
267.287	102.12
267.52	75.12
267.752	69.12
267.984	85.12
268.216	89.12
268.448	98.12
268.681	73.12
268.913	82.12
269.145	71.12
269.377	81.12
269.609	66.12
269.841	77.12
270.073	73.12
270.306	78.12
270.538	78.12
270.77	83.12
271.002	85.12
271.234	85.12
271.466	88.12
271.698	84.12
271.93	71.12
272.162	77.12
272.394	75.12
272.626	73.12
272.858	82.12
273.09	74.12
273.322	80.12
273.553	64.12
273.785	89.12
274.017	68.12
274.249	76.12
274.481	70.12
274.713	77.12
274.945	84.12
275.176	87.12
275.408	87.12
275.64	89.12
275.872	83.12
276.104	86.12
276.335	80.12
276.567	92.12
276.799	82.12
277.031	89.12
277.262	75.12
277.494	89.12
277.726	81.12
277.957	91.12
278.189	75.12
278.421	75.12
278.652	70.12
278.884	73.12
279.115	62.12
279.347	82.12
279.579	70.12
279.81	81.12
280.042	96.12
280.273	71.12
280.505	85.12
280.736	65.12
280.968	76.12
281.199	73.12
281.431	89.12
281.662	87.12
281.894	82.12
282.125	81.12
282.356	65.12
282.588	79.12
282.819	68.12
283.051	67.12
283.282	81.12
283.513	77.12
283.745	87.12
283.976	88.12
284.207	83.12
284.439	63.12
284.67	74.12
284.901	82.12
285.132	68.12
285.364	82.12
285.595	75.12
285.826	92.12
286.057	79.12
286.288	86.12
286.52	85.12
286.751	79.12
286.982	95.12
287.213	91.12
287.444	98.12
287.675	85.12
287.906	74.12
288.138	83.12
288.369	77.12
288.6	87.12
288.831	82.12
289.062	93.12
289.293	90.12
289.524	78.12
289.755	80.12
289.986	84.12
290.217	77.12
290.448	91.12
290.679	96.12
290.91	79.12
291.141	74.12
291.371	81.12
291.602	81.12
291.833	80.12
292.064	75.12
292.295	79.12
292.526	81.12
292.757	88.12
292.987	88.12
293.218	78.12
293.449	83.12
293.68	90.12
293.91	90.12
294.141	83.12
294.372	84.12
294.603	78.12
294.833	77.12
295.064	79.12
295.295	78.12
295.525	77.12
295.756	79.12
295.987	101.12
296.217	91.12
296.448	83.12
296.679	74.12
296.909	71.12
297.14	82.12
297.37	87.12
297.601	94.12
297.831	84.12
298.062	83.12
298.292	86.12
298.523	85.12
298.753	67.12
298.984	81.12
299.214	78.12
299.445	92.12
299.675	86.12
299.905	82.12
300.136	81.12
300.366	78.12
300.597	68.12
300.827	95.12
301.057	92.12
301.288	86.12
301.518	94.12
301.748	82.12
301.979	101.12
302.209	72.12
302.439	76.12
302.669	67.12
302.9	83.12
303.13	84.12
303.36	85.12
303.59	76.12
303.82	78.12
304.051	86.12
304.281	83.12
304.511	87.12
304.741	106.12
304.971	85.12
305.201	74.12
305.431	85.12
305.661	86.12
305.891	79.12
306.121	78.12
306.352	87.12
306.582	79.12
306.812	74.12
307.042	70.12
307.272	89.12
307.502	92.12
307.731	95.12
307.961	77.12
308.191	81.12
308.421	85.12
308.651	73.12
308.881	91.12
309.111	88.12
309.341	83.12
309.571	97.12
309.8	88.12
310.03	95.12
310.26	78.12
310.49	90.12
310.72	85.12
310.949	95.12
311.179	90.12
311.409	91.12
311.639	82.12
311.868	85.12
312.098	82.12
312.328	89.12
312.557	80.12
312.787	74.12
313.017	82.12
313.246	64.12
313.476	81.12
313.706	79.12
313.935	87.12
314.165	83.12
314.394	79.12
314.624	81.12
314.853	72.12
315.083	77.12
315.312	63.12
315.542	88.12
315.771	87.12
316.001	83.12
316.23	86.12
316.46	80.12
316.689	90.12
316.919	82.12
317.148	89.12
317.377	81.12
317.607	86.12
317.836	91.12
318.065	87.12
318.295	97.12
318.524	70.12
318.753	79.12
318.983	67.12
319.212	72.12
319.441	72.12
319.67	75.12
319.9	69.12
320.129	89.12
320.358	91.12
320.587	65.12
320.816	101.12
321.046	76.12
321.275	71.12
321.504	87.12
321.733	85.12
321.962	88.12
322.191	105.12
322.42	92.12
322.649	88.12
322.878	74.12
323.108	84.12
323.337	85.12
323.566	83.12
323.795	83.12
324.024	77.12
324.253	81.12
324.482	81.12
324.71	83.12
324.939	92.12
325.168	81.12
325.397	77.12
325.626	83.12
325.855	80.12
326.084	90.12
326.313	87.12
326.542	84.12
326.77	73.12
326.999	77.12
327.228	77.12
327.457	76.12
327.686	79.12
327.914	90.12
328.143	78.12
328.372	61.12
328.6	78.12
328.829	81.12
329.058	78.12
329.287	75.12
329.515	74.12
329.744	79.12
329.972	73.12
330.201	94.12
330.43	103.12
330.658	85.12
330.887	93.12
331.115	87.12
331.344	89.12
331.572	71.12
331.801	85.12
332.03	66.12
332.258	80.12
332.486	76.12
332.715	76.12
332.943	75.12
333.172	71.12
333.4	68.12
333.629	85.12
333.857	78.12
334.085	77.12
334.314	86.12
334.542	91.12
334.771	75.12
334.999	79.12
335.227	74.12
335.455	81.12
335.684	85.12
335.912	71.12
336.14	76.12
336.369	82.12
336.597	89.12
336.825	104.12
337.053	87.12
337.281	75.12
337.51	72.12
337.738	81.12
337.966	83.12
338.194	72.12
338.422	80.12
338.65	76.12
338.878	75.12
339.106	81.12
339.334	70.12
339.562	82.12
339.79	82.12
340.018	78.12
340.246	84.12
340.474	90.12
340.702	86.12
340.93	85.12
341.158	81.12
341.386	73.12
341.614	85.12
341.842	78.12
342.07	74.12
342.298	87.12
342.526	88.12
342.754	81.12
342.981	80.12
343.209	85.12
343.437	93.12
343.665	77.12
343.893	89.12
344.12	72.12
344.348	91.12
344.576	85.12
344.804	76.12
345.031	75.12
345.259	87.12
345.487	70.12
345.714	85.12
345.942	67.12
346.17	75.12
346.397	73.12
346.625	81.12
346.853	83.12
347.08	80.12
347.308	77.12
347.535	68.12
347.763	69.12
347.99	76.12
348.218	88.12
348.445	76.12
348.673	80.12
348.9	88.12
349.128	81.12
349.355	73.12
349.583	89.12
349.81	64.12
350.037	68.12
350.265	77.12
350.492	97.12
350.72	89.12
350.947	80.12
351.174	77.12
351.402	72.12
351.629	73.12
351.856	88.12
352.083	81.12
352.311	82.12
352.538	69.12
352.765	81.12
352.992	70.12
353.22	58.12
353.447	75.12
353.674	75.12
353.901	70.12
354.128	88.12
354.355	65.12
354.583	89.12
354.81	83.12
355.037	74.12
355.264	78.12
355.491	85.12
355.718	77.12
355.945	74.12
356.172	92.12
356.399	74.12
356.626	75.12
356.853	88.12
357.08	80.12
357.307	84.12
357.534	86.12
357.761	78.12
357.988	73.12
358.215	82.12
358.441	80.12
358.668	78.12
358.895	83.12
359.122	91.12
359.349	73.12
359.576	72.12
359.802	85.12
360.029	85.12
360.256	76.12
360.483	78.12
360.709	83.12
360.936	82.12
361.163	77.12
361.39	79.12
361.616	79.12
361.843	88.12
362.07	83.12
362.296	89.12
362.523	84.12
362.749	86.12
362.976	76.12
363.203	86.12
363.429	68.12
363.656	69.12
363.882	83.12
364.109	76.12
364.335	82.12
364.562	85.12
364.788	73.12
365.015	81.12
365.241	85.12
365.468	79.12
365.694	74.12
365.92	72.12
366.147	70.12
366.373	86.12
366.599	88.12
366.826	72.12
367.052	77.12
367.278	90.12
367.505	78.12
367.731	68.12
367.957	74.12
368.184	66.12
368.41	72.12
368.636	85.12
368.862	75.12
369.089	77.12
369.315	73.12
369.541	97.12
369.767	83.12
369.993	73.12
370.219	68.12
370.445	74.12
370.672	81.12
370.898	79.12
371.124	65.12
371.35	82.12
371.576	75.12
371.802	81.12
372.028	79.12
372.254	77.12
372.48	79.12
372.706	96.12
372.932	69.12
373.158	74.12
373.384	95.12
373.61	90.12
373.835	79.12
374.061	76.12
374.287	88.12
374.513	74.12
374.739	70.12
374.965	84.12
375.191	101.12
375.416	82.12
375.642	79.12
375.868	77.12
376.094	66.12
376.319	78.12
376.545	79.12
376.771	85.12
376.997	66.12
377.222	79.12
377.448	70.12
377.674	77.12
377.899	77.12
378.125	81.12
378.35	89.12
378.576	75.12
378.802	80.12
379.027	77.12
379.253	85.12
379.478	75.12
379.704	83.12
379.929	77.12
380.155	89.12
380.38	78.12
380.606	83.12
380.831	95.12
381.057	79.12
381.282	68.12
381.507	88.12
381.733	83.12
381.958	71.12
382.184	89.12
382.409	69.12
382.634	90.12
382.86	75.12
383.085	80.12
383.31	88.12
383.535	77.12
383.761	60.12
383.986	81.12
384.211	61.12
384.436	66.12
384.662	96.12
384.887	70.12
385.112	78.12
385.337	86.12
385.562	76.12
385.787	88.12
386.013	88.12
386.238	89.12
386.463	84.12
386.688	81.12
386.913	76.12
387.138	71.12
387.363	81.12
387.588	87.12
387.813	85.12
388.038	88.12
388.263	91.12
388.488	80.12
388.713	85.12
388.938	80.12
389.163	77.12
389.387	77.12
389.612	86.12
389.837	82.12
390.062	75.12
390.287	75.12
390.512	84.12
390.736	73.12
390.961	79.12
391.186	81.12
391.411	82.12
391.636	71.12
391.86	74.12
392.085	75.12
392.31	85.12
392.534	73.12
392.759	79.12
392.984	61.12
393.208	69.12
393.433	82.12
393.658	82.12
393.882	82.12
394.107	91.12
394.331	88.12
394.556	72.12
394.78	82.12
395.005	78.12
395.229	78.12
395.454	100.12
395.678	86.12
395.903	80.12
396.127	88.12
396.352	85.12
396.576	86.12
396.801	74.12
397.025	87.12
397.249	77.12
397.474	65.12
397.698	84.12
397.922	70.12
398.147	87.12
398.371	79.12
398.595	81.12
398.82	71.12
399.044	66.12
399.268	72.12
399.492	88.12
399.717	71.12
399.941	65.12
400.165	71.12
400.389	63.12
400.613	71.12
400.837	82.12
401.062	78.12
401.286	75.12
401.51	83.12
401.734	71.12
401.958	85.12
402.182	70.12
402.406	67.12
402.63	66.12
402.854	82.12
403.078	81.12
403.302	65.12
403.526	86.12
403.75	71.12
403.974	62.12
404.198	67.12
404.422	62.12
404.645	76.12
404.869	85.12
405.093	89.12
405.317	78.12
405.541	78.12
405.765	78.12
405.988	72.12
406.212	89.12
406.436	70.12
406.66	72.12
406.883	77.12
407.107	74.12
407.331	80.12
407.555	92.12
407.778	77.12
408.002	81.12
408.226	75.12
408.449	83.12
408.673	78.12
408.896	75.12
409.12	83.12
409.344	73.12
409.567	73.12
409.791	84.12
410.014	70.12
410.238	73.12
410.461	80.12
410.685	71.12
410.908	73.12
411.132	82.12
411.355	77.12
411.578	86.12
411.802	80.12
412.025	76.12
412.249	81.12
412.472	81.12
412.695	81.12
412.919	89.12
413.142	67.12
413.365	86.12
413.589	66.12
413.812	90.12
414.035	90.12
414.258	78.12
414.482	66.12
414.705	76.12
414.928	76.12
415.151	90.12
415.374	75.12
415.597	85.12
415.821	89.12
416.044	70.12
416.267	81.12
416.49	85.12
416.713	84.12
416.936	74.12
417.159	90.12
417.382	90.12
417.605	83.12
417.828	89.12
418.051	67.12
418.274	83.12
418.497	71.12
418.72	67.12
418.943	78.12
419.166	80.12
419.389	67.12
419.611	84.12
419.834	79.12
420.057	71.12
420.28	77.12
420.503	79.12
420.726	85.12
420.948	68.12
421.171	86.12
421.394	65.12
421.617	81.12
421.839	77.12
422.062	71.12
422.285	86.12
422.507	74.12
422.73	85.12
422.953	77.12
423.175	79.12
423.398	79.12
423.621	85.12
423.843	87.12
424.066	90.12
424.288	89.12
424.511	89.12
424.733	78.12
424.956	78.12
425.178	77.12
425.401	89.12
425.623	69.12
425.846	85.12
426.068	90.12
426.291	78.12
426.513	73.12
426.735	70.12
426.958	69.12
427.18	75.12
427.402	90.12
427.625	79.12
427.847	78.12
428.069	85.12
428.292	71.12
428.514	83.12
428.736	86.12
428.958	80.12
429.181	76.12
429.403	76.12
429.625	74.12
429.847	79.12
430.069	70.12
430.292	83.12
430.514	91.12
430.736	91.12
430.958	85.12
431.18	87.12
431.402	73.12
431.624	66.12
431.846	76.12
432.068	65.12
432.29	73.12
432.512	61.12
432.734	77.12
432.956	85.12
433.178	103.12
433.4	78.12
433.622	81.12
433.844	79.12
434.066	75.12
434.287	82.12
434.509	89.12
434.731	80.12
434.953	73.12
435.175	88.12
435.397	84.12
435.618	73.12
435.84	89.12
436.062	81.12
436.284	81.12
436.505	75.12
436.727	81.12
436.949	89.12
437.17	75.12
437.392	79.12
437.614	73.12
437.835	71.12
438.057	83.12
438.278	74.12
438.5	73.12
438.721	85.12
438.943	74.12
439.165	75.12
439.386	77.12
439.608	82.12
439.829	80.12
440.05	88.12
440.272	81.12
440.493	61.12
440.715	74.12
440.936	62.12
441.158	85.12
441.379	70.12
441.6	59.12
441.822	79.12
442.043	67.12
442.264	82.12
442.486	82.12
442.707	70.12
442.928	79.12
443.149	71.12
443.371	74.12
443.592	84.12
443.813	78.12
444.034	73.12
444.255	62.12
444.476	92.12
444.698	73.12
444.919	81.12
445.14	143.12
445.361	109.12
445.582	65.12
445.803	63.12
446.024	88.12
446.245	68.12
446.466	66.12
446.687	76.12
446.908	79.12
447.129	75.12
447.35	60.12
447.571	91.12
447.792	84.12
448.013	73.12
448.234	78.12
448.455	71.12
448.675	75.12
448.896	80.12
449.117	74.12
449.338	80.12
449.559	73.12
449.779	79.12
450	93.12
450.221	91.12
450.442	82.12
450.662	63.12
450.883	75.12
451.104	68.12
451.324	89.12
451.545	76.12
451.766	72.12
451.986	65.12
452.207	73.12
452.428	67.12
452.648	67.12
452.869	66.12
453.089	65.12
453.31	82.12
453.53	85.12
453.751	90.12
453.971	69.12
454.192	75.12
454.412	88.12
454.633	80.12
454.853	87.12
455.073	69.12
455.294	97.12
455.514	89.12
455.734	87.12
455.955	61.12
456.175	73.12
456.395	81.12
456.616	71.12
456.836	89.12
457.056	74.12
457.276	76.12
457.497	80.12
457.717	87.12
457.937	82.12
458.157	68.12
458.377	71.12
458.598	65.12
458.818	81.12
459.038	66.12
459.258	88.12
459.478	83.12
459.698	79.12
459.918	82.12
460.138	66.12
460.358	79.12
460.578	81.12
460.798	86.12
461.018	67.12
461.238	69.12
461.458	83.12
461.678	81.12
461.898	73.12
462.118	80.12
462.338	63.12
462.558	73.12
462.777	59.12
462.997	71.12
463.217	85.12
463.437	70.12
463.657	75.12
463.876	66.12
464.096	85.12
464.316	88.12
464.536	83.12
464.755	84.12
464.975	73.12
465.195	93.12
465.414	65.12
465.634	63.12
465.854	83.12
466.073	76.12
466.293	77.12
466.512	74.12
466.732	67.12
466.951	83.12
467.171	79.12
467.391	56.12
467.61	85.12
467.829	83.12
468.049	91.12
468.268	81.12
468.488	82.12
468.707	80.12
468.927	66.12
469.146	82.12
469.365	77.12
469.585	93.12
469.804	77.12
470.023	80.12
470.243	80.12
470.462	79.12
470.681	80.12
470.901	69.12
471.12	77.12
471.339	88.12
471.558	86.12
471.777	82.12
471.997	70.12
472.216	74.12
472.435	63.12
472.654	76.12
472.873	80.12
473.092	88.12
473.311	72.12
473.53	83.12
473.749	87.12
473.968	94.12
474.187	87.12
474.406	81.12
474.625	83.12
474.844	75.12
475.063	70.12
475.282	83.12
475.501	78.12
475.72	90.12
475.939	72.12
476.158	77.12
476.377	66.12
476.596	91.12
476.814	94.12
477.033	85.12
477.252	77.12
477.471	66.12
477.69	84.12
477.908	82.12
478.127	85.12
478.346	82.12
478.564	81.12
478.783	82.12
479.002	85.12
479.22	79.12
479.439	90.12
479.658	78.12
479.876	75.12
480.095	80.12
480.313	85.12
480.532	81.12
480.751	92.12
480.969	98.12
481.188	71.12
481.406	83.12
481.624	90.12
481.843	66.12
482.061	74.12
482.28	75.12
482.498	78.12
482.717	75.12
482.935	85.12
483.153	87.12
483.372	86.12
483.59	79.12
483.808	78.12
484.027	85.12
484.245	61.12
484.463	78.12
484.681	72.12
484.9	85.12
485.118	88.12
485.336	70.12
485.554	75.12
485.772	64.12
485.99	74.12
486.209	50.12
486.427	77.12
486.645	83.12
486.863	80.12
487.081	81.12
487.299	72.12
487.517	79.12
487.735	79.12
487.953	65.12
488.171	80.12
488.389	83.12
488.607	59.12
488.825	69.12
489.043	70.12
489.261	88.12
489.479	87.12
489.696	73.12
489.914	78.12
490.132	71.12
490.35	82.12
490.568	85.12
490.786	78.12
491.003	78.12
491.221	80.12
491.439	74.12
491.657	81.12
491.874	88.12
492.092	86.12
492.31	79.12
492.527	76.12
492.745	89.12
492.963	77.12
493.18	86.12
493.398	77.12
493.615	91.12
493.833	78.12
494.05	73.12
494.268	85.12
494.485	86.12
494.703	79.12
494.92	77.12
495.138	79.12
495.355	82.12
495.573	78.12
495.79	78.12
496.008	78.12
496.225	80.12
496.442	90.12
496.66	92.12
496.877	76.12
497.094	90.12
497.312	87.12
497.529	65.12
497.746	89.12
497.963	83.12
498.181	78.12
498.398	67.12
498.615	83.12
498.832	94.12
499.049	76.12
499.267	84.12
499.484	77.12
499.701	79.12
499.918	73.12
500.135	68.12
500.352	77.12
500.569	75.12
500.786	77.12
501.003	81.12
501.22	71.12
501.437	73.12
501.654	73.12
501.871	65.12
502.088	75.12
502.305	70.12
502.522	88.12
502.739	66.12
502.956	98.12
503.172	97.12
503.389	87.12
503.606	77.12
503.823	89.12
504.04	81.12
504.256	78.12
504.473	77.12
504.69	78.12
504.907	82.12
505.123	83.12
505.34	67.12
505.557	68.12
505.773	79.12
505.99	73.12
506.207	81.12
506.423	75.12
506.64	95.12
506.856	78.12
507.073	66.12
507.289	70.12
507.506	78.12
507.722	79.12
507.939	79.12
508.155	88.12
508.372	76.12
508.588	82.12
508.805	80.12
509.021	69.12
509.238	55.12
509.454	82.12
509.67	57.12
509.887	79.12
510.103	73.12
510.319	70.12
510.536	86.12
510.752	90.12
510.968	82.12
511.184	79.12
511.401	74.12
511.617	86.12
511.833	81.12
512.049	68.12
512.265	68.12
512.481	80.12
512.698	77.12
512.914	83.12
513.13	87.12
513.346	77.12
513.562	69.12
513.778	86.12
513.994	79.12
514.21	88.12
514.426	97.12
514.642	79.12
514.858	70.12
515.074	73.12
515.29	83.12
515.506	70.12
515.721	82.12
515.937	75.12
516.153	81.12
516.369	75.12
516.585	75.12
516.801	63.12
517.016	86.12
517.232	86.12
517.448	78.12
517.664	79.12
517.879	82.12
518.095	84.12
518.311	89.12
518.527	74.12
518.742	78.12
518.958	77.12
519.173	78.12
519.389	80.12
519.605	90.12
519.82	78.12
520.036	84.12
