Data from Background_1_HRD10591_00091.txt Node
Date: Wed Nov 05 14:39:43 EST 2025
User: Yrep
Spectrometer: HR+D1059
Trigger mode: 1
Integration Time (sec): 1.000000E-1
Scans to average: 1
Electric dark correction enabled: true
Nonlinearity correction enabled: false
Boxcar width: 0
XAxis mode: Wavelengths
Number of Pixels in Spectrum: 2048
>>>>>Begin Spectral Data<<<<<
223.165	-23.31
223.4	-23.31
223.635	-23.31
223.869	-15.31
224.104	-7.31
224.338	-0.31
224.573	-16.31
224.808	-3.31
225.042	-16.31
225.277	-5.31
225.511	1.69
225.746	-1.31
225.98	-2.31
226.215	10.69
226.449	6.69
226.683	15.69
226.918	21.69
227.152	34.69
227.387	32.69
227.621	39.69
227.856	30.69
228.09	44.69
228.324	45.69
228.559	62.69
228.793	62.69
229.027	67.69
229.262	60.69
229.496	74.69
229.73	67.69
229.964	70.69
230.199	94.69
230.433	88.69
230.667	70.69
230.901	79.69
231.136	82.69
231.37	85.69
231.604	83.69
231.838	85.69
232.072	68.69
232.306	85.69
232.541	79.69
232.775	75.69
233.009	82.69
233.243	76.69
233.477	64.69
233.711	84.69
233.945	72.69
234.179	77.69
234.413	93.69
234.647	77.69
234.881	70.69
235.115	90.69
235.349	64.69
235.583	73.69
235.817	67.69
236.051	89.69
236.285	72.69
236.519	72.69
236.753	82.69
236.987	92.69
237.221	65.69
237.455	77.69
237.689	54.69
237.922	58.69
238.156	82.69
238.39	77.69
238.624	81.69
238.858	74.69
239.091	77.69
239.325	85.69
239.559	65.69
239.793	66.69
240.027	84.69
240.26	84.69
240.494	82.69
240.728	66.69
240.961	75.69
241.195	66.69
241.429	87.69
241.662	81.69
241.896	67.69
242.13	83.69
242.363	69.69
242.597	75.69
242.83	79.69
243.064	70.69
243.298	76.69
243.531	75.69
243.765	76.69
243.998	77.69
244.232	64.69
244.465	67.69
244.699	70.69
244.932	74.69
245.166	84.69
245.399	79.69
245.633	89.69
245.866	72.69
246.099	64.69
246.333	68.69
246.566	83.69
246.8	87.69
247.033	72.69
247.266	70.69
247.5	79.69
247.733	82.69
247.966	66.69
248.2	76.69
248.433	79.69
248.666	68.69
248.899	79.69
249.133	73.69
249.366	80.69
249.599	80.69
249.832	80.69
250.066	85.69
250.299	72.69
250.532	85.69
250.765	65.69
250.998	82.69
251.231	91.69
251.465	84.69
251.698	93.69
251.931	72.69
252.164	82.69
252.397	67.69
252.63	84.69
252.863	67.69
253.096	83.69
253.329	77.69
253.562	67.69
253.795	79.69
254.028	75.69
254.261	83.69
254.494	67.69
254.727	84.69
254.96	71.69
255.193	65.69
255.426	84.69
255.659	70.69
255.892	87.69
256.124	77.69
256.357	81.69
256.59	88.69
256.823	68.69
257.056	73.69
257.289	69.69
257.521	78.69
257.754	92.69
257.987	80.69
258.22	77.69
258.452	79.69
258.685	73.69
258.918	86.69
259.151	73.69
259.383	84.69
259.616	74.69
259.849	84.69
260.081	80.69
260.314	91.69
260.547	78.69
260.779	73.69
261.012	87.69
261.244	82.69
261.477	78.69
261.71	81.69
261.942	84.69
262.175	77.69
262.407	60.69
262.64	80.69
262.872	76.69
263.105	75.69
263.337	89.69
263.57	73.69
263.802	87.69
264.035	79.69
264.267	64.69
264.499	79.69
264.732	92.69
264.964	67.69
265.197	80.69
265.429	81.69
265.661	87.69
265.894	92.69
266.126	79.69
266.358	88.69
266.591	73.69
266.823	65.69
267.055	75.69
267.287	80.69
267.52	82.69
267.752	83.69
267.984	78.69
268.216	77.69
268.448	83.69
268.681	74.69
268.913	78.69
269.145	67.69
269.377	77.69
269.609	82.69
269.841	85.69
270.073	85.69
270.306	80.69
270.538	70.69
270.77	84.69
271.002	67.69
271.234	78.69
271.466	77.69
271.698	77.69
271.93	69.69
272.162	87.69
272.394	105.69
272.626	80.69
272.858	78.69
273.09	95.69
273.322	77.69
273.553	79.69
273.785	68.69
274.017	79.69
274.249	88.69
274.481	88.69
274.713	79.69
274.945	69.69
275.176	70.69
275.408	92.69
275.64	86.69
275.872	82.69
276.104	92.69
276.335	86.69
276.567	78.69
276.799	77.69
277.031	75.69
277.262	78.69
277.494	76.69
277.726	91.69
277.957	73.69
278.189	83.69
278.421	77.69
278.652	88.69
278.884	85.69
279.115	66.69
279.347	89.69
279.579	62.69
279.81	82.69
280.042	78.69
280.273	80.69
280.505	88.69
280.736	95.69
280.968	89.69
281.199	78.69
281.431	79.69
281.662	74.69
281.894	97.69
282.125	66.69
282.356	90.69
282.588	88.69
282.819	84.69
283.051	85.69
283.282	81.69
283.513	89.69
283.745	74.69
283.976	88.69
284.207	74.69
284.439	77.69
284.67	89.69
284.901	89.69
285.132	81.69
285.364	91.69
285.595	87.69
285.826	91.69
286.057	81.69
286.288	91.69
286.52	83.69
286.751	83.69
286.982	104.69
287.213	92.69
287.444	82.69
287.675	78.69
287.906	72.69
288.138	76.69
288.369	84.69
288.6	83.69
288.831	73.69
289.062	87.69
289.293	80.69
289.524	84.69
289.755	80.69
289.986	78.69
290.217	84.69
290.448	83.69
290.679	80.69
290.91	84.69
291.141	73.69
291.371	88.69
291.602	83.69
291.833	95.69
292.064	75.69
292.295	74.69
292.526	79.69
292.757	84.69
292.987	82.69
293.218	77.69
293.449	63.69
293.68	90.69
293.91	82.69
294.141	85.69
294.372	75.69
294.603	78.69
294.833	100.69
295.064	78.69
295.295	71.69
295.525	83.69
295.756	87.69
295.987	80.69
296.217	72.69
296.448	77.69
296.679	81.69
296.909	91.69
297.14	91.69
297.37	74.69
297.601	79.69
297.831	87.69
298.062	90.69
298.292	91.69
298.523	88.69
298.753	86.69
298.984	88.69
299.214	65.69
299.445	81.69
299.675	82.69
299.905	75.69
300.136	85.69
300.366	93.69
300.597	68.69
300.827	83.69
301.057	91.69
301.288	87.69
301.518	91.69
301.748	77.69
301.979	81.69
302.209	75.69
302.439	78.69
302.669	81.69
302.9	75.69
303.13	91.69
303.36	84.69
303.59	85.69
303.82	68.69
304.051	68.69
304.281	76.69
304.511	74.69
304.741	85.69
304.971	79.69
305.201	76.69
305.431	79.69
305.661	96.69
305.891	75.69
306.121	75.69
306.352	93.69
306.582	82.69
306.812	76.69
307.042	85.69
307.272	84.69
307.502	87.69
307.731	98.69
307.961	81.69
308.191	81.69
308.421	74.69
308.651	99.69
308.881	79.69
309.111	89.69
309.341	79.69
309.571	87.69
309.8	81.69
310.03	85.69
310.26	93.69
310.49	77.69
310.72	94.69
310.949	85.69
311.179	82.69
311.409	87.69
311.639	83.69
311.868	86.69
312.098	87.69
312.328	84.69
312.557	88.69
312.787	78.69
313.017	67.69
313.246	84.69
313.476	79.69
313.706	77.69
313.935	98.69
314.165	90.69
314.394	87.69
314.624	82.69
314.853	92.69
315.083	85.69
315.312	85.69
315.542	84.69
315.771	87.69
316.001	93.69
316.23	86.69
316.46	87.69
316.689	73.69
316.919	82.69
317.148	95.69
317.377	78.69
317.607	98.69
317.836	87.69
318.065	91.69
318.295	78.69
318.524	90.69
318.753	70.69
318.983	79.69
319.212	78.69
319.441	88.69
319.67	82.69
319.9	83.69
320.129	88.69
320.358	95.69
320.587	81.69
320.816	99.69
321.046	69.69
321.275	89.69
321.504	85.69
321.733	82.69
321.962	72.69
322.191	84.69
322.42	97.69
322.649	80.69
322.878	92.69
323.108	86.69
323.337	89.69
323.566	81.69
323.795	87.69
324.024	65.69
324.253	77.69
324.482	94.69
324.71	76.69
324.939	90.69
325.168	85.69
325.397	83.69
325.626	83.69
325.855	88.69
326.084	84.69
326.313	88.69
326.542	75.69
326.77	79.69
326.999	94.69
327.228	87.69
327.457	84.69
327.686	80.69
327.914	87.69
328.143	78.69
328.372	85.69
328.6	86.69
328.829	73.69
329.058	97.69
329.287	78.69
329.515	88.69
329.744	86.69
329.972	81.69
330.201	80.69
330.43	92.69
330.658	78.69
330.887	87.69
331.115	80.69
331.344	90.69
331.572	75.69
331.801	100.69
332.03	81.69
332.258	88.69
332.486	89.69
332.715	72.69
332.943	87.69
333.172	80.69
333.4	83.69
333.629	77.69
333.857	83.69
334.085	78.69
334.314	86.69
334.542	81.69
334.771	91.69
334.999	94.69
335.227	91.69
335.455	96.69
335.684	73.69
335.912	84.69
336.14	78.69
336.369	83.69
336.597	68.69
336.825	81.69
337.053	80.69
337.281	76.69
337.51	72.69
337.738	90.69
337.966	77.69
338.194	80.69
338.422	85.69
338.65	81.69
338.878	87.69
339.106	84.69
339.334	77.69
339.562	86.69
339.79	99.69
340.018	80.69
340.246	93.69
340.474	81.69
340.702	86.69
340.93	95.69
341.158	82.69
341.386	93.69
341.614	79.69
341.842	79.69
342.07	77.69
342.298	91.69
342.526	92.69
342.754	91.69
342.981	84.69
343.209	77.69
343.437	80.69
343.665	91.69
343.893	80.69
344.12	103.69
344.348	81.69
344.576	85.69
344.804	82.69
345.031	87.69
345.259	90.69
345.487	91.69
345.714	90.69
345.942	64.69
346.17	67.69
346.397	66.69
346.625	87.69
346.853	88.69
347.08	83.69
347.308	92.69
347.535	88.69
347.763	75.69
347.99	75.69
348.218	90.69
348.445	72.69
348.673	79.69
348.9	82.69
349.128	77.69
349.355	91.69
349.583	69.69
349.81	87.69
350.037	88.69
350.265	92.69
350.492	85.69
350.72	64.69
350.947	77.69
351.174	78.69
351.402	73.69
351.629	93.69
351.856	77.69
352.083	80.69
352.311	94.69
352.538	81.69
352.765	90.69
352.992	89.69
353.22	90.69
353.447	95.69
353.674	80.69
353.901	67.69
354.128	79.69
354.355	78.69
354.583	80.69
354.81	93.69
355.037	80.69
355.264	79.69
355.491	78.69
355.718	76.69
355.945	80.69
356.172	94.69
356.399	85.69
356.626	76.69
356.853	82.69
357.08	75.69
357.307	97.69
357.534	79.69
357.761	88.69
357.988	93.69
358.215	78.69
358.441	76.69
358.668	87.69
358.895	84.69
359.122	79.69
359.349	86.69
359.576	70.69
359.802	84.69
360.029	72.69
360.256	80.69
360.483	89.69
360.709	85.69
360.936	82.69
361.163	80.69
361.39	89.69
361.616	99.69
361.843	79.69
362.07	68.69
362.296	83.69
362.523	91.69
362.749	90.69
362.976	91.69
363.203	87.69
363.429	78.69
363.656	83.69
363.882	71.69
364.109	75.69
364.335	84.69
364.562	87.69
364.788	94.69
365.015	86.69
365.241	96.69
365.468	95.69
365.694	87.69
365.92	73.69
366.147	77.69
366.373	68.69
366.599	91.69
366.826	92.69
367.052	81.69
367.278	66.69
367.505	87.69
367.731	76.69
367.957	87.69
368.184	77.69
368.41	63.69
368.636	90.69
368.862	76.69
369.089	87.69
369.315	86.69
369.541	87.69
369.767	81.69
369.993	79.69
370.219	80.69
370.445	77.69
370.672	68.69
370.898	85.69
371.124	82.69
371.35	84.69
371.576	83.69
371.802	77.69
372.028	82.69
372.254	91.69
372.48	80.69
372.706	80.69
372.932	75.69
373.158	60.69
373.384	88.69
373.61	81.69
373.835	83.69
374.061	74.69
374.287	83.69
374.513	74.69
374.739	80.69
374.965	77.69
375.191	87.69
375.416	71.69
375.642	79.69
375.868	94.69
376.094	87.69
376.319	79.69
376.545	83.69
376.771	93.69
376.997	87.69
377.222	83.69
377.448	82.69
377.674	81.69
377.899	80.69
378.125	88.69
378.35	85.69
378.576	79.69
378.802	65.69
379.027	82.69
379.253	76.69
379.478	70.69
379.704	76.69
379.929	78.69
380.155	70.69
380.38	80.69
380.606	84.69
380.831	81.69
381.057	83.69
381.282	79.69
381.507	83.69
381.733	86.69
381.958	77.69
382.184	83.69
382.409	78.69
382.634	69.69
382.86	69.69
383.085	90.69
383.31	85.69
383.535	90.69
383.761	96.69
383.986	82.69
384.211	91.69
384.436	100.69
384.662	97.69
384.887	68.69
385.112	73.69
385.337	68.69
385.562	90.69
385.787	73.69
386.013	87.69
386.238	83.69
386.463	76.69
386.688	87.69
386.913	73.69
387.138	81.69
387.363	84.69
387.588	89.69
387.813	93.69
388.038	90.69
388.263	82.69
388.488	73.69
388.713	64.69
388.938	85.69
389.163	70.69
389.387	80.69
389.612	99.69
389.837	77.69
390.062	87.69
390.287	88.69
390.512	66.69
390.736	94.69
390.961	85.69
391.186	75.69
391.411	91.69
391.636	84.69
391.86	74.69
392.085	80.69
392.31	79.69
392.534	88.69
392.759	96.69
392.984	78.69
393.208	77.69
393.433	89.69
393.658	79.69
393.882	83.69
394.107	86.69
394.331	88.69
394.556	76.69
394.78	87.69
395.005	85.69
395.229	81.69
395.454	92.69
395.678	87.69
395.903	87.69
396.127	90.69
396.352	69.69
396.576	75.69
396.801	71.69
397.025	89.69
397.249	66.69
397.474	77.69
397.698	68.69
397.922	74.69
398.147	91.69
398.371	72.69
398.595	73.69
398.82	82.69
399.044	87.69
399.268	77.69
399.492	82.69
399.717	82.69
399.941	84.69
400.165	79.69
400.389	89.69
400.613	76.69
400.837	82.69
401.062	88.69
401.286	74.69
401.51	99.69
401.734	82.69
401.958	80.69
402.182	82.69
402.406	73.69
402.63	79.69
402.854	77.69
403.078	81.69
403.302	87.69
403.526	81.69
403.75	79.69
403.974	84.69
404.198	95.69
404.422	78.69
404.645	80.69
404.869	78.69
405.093	88.69
405.317	92.69
405.541	87.69
405.765	79.69
405.988	94.69
406.212	78.69
406.436	77.69
406.66	84.69
406.883	78.69
407.107	84.69
407.331	80.69
407.555	69.69
407.778	82.69
408.002	73.69
408.226	81.69
408.449	91.69
408.673	85.69
408.896	73.69
409.12	86.69
409.344	61.69
409.567	78.69
409.791	91.69
410.014	73.69
410.238	86.69
410.461	80.69
410.685	79.69
410.908	78.69
411.132	86.69
411.355	79.69
411.578	84.69
411.802	87.69
412.025	75.69
412.249	78.69
412.472	82.69
412.695	70.69
412.919	83.69
413.142	72.69
413.365	82.69
413.589	95.69
413.812	85.69
414.035	79.69
414.258	74.69
414.482	83.69
414.705	87.69
414.928	79.69
415.151	79.69
415.374	85.69
415.597	89.69
415.821	86.69
416.044	81.69
416.267	85.69
416.49	76.69
416.713	88.69
416.936	89.69
417.159	66.69
417.382	59.69
417.605	68.69
417.828	78.69
418.051	72.69
418.274	72.69
418.497	78.69
418.72	66.69
418.943	84.69
419.166	89.69
419.389	79.69
419.611	80.69
419.834	72.69
420.057	64.69
420.28	79.69
420.503	83.69
420.726	69.69
420.948	91.69
421.171	84.69
421.394	75.69
421.617	78.69
421.839	83.69
422.062	66.69
422.285	81.69
422.507	90.69
422.73	65.69
422.953	82.69
423.175	83.69
423.398	78.69
423.621	90.69
423.843	79.69
424.066	67.69
424.288	66.69
424.511	91.69
424.733	79.69
424.956	88.69
425.178	88.69
425.401	74.69
425.623	74.69
425.846	85.69
426.068	79.69
426.291	87.69
426.513	82.69
426.735	91.69
426.958	82.69
427.18	67.69
427.402	55.69
427.625	66.69
427.847	94.69
428.069	70.69
428.292	80.69
428.514	85.69
428.736	78.69
428.958	84.69
429.181	87.69
429.403	83.69
429.625	70.69
429.847	85.69
430.069	82.69
430.292	81.69
430.514	87.69
430.736	68.69
430.958	79.69
431.18	84.69
431.402	78.69
431.624	75.69
431.846	73.69
432.068	93.69
432.29	93.69
432.512	86.69
432.734	83.69
432.956	88.69
433.178	84.69
433.4	93.69
433.622	79.69
433.844	75.69
434.066	60.69
434.287	84.69
434.509	73.69
434.731	79.69
434.953	79.69
435.175	74.69
435.397	80.69
435.618	98.69
435.84	78.69
436.062	89.69
436.284	86.69
436.505	76.69
436.727	71.69
436.949	76.69
437.17	72.69
437.392	71.69
437.614	83.69
437.835	79.69
438.057	70.69
438.278	73.69
438.5	79.69
438.721	58.69
438.943	68.69
439.165	83.69
439.386	83.69
439.608	95.69
439.829	71.69
440.05	67.69
440.272	77.69
440.493	85.69
440.715	85.69
440.936	76.69
441.158	83.69
441.379	70.69
441.6	73.69
441.822	89.69
442.043	84.69
442.264	77.69
442.486	79.69
442.707	81.69
442.928	83.69
443.149	76.69
443.371	82.69
443.592	86.69
443.813	92.69
444.034	78.69
444.255	83.69
444.476	88.69
444.698	86.69
444.919	94.69
445.14	165.69
445.361	115.69
445.582	65.69
445.803	74.69
446.024	75.69
446.245	83.69
446.466	82.69
446.687	75.69
446.908	79.69
447.129	82.69
447.35	88.69
447.571	68.69
447.792	75.69
448.013	79.69
448.234	87.69
448.455	85.69
448.675	76.69
448.896	85.69
449.117	91.69
449.338	92.69
449.559	78.69
449.779	101.69
450	85.69
450.221	80.69
450.442	88.69
450.662	75.69
450.883	76.69
451.104	88.69
451.324	85.69
451.545	79.69
451.766	82.69
451.986	74.69
452.207	77.69
452.428	82.69
452.648	74.69
452.869	80.69
453.089	76.69
453.31	74.69
453.53	84.69
453.751	86.69
453.971	74.69
454.192	85.69
454.412	75.69
454.633	75.69
454.853	83.69
455.073	77.69
455.294	72.69
455.514	97.69
455.734	89.69
455.955	93.69
456.175	73.69
456.395	74.69
456.616	85.69
456.836	72.69
457.056	81.69
457.276	73.69
457.497	80.69
457.717	69.69
457.937	79.69
458.157	91.69
458.377	70.69
458.598	87.69
458.818	70.69
459.038	72.69
459.258	83.69
459.478	88.69
459.698	73.69
459.918	79.69
460.138	90.69
460.358	80.69
460.578	84.69
460.798	80.69
461.018	92.69
461.238	100.69
461.458	88.69
461.678	71.69
461.898	91.69
462.118	75.69
462.338	79.69
462.558	79.69
462.777	88.69
462.997	82.69
463.217	74.69
463.437	82.69
463.657	76.69
463.876	95.69
464.096	91.69
464.316	81.69
464.536	88.69
464.755	64.69
464.975	93.69
465.195	84.69
465.414	83.69
465.634	92.69
465.854	83.69
466.073	84.69
466.293	80.69
466.512	72.69
466.732	80.69
466.951	72.69
467.171	70.69
467.391	81.69
467.61	76.69
467.829	79.69
468.049	87.69
468.268	80.69
468.488	82.69
468.707	76.69
468.927	84.69
469.146	83.69
469.365	67.69
469.585	80.69
469.804	82.69
470.023	82.69
470.243	76.69
470.462	76.69
470.681	78.69
470.901	73.69
471.12	63.69
471.339	85.69
471.558	84.69
471.777	82.69
471.997	91.69
472.216	85.69
472.435	80.69
472.654	77.69
472.873	90.69
473.092	75.69
473.311	88.69
473.53	79.69
473.749	76.69
473.968	87.69
474.187	76.69
474.406	83.69
474.625	77.69
474.844	82.69
475.063	84.69
475.282	77.69
475.501	75.69
475.72	73.69
475.939	87.69
476.158	78.69
476.377	73.69
476.596	80.69
476.814	86.69
477.033	76.69
477.252	73.69
477.471	89.69
477.69	87.69
477.908	83.69
478.127	78.69
478.346	74.69
478.564	68.69
478.783	80.69
479.002	89.69
479.22	86.69
479.439	82.69
479.658	88.69
479.876	83.69
480.095	87.69
480.313	90.69
480.532	79.69
480.751	84.69
480.969	77.69
481.188	60.69
481.406	86.69
481.624	79.69
481.843	75.69
482.061	82.69
482.28	83.69
482.498	92.69
482.717	94.69
482.935	84.69
483.153	83.69
483.372	89.69
483.59	87.69
483.808	83.69
484.027	75.69
484.245	72.69
484.463	75.69
484.681	99.69
484.9	79.69
485.118	103.69
485.336	98.69
485.554	98.69
485.772	76.69
485.99	95.69
486.209	77.69
486.427	80.69
486.645	82.69
486.863	87.69
487.081	91.69
487.299	93.69
487.517	72.69
487.735	70.69
487.953	81.69
488.171	77.69
488.389	78.69
488.607	85.69
488.825	79.69
489.043	73.69
489.261	90.69
489.479	81.69
489.696	76.69
489.914	85.69
490.132	79.69
490.35	92.69
490.568	96.69
490.786	86.69
491.003	76.69
491.221	83.69
491.439	72.69
491.657	90.69
491.874	75.69
492.092	81.69
492.31	87.69
492.527	84.69
492.745	75.69
492.963	77.69
493.18	88.69
493.398	84.69
493.615	81.69
493.833	79.69
494.05	93.69
494.268	90.69
494.485	77.69
494.703	85.69
494.92	86.69
495.138	77.69
495.355	83.69
495.573	80.69
495.79	83.69
496.008	79.69
496.225	80.69
496.442	96.69
496.66	104.69
496.877	79.69
497.094	95.69
497.312	85.69
497.529	83.69
497.746	80.69
497.963	85.69
498.181	73.69
498.398	73.69
498.615	91.69
498.832	75.69
499.049	88.69
499.267	71.69
499.484	93.69
499.701	91.69
499.918	85.69
500.135	87.69
500.352	81.69
500.569	95.69
500.786	88.69
501.003	79.69
501.22	74.69
501.437	85.69
501.654	92.69
501.871	77.69
502.088	83.69
502.305	93.69
502.522	84.69
502.739	80.69
502.956	87.69
503.172	76.69
503.389	79.69
503.606	89.69
503.823	65.69
504.04	81.69
504.256	65.69
504.473	75.69
504.69	87.69
504.907	95.69
505.123	92.69
505.34	82.69
505.557	80.69
505.773	76.69
505.99	74.69
506.207	75.69
506.423	90.69
506.64	76.69
506.856	88.69
507.073	82.69
507.289	103.69
507.506	79.69
507.722	89.69
507.939	77.69
508.155	78.69
508.372	85.69
508.588	88.69
508.805	87.69
509.021	91.69
509.238	83.69
509.454	86.69
509.67	84.69
509.887	91.69
510.103	77.69
510.319	74.69
510.536	81.69
510.752	81.69
510.968	85.69
511.184	84.69
511.401	78.69
511.617	80.69
511.833	73.69
512.049	75.69
512.265	79.69
512.481	93.69
512.698	87.69
512.914	83.69
513.13	67.69
513.346	79.69
513.562	61.69
513.778	94.69
513.994	75.69
514.21	81.69
514.426	67.69
514.642	82.69
514.858	79.69
515.074	78.69
515.29	84.69
515.506	83.69
515.721	90.69
515.937	83.69
516.153	88.69
516.369	91.69
516.585	64.69
516.801	91.69
517.016	81.69
517.232	85.69
517.448	85.69
517.664	80.69
517.879	88.69
518.095	98.69
518.311	78.69
518.527	98.69
518.742	76.69
518.958	68.69
519.173	83.69
519.389	85.69
519.605	92.69
519.82	88.69
520.036	76.69
