Data from Background_1_HRD10591_00093.txt Node
Date: Wed Nov 05 14:39:44 EST 2025
User: Yrep
Spectrometer: HR+D1059
Trigger mode: 1
Integration Time (sec): 1.000000E-1
Scans to average: 1
Electric dark correction enabled: true
Nonlinearity correction enabled: false
Boxcar width: 0
XAxis mode: Wavelengths
Number of Pixels in Spectrum: 2048
>>>>>Begin Spectral Data<<<<<
223.165	-20.31
223.4	-20.31
223.635	-20.31
223.869	-12.31
224.104	-6.31
224.338	-36.31
224.573	-11.31
224.808	-7.31
225.042	-10.31
225.277	-4.31
225.511	3.69
225.746	0.69
225.98	12.69
226.215	16.69
226.449	21.69
226.683	17.69
226.918	14.69
227.152	20.69
227.387	46.69
227.621	31.69
227.856	44.69
228.09	35.69
228.324	59.69
228.559	55.69
228.793	47.69
229.027	71.69
229.262	69.69
229.496	70.69
229.73	89.69
229.964	68.69
230.199	76.69
230.433	79.69
230.667	83.69
230.901	85.69
231.136	70.69
231.37	61.69
231.604	68.69
231.838	70.69
232.072	82.69
232.306	77.69
232.541	85.69
232.775	80.69
233.009	78.69
233.243	79.69
233.477	81.69
233.711	83.69
233.945	84.69
234.179	79.69
234.413	79.69
234.647	80.69
234.881	76.69
235.115	82.69
235.349	78.69
235.583	75.69
235.817	90.69
236.051	80.69
236.285	71.69
236.519	70.69
236.753	80.69
236.987	72.69
237.221	80.69
237.455	82.69
237.689	69.69
237.922	92.69
238.156	90.69
238.39	83.69
238.624	81.69
238.858	85.69
239.091	91.69
239.325	66.69
239.559	81.69
239.793	70.69
240.027	78.69
240.26	82.69
240.494	75.69
240.728	73.69
240.961	85.69
241.195	79.69
241.429	80.69
241.662	78.69
241.896	95.69
242.13	79.69
242.363	92.69
242.597	70.69
242.83	62.69
243.064	84.69
243.298	76.69
243.531	91.69
243.765	78.69
243.998	91.69
244.232	81.69
244.465	78.69
244.699	65.69
244.932	76.69
245.166	80.69
245.399	63.69
245.633	86.69
245.866	76.69
246.099	60.69
246.333	78.69
246.566	81.69
246.8	78.69
247.033	68.69
247.266	84.69
247.5	85.69
247.733	81.69
247.966	64.69
248.2	71.69
248.433	84.69
248.666	88.69
248.899	86.69
249.133	85.69
249.366	82.69
249.599	80.69
249.832	87.69
250.066	90.69
250.299	67.69
250.532	77.69
250.765	73.69
250.998	72.69
251.231	76.69
251.465	94.69
251.698	76.69
251.931	69.69
252.164	76.69
252.397	69.69
252.63	84.69
252.863	68.69
253.096	68.69
253.329	83.69
253.562	84.69
253.795	88.69
254.028	75.69
254.261	91.69
254.494	91.69
254.727	78.69
254.96	83.69
255.193	74.69
255.426	75.69
255.659	87.69
255.892	83.69
256.124	80.69
256.357	84.69
256.59	72.69
256.823	82.69
257.056	73.69
257.289	77.69
257.521	87.69
257.754	88.69
257.987	63.69
258.22	77.69
258.452	90.69
258.685	71.69
258.918	76.69
259.151	99.69
259.383	81.69
259.616	88.69
259.849	85.69
260.081	77.69
260.314	76.69
260.547	61.69
260.779	90.69
261.012	82.69
261.244	66.69
261.477	79.69
261.71	80.69
261.942	78.69
262.175	73.69
262.407	83.69
262.64	82.69
262.872	69.69
263.105	81.69
263.337	91.69
263.57	80.69
263.802	70.69
264.035	73.69
264.267	62.69
264.499	99.69
264.732	79.69
264.964	68.69
265.197	84.69
265.429	70.69
265.661	79.69
265.894	95.69
266.126	83.69
266.358	82.69
266.591	87.69
266.823	94.69
267.055	87.69
267.287	79.69
267.52	84.69
267.752	87.69
267.984	76.69
268.216	82.69
268.448	80.69
268.681	70.69
268.913	80.69
269.145	69.69
269.377	76.69
269.609	80.69
269.841	75.69
270.073	81.69
270.306	80.69
270.538	89.69
270.77	77.69
271.002	77.69
271.234	79.69
271.466	89.69
271.698	77.69
271.93	97.69
272.162	80.69
272.394	86.69
272.626	75.69
272.858	76.69
273.09	99.69
273.322	78.69
273.553	81.69
273.785	86.69
274.017	92.69
274.249	92.69
274.481	71.69
274.713	74.69
274.945	83.69
275.176	80.69
275.408	90.69
275.64	80.69
275.872	80.69
276.104	78.69
276.335	85.69
276.567	85.69
276.799	71.69
277.031	83.69
277.262	87.69
277.494	79.69
277.726	74.69
277.957	83.69
278.189	82.69
278.421	78.69
278.652	74.69
278.884	84.69
279.115	83.69
279.347	90.69
279.579	90.69
279.81	85.69
280.042	82.69
280.273	79.69
280.505	84.69
280.736	74.69
280.968	80.69
281.199	92.69
281.431	90.69
281.662	75.69
281.894	80.69
282.125	84.69
282.356	81.69
282.588	75.69
282.819	90.69
283.051	76.69
283.282	71.69
283.513	98.69
283.745	88.69
283.976	97.69
284.207	102.69
284.439	84.69
284.67	99.69
284.901	82.69
285.132	76.69
285.364	74.69
285.595	74.69
285.826	88.69
286.057	73.69
286.288	78.69
286.52	78.69
286.751	83.69
286.982	71.69
287.213	86.69
287.444	87.69
287.675	85.69
287.906	94.69
288.138	83.69
288.369	99.69
288.6	92.69
288.831	90.69
289.062	93.69
289.293	98.69
289.524	79.69
289.755	83.69
289.986	70.69
290.217	74.69
290.448	82.69
290.679	91.69
290.91	77.69
291.141	79.69
291.371	77.69
291.602	72.69
291.833	78.69
292.064	76.69
292.295	95.69
292.526	68.69
292.757	90.69
292.987	80.69
293.218	78.69
293.449	77.69
293.68	83.69
293.91	89.69
294.141	90.69
294.372	94.69
294.603	87.69
294.833	73.69
295.064	92.69
295.295	88.69
295.525	82.69
295.756	82.69
295.987	72.69
296.217	69.69
296.448	81.69
296.679	90.69
296.909	94.69
297.14	88.69
297.37	89.69
297.601	85.69
297.831	73.69
298.062	77.69
298.292	77.69
298.523	64.69
298.753	70.69
298.984	88.69
299.214	87.69
299.445	76.69
299.675	89.69
299.905	84.69
300.136	81.69
300.366	81.69
300.597	85.69
300.827	77.69
301.057	78.69
301.288	99.69
301.518	86.69
301.748	94.69
301.979	92.69
302.209	81.69
302.439	76.69
302.669	84.69
302.9	83.69
303.13	76.69
303.36	92.69
303.59	84.69
303.82	90.69
304.051	92.69
304.281	83.69
304.511	82.69
304.741	98.69
304.971	81.69
305.201	86.69
305.431	82.69
305.661	79.69
305.891	96.69
306.121	88.69
306.352	83.69
306.582	68.69
306.812	93.69
307.042	70.69
307.272	73.69
307.502	80.69
307.731	88.69
307.961	91.69
308.191	85.69
308.421	75.69
308.651	94.69
308.881	84.69
309.111	105.69
309.341	73.69
309.571	82.69
309.8	89.69
310.03	77.69
310.26	63.69
310.49	99.69
310.72	67.69
310.949	91.69
311.179	83.69
311.409	84.69
311.639	95.69
311.868	85.69
312.098	75.69
312.328	91.69
312.557	93.69
312.787	77.69
313.017	78.69
313.246	96.69
313.476	83.69
313.706	98.69
313.935	102.69
314.165	89.69
314.394	86.69
314.624	67.69
314.853	83.69
315.083	82.69
315.312	82.69
315.542	78.69
315.771	84.69
316.001	71.69
316.23	65.69
316.46	92.69
316.689	94.69
316.919	84.69
317.148	106.69
317.377	83.69
317.607	91.69
317.836	79.69
318.065	82.69
318.295	90.69
318.524	91.69
318.753	77.69
318.983	74.69
319.212	79.69
319.441	69.69
319.67	88.69
319.9	96.69
320.129	78.69
320.358	82.69
320.587	86.69
320.816	68.69
321.046	71.69
321.275	82.69
321.504	86.69
321.733	96.69
321.962	89.69
322.191	89.69
322.42	86.69
322.649	91.69
322.878	85.69
323.108	88.69
323.337	86.69
323.566	83.69
323.795	90.69
324.024	78.69
324.253	76.69
324.482	85.69
324.71	79.69
324.939	92.69
325.168	84.69
325.397	85.69
325.626	85.69
325.855	76.69
326.084	80.69
326.313	82.69
326.542	89.69
326.77	78.69
326.999	79.69
327.228	90.69
327.457	91.69
327.686	87.69
327.914	85.69
328.143	105.69
328.372	92.69
328.6	74.69
328.829	97.69
329.058	90.69
329.287	88.69
329.515	81.69
329.744	95.69
329.972	91.69
330.201	86.69
330.43	83.69
330.658	84.69
330.887	80.69
331.115	93.69
331.344	88.69
331.572	83.69
331.801	90.69
332.03	85.69
332.258	75.69
332.486	88.69
332.715	80.69
332.943	76.69
333.172	88.69
333.4	84.69
333.629	87.69
333.857	77.69
334.085	93.69
334.314	85.69
334.542	91.69
334.771	81.69
334.999	89.69
335.227	78.69
335.455	71.69
335.684	90.69
335.912	83.69
336.14	82.69
336.369	90.69
336.597	89.69
336.825	82.69
337.053	80.69
337.281	88.69
337.51	87.69
337.738	73.69
337.966	76.69
338.194	82.69
338.422	89.69
338.65	98.69
338.878	88.69
339.106	98.69
339.334	86.69
339.562	76.69
339.79	91.69
340.018	85.69
340.246	86.69
340.474	83.69
340.702	89.69
340.93	90.69
341.158	86.69
341.386	84.69
341.614	91.69
341.842	75.69
342.07	75.69
342.298	76.69
342.526	84.69
342.754	78.69
342.981	82.69
343.209	84.69
343.437	78.69
343.665	68.69
343.893	89.69
344.12	74.69
344.348	93.69
344.576	83.69
344.804	66.69
345.031	72.69
345.259	77.69
345.487	70.69
345.714	88.69
345.942	78.69
346.17	81.69
346.397	95.69
346.625	82.69
346.853	81.69
347.08	67.69
347.308	84.69
347.535	81.69
347.763	81.69
347.99	104.69
348.218	86.69
348.445	71.69
348.673	94.69
348.9	79.69
349.128	76.69
349.355	86.69
349.583	80.69
349.81	80.69
350.037	81.69
350.265	93.69
350.492	76.69
350.72	77.69
350.947	88.69
351.174	74.69
351.402	83.69
351.629	81.69
351.856	61.69
352.083	80.69
352.311	78.69
352.538	85.69
352.765	91.69
352.992	95.69
353.22	85.69
353.447	83.69
353.674	88.69
353.901	89.69
354.128	94.69
354.355	71.69
354.583	95.69
354.81	95.69
355.037	104.69
355.264	83.69
355.491	98.69
355.718	92.69
355.945	69.69
356.172	80.69
356.399	85.69
356.626	79.69
356.853	74.69
357.08	96.69
357.307	88.69
357.534	65.69
357.761	88.69
357.988	93.69
358.215	74.69
358.441	84.69
358.668	85.69
358.895	74.69
359.122	87.69
359.349	75.69
359.576	81.69
359.802	108.69
360.029	73.69
360.256	80.69
360.483	82.69
360.709	71.69
360.936	92.69
361.163	86.69
361.39	78.69
361.616	82.69
361.843	96.69
362.07	73.69
362.296	85.69
362.523	70.69
362.749	84.69
362.976	71.69
363.203	89.69
363.429	70.69
363.656	86.69
363.882	85.69
364.109	80.69
364.335	86.69
364.562	81.69
364.788	79.69
365.015	74.69
365.241	82.69
365.468	85.69
365.694	70.69
365.92	84.69
366.147	73.69
366.373	83.69
366.599	86.69
366.826	88.69
367.052	88.69
367.278	85.69
367.505	83.69
367.731	93.69
367.957	79.69
368.184	82.69
368.41	92.69
368.636	66.69
368.862	78.69
369.089	78.69
369.315	73.69
369.541	81.69
369.767	93.69
369.993	82.69
370.219	84.69
370.445	78.69
370.672	84.69
370.898	76.69
371.124	95.69
371.35	77.69
371.576	77.69
371.802	87.69
372.028	70.69
372.254	93.69
372.48	82.69
372.706	95.69
372.932	88.69
373.158	83.69
373.384	74.69
373.61	74.69
373.835	85.69
374.061	85.69
374.287	81.69
374.513	91.69
374.739	100.69
374.965	73.69
375.191	80.69
375.416	76.69
375.642	87.69
375.868	81.69
376.094	88.69
376.319	70.69
376.545	84.69
376.771	89.69
376.997	89.69
377.222	86.69
377.448	88.69
377.674	77.69
377.899	69.69
378.125	76.69
378.35	78.69
378.576	86.69
378.802	80.69
379.027	71.69
379.253	84.69
379.478	69.69
379.704	77.69
379.929	92.69
380.155	100.69
380.38	73.69
380.606	80.69
380.831	78.69
381.057	73.69
381.282	78.69
381.507	92.69
381.733	80.69
381.958	80.69
382.184	81.69
382.409	73.69
382.634	83.69
382.86	80.69
383.085	78.69
383.31	77.69
383.535	82.69
383.761	84.69
383.986	78.69
384.211	75.69
384.436	81.69
384.662	68.69
384.887	90.69
385.112	71.69
385.337	84.69
385.562	85.69
385.787	77.69
386.013	82.69
386.238	80.69
386.463	88.69
386.688	110.69
386.913	90.69
387.138	94.69
387.363	89.69
387.588	82.69
387.813	76.69
388.038	84.69
388.263	100.69
388.488	69.69
388.713	84.69
388.938	74.69
389.163	78.69
389.387	73.69
389.612	97.69
389.837	81.69
390.062	93.69
390.287	80.69
390.512	76.69
390.736	88.69
390.961	85.69
391.186	80.69
391.411	88.69
391.636	75.69
391.86	92.69
392.085	70.69
392.31	79.69
392.534	76.69
392.759	74.69
392.984	82.69
393.208	74.69
393.433	90.69
393.658	82.69
393.882	79.69
394.107	77.69
394.331	76.69
394.556	84.69
394.78	88.69
395.005	102.69
395.229	72.69
395.454	84.69
395.678	73.69
395.903	80.69
396.127	72.69
396.352	87.69
396.576	68.69
396.801	81.69
397.025	73.69
397.249	92.69
397.474	75.69
397.698	95.69
397.922	76.69
398.147	91.69
398.371	77.69
398.595	83.69
398.82	78.69
399.044	68.69
399.268	84.69
399.492	68.69
399.717	79.69
399.941	85.69
400.165	85.69
400.389	79.69
400.613	81.69
400.837	65.69
401.062	84.69
401.286	96.69
401.51	74.69
401.734	100.69
401.958	72.69
402.182	91.69
402.406	80.69
402.63	83.69
402.854	91.69
403.078	77.69
403.302	88.69
403.526	70.69
403.75	90.69
403.974	77.69
404.198	83.69
404.422	87.69
404.645	86.69
404.869	94.69
405.093	82.69
405.317	86.69
405.541	91.69
405.765	89.69
405.988	102.69
406.212	71.69
406.436	76.69
406.66	82.69
406.883	90.69
407.107	77.69
407.331	82.69
407.555	80.69
407.778	76.69
408.002	82.69
408.226	75.69
408.449	82.69
408.673	84.69
408.896	86.69
409.12	77.69
409.344	87.69
409.567	73.69
409.791	92.69
410.014	74.69
410.238	83.69
410.461	84.69
410.685	82.69
410.908	76.69
411.132	87.69
411.355	78.69
411.578	85.69
411.802	83.69
412.025	77.69
412.249	73.69
412.472	76.69
412.695	72.69
412.919	75.69
413.142	89.69
413.365	90.69
413.589	89.69
413.812	78.69
414.035	81.69
414.258	90.69
414.482	87.69
414.705	85.69
414.928	80.69
415.151	74.69
415.374	85.69
415.597	68.69
415.821	82.69
416.044	89.69
416.267	80.69
416.49	84.69
416.713	73.69
416.936	95.69
417.159	80.69
417.382	79.69
417.605	80.69
417.828	71.69
418.051	66.69
418.274	75.69
418.497	81.69
418.72	86.69
418.943	94.69
419.166	66.69
419.389	70.69
419.611	82.69
419.834	70.69
420.057	84.69
420.28	86.69
420.503	79.69
420.726	67.69
420.948	74.69
421.171	79.69
421.394	70.69
421.617	72.69
421.839	80.69
422.062	85.69
422.285	78.69
422.507	78.69
422.73	72.69
422.953	79.69
423.175	82.69
423.398	75.69
423.621	90.69
423.843	85.69
424.066	92.69
424.288	85.69
424.511	80.69
424.733	74.69
424.956	83.69
425.178	94.69
425.401	88.69
425.623	87.69
425.846	88.69
426.068	74.69
426.291	85.69
426.513	80.69
426.735	71.69
426.958	85.69
427.18	72.69
427.402	89.69
427.625	73.69
427.847	80.69
428.069	91.69
428.292	82.69
428.514	80.69
428.736	69.69
428.958	88.69
429.181	81.69
429.403	75.69
429.625	77.69
429.847	79.69
430.069	83.69
430.292	81.69
430.514	85.69
430.736	88.69
430.958	92.69
431.18	87.69
431.402	88.69
431.624	84.69
431.846	90.69
432.068	90.69
432.29	77.69
432.512	77.69
432.734	68.69
432.956	81.69
433.178	94.69
433.4	74.69
433.622	67.69
433.844	83.69
434.066	78.69
434.287	81.69
434.509	77.69
434.731	81.69
434.953	79.69
435.175	78.69
435.397	83.69
435.618	94.69
435.84	83.69
436.062	86.69
436.284	84.69
436.505	97.69
436.727	64.69
436.949	63.69
437.17	77.69
437.392	88.69
437.614	84.69
437.835	76.69
438.057	94.69
438.278	93.69
438.5	85.69
438.721	74.69
438.943	86.69
439.165	84.69
439.386	70.69
439.608	81.69
439.829	89.69
440.05	85.69
440.272	82.69
440.493	77.69
440.715	55.69
440.936	94.69
441.158	81.69
441.379	86.69
441.6	65.69
441.822	79.69
442.043	76.69
442.264	94.69
442.486	92.69
442.707	82.69
442.928	84.69
443.149	77.69
443.371	89.69
443.592	77.69
443.813	58.69
444.034	78.69
444.255	76.69
444.476	84.69
444.698	76.69
444.919	90.69
445.14	153.69
445.361	116.69
445.582	91.69
445.803	70.69
446.024	77.69
446.245	84.69
446.466	82.69
446.687	76.69
446.908	79.69
447.129	89.69
447.35	78.69
447.571	84.69
447.792	80.69
448.013	77.69
448.234	99.69
448.455	92.69
448.675	66.69
448.896	83.69
449.117	80.69
449.338	78.69
449.559	79.69
449.779	84.69
450	74.69
450.221	85.69
450.442	80.69
450.662	85.69
450.883	62.69
451.104	96.69
451.324	84.69
451.545	77.69
451.766	83.69
451.986	85.69
452.207	80.69
452.428	84.69
452.648	74.69
452.869	83.69
453.089	70.69
453.31	78.69
453.53	83.69
453.751	86.69
453.971	70.69
454.192	83.69
454.412	79.69
454.633	99.69
454.853	90.69
455.073	88.69
455.294	80.69
455.514	79.69
455.734	92.69
455.955	86.69
456.175	85.69
456.395	86.69
456.616	70.69
456.836	79.69
457.056	84.69
457.276	80.69
457.497	84.69
457.717	77.69
457.937	75.69
458.157	89.69
458.377	85.69
458.598	85.69
458.818	76.69
459.038	89.69
459.258	75.69
459.478	75.69
459.698	93.69
459.918	91.69
460.138	75.69
460.358	77.69
460.578	100.69
460.798	82.69
461.018	77.69
461.238	79.69
461.458	79.69
461.678	82.69
461.898	81.69
462.118	82.69
462.338	76.69
462.558	74.69
462.777	86.69
462.997	69.69
463.217	86.69
463.437	89.69
463.657	80.69
463.876	92.69
464.096	92.69
464.316	84.69
464.536	79.69
464.755	75.69
464.975	76.69
465.195	94.69
465.414	83.69
465.634	73.69
465.854	82.69
466.073	92.69
466.293	75.69
466.512	70.69
466.732	96.69
466.951	80.69
467.171	85.69
467.391	79.69
467.61	80.69
467.829	75.69
468.049	79.69
468.268	61.69
468.488	67.69
468.707	78.69
468.927	82.69
469.146	69.69
469.365	76.69
469.585	85.69
469.804	67.69
470.023	89.69
470.243	83.69
470.462	82.69
470.681	79.69
470.901	91.69
471.12	80.69
471.339	63.69
471.558	92.69
471.777	83.69
471.997	70.69
472.216	87.69
472.435	72.69
472.654	76.69
472.873	85.69
473.092	86.69
473.311	88.69
473.53	90.69
473.749	85.69
473.968	83.69
474.187	86.69
474.406	70.69
474.625	72.69
474.844	84.69
475.063	89.69
475.282	77.69
475.501	80.69
475.72	81.69
475.939	79.69
476.158	80.69
476.377	66.69
476.596	79.69
476.814	83.69
477.033	88.69
477.252	68.69
477.471	85.69
477.69	83.69
477.908	78.69
478.127	82.69
478.346	82.69
478.564	83.69
478.783	82.69
479.002	72.69
479.22	82.69
479.439	80.69
479.658	89.69
479.876	91.69
480.095	74.69
480.313	67.69
480.532	60.69
480.751	67.69
480.969	70.69
481.188	86.69
481.406	77.69
481.624	77.69
481.843	84.69
482.061	84.69
482.28	67.69
482.498	83.69
482.717	83.69
482.935	78.69
483.153	90.69
483.372	99.69
483.59	79.69
483.808	79.69
484.027	89.69
484.245	69.69
484.463	72.69
484.681	90.69
484.9	82.69
485.118	84.69
485.336	79.69
485.554	80.69
485.772	91.69
485.99	80.69
486.209	80.69
486.427	75.69
486.645	84.69
486.863	86.69
487.081	76.69
487.299	91.69
487.517	87.69
487.735	80.69
487.953	71.69
488.171	65.69
488.389	85.69
488.607	84.69
488.825	83.69
489.043	86.69
489.261	97.69
489.479	64.69
489.696	79.69
489.914	87.69
490.132	80.69
490.35	75.69
490.568	88.69
490.786	103.69
491.003	65.69
491.221	86.69
491.439	80.69
491.657	77.69
491.874	71.69
492.092	72.69
492.31	78.69
492.527	76.69
492.745	85.69
492.963	81.69
493.18	85.69
493.398	70.69
493.615	86.69
493.833	92.69
494.05	81.69
494.268	78.69
494.485	88.69
494.703	84.69
494.92	91.69
495.138	84.69
495.355	93.69
495.573	78.69
495.79	80.69
496.008	67.69
496.225	77.69
496.442	85.69
496.66	89.69
496.877	81.69
497.094	79.69
497.312	78.69
497.529	88.69
497.746	76.69
497.963	73.69
498.181	87.69
498.398	85.69
498.615	74.69
498.832	83.69
499.049	89.69
499.267	79.69
499.484	65.69
499.701	72.69
499.918	78.69
500.135	70.69
500.352	74.69
500.569	87.69
500.786	89.69
501.003	93.69
501.22	85.69
501.437	91.69
501.654	78.69
501.871	75.69
502.088	80.69
502.305	75.69
502.522	83.69
502.739	78.69
502.956	88.69
503.172	77.69
503.389	81.69
503.606	79.69
503.823	72.69
504.04	88.69
504.256	86.69
504.473	74.69
504.69	87.69
504.907	67.69
505.123	93.69
505.34	82.69
505.557	88.69
505.773	74.69
505.99	71.69
506.207	92.69
506.423	82.69
506.64	81.69
506.856	63.69
507.073	88.69
507.289	83.69
507.506	69.69
507.722	84.69
507.939	85.69
508.155	87.69
508.372	76.69
508.588	82.69
508.805	70.69
509.021	84.69
509.238	79.69
509.454	80.69
509.67	81.69
509.887	86.69
510.103	80.69
510.319	75.69
510.536	73.69
510.752	80.69
510.968	86.69
511.184	85.69
511.401	78.69
511.617	62.69
511.833	84.69
512.049	75.69
512.265	83.69
512.481	83.69
512.698	90.69
512.914	84.69
513.13	81.69
513.346	69.69
513.562	74.69
513.778	84.69
513.994	86.69
514.21	81.69
514.426	81.69
514.642	91.69
514.858	92.69
515.074	89.69
515.29	81.69
515.506	78.69
515.721	84.69
515.937	81.69
516.153	74.69
516.369	105.69
516.585	90.69
516.801	81.69
517.016	88.69
517.232	72.69
517.448	75.69
517.664	82.69
517.879	89.69
518.095	80.69
518.311	88.69
518.527	94.69
518.742	89.69
518.958	85.69
519.173	89.69
519.389	80.69
519.605	92.69
519.82	75.69
520.036	85.69
