Data from Background_1_HRD10591_00013.txt Node
Date: Wed Nov 05 14:39:04 EST 2025
User: Yrep
Spectrometer: HR+D1059
Trigger mode: 1
Integration Time (sec): 1.000000E-1
Scans to average: 1
Electric dark correction enabled: true
Nonlinearity correction enabled: false
Boxcar width: 0
XAxis mode: Wavelengths
Number of Pixels in Spectrum: 2048
>>>>>Begin Spectral Data<<<<<
223.165	-16.44
223.4	-16.44
223.635	-16.44
223.869	-6.44
224.104	-16.44
224.338	-26.44
224.573	-8.44
224.808	-16.44
225.042	-9.44
225.277	2.56
225.511	-11.44
225.746	6.56
225.98	12.56
226.215	19.56
226.449	15.56
226.683	11.56
226.918	26.56
227.152	16.56
227.387	31.56
227.621	40.56
227.856	40.56
228.09	38.56
228.324	45.56
228.559	50.56
228.793	70.56
229.027	64.56
229.262	58.56
229.496	64.56
229.73	65.56
229.964	81.56
230.199	56.56
230.433	72.56
230.667	71.56
230.901	71.56
231.136	80.56
231.37	71.56
231.604	75.56
231.838	81.56
232.072	75.56
232.306	81.56
232.541	75.56
232.775	80.56
233.009	89.56
233.243	80.56
233.477	64.56
233.711	75.56
233.945	79.56
234.179	77.56
234.413	96.56
234.647	79.56
234.881	75.56
235.115	77.56
235.349	67.56
235.583	87.56
235.817	68.56
236.051	66.56
236.285	75.56
236.519	76.56
236.753	73.56
236.987	71.56
237.221	79.56
237.455	56.56
237.689	75.56
237.922	71.56
238.156	72.56
238.39	61.56
238.624	79.56
238.858	71.56
239.091	89.56
239.325	72.56
239.559	77.56
239.793	72.56
240.027	69.56
240.26	84.56
240.494	76.56
240.728	82.56
240.961	67.56
241.195	78.56
241.429	72.56
241.662	73.56
241.896	65.56
242.13	77.56
242.363	70.56
242.597	79.56
242.83	90.56
243.064	75.56
243.298	63.56
243.531	83.56
243.765	72.56
243.998	60.56
244.232	75.56
244.465	77.56
244.699	78.56
244.932	65.56
245.166	85.56
245.399	76.56
245.633	61.56
245.866	71.56
246.099	75.56
246.333	65.56
246.566	78.56
246.8	69.56
247.033	76.56
247.266	77.56
247.5	73.56
247.733	65.56
247.966	77.56
248.2	86.56
248.433	82.56
248.666	74.56
248.899	92.56
249.133	79.56
249.366	81.56
249.599	82.56
249.832	89.56
250.066	75.56
250.299	66.56
250.532	85.56
250.765	87.56
250.998	73.56
251.231	86.56
251.465	71.56
251.698	72.56
251.931	71.56
252.164	87.56
252.397	81.56
252.63	69.56
252.863	75.56
253.096	87.56
253.329	88.56
253.562	92.56
253.795	64.56
254.028	83.56
254.261	74.56
254.494	78.56
254.727	78.56
254.96	71.56
255.193	74.56
255.426	82.56
255.659	71.56
255.892	78.56
256.124	79.56
256.357	74.56
256.59	78.56
256.823	77.56
257.056	96.56
257.289	80.56
257.521	75.56
257.754	88.56
257.987	65.56
258.22	65.56
258.452	64.56
258.685	74.56
258.918	68.56
259.151	89.56
259.383	57.56
259.616	69.56
259.849	76.56
260.081	80.56
260.314	80.56
260.547	80.56
260.779	88.56
261.012	91.56
261.244	85.56
261.477	91.56
261.71	78.56
261.942	76.56
262.175	79.56
262.407	75.56
262.64	97.56
262.872	73.56
263.105	82.56
263.337	75.56
263.57	77.56
263.802	71.56
264.035	74.56
264.267	81.56
264.499	80.56
264.732	95.56
264.964	81.56
265.197	71.56
265.429	76.56
265.661	95.56
265.894	73.56
266.126	58.56
266.358	73.56
266.591	77.56
266.823	86.56
267.055	74.56
267.287	83.56
267.52	75.56
267.752	73.56
267.984	84.56
268.216	83.56
268.448	88.56
268.681	76.56
268.913	62.56
269.145	81.56
269.377	75.56
269.609	84.56
269.841	80.56
270.073	83.56
270.306	71.56
270.538	86.56
270.77	79.56
271.002	78.56
271.234	78.56
271.466	72.56
271.698	75.56
271.93	75.56
272.162	69.56
272.394	84.56
272.626	73.56
272.858	88.56
273.09	90.56
273.322	71.56
273.553	65.56
273.785	84.56
274.017	71.56
274.249	79.56
274.481	73.56
274.713	77.56
274.945	90.56
275.176	99.56
275.408	77.56
275.64	84.56
275.872	81.56
276.104	65.56
276.335	95.56
276.567	98.56
276.799	88.56
277.031	72.56
277.262	69.56
277.494	89.56
277.726	77.56
277.957	80.56
278.189	73.56
278.421	83.56
278.652	83.56
278.884	78.56
279.115	84.56
279.347	75.56
279.579	85.56
279.81	88.56
280.042	86.56
280.273	71.56
280.505	75.56
280.736	75.56
280.968	79.56
281.199	73.56
281.431	66.56
281.662	81.56
281.894	71.56
282.125	66.56
282.356	76.56
282.588	85.56
282.819	73.56
283.051	73.56
283.282	83.56
283.513	76.56
283.745	80.56
283.976	74.56
284.207	75.56
284.439	81.56
284.67	80.56
284.901	69.56
285.132	72.56
285.364	89.56
285.595	86.56
285.826	65.56
286.057	83.56
286.288	94.56
286.52	104.56
286.751	76.56
286.982	76.56
287.213	73.56
287.444	89.56
287.675	75.56
287.906	88.56
288.138	103.56
288.369	86.56
288.6	87.56
288.831	64.56
289.062	79.56
289.293	71.56
289.524	78.56
289.755	80.56
289.986	78.56
290.217	81.56
290.448	70.56
290.679	71.56
290.91	91.56
291.141	74.56
291.371	82.56
291.602	81.56
291.833	74.56
292.064	70.56
292.295	81.56
292.526	77.56
292.757	65.56
292.987	90.56
293.218	67.56
293.449	65.56
293.68	74.56
293.91	76.56
294.141	80.56
294.372	71.56
294.603	75.56
294.833	76.56
295.064	75.56
295.295	84.56
295.525	78.56
295.756	68.56
295.987	66.56
296.217	85.56
296.448	80.56
296.679	89.56
296.909	85.56
297.14	79.56
297.37	88.56
297.601	81.56
297.831	87.56
298.062	89.56
298.292	71.56
298.523	80.56
298.753	88.56
298.984	76.56
299.214	88.56
299.445	78.56
299.675	72.56
299.905	83.56
300.136	79.56
300.366	55.56
300.597	69.56
300.827	83.56
301.057	68.56
301.288	81.56
301.518	83.56
301.748	83.56
301.979	103.56
302.209	83.56
302.439	91.56
302.669	73.56
302.9	79.56
303.13	76.56
303.36	88.56
303.59	76.56
303.82	68.56
304.051	76.56
304.281	80.56
304.511	91.56
304.741	83.56
304.971	84.56
305.201	72.56
305.431	83.56
305.661	74.56
305.891	77.56
306.121	77.56
306.352	79.56
306.582	75.56
306.812	79.56
307.042	76.56
307.272	92.56
307.502	65.56
307.731	77.56
307.961	82.56
308.191	88.56
308.421	71.56
308.651	87.56
308.881	69.56
309.111	85.56
309.341	71.56
309.571	76.56
309.8	75.56
310.03	85.56
310.26	87.56
310.49	70.56
310.72	87.56
310.949	71.56
311.179	90.56
311.409	89.56
311.639	85.56
311.868	71.56
312.098	71.56
312.328	85.56
312.557	73.56
312.787	87.56
313.017	87.56
313.246	100.56
313.476	85.56
313.706	77.56
313.935	74.56
314.165	83.56
314.394	71.56
314.624	83.56
314.853	81.56
315.083	76.56
315.312	73.56
315.542	71.56
315.771	72.56
316.001	75.56
316.23	73.56
316.46	69.56
316.689	82.56
316.919	87.56
317.148	79.56
317.377	80.56
317.607	85.56
317.836	91.56
318.065	88.56
318.295	74.56
318.524	75.56
318.753	86.56
318.983	85.56
319.212	87.56
319.441	83.56
319.67	80.56
319.9	89.56
320.129	77.56
320.358	81.56
320.587	82.56
320.816	82.56
321.046	73.56
321.275	88.56
321.504	89.56
321.733	84.56
321.962	89.56
322.191	92.56
322.42	75.56
322.649	62.56
322.878	84.56
323.108	68.56
323.337	76.56
323.566	83.56
323.795	80.56
324.024	73.56
324.253	64.56
324.482	81.56
324.71	85.56
324.939	81.56
325.168	83.56
325.397	88.56
325.626	76.56
325.855	75.56
326.084	82.56
326.313	92.56
326.542	87.56
326.77	84.56
326.999	73.56
327.228	79.56
327.457	94.56
327.686	79.56
327.914	90.56
328.143	91.56
328.372	68.56
328.6	72.56
328.829	88.56
329.058	78.56
329.287	79.56
329.515	73.56
329.744	80.56
329.972	72.56
330.201	89.56
330.43	78.56
330.658	69.56
330.887	59.56
331.115	80.56
331.344	87.56
331.572	73.56
331.801	85.56
332.03	62.56
332.258	88.56
332.486	78.56
332.715	73.56
332.943	75.56
333.172	87.56
333.4	83.56
333.629	83.56
333.857	78.56
334.085	86.56
334.314	81.56
334.542	80.56
334.771	77.56
334.999	88.56
335.227	88.56
335.455	81.56
335.684	81.56
335.912	78.56
336.14	87.56
336.369	84.56
336.597	73.56
336.825	75.56
337.053	89.56
337.281	64.56
337.51	95.56
337.738	90.56
337.966	79.56
338.194	80.56
338.422	76.56
338.65	93.56
338.878	90.56
339.106	84.56
339.334	75.56
339.562	80.56
339.79	75.56
340.018	102.56
340.246	83.56
340.474	69.56
340.702	80.56
340.93	73.56
341.158	95.56
341.386	75.56
341.614	96.56
341.842	82.56
342.07	80.56
342.298	75.56
342.526	84.56
342.754	76.56
342.981	71.56
343.209	71.56
343.437	95.56
343.665	78.56
343.893	86.56
344.12	83.56
344.348	79.56
344.576	93.56
344.804	86.56
345.031	79.56
345.259	76.56
345.487	80.56
345.714	77.56
345.942	88.56
346.17	89.56
346.397	81.56
346.625	77.56
346.853	77.56
347.08	86.56
347.308	85.56
347.535	76.56
347.763	80.56
347.99	89.56
348.218	81.56
348.445	73.56
348.673	79.56
348.9	85.56
349.128	72.56
349.355	94.56
349.583	85.56
349.81	80.56
350.037	99.56
350.265	84.56
350.492	89.56
350.72	65.56
350.947	83.56
351.174	85.56
351.402	80.56
351.629	75.56
351.856	88.56
352.083	78.56
352.311	96.56
352.538	70.56
352.765	71.56
352.992	92.56
353.22	57.56
353.447	77.56
353.674	76.56
353.901	89.56
354.128	78.56
354.355	85.56
354.583	84.56
354.81	85.56
355.037	87.56
355.264	80.56
355.491	77.56
355.718	70.56
355.945	75.56
356.172	93.56
356.399	86.56
356.626	68.56
356.853	79.56
357.08	69.56
357.307	79.56
357.534	73.56
357.761	83.56
357.988	92.56
358.215	87.56
358.441	75.56
358.668	83.56
358.895	82.56
359.122	85.56
359.349	76.56
359.576	91.56
359.802	87.56
360.029	76.56
360.256	88.56
360.483	96.56
360.709	84.56
360.936	88.56
361.163	79.56
361.39	75.56
361.616	78.56
361.843	89.56
362.07	89.56
362.296	79.56
362.523	79.56
362.749	81.56
362.976	85.56
363.203	81.56
363.429	90.56
363.656	85.56
363.882	77.56
364.109	79.56
364.335	71.56
364.562	71.56
364.788	103.56
365.015	93.56
365.241	75.56
365.468	95.56
365.694	80.56
365.92	80.56
366.147	70.56
366.373	74.56
366.599	75.56
366.826	74.56
367.052	81.56
367.278	83.56
367.505	79.56
367.731	78.56
367.957	82.56
368.184	62.56
368.41	86.56
368.636	83.56
368.862	84.56
369.089	81.56
369.315	90.56
369.541	75.56
369.767	78.56
369.993	80.56
370.219	76.56
370.445	87.56
370.672	75.56
370.898	74.56
371.124	82.56
371.35	80.56
371.576	79.56
371.802	65.56
372.028	83.56
372.254	84.56
372.48	92.56
372.706	76.56
372.932	77.56
373.158	82.56
373.384	79.56
373.61	83.56
373.835	88.56
374.061	87.56
374.287	83.56
374.513	58.56
374.739	85.56
374.965	73.56
375.191	90.56
375.416	80.56
375.642	83.56
375.868	109.56
376.094	72.56
376.319	88.56
376.545	89.56
376.771	84.56
376.997	76.56
377.222	69.56
377.448	89.56
377.674	71.56
377.899	81.56
378.125	80.56
378.35	85.56
378.576	83.56
378.802	77.56
379.027	64.56
379.253	91.56
379.478	78.56
379.704	83.56
379.929	89.56
380.155	76.56
380.38	79.56
380.606	86.56
380.831	89.56
381.057	96.56
381.282	78.56
381.507	81.56
381.733	74.56
381.958	84.56
382.184	74.56
382.409	87.56
382.634	80.56
382.86	85.56
383.085	95.56
383.31	73.56
383.535	77.56
383.761	82.56
383.986	77.56
384.211	77.56
384.436	76.56
384.662	80.56
384.887	92.56
385.112	76.56
385.337	92.56
385.562	78.56
385.787	73.56
386.013	77.56
386.238	76.56
386.463	76.56
386.688	89.56
386.913	70.56
387.138	85.56
387.363	92.56
387.588	71.56
387.813	78.56
388.038	86.56
388.263	85.56
388.488	83.56
388.713	89.56
388.938	66.56
389.163	77.56
389.387	84.56
389.612	79.56
389.837	73.56
390.062	90.56
390.287	87.56
390.512	79.56
390.736	76.56
390.961	76.56
391.186	71.56
391.411	68.56
391.636	71.56
391.86	59.56
392.085	73.56
392.31	86.56
392.534	80.56
392.759	74.56
392.984	80.56
393.208	84.56
393.433	63.56
393.658	68.56
393.882	65.56
394.107	76.56
394.331	79.56
394.556	82.56
394.78	91.56
395.005	69.56
395.229	80.56
395.454	72.56
395.678	84.56
395.903	74.56
396.127	71.56
396.352	66.56
396.576	63.56
396.801	69.56
397.025	86.56
397.249	74.56
397.474	93.56
397.698	79.56
397.922	85.56
398.147	79.56
398.371	80.56
398.595	78.56
398.82	73.56
399.044	79.56
399.268	84.56
399.492	81.56
399.717	83.56
399.941	66.56
400.165	69.56
400.389	75.56
400.613	57.56
400.837	83.56
401.062	73.56
401.286	70.56
401.51	79.56
401.734	64.56
401.958	79.56
402.182	72.56
402.406	83.56
402.63	79.56
402.854	75.56
403.078	69.56
403.302	75.56
403.526	81.56
403.75	91.56
403.974	71.56
404.198	84.56
404.422	91.56
404.645	83.56
404.869	84.56
405.093	82.56
405.317	83.56
405.541	81.56
405.765	79.56
405.988	63.56
406.212	73.56
406.436	71.56
406.66	69.56
406.883	74.56
407.107	74.56
407.331	75.56
407.555	81.56
407.778	79.56
408.002	75.56
408.226	65.56
408.449	86.56
408.673	78.56
408.896	79.56
409.12	84.56
409.344	73.56
409.567	88.56
409.791	62.56
410.014	64.56
410.238	93.56
410.461	96.56
410.685	83.56
410.908	93.56
411.132	74.56
411.355	73.56
411.578	84.56
411.802	77.56
412.025	83.56
412.249	66.56
412.472	77.56
412.695	83.56
412.919	80.56
413.142	85.56
413.365	86.56
413.589	80.56
413.812	84.56
414.035	67.56
414.258	93.56
414.482	73.56
414.705	79.56
414.928	88.56
415.151	91.56
415.374	82.56
415.597	77.56
415.821	83.56
416.044	64.56
416.267	81.56
416.49	92.56
416.713	65.56
416.936	92.56
417.159	85.56
417.382	79.56
417.605	73.56
417.828	81.56
418.051	88.56
418.274	86.56
418.497	73.56
418.72	71.56
418.943	73.56
419.166	77.56
419.389	79.56
419.611	77.56
419.834	79.56
420.057	75.56
420.28	71.56
420.503	61.56
420.726	68.56
420.948	74.56
421.171	85.56
421.394	79.56
421.617	72.56
421.839	73.56
422.062	81.56
422.285	66.56
422.507	66.56
422.73	97.56
422.953	67.56
423.175	72.56
423.398	71.56
423.621	102.56
423.843	73.56
424.066	73.56
424.288	73.56
424.511	87.56
424.733	95.56
424.956	88.56
425.178	71.56
425.401	75.56
425.623	78.56
425.846	80.56
426.068	89.56
426.291	71.56
426.513	77.56
426.735	72.56
426.958	79.56
427.18	85.56
427.402	57.56
427.625	91.56
427.847	92.56
428.069	76.56
428.292	69.56
428.514	79.56
428.736	71.56
428.958	89.56
429.181	84.56
429.403	77.56
429.625	83.56
429.847	53.56
430.069	65.56
430.292	81.56
430.514	73.56
430.736	79.56
430.958	88.56
431.18	93.56
431.402	64.56
431.624	68.56
431.846	73.56
432.068	78.56
432.29	81.56
432.512	80.56
432.734	83.56
432.956	80.56
433.178	88.56
433.4	72.56
433.622	99.56
433.844	67.56
434.066	72.56
434.287	73.56
434.509	79.56
434.731	64.56
434.953	73.56
435.175	78.56
435.397	88.56
435.618	100.56
435.84	67.56
436.062	71.56
436.284	90.56
436.505	87.56
436.727	77.56
436.949	73.56
437.17	81.56
437.392	64.56
437.614	67.56
437.835	79.56
438.057	79.56
438.278	76.56
438.5	90.56
438.721	70.56
438.943	85.56
439.165	81.56
439.386	71.56
439.608	77.56
439.829	75.56
440.05	73.56
440.272	74.56
440.493	85.56
440.715	83.56
440.936	82.56
441.158	78.56
441.379	88.56
441.6	78.56
441.822	68.56
442.043	93.56
442.264	92.56
442.486	72.56
442.707	75.56
442.928	75.56
443.149	91.56
443.371	97.56
443.592	81.56
443.813	64.56
444.034	74.56
444.255	85.56
444.476	68.56
444.698	80.56
444.919	79.56
445.14	126.56
445.361	95.56
445.582	81.56
445.803	72.56
446.024	77.56
446.245	83.56
446.466	83.56
446.687	74.56
446.908	92.56
447.129	85.56
447.35	71.56
447.571	88.56
447.792	71.56
448.013	83.56
448.234	72.56
448.455	61.56
448.675	71.56
448.896	85.56
449.117	83.56
449.338	80.56
449.559	69.56
449.779	79.56
450	85.56
450.221	69.56
450.442	65.56
450.662	62.56
450.883	66.56
451.104	78.56
451.324	79.56
451.545	95.56
451.766	82.56
451.986	71.56
452.207	81.56
452.428	82.56
452.648	75.56
452.869	69.56
453.089	62.56
453.31	75.56
453.53	79.56
453.751	74.56
453.971	63.56
454.192	75.56
454.412	76.56
454.633	86.56
454.853	81.56
455.073	86.56
455.294	83.56
455.514	83.56
455.734	85.56
455.955	73.56
456.175	76.56
456.395	76.56
456.616	74.56
456.836	65.56
457.056	69.56
457.276	88.56
457.497	83.56
457.717	69.56
457.937	83.56
458.157	82.56
458.377	66.56
458.598	64.56
458.818	73.56
459.038	76.56
459.258	66.56
459.478	86.56
459.698	82.56
459.918	81.56
460.138	80.56
460.358	70.56
460.578	76.56
460.798	80.56
461.018	75.56
461.238	76.56
461.458	72.56
461.678	79.56
461.898	72.56
462.118	79.56
462.338	71.56
462.558	78.56
462.777	78.56
462.997	71.56
463.217	79.56
463.437	71.56
463.657	64.56
463.876	89.56
464.096	81.56
464.316	86.56
464.536	86.56
464.755	74.56
464.975	72.56
465.195	74.56
465.414	74.56
465.634	84.56
465.854	53.56
466.073	78.56
466.293	87.56
466.512	78.56
466.732	79.56
466.951	73.56
467.171	74.56
467.391	86.56
467.61	81.56
467.829	77.56
468.049	69.56
468.268	83.56
468.488	83.56
468.707	75.56
468.927	82.56
469.146	69.56
469.365	78.56
469.585	69.56
469.804	65.56
470.023	77.56
470.243	69.56
470.462	80.56
470.681	83.56
470.901	80.56
471.12	73.56
471.339	85.56
471.558	72.56
471.777	81.56
471.997	83.56
472.216	80.56
472.435	89.56
472.654	74.56
472.873	91.56
473.092	99.56
473.311	85.56
473.53	84.56
473.749	81.56
473.968	81.56
474.187	88.56
474.406	73.56
474.625	92.56
474.844	71.56
475.063	75.56
475.282	77.56
475.501	73.56
475.72	70.56
475.939	81.56
476.158	88.56
476.377	78.56
476.596	61.56
476.814	83.56
477.033	82.56
477.252	70.56
477.471	57.56
477.69	68.56
477.908	68.56
478.127	76.56
478.346	83.56
478.564	86.56
478.783	80.56
479.002	75.56
479.22	63.56
479.439	73.56
479.658	73.56
479.876	80.56
480.095	93.56
480.313	98.56
480.532	85.56
480.751	71.56
480.969	79.56
481.188	73.56
481.406	79.56
481.624	73.56
481.843	76.56
482.061	74.56
482.28	69.56
482.498	71.56
482.717	69.56
482.935	86.56
483.153	78.56
483.372	75.56
483.59	78.56
483.808	81.56
484.027	91.56
484.245	86.56
484.463	66.56
484.681	90.56
484.9	71.56
485.118	75.56
485.336	75.56
485.554	62.56
485.772	72.56
485.99	71.56
486.209	69.56
486.427	88.56
486.645	77.56
486.863	81.56
487.081	84.56
487.299	86.56
487.517	91.56
487.735	87.56
487.953	82.56
488.171	81.56
488.389	83.56
488.607	95.56
488.825	76.56
489.043	80.56
489.261	92.56
489.479	69.56
489.696	99.56
489.914	64.56
490.132	76.56
490.35	83.56
490.568	70.56
490.786	74.56
491.003	76.56
491.221	77.56
491.439	82.56
491.657	61.56
491.874	80.56
492.092	72.56
492.31	81.56
492.527	77.56
492.745	94.56
492.963	72.56
493.18	65.56
493.398	69.56
493.615	71.56
493.833	78.56
494.05	77.56
494.268	66.56
494.485	80.56
494.703	73.56
494.92	82.56
495.138	85.56
495.355	82.56
495.573	80.56
495.79	79.56
496.008	79.56
496.225	89.56
496.442	76.56
496.66	89.56
496.877	71.56
497.094	83.56
497.312	87.56
497.529	92.56
497.746	82.56
497.963	83.56
498.181	73.56
498.398	68.56
498.615	72.56
498.832	71.56
499.049	75.56
499.267	64.56
499.484	71.56
499.701	80.56
499.918	88.56
500.135	84.56
500.352	74.56
500.569	82.56
500.786	85.56
501.003	69.56
501.22	83.56
501.437	77.56
501.654	77.56
501.871	92.56
502.088	67.56
502.305	86.56
502.522	78.56
502.739	80.56
502.956	93.56
503.172	81.56
503.389	84.56
503.606	78.56
503.823	74.56
504.04	68.56
504.256	70.56
504.473	72.56
504.69	77.56
504.907	87.56
505.123	81.56
505.34	78.56
505.557	67.56
505.773	80.56
505.99	85.56
506.207	82.56
506.423	70.56
506.64	82.56
506.856	90.56
507.073	71.56
507.289	81.56
507.506	94.56
507.722	79.56
507.939	80.56
508.155	86.56
508.372	79.56
508.588	87.56
508.805	80.56
509.021	59.56
509.238	70.56
509.454	85.56
509.67	61.56
509.887	80.56
510.103	87.56
510.319	85.56
510.536	86.56
510.752	74.56
510.968	91.56
511.184	91.56
511.401	64.56
511.617	65.56
511.833	77.56
512.049	76.56
512.265	84.56
512.481	92.56
512.698	76.56
512.914	75.56
513.13	72.56
513.346	85.56
513.562	88.56
513.778	88.56
513.994	81.56
514.21	76.56
514.426	92.56
514.642	96.56
514.858	90.56
515.074	68.56
515.29	86.56
515.506	75.56
515.721	74.56
515.937	91.56
516.153	84.56
516.369	82.56
516.585	90.56
516.801	81.56
517.016	84.56
517.232	83.56
517.448	67.56
517.664	90.56
517.879	79.56
518.095	79.56
518.311	89.56
518.527	67.56
518.742	76.56
518.958	65.56
519.173	75.56
519.389	62.56
519.605	75.56
519.82	69.56
520.036	70.56
