Data from Background_1_HRD10591_00066.txt Node
Date: Wed Nov 05 14:39:30 EST 2025
User: Yrep
Spectrometer: HR+D1059
Trigger mode: 1
Integration Time (sec): 1.000000E-1
Scans to average: 1
Electric dark correction enabled: true
Nonlinearity correction enabled: false
Boxcar width: 0
XAxis mode: Wavelengths
Number of Pixels in Spectrum: 2048
>>>>>Begin Spectral Data<<<<<
223.165	-15.94
223.4	-15.94
223.635	-15.94
223.869	-41.94
224.104	-23.94
224.338	-11.94
224.573	-3.94
224.808	-5.94
225.042	-16.94
225.277	-3.94
225.511	-6.94
225.746	4.06
225.98	-2.94
226.215	17.06
226.449	25.06
226.683	28.06
226.918	21.06
227.152	39.06
227.387	34.06
227.621	37.06
227.856	47.06
228.09	48.06
228.324	31.06
228.559	71.06
228.793	64.06
229.027	66.06
229.262	72.06
229.496	61.06
229.73	67.06
229.964	84.06
230.199	76.06
230.433	62.06
230.667	88.06
230.901	87.06
231.136	68.06
231.37	88.06
231.604	92.06
231.838	76.06
232.072	81.06
232.306	100.06
232.541	86.06
232.775	63.06
233.009	89.06
233.243	69.06
233.477	88.06
233.711	78.06
233.945	79.06
234.179	72.06
234.413	78.06
234.647	83.06
234.881	92.06
235.115	77.06
235.349	82.06
235.583	86.06
235.817	88.06
236.051	73.06
236.285	80.06
236.519	73.06
236.753	66.06
236.987	76.06
237.221	69.06
237.455	68.06
237.689	76.06
237.922	84.06
238.156	83.06
238.39	77.06
238.624	76.06
238.858	79.06
239.091	80.06
239.325	74.06
239.559	77.06
239.793	79.06
240.027	82.06
240.26	76.06
240.494	73.06
240.728	63.06
240.961	78.06
241.195	72.06
241.429	84.06
241.662	92.06
241.896	77.06
242.13	63.06
242.363	78.06
242.597	72.06
242.83	79.06
243.064	74.06
243.298	91.06
243.531	81.06
243.765	76.06
243.998	78.06
244.232	79.06
244.465	84.06
244.699	78.06
244.932	76.06
245.166	74.06
245.399	85.06
245.633	88.06
245.866	78.06
246.099	85.06
246.333	79.06
246.566	74.06
246.8	73.06
247.033	95.06
247.266	86.06
247.5	74.06
247.733	88.06
247.966	74.06
248.2	74.06
248.433	89.06
248.666	94.06
248.899	86.06
249.133	70.06
249.366	74.06
249.599	65.06
249.832	72.06
250.066	74.06
250.299	76.06
250.532	70.06
250.765	90.06
250.998	78.06
251.231	85.06
251.465	86.06
251.698	80.06
251.931	84.06
252.164	76.06
252.397	77.06
252.63	88.06
252.863	76.06
253.096	64.06
253.329	75.06
253.562	85.06
253.795	86.06
254.028	76.06
254.261	89.06
254.494	87.06
254.727	93.06
254.96	64.06
255.193	83.06
255.426	69.06
255.659	75.06
255.892	86.06
256.124	78.06
256.357	80.06
256.59	82.06
256.823	80.06
257.056	79.06
257.289	88.06
257.521	78.06
257.754	78.06
257.987	87.06
258.22	78.06
258.452	86.06
258.685	84.06
258.918	77.06
259.151	92.06
259.383	92.06
259.616	85.06
259.849	79.06
260.081	97.06
260.314	78.06
260.547	86.06
260.779	84.06
261.012	75.06
261.244	85.06
261.477	94.06
261.71	82.06
261.942	72.06
262.175	77.06
262.407	86.06
262.64	84.06
262.872	83.06
263.105	75.06
263.337	88.06
263.57	83.06
263.802	87.06
264.035	82.06
264.267	104.06
264.499	94.06
264.732	81.06
264.964	84.06
265.197	96.06
265.429	80.06
265.661	84.06
265.894	80.06
266.126	76.06
266.358	84.06
266.591	83.06
266.823	78.06
267.055	92.06
267.287	70.06
267.52	84.06
267.752	82.06
267.984	82.06
268.216	84.06
268.448	85.06
268.681	82.06
268.913	76.06
269.145	77.06
269.377	97.06
269.609	91.06
269.841	85.06
270.073	84.06
270.306	87.06
270.538	91.06
270.77	82.06
271.002	85.06
271.234	80.06
271.466	86.06
271.698	77.06
271.93	79.06
272.162	81.06
272.394	94.06
272.626	92.06
272.858	87.06
273.09	94.06
273.322	93.06
273.553	80.06
273.785	80.06
274.017	86.06
274.249	94.06
274.481	91.06
274.713	86.06
274.945	77.06
275.176	80.06
275.408	92.06
275.64	63.06
275.872	77.06
276.104	84.06
276.335	104.06
276.567	72.06
276.799	88.06
277.031	73.06
277.262	80.06
277.494	76.06
277.726	88.06
277.957	80.06
278.189	78.06
278.421	88.06
278.652	102.06
278.884	78.06
279.115	68.06
279.347	84.06
279.579	88.06
279.81	72.06
280.042	81.06
280.273	70.06
280.505	92.06
280.736	67.06
280.968	78.06
281.199	79.06
281.431	76.06
281.662	77.06
281.894	81.06
282.125	73.06
282.356	76.06
282.588	87.06
282.819	83.06
283.051	89.06
283.282	73.06
283.513	77.06
283.745	80.06
283.976	86.06
284.207	68.06
284.439	85.06
284.67	89.06
284.901	82.06
285.132	88.06
285.364	93.06
285.595	83.06
285.826	82.06
286.057	88.06
286.288	75.06
286.52	102.06
286.751	90.06
286.982	88.06
287.213	79.06
287.444	94.06
287.675	97.06
287.906	93.06
288.138	78.06
288.369	97.06
288.6	79.06
288.831	75.06
289.062	76.06
289.293	92.06
289.524	80.06
289.755	71.06
289.986	84.06
290.217	88.06
290.448	68.06
290.679	88.06
290.91	88.06
291.141	76.06
291.371	85.06
291.602	76.06
291.833	74.06
292.064	72.06
292.295	81.06
292.526	78.06
292.757	80.06
292.987	80.06
293.218	81.06
293.449	89.06
293.68	92.06
293.91	83.06
294.141	92.06
294.372	77.06
294.603	81.06
294.833	99.06
295.064	93.06
295.295	82.06
295.525	82.06
295.756	97.06
295.987	93.06
296.217	84.06
296.448	78.06
296.679	99.06
296.909	76.06
297.14	84.06
297.37	79.06
297.601	98.06
297.831	78.06
298.062	83.06
298.292	97.06
298.523	92.06
298.753	91.06
298.984	87.06
299.214	89.06
299.445	70.06
299.675	94.06
299.905	82.06
300.136	82.06
300.366	85.06
300.597	89.06
300.827	89.06
301.057	79.06
301.288	90.06
301.518	86.06
301.748	82.06
301.979	97.06
302.209	98.06
302.439	78.06
302.669	84.06
302.9	89.06
303.13	82.06
303.36	80.06
303.59	74.06
303.82	80.06
304.051	93.06
304.281	83.06
304.511	83.06
304.741	80.06
304.971	67.06
305.201	84.06
305.431	95.06
305.661	82.06
305.891	90.06
306.121	76.06
306.352	82.06
306.582	100.06
306.812	90.06
307.042	96.06
307.272	84.06
307.502	84.06
307.731	75.06
307.961	82.06
308.191	85.06
308.421	78.06
308.651	80.06
308.881	93.06
309.111	96.06
309.341	83.06
309.571	76.06
309.8	90.06
310.03	80.06
310.26	77.06
310.49	92.06
310.72	83.06
310.949	75.06
311.179	90.06
311.409	91.06
311.639	80.06
311.868	78.06
312.098	84.06
312.328	84.06
312.557	88.06
312.787	90.06
313.017	90.06
313.246	92.06
313.476	96.06
313.706	82.06
313.935	84.06
314.165	97.06
314.394	73.06
314.624	86.06
314.853	89.06
315.083	96.06
315.312	92.06
315.542	81.06
315.771	92.06
316.001	95.06
316.23	77.06
316.46	85.06
316.689	87.06
316.919	82.06
317.148	81.06
317.377	92.06
317.607	92.06
317.836	77.06
318.065	87.06
318.295	97.06
318.524	94.06
318.753	89.06
318.983	78.06
319.212	99.06
319.441	76.06
319.67	85.06
319.9	67.06
320.129	88.06
320.358	77.06
320.587	84.06
320.816	85.06
321.046	93.06
321.275	92.06
321.504	71.06
321.733	78.06
321.962	76.06
322.191	79.06
322.42	81.06
322.649	85.06
322.878	81.06
323.108	99.06
323.337	79.06
323.566	94.06
323.795	88.06
324.024	84.06
324.253	82.06
324.482	85.06
324.71	70.06
324.939	78.06
325.168	86.06
325.397	97.06
325.626	81.06
325.855	77.06
326.084	89.06
326.313	83.06
326.542	95.06
326.77	83.06
326.999	105.06
327.228	98.06
327.457	74.06
327.686	96.06
327.914	86.06
328.143	91.06
328.372	86.06
328.6	90.06
328.829	86.06
329.058	94.06
329.287	90.06
329.515	92.06
329.744	79.06
329.972	80.06
330.201	100.06
330.43	92.06
330.658	84.06
330.887	98.06
331.115	87.06
331.344	96.06
331.572	89.06
331.801	84.06
332.03	91.06
332.258	73.06
332.486	73.06
332.715	94.06
332.943	81.06
333.172	86.06
333.4	90.06
333.629	92.06
333.857	100.06
334.085	97.06
334.314	88.06
334.542	86.06
334.771	90.06
334.999	83.06
335.227	84.06
335.455	80.06
335.684	102.06
335.912	82.06
336.14	89.06
336.369	90.06
336.597	66.06
336.825	96.06
337.053	89.06
337.281	96.06
337.51	84.06
337.738	80.06
337.966	81.06
338.194	75.06
338.422	77.06
338.65	88.06
338.878	93.06
339.106	92.06
339.334	100.06
339.562	83.06
339.79	88.06
340.018	84.06
340.246	87.06
340.474	74.06
340.702	91.06
340.93	101.06
341.158	95.06
341.386	76.06
341.614	90.06
341.842	94.06
342.07	86.06
342.298	84.06
342.526	100.06
342.754	85.06
342.981	99.06
343.209	87.06
343.437	84.06
343.665	83.06
343.893	77.06
344.12	91.06
344.348	89.06
344.576	93.06
344.804	74.06
345.031	94.06
345.259	89.06
345.487	81.06
345.714	88.06
345.942	76.06
346.17	86.06
346.397	73.06
346.625	87.06
346.853	68.06
347.08	89.06
347.308	81.06
347.535	89.06
347.763	76.06
347.99	79.06
348.218	92.06
348.445	88.06
348.673	76.06
348.9	83.06
349.128	109.06
349.355	78.06
349.583	84.06
349.81	97.06
350.037	74.06
350.265	90.06
350.492	69.06
350.72	84.06
350.947	78.06
351.174	88.06
351.402	97.06
351.629	94.06
351.856	97.06
352.083	84.06
352.311	85.06
352.538	74.06
352.765	82.06
352.992	90.06
353.22	109.06
353.447	76.06
353.674	86.06
353.901	98.06
354.128	78.06
354.355	78.06
354.583	86.06
354.81	75.06
355.037	76.06
355.264	93.06
355.491	78.06
355.718	84.06
355.945	81.06
356.172	84.06
356.399	76.06
356.626	111.06
356.853	89.06
357.08	88.06
357.307	90.06
357.534	79.06
357.761	85.06
357.988	98.06
358.215	94.06
358.441	81.06
358.668	82.06
358.895	103.06
359.122	76.06
359.349	78.06
359.576	75.06
359.802	86.06
360.029	88.06
360.256	82.06
360.483	84.06
360.709	84.06
360.936	92.06
361.163	82.06
361.39	81.06
361.616	89.06
361.843	92.06
362.07	101.06
362.296	81.06
362.523	90.06
362.749	81.06
362.976	78.06
363.203	81.06
363.429	83.06
363.656	84.06
363.882	88.06
364.109	97.06
364.335	99.06
364.562	88.06
364.788	76.06
365.015	89.06
365.241	74.06
365.468	85.06
365.694	85.06
365.92	80.06
366.147	78.06
366.373	89.06
366.599	86.06
366.826	86.06
367.052	80.06
367.278	96.06
367.505	86.06
367.731	73.06
367.957	77.06
368.184	74.06
368.41	69.06
368.636	85.06
368.862	86.06
369.089	70.06
369.315	86.06
369.541	80.06
369.767	65.06
369.993	81.06
370.219	81.06
370.445	88.06
370.672	82.06
370.898	73.06
371.124	93.06
371.35	76.06
371.576	87.06
371.802	78.06
372.028	64.06
372.254	82.06
372.48	85.06
372.706	98.06
372.932	93.06
373.158	100.06
373.384	80.06
373.61	85.06
373.835	83.06
374.061	79.06
374.287	90.06
374.513	82.06
374.739	71.06
374.965	84.06
375.191	79.06
375.416	92.06
375.642	89.06
375.868	81.06
376.094	80.06
376.319	93.06
376.545	76.06
376.771	85.06
376.997	92.06
377.222	78.06
377.448	101.06
377.674	96.06
377.899	76.06
378.125	68.06
378.35	80.06
378.576	74.06
378.802	89.06
379.027	96.06
379.253	81.06
379.478	100.06
379.704	81.06
379.929	88.06
380.155	77.06
380.38	96.06
380.606	96.06
380.831	90.06
381.057	80.06
381.282	82.06
381.507	82.06
381.733	96.06
381.958	84.06
382.184	73.06
382.409	61.06
382.634	85.06
382.86	84.06
383.085	71.06
383.31	91.06
383.535	89.06
383.761	88.06
383.986	85.06
384.211	81.06
384.436	88.06
384.662	92.06
384.887	90.06
385.112	109.06
385.337	98.06
385.562	87.06
385.787	91.06
386.013	90.06
386.238	82.06
386.463	74.06
386.688	112.06
386.913	82.06
387.138	88.06
387.363	98.06
387.588	84.06
387.813	85.06
388.038	94.06
388.263	94.06
388.488	90.06
388.713	91.06
388.938	84.06
389.163	82.06
389.387	78.06
389.612	79.06
389.837	78.06
390.062	85.06
390.287	97.06
390.512	85.06
390.736	83.06
390.961	76.06
391.186	90.06
391.411	88.06
391.636	99.06
391.86	78.06
392.085	76.06
392.31	71.06
392.534	82.06
392.759	89.06
392.984	83.06
393.208	80.06
393.433	99.06
393.658	89.06
393.882	84.06
394.107	90.06
394.331	89.06
394.556	76.06
394.78	83.06
395.005	94.06
395.229	92.06
395.454	89.06
395.678	79.06
395.903	94.06
396.127	82.06
396.352	89.06
396.576	82.06
396.801	81.06
397.025	80.06
397.249	85.06
397.474	89.06
397.698	82.06
397.922	94.06
398.147	88.06
398.371	76.06
398.595	89.06
398.82	78.06
399.044	85.06
399.268	77.06
399.492	92.06
399.717	90.06
399.941	86.06
400.165	90.06
400.389	88.06
400.613	99.06
400.837	85.06
401.062	87.06
401.286	78.06
401.51	74.06
401.734	90.06
401.958	89.06
402.182	94.06
402.406	93.06
402.63	85.06
402.854	81.06
403.078	78.06
403.302	79.06
403.526	86.06
403.75	81.06
403.974	84.06
404.198	88.06
404.422	87.06
404.645	98.06
404.869	82.06
405.093	84.06
405.317	94.06
405.541	79.06
405.765	72.06
405.988	88.06
406.212	76.06
406.436	105.06
406.66	93.06
406.883	73.06
407.107	69.06
407.331	89.06
407.555	87.06
407.778	81.06
408.002	75.06
408.226	77.06
408.449	87.06
408.673	85.06
408.896	91.06
409.12	78.06
409.344	92.06
409.567	80.06
409.791	86.06
410.014	88.06
410.238	81.06
410.461	85.06
410.685	83.06
410.908	81.06
411.132	76.06
411.355	80.06
411.578	85.06
411.802	94.06
412.025	77.06
412.249	97.06
412.472	70.06
412.695	89.06
412.919	87.06
413.142	79.06
413.365	90.06
413.589	89.06
413.812	86.06
414.035	83.06
414.258	85.06
414.482	76.06
414.705	86.06
414.928	86.06
415.151	80.06
415.374	91.06
415.597	80.06
415.821	97.06
416.044	71.06
416.267	99.06
416.49	86.06
416.713	99.06
416.936	76.06
417.159	74.06
417.382	80.06
417.605	87.06
417.828	68.06
418.051	81.06
418.274	88.06
418.497	80.06
418.72	76.06
418.943	77.06
419.166	77.06
419.389	87.06
419.611	89.06
419.834	85.06
420.057	87.06
420.28	88.06
420.503	57.06
420.726	88.06
420.948	96.06
421.171	76.06
421.394	86.06
421.617	72.06
421.839	80.06
422.062	89.06
422.285	66.06
422.507	94.06
422.73	99.06
422.953	84.06
423.175	84.06
423.398	88.06
423.621	87.06
423.843	78.06
424.066	88.06
424.288	86.06
424.511	86.06
424.733	74.06
424.956	86.06
425.178	100.06
425.401	85.06
425.623	73.06
425.846	69.06
426.068	93.06
426.291	94.06
426.513	83.06
426.735	92.06
426.958	84.06
427.18	76.06
427.402	82.06
427.625	82.06
427.847	65.06
428.069	83.06
428.292	80.06
428.514	72.06
428.736	83.06
428.958	68.06
429.181	86.06
429.403	99.06
429.625	85.06
429.847	81.06
430.069	81.06
430.292	85.06
430.514	82.06
430.736	84.06
430.958	84.06
431.18	90.06
431.402	82.06
431.624	85.06
431.846	87.06
432.068	87.06
432.29	86.06
432.512	72.06
432.734	88.06
432.956	84.06
433.178	73.06
433.4	85.06
433.622	100.06
433.844	85.06
434.066	77.06
434.287	78.06
434.509	90.06
434.731	76.06
434.953	83.06
435.175	83.06
435.397	93.06
435.618	82.06
435.84	84.06
436.062	87.06
436.284	104.06
436.505	83.06
436.727	92.06
436.949	77.06
437.17	78.06
437.392	78.06
437.614	76.06
437.835	92.06
438.057	90.06
438.278	78.06
438.5	96.06
438.721	86.06
438.943	98.06
439.165	69.06
439.386	94.06
439.608	67.06
439.829	80.06
440.05	86.06
440.272	75.06
440.493	90.06
440.715	92.06
440.936	79.06
441.158	70.06
441.379	84.06
441.6	70.06
441.822	68.06
442.043	74.06
442.264	76.06
442.486	74.06
442.707	77.06
442.928	76.06
443.149	59.06
443.371	76.06
443.592	71.06
443.813	81.06
444.034	71.06
444.255	73.06
444.476	81.06
444.698	85.06
444.919	83.06
445.14	146.06
445.361	107.06
445.582	78.06
445.803	81.06
446.024	84.06
446.245	74.06
446.466	86.06
446.687	81.06
446.908	81.06
447.129	85.06
447.35	77.06
447.571	76.06
447.792	72.06
448.013	71.06
448.234	84.06
448.455	85.06
448.675	76.06
448.896	86.06
449.117	84.06
449.338	96.06
449.559	78.06
449.779	80.06
450	92.06
450.221	84.06
450.442	84.06
450.662	92.06
450.883	83.06
451.104	78.06
451.324	86.06
451.545	87.06
451.766	81.06
451.986	76.06
452.207	94.06
452.428	81.06
452.648	92.06
452.869	66.06
453.089	76.06
453.31	88.06
453.53	83.06
453.751	76.06
453.971	74.06
454.192	89.06
454.412	80.06
454.633	80.06
454.853	79.06
455.073	70.06
455.294	70.06
455.514	81.06
455.734	92.06
455.955	85.06
456.175	84.06
456.395	77.06
456.616	89.06
456.836	90.06
457.056	88.06
457.276	74.06
457.497	68.06
457.717	84.06
457.937	88.06
458.157	91.06
458.377	69.06
458.598	60.06
458.818	78.06
459.038	81.06
459.258	65.06
459.478	88.06
459.698	98.06
459.918	70.06
460.138	91.06
460.358	73.06
460.578	87.06
460.798	95.06
461.018	88.06
461.238	76.06
461.458	80.06
461.678	76.06
461.898	79.06
462.118	81.06
462.338	76.06
462.558	94.06
462.777	66.06
462.997	85.06
463.217	78.06
463.437	79.06
463.657	80.06
463.876	76.06
464.096	84.06
464.316	82.06
464.536	83.06
464.755	80.06
464.975	84.06
465.195	73.06
465.414	89.06
465.634	90.06
465.854	95.06
466.073	100.06
466.293	92.06
466.512	83.06
466.732	90.06
466.951	82.06
467.171	91.06
467.391	80.06
467.61	89.06
467.829	90.06
468.049	89.06
468.268	90.06
468.488	89.06
468.707	81.06
468.927	74.06
469.146	82.06
469.365	78.06
469.585	86.06
469.804	79.06
470.023	81.06
470.243	91.06
470.462	89.06
470.681	82.06
470.901	76.06
471.12	107.06
471.339	80.06
471.558	76.06
471.777	94.06
471.997	73.06
472.216	83.06
472.435	76.06
472.654	82.06
472.873	94.06
473.092	92.06
473.311	93.06
473.53	80.06
473.749	85.06
473.968	80.06
474.187	84.06
474.406	60.06
474.625	81.06
474.844	85.06
475.063	90.06
475.282	78.06
475.501	100.06
475.72	76.06
475.939	78.06
476.158	78.06
476.377	78.06
476.596	63.06
476.814	78.06
477.033	77.06
477.252	89.06
477.471	85.06
477.69	79.06
477.908	90.06
478.127	89.06
478.346	84.06
478.564	88.06
478.783	73.06
479.002	82.06
479.22	80.06
479.439	86.06
479.658	80.06
479.876	72.06
480.095	87.06
480.313	85.06
480.532	95.06
480.751	83.06
480.969	92.06
481.188	76.06
481.406	92.06
481.624	94.06
481.843	88.06
482.061	81.06
482.28	77.06
482.498	66.06
482.717	76.06
482.935	80.06
483.153	74.06
483.372	89.06
483.59	70.06
483.808	68.06
484.027	78.06
484.245	80.06
484.463	69.06
484.681	91.06
484.9	78.06
485.118	84.06
485.336	80.06
485.554	81.06
485.772	96.06
485.99	88.06
486.209	65.06
486.427	66.06
486.645	86.06
486.863	81.06
487.081	68.06
487.299	83.06
487.517	89.06
487.735	66.06
487.953	77.06
488.171	83.06
488.389	91.06
488.607	75.06
488.825	91.06
489.043	82.06
489.261	74.06
489.479	87.06
489.696	92.06
489.914	72.06
490.132	90.06
490.35	93.06
490.568	88.06
490.786	90.06
491.003	76.06
491.221	88.06
491.439	65.06
491.657	78.06
491.874	79.06
492.092	82.06
492.31	85.06
492.527	84.06
492.745	92.06
492.963	77.06
493.18	85.06
493.398	92.06
493.615	103.06
493.833	72.06
494.05	93.06
494.268	75.06
494.485	81.06
494.703	86.06
494.92	81.06
495.138	88.06
495.355	92.06
495.573	80.06
495.79	72.06
496.008	84.06
496.225	81.06
496.442	83.06
496.66	88.06
496.877	76.06
497.094	89.06
497.312	83.06
497.529	78.06
497.746	70.06
497.963	88.06
498.181	85.06
498.398	89.06
498.615	81.06
498.832	97.06
499.049	86.06
499.267	89.06
499.484	91.06
499.701	79.06
499.918	72.06
500.135	88.06
500.352	97.06
500.569	85.06
500.786	79.06
501.003	84.06
501.22	82.06
501.437	98.06
501.654	85.06
501.871	79.06
502.088	89.06
502.305	100.06
502.522	81.06
502.739	94.06
502.956	83.06
503.172	93.06
503.389	85.06
503.606	77.06
503.823	80.06
504.04	85.06
504.256	90.06
504.473	80.06
504.69	80.06
504.907	93.06
505.123	82.06
505.34	74.06
505.557	85.06
505.773	86.06
505.99	93.06
506.207	86.06
506.423	83.06
506.64	90.06
506.856	78.06
507.073	86.06
507.289	85.06
507.506	88.06
507.722	84.06
507.939	72.06
508.155	88.06
508.372	80.06
508.588	79.06
508.805	90.06
509.021	91.06
509.238	74.06
509.454	76.06
509.67	85.06
509.887	79.06
510.103	72.06
510.319	84.06
510.536	65.06
510.752	75.06
510.968	90.06
511.184	82.06
511.401	80.06
511.617	82.06
511.833	86.06
512.049	97.06
512.265	89.06
512.481	82.06
512.698	79.06
512.914	98.06
513.13	73.06
513.346	84.06
513.562	76.06
513.778	94.06
513.994	77.06
514.21	82.06
514.426	82.06
514.642	76.06
514.858	98.06
515.074	86.06
515.29	74.06
515.506	92.06
515.721	84.06
515.937	76.06
516.153	89.06
516.369	79.06
516.585	80.06
516.801	85.06
517.016	87.06
517.232	97.06
517.448	93.06
517.664	75.06
517.879	85.06
518.095	90.06
518.311	84.06
518.527	84.06
518.742	90.06
518.958	68.06
519.173	83.06
519.389	89.06
519.605	85.06
519.82	93.06
