Data from Background_1_HRD10591_00022.txt Node
Date: Wed Nov 05 14:39:09 EST 2025
User: Yrep
Spectrometer: HR+D1059
Trigger mode: 1
Integration Time (sec): 1.000000E-1
Scans to average: 1
Electric dark correction enabled: true
Nonlinearity correction enabled: false
Boxcar width: 0
XAxis mode: Wavelengths
Number of Pixels in Spectrum: 2048
>>>>>Begin Spectral Data<<<<<
223.165	0.56
223.4	0.56
223.635	0.56
223.869	-21.44
224.104	-23.44
224.338	-13.44
224.573	-10.44
224.808	-7.44
225.042	-10.44
225.277	-1.44
225.511	-13.44
225.746	6.56
225.98	12.56
226.215	5.56
226.449	16.56
226.683	6.56
226.918	37.56
227.152	15.56
227.387	27.56
227.621	44.56
227.856	46.56
228.09	38.56
228.324	46.56
228.559	53.56
228.793	64.56
229.027	66.56
229.262	66.56
229.496	60.56
229.73	64.56
229.964	64.56
230.199	73.56
230.433	67.56
230.667	78.56
230.901	78.56
231.136	82.56
231.37	65.56
231.604	86.56
231.838	77.56
232.072	83.56
232.306	82.56
232.541	87.56
232.775	88.56
233.009	89.56
233.243	86.56
233.477	84.56
233.711	85.56
233.945	69.56
234.179	81.56
234.413	73.56
234.647	85.56
234.881	69.56
235.115	80.56
235.349	96.56
235.583	88.56
235.817	78.56
236.051	82.56
236.285	90.56
236.519	76.56
236.753	86.56
236.987	83.56
237.221	78.56
237.455	76.56
237.689	84.56
237.922	75.56
238.156	72.56
238.39	89.56
238.624	80.56
238.858	79.56
239.091	74.56
239.325	76.56
239.559	78.56
239.793	81.56
240.027	78.56
240.26	74.56
240.494	69.56
240.728	78.56
240.961	78.56
241.195	96.56
241.429	72.56
241.662	79.56
241.896	84.56
242.13	74.56
242.363	75.56
242.597	76.56
242.83	69.56
243.064	77.56
243.298	69.56
243.531	77.56
243.765	76.56
243.998	67.56
244.232	88.56
244.465	86.56
244.699	82.56
244.932	71.56
245.166	86.56
245.399	74.56
245.633	72.56
245.866	67.56
246.099	82.56
246.333	85.56
246.566	67.56
246.8	81.56
247.033	76.56
247.266	83.56
247.5	70.56
247.733	75.56
247.966	72.56
248.2	93.56
248.433	91.56
248.666	79.56
248.899	80.56
249.133	91.56
249.366	77.56
249.599	72.56
249.832	78.56
250.066	93.56
250.299	90.56
250.532	67.56
250.765	95.56
250.998	84.56
251.231	71.56
251.465	74.56
251.698	79.56
251.931	78.56
252.164	65.56
252.397	66.56
252.63	68.56
252.863	73.56
253.096	91.56
253.329	81.56
253.562	81.56
253.795	89.56
254.028	82.56
254.261	82.56
254.494	71.56
254.727	81.56
254.96	81.56
255.193	83.56
255.426	79.56
255.659	73.56
255.892	87.56
256.124	78.56
256.357	76.56
256.59	63.56
256.823	76.56
257.056	84.56
257.289	86.56
257.521	80.56
257.754	90.56
257.987	77.56
258.22	91.56
258.452	64.56
258.685	77.56
258.918	88.56
259.151	99.56
259.383	84.56
259.616	87.56
259.849	70.56
260.081	72.56
260.314	93.56
260.547	86.56
260.779	84.56
261.012	86.56
261.244	80.56
261.477	97.56
261.71	94.56
261.942	88.56
262.175	84.56
262.407	100.56
262.64	75.56
262.872	85.56
263.105	94.56
263.337	82.56
263.57	103.56
263.802	78.56
264.035	94.56
264.267	81.56
264.499	74.56
264.732	97.56
264.964	100.56
265.197	87.56
265.429	84.56
265.661	88.56
265.894	81.56
266.126	84.56
266.358	91.56
266.591	77.56
266.823	91.56
267.055	80.56
267.287	86.56
267.52	73.56
267.752	62.56
267.984	74.56
268.216	84.56
268.448	71.56
268.681	78.56
268.913	78.56
269.145	83.56
269.377	86.56
269.609	78.56
269.841	82.56
270.073	90.56
270.306	80.56
270.538	80.56
270.77	86.56
271.002	82.56
271.234	90.56
271.466	80.56
271.698	74.56
271.93	83.56
272.162	96.56
272.394	89.56
272.626	96.56
272.858	80.56
273.09	88.56
273.322	84.56
273.553	80.56
273.785	97.56
274.017	87.56
274.249	80.56
274.481	88.56
274.713	74.56
274.945	84.56
275.176	83.56
275.408	87.56
275.64	83.56
275.872	80.56
276.104	84.56
276.335	87.56
276.567	84.56
276.799	68.56
277.031	84.56
277.262	75.56
277.494	87.56
277.726	99.56
277.957	88.56
278.189	86.56
278.421	95.56
278.652	83.56
278.884	79.56
279.115	86.56
279.347	75.56
279.579	86.56
279.81	88.56
280.042	76.56
280.273	86.56
280.505	90.56
280.736	83.56
280.968	78.56
281.199	91.56
281.431	77.56
281.662	89.56
281.894	74.56
282.125	82.56
282.356	85.56
282.588	71.56
282.819	86.56
283.051	87.56
283.282	89.56
283.513	97.56
283.745	83.56
283.976	92.56
284.207	92.56
284.439	74.56
284.67	88.56
284.901	76.56
285.132	85.56
285.364	96.56
285.595	96.56
285.826	77.56
286.057	76.56
286.288	67.56
286.52	60.56
286.751	81.56
286.982	89.56
287.213	88.56
287.444	75.56
287.675	85.56
287.906	87.56
288.138	96.56
288.369	83.56
288.6	77.56
288.831	96.56
289.062	81.56
289.293	82.56
289.524	84.56
289.755	97.56
289.986	85.56
290.217	89.56
290.448	80.56
290.679	74.56
290.91	93.56
291.141	99.56
291.371	76.56
291.602	82.56
291.833	104.56
292.064	91.56
292.295	98.56
292.526	84.56
292.757	88.56
292.987	77.56
293.218	87.56
293.449	99.56
293.68	97.56
293.91	79.56
294.141	85.56
294.372	72.56
294.603	78.56
294.833	86.56
295.064	88.56
295.295	90.56
295.525	76.56
295.756	94.56
295.987	83.56
296.217	80.56
296.448	97.56
296.679	93.56
296.909	88.56
297.14	102.56
297.37	88.56
297.601	72.56
297.831	71.56
298.062	78.56
298.292	78.56
298.523	89.56
298.753	85.56
298.984	90.56
299.214	92.56
299.445	92.56
299.675	76.56
299.905	82.56
300.136	85.56
300.366	89.56
300.597	92.56
300.827	87.56
301.057	90.56
301.288	93.56
301.518	85.56
301.748	98.56
301.979	111.56
302.209	92.56
302.439	95.56
302.669	92.56
302.9	89.56
303.13	94.56
303.36	73.56
303.59	85.56
303.82	87.56
304.051	72.56
304.281	76.56
304.511	79.56
304.741	86.56
304.971	76.56
305.201	95.56
305.431	92.56
305.661	78.56
305.891	79.56
306.121	92.56
306.352	89.56
306.582	91.56
306.812	97.56
307.042	89.56
307.272	87.56
307.502	87.56
307.731	90.56
307.961	88.56
308.191	91.56
308.421	86.56
308.651	98.56
308.881	90.56
309.111	81.56
309.341	85.56
309.571	96.56
309.8	81.56
310.03	99.56
310.26	94.56
310.49	94.56
310.72	84.56
310.949	88.56
311.179	82.56
311.409	77.56
311.639	84.56
311.868	91.56
312.098	102.56
312.328	76.56
312.557	82.56
312.787	78.56
313.017	85.56
313.246	83.56
313.476	95.56
313.706	84.56
313.935	75.56
314.165	82.56
314.394	95.56
314.624	100.56
314.853	95.56
315.083	91.56
315.312	101.56
315.542	90.56
315.771	83.56
316.001	92.56
316.23	88.56
316.46	91.56
316.689	95.56
316.919	82.56
317.148	83.56
317.377	96.56
317.607	72.56
317.836	84.56
318.065	80.56
318.295	100.56
318.524	77.56
318.753	86.56
318.983	86.56
319.212	85.56
319.441	101.56
319.67	82.56
319.9	81.56
320.129	89.56
320.358	95.56
320.587	82.56
320.816	77.56
321.046	87.56
321.275	82.56
321.504	76.56
321.733	87.56
321.962	87.56
322.191	79.56
322.42	81.56
322.649	82.56
322.878	80.56
323.108	88.56
323.337	81.56
323.566	79.56
323.795	87.56
324.024	91.56
324.253	80.56
324.482	82.56
324.71	81.56
324.939	89.56
325.168	97.56
325.397	83.56
325.626	75.56
325.855	97.56
326.084	74.56
326.313	91.56
326.542	79.56
326.77	88.56
326.999	85.56
327.228	91.56
327.457	78.56
327.686	77.56
327.914	77.56
328.143	77.56
328.372	84.56
328.6	84.56
328.829	78.56
329.058	84.56
329.287	94.56
329.515	98.56
329.744	90.56
329.972	90.56
330.201	91.56
330.43	86.56
330.658	78.56
330.887	77.56
331.115	94.56
331.344	88.56
331.572	91.56
331.801	85.56
332.03	80.56
332.258	98.56
332.486	91.56
332.715	82.56
332.943	78.56
333.172	100.56
333.4	73.56
333.629	104.56
333.857	104.56
334.085	83.56
334.314	100.56
334.542	97.56
334.771	82.56
334.999	71.56
335.227	95.56
335.455	72.56
335.684	91.56
335.912	84.56
336.14	86.56
336.369	84.56
336.597	95.56
336.825	79.56
337.053	97.56
337.281	88.56
337.51	88.56
337.738	101.56
337.966	80.56
338.194	88.56
338.422	83.56
338.65	90.56
338.878	74.56
339.106	97.56
339.334	85.56
339.562	81.56
339.79	90.56
340.018	82.56
340.246	80.56
340.474	88.56
340.702	86.56
340.93	93.56
341.158	100.56
341.386	96.56
341.614	82.56
341.842	88.56
342.07	94.56
342.298	95.56
342.526	76.56
342.754	90.56
342.981	80.56
343.209	89.56
343.437	104.56
343.665	96.56
343.893	81.56
344.12	100.56
344.348	74.56
344.576	82.56
344.804	82.56
345.031	84.56
345.259	84.56
345.487	75.56
345.714	81.56
345.942	98.56
346.17	70.56
346.397	91.56
346.625	94.56
346.853	79.56
347.08	80.56
347.308	94.56
347.535	80.56
347.763	80.56
347.99	85.56
348.218	86.56
348.445	71.56
348.673	88.56
348.9	106.56
349.128	88.56
349.355	87.56
349.583	89.56
349.81	98.56
350.037	108.56
350.265	85.56
350.492	82.56
350.72	95.56
350.947	82.56
351.174	81.56
351.402	93.56
351.629	101.56
351.856	79.56
352.083	77.56
352.311	79.56
352.538	83.56
352.765	86.56
352.992	104.56
353.22	100.56
353.447	80.56
353.674	91.56
353.901	84.56
354.128	86.56
354.355	70.56
354.583	77.56
354.81	76.56
355.037	89.56
355.264	98.56
355.491	99.56
355.718	96.56
355.945	76.56
356.172	76.56
356.399	97.56
356.626	82.56
356.853	88.56
357.08	74.56
357.307	69.56
357.534	100.56
357.761	85.56
357.988	86.56
358.215	95.56
358.441	83.56
358.668	85.56
358.895	96.56
359.122	92.56
359.349	79.56
359.576	88.56
359.802	79.56
360.029	91.56
360.256	94.56
360.483	84.56
360.709	80.56
360.936	91.56
361.163	84.56
361.39	77.56
361.616	88.56
361.843	85.56
362.07	94.56
362.296	97.56
362.523	90.56
362.749	77.56
362.976	95.56
363.203	84.56
363.429	71.56
363.656	87.56
363.882	88.56
364.109	85.56
364.335	78.56
364.562	108.56
364.788	89.56
365.015	86.56
365.241	79.56
365.468	77.56
365.694	92.56
365.92	89.56
366.147	84.56
366.373	85.56
366.599	82.56
366.826	91.56
367.052	97.56
367.278	96.56
367.505	106.56
367.731	88.56
367.957	95.56
368.184	89.56
368.41	88.56
368.636	79.56
368.862	84.56
369.089	90.56
369.315	78.56
369.541	94.56
369.767	89.56
369.993	90.56
370.219	96.56
370.445	99.56
370.672	80.56
370.898	80.56
371.124	88.56
371.35	83.56
371.576	79.56
371.802	80.56
372.028	80.56
372.254	91.56
372.48	92.56
372.706	82.56
372.932	89.56
373.158	95.56
373.384	73.56
373.61	76.56
373.835	89.56
374.061	85.56
374.287	84.56
374.513	82.56
374.739	81.56
374.965	80.56
375.191	82.56
375.416	86.56
375.642	94.56
375.868	72.56
376.094	95.56
376.319	84.56
376.545	84.56
376.771	92.56
376.997	86.56
377.222	81.56
377.448	76.56
377.674	83.56
377.899	92.56
378.125	85.56
378.35	89.56
378.576	94.56
378.802	81.56
379.027	99.56
379.253	81.56
379.478	87.56
379.704	89.56
379.929	83.56
380.155	91.56
380.38	86.56
380.606	66.56
380.831	74.56
381.057	86.56
381.282	91.56
381.507	81.56
381.733	89.56
381.958	80.56
382.184	86.56
382.409	76.56
382.634	90.56
382.86	95.56
383.085	68.56
383.31	83.56
383.535	97.56
383.761	87.56
383.986	85.56
384.211	93.56
384.436	85.56
384.662	82.56
384.887	84.56
385.112	81.56
385.337	82.56
385.562	87.56
385.787	84.56
386.013	90.56
386.238	78.56
386.463	80.56
386.688	103.56
386.913	71.56
387.138	79.56
387.363	84.56
387.588	87.56
387.813	96.56
388.038	78.56
388.263	91.56
388.488	80.56
388.713	82.56
388.938	85.56
389.163	68.56
389.387	77.56
389.612	92.56
389.837	96.56
390.062	97.56
390.287	86.56
390.512	76.56
390.736	81.56
390.961	84.56
391.186	86.56
391.411	65.56
391.636	82.56
391.86	80.56
392.085	76.56
392.31	88.56
392.534	97.56
392.759	94.56
392.984	99.56
393.208	84.56
393.433	92.56
393.658	79.56
393.882	80.56
394.107	79.56
394.331	76.56
394.556	93.56
394.78	85.56
395.005	76.56
395.229	71.56
395.454	83.56
395.678	90.56
395.903	83.56
396.127	98.56
396.352	98.56
396.576	89.56
396.801	83.56
397.025	91.56
397.249	76.56
397.474	88.56
397.698	78.56
397.922	78.56
398.147	85.56
398.371	99.56
398.595	90.56
398.82	84.56
399.044	78.56
399.268	73.56
399.492	70.56
399.717	93.56
399.941	82.56
400.165	92.56
400.389	95.56
400.613	76.56
400.837	89.56
401.062	83.56
401.286	94.56
401.51	80.56
401.734	81.56
401.958	96.56
402.182	100.56
402.406	77.56
402.63	89.56
402.854	101.56
403.078	86.56
403.302	90.56
403.526	89.56
403.75	72.56
403.974	85.56
404.198	90.56
404.422	81.56
404.645	78.56
404.869	82.56
405.093	86.56
405.317	69.56
405.541	89.56
405.765	85.56
405.988	81.56
406.212	80.56
406.436	76.56
406.66	81.56
406.883	78.56
407.107	85.56
407.331	73.56
407.555	88.56
407.778	73.56
408.002	89.56
408.226	85.56
408.449	87.56
408.673	82.56
408.896	92.56
409.12	78.56
409.344	77.56
409.567	89.56
409.791	87.56
410.014	79.56
410.238	94.56
410.461	92.56
410.685	93.56
410.908	74.56
411.132	73.56
411.355	86.56
411.578	104.56
411.802	84.56
412.025	83.56
412.249	79.56
412.472	84.56
412.695	80.56
412.919	75.56
413.142	88.56
413.365	91.56
413.589	82.56
413.812	93.56
414.035	90.56
414.258	80.56
414.482	76.56
414.705	79.56
414.928	85.56
415.151	76.56
415.374	70.56
415.597	76.56
415.821	74.56
416.044	76.56
416.267	89.56
416.49	76.56
416.713	85.56
416.936	96.56
417.159	77.56
417.382	63.56
417.605	84.56
417.828	78.56
418.051	85.56
418.274	102.56
418.497	88.56
418.72	87.56
418.943	86.56
419.166	90.56
419.389	94.56
419.611	82.56
419.834	88.56
420.057	78.56
420.28	84.56
420.503	75.56
420.726	83.56
420.948	88.56
421.171	82.56
421.394	68.56
421.617	79.56
421.839	91.56
422.062	77.56
422.285	78.56
422.507	84.56
422.73	81.56
422.953	85.56
423.175	82.56
423.398	73.56
423.621	91.56
423.843	66.56
424.066	74.56
424.288	88.56
424.511	92.56
424.733	82.56
424.956	92.56
425.178	89.56
425.401	82.56
425.623	100.56
425.846	70.56
426.068	86.56
426.291	82.56
426.513	86.56
426.735	77.56
426.958	90.56
427.18	95.56
427.402	67.56
427.625	89.56
427.847	81.56
428.069	84.56
428.292	81.56
428.514	94.56
428.736	75.56
428.958	76.56
429.181	80.56
429.403	83.56
429.625	91.56
429.847	82.56
430.069	92.56
430.292	88.56
430.514	76.56
430.736	81.56
430.958	86.56
431.18	84.56
431.402	71.56
431.624	74.56
431.846	100.56
432.068	79.56
432.29	88.56
432.512	91.56
432.734	78.56
432.956	89.56
433.178	86.56
433.4	87.56
433.622	74.56
433.844	81.56
434.066	76.56
434.287	84.56
434.509	89.56
434.731	77.56
434.953	77.56
435.175	78.56
435.397	83.56
435.618	78.56
435.84	79.56
436.062	88.56
436.284	88.56
436.505	93.56
436.727	76.56
436.949	88.56
437.17	81.56
437.392	81.56
437.614	71.56
437.835	81.56
438.057	72.56
438.278	89.56
438.5	88.56
438.721	78.56
438.943	79.56
439.165	72.56
439.386	70.56
439.608	91.56
439.829	78.56
440.05	88.56
440.272	82.56
440.493	90.56
440.715	81.56
440.936	80.56
441.158	88.56
441.379	87.56
441.6	78.56
441.822	83.56
442.043	85.56
442.264	93.56
442.486	86.56
442.707	74.56
442.928	94.56
443.149	86.56
443.371	93.56
443.592	71.56
443.813	84.56
444.034	82.56
444.255	90.56
444.476	76.56
444.698	87.56
444.919	80.56
445.14	164.56
445.361	111.56
445.582	80.56
445.803	88.56
446.024	85.56
446.245	92.56
446.466	99.56
446.687	81.56
446.908	87.56
447.129	76.56
447.35	80.56
447.571	76.56
447.792	76.56
448.013	81.56
448.234	81.56
448.455	86.56
448.675	80.56
448.896	76.56
449.117	94.56
449.338	100.56
449.559	82.56
449.779	86.56
450	71.56
450.221	86.56
450.442	88.56
450.662	82.56
450.883	80.56
451.104	97.56
451.324	64.56
451.545	83.56
451.766	80.56
451.986	81.56
452.207	90.56
452.428	90.56
452.648	72.56
452.869	70.56
453.089	91.56
453.31	86.56
453.53	92.56
453.751	75.56
453.971	77.56
454.192	95.56
454.412	92.56
454.633	91.56
454.853	97.56
455.073	82.56
455.294	59.56
455.514	91.56
455.734	89.56
455.955	86.56
456.175	80.56
456.395	84.56
456.616	79.56
456.836	93.56
457.056	83.56
457.276	77.56
457.497	84.56
457.717	78.56
457.937	95.56
458.157	100.56
458.377	80.56
458.598	83.56
458.818	82.56
459.038	88.56
459.258	80.56
459.478	79.56
459.698	82.56
459.918	84.56
460.138	84.56
460.358	81.56
460.578	85.56
460.798	91.56
461.018	85.56
461.238	88.56
461.458	82.56
461.678	84.56
461.898	76.56
462.118	88.56
462.338	80.56
462.558	82.56
462.777	83.56
462.997	76.56
463.217	70.56
463.437	88.56
463.657	86.56
463.876	93.56
464.096	82.56
464.316	75.56
464.536	68.56
464.755	80.56
464.975	75.56
465.195	97.56
465.414	91.56
465.634	92.56
465.854	88.56
466.073	82.56
466.293	84.56
466.512	93.56
466.732	83.56
466.951	64.56
467.171	78.56
467.391	78.56
467.61	87.56
467.829	97.56
468.049	76.56
468.268	94.56
468.488	68.56
468.707	79.56
468.927	88.56
469.146	85.56
469.365	94.56
469.585	95.56
469.804	85.56
470.023	98.56
470.243	91.56
470.462	89.56
470.681	77.56
470.901	95.56
471.12	82.56
471.339	80.56
471.558	71.56
471.777	84.56
471.997	90.56
472.216	92.56
472.435	77.56
472.654	94.56
472.873	79.56
473.092	80.56
473.311	81.56
473.53	85.56
473.749	83.56
473.968	89.56
474.187	90.56
474.406	83.56
474.625	98.56
474.844	77.56
475.063	81.56
475.282	76.56
475.501	92.56
475.72	84.56
475.939	82.56
476.158	91.56
476.377	78.56
476.596	88.56
476.814	80.56
477.033	85.56
477.252	68.56
477.471	88.56
477.69	93.56
477.908	76.56
478.127	99.56
478.346	82.56
478.564	95.56
478.783	76.56
479.002	67.56
479.22	86.56
479.439	96.56
479.658	85.56
479.876	78.56
480.095	77.56
480.313	78.56
480.532	99.56
480.751	85.56
480.969	74.56
481.188	90.56
481.406	85.56
481.624	70.56
481.843	75.56
482.061	84.56
482.28	81.56
482.498	84.56
482.717	85.56
482.935	67.56
483.153	78.56
483.372	88.56
483.59	81.56
483.808	84.56
484.027	95.56
484.245	88.56
484.463	77.56
484.681	90.56
484.9	73.56
485.118	80.56
485.336	81.56
485.554	73.56
485.772	87.56
485.99	71.56
486.209	70.56
486.427	78.56
486.645	88.56
486.863	83.56
487.081	87.56
487.299	90.56
487.517	95.56
487.735	77.56
487.953	88.56
488.171	88.56
488.389	76.56
488.607	83.56
488.825	68.56
489.043	85.56
489.261	89.56
489.479	72.56
489.696	77.56
489.914	81.56
490.132	81.56
490.35	79.56
490.568	72.56
490.786	73.56
491.003	82.56
491.221	88.56
491.439	83.56
491.657	79.56
491.874	89.56
492.092	72.56
492.31	91.56
492.527	85.56
492.745	88.56
492.963	81.56
493.18	83.56
493.398	80.56
493.615	73.56
493.833	77.56
494.05	76.56
494.268	84.56
494.485	93.56
494.703	64.56
494.92	84.56
495.138	69.56
495.355	85.56
495.573	86.56
495.79	93.56
496.008	85.56
496.225	84.56
496.442	87.56
496.66	71.56
496.877	84.56
497.094	87.56
497.312	98.56
497.529	73.56
497.746	84.56
497.963	79.56
498.181	96.56
498.398	81.56
498.615	70.56
498.832	82.56
499.049	84.56
499.267	75.56
499.484	97.56
499.701	78.56
499.918	81.56
500.135	80.56
500.352	93.56
500.569	88.56
500.786	72.56
501.003	90.56
501.22	93.56
501.437	87.56
501.654	77.56
501.871	84.56
502.088	66.56
502.305	85.56
502.522	77.56
502.739	92.56
502.956	85.56
503.172	87.56
503.389	80.56
503.606	87.56
503.823	83.56
504.04	85.56
504.256	89.56
504.473	88.56
504.69	101.56
504.907	92.56
505.123	81.56
505.34	71.56
505.557	95.56
505.773	92.56
505.99	89.56
506.207	80.56
506.423	77.56
506.64	77.56
506.856	95.56
507.073	72.56
507.289	93.56
507.506	95.56
507.722	88.56
507.939	84.56
508.155	80.56
508.372	83.56
508.588	93.56
508.805	76.56
509.021	78.56
509.238	93.56
509.454	90.56
509.67	85.56
509.887	85.56
510.103	78.56
510.319	74.56
510.536	89.56
510.752	85.56
510.968	70.56
511.184	82.56
511.401	85.56
511.617	83.56
511.833	83.56
512.049	80.56
512.265	84.56
512.481	93.56
512.698	99.56
512.914	76.56
513.13	90.56
513.346	76.56
513.562	90.56
513.778	89.56
513.994	84.56
514.21	85.56
514.426	84.56
514.642	77.56
514.858	76.56
515.074	77.56
515.29	74.56
515.506	74.56
515.721	84.56
515.937	92.56
516.153	85.56
516.369	78.56
516.585	89.56
516.801	78.56
517.016	88.56
517.232	77.56
517.448	86.56
517.664	78.56
517.879	73.56
518.095	67.56
518.311	88.56
518.527	81.56
518.742	78.56
518.958	86.56
519.173	83.56
519.389	76.56
519.605	80.56
519.82	74.56
