Data from Background_1_HRD10591_00097.txt Node
Date: Wed Nov 05 14:39:46 EST 2025
User: Yrep
Spectrometer: HR+D1059
Trigger mode: 1
Integration Time (sec): 1.000000E-1
Scans to average: 1
Electric dark correction enabled: true
Nonlinearity correction enabled: false
Boxcar width: 0
XAxis mode: Wavelengths
Number of Pixels in Spectrum: 2048
>>>>>Begin Spectral Data<<<<<
223.165	-3.25
223.4	-3.25
223.635	-3.25
223.869	-28.25
224.104	-20.25
224.338	-7.25
224.573	-1.25
224.808	-16.25
225.042	-2.25
225.277	-7.25
225.511	5.75
225.746	-8.25
225.98	9.75
226.215	5.75
226.449	13.75
226.683	4.75
226.918	24.75
227.152	29.75
227.387	24.75
227.621	49.75
227.856	48.75
228.09	56.75
228.324	60.75
228.559	62.75
228.793	60.75
229.027	70.75
229.262	68.75
229.496	74.75
229.73	67.75
229.964	73.75
230.199	79.75
230.433	63.75
230.667	84.75
230.901	78.75
231.136	74.75
231.37	78.75
231.604	74.75
231.838	72.75
232.072	72.75
232.306	94.75
232.541	87.75
232.775	81.75
233.009	76.75
233.243	93.75
233.477	64.75
233.711	75.75
233.945	95.75
234.179	69.75
234.413	75.75
234.647	83.75
234.881	80.75
235.115	87.75
235.349	84.75
235.583	84.75
235.817	79.75
236.051	76.75
236.285	77.75
236.519	85.75
236.753	78.75
236.987	84.75
237.221	77.75
237.455	79.75
237.689	71.75
237.922	84.75
238.156	74.75
238.39	72.75
238.624	80.75
238.858	69.75
239.091	76.75
239.325	75.75
239.559	75.75
239.793	70.75
240.027	80.75
240.26	80.75
240.494	85.75
240.728	76.75
240.961	80.75
241.195	64.75
241.429	73.75
241.662	63.75
241.896	77.75
242.13	87.75
242.363	81.75
242.597	76.75
242.83	88.75
243.064	82.75
243.298	75.75
243.531	77.75
243.765	79.75
243.998	80.75
244.232	73.75
244.465	86.75
244.699	71.75
244.932	65.75
245.166	72.75
245.399	68.75
245.633	79.75
245.866	79.75
246.099	69.75
246.333	77.75
246.566	83.75
246.8	61.75
247.033	82.75
247.266	94.75
247.5	78.75
247.733	78.75
247.966	83.75
248.2	77.75
248.433	62.75
248.666	86.75
248.899	92.75
249.133	83.75
249.366	93.75
249.599	80.75
249.832	81.75
250.066	90.75
250.299	88.75
250.532	82.75
250.765	72.75
250.998	80.75
251.231	80.75
251.465	80.75
251.698	79.75
251.931	80.75
252.164	89.75
252.397	76.75
252.63	78.75
252.863	71.75
253.096	69.75
253.329	71.75
253.562	84.75
253.795	75.75
254.028	89.75
254.261	84.75
254.494	74.75
254.727	75.75
254.96	83.75
255.193	74.75
255.426	73.75
255.659	55.75
255.892	75.75
256.124	81.75
256.357	84.75
256.59	84.75
256.823	73.75
257.056	78.75
257.289	67.75
257.521	78.75
257.754	68.75
257.987	67.75
258.22	89.75
258.452	87.75
258.685	73.75
258.918	67.75
259.151	87.75
259.383	64.75
259.616	73.75
259.849	85.75
260.081	63.75
260.314	73.75
260.547	90.75
260.779	91.75
261.012	85.75
261.244	79.75
261.477	88.75
261.71	81.75
261.942	83.75
262.175	79.75
262.407	73.75
262.64	75.75
262.872	72.75
263.105	79.75
263.337	81.75
263.57	74.75
263.802	81.75
264.035	84.75
264.267	73.75
264.499	85.75
264.732	87.75
264.964	69.75
265.197	79.75
265.429	82.75
265.661	92.75
265.894	87.75
266.126	79.75
266.358	67.75
266.591	91.75
266.823	96.75
267.055	79.75
267.287	79.75
267.52	76.75
267.752	77.75
267.984	82.75
268.216	83.75
268.448	81.75
268.681	92.75
268.913	83.75
269.145	85.75
269.377	88.75
269.609	77.75
269.841	69.75
270.073	63.75
270.306	84.75
270.538	83.75
270.77	86.75
271.002	81.75
271.234	90.75
271.466	90.75
271.698	79.75
271.93	67.75
272.162	75.75
272.394	77.75
272.626	73.75
272.858	84.75
273.09	74.75
273.322	73.75
273.553	76.75
273.785	69.75
274.017	88.75
274.249	88.75
274.481	92.75
274.713	80.75
274.945	78.75
275.176	89.75
275.408	73.75
275.64	69.75
275.872	79.75
276.104	81.75
276.335	86.75
276.567	75.75
276.799	90.75
277.031	80.75
277.262	84.75
277.494	96.75
277.726	80.75
277.957	90.75
278.189	78.75
278.421	93.75
278.652	86.75
278.884	77.75
279.115	72.75
279.347	84.75
279.579	75.75
279.81	73.75
280.042	74.75
280.273	83.75
280.505	80.75
280.736	72.75
280.968	85.75
281.199	91.75
281.431	88.75
281.662	71.75
281.894	95.75
282.125	79.75
282.356	71.75
282.588	74.75
282.819	81.75
283.051	86.75
283.282	84.75
283.513	77.75
283.745	84.75
283.976	75.75
284.207	76.75
284.439	70.75
284.67	93.75
284.901	95.75
285.132	92.75
285.364	83.75
285.595	95.75
285.826	80.75
286.057	82.75
286.288	86.75
286.52	77.75
286.751	83.75
286.982	86.75
287.213	74.75
287.444	85.75
287.675	78.75
287.906	90.75
288.138	75.75
288.369	88.75
288.6	88.75
288.831	87.75
289.062	84.75
289.293	91.75
289.524	90.75
289.755	87.75
289.986	73.75
290.217	98.75
290.448	93.75
290.679	93.75
290.91	96.75
291.141	81.75
291.371	83.75
291.602	78.75
291.833	89.75
292.064	97.75
292.295	76.75
292.526	87.75
292.757	73.75
292.987	96.75
293.218	69.75
293.449	86.75
293.68	82.75
293.91	73.75
294.141	85.75
294.372	83.75
294.603	100.75
294.833	78.75
295.064	83.75
295.295	89.75
295.525	75.75
295.756	76.75
295.987	91.75
296.217	72.75
296.448	79.75
296.679	92.75
296.909	81.75
297.14	93.75
297.37	82.75
297.601	80.75
297.831	77.75
298.062	75.75
298.292	75.75
298.523	82.75
298.753	84.75
298.984	97.75
299.214	79.75
299.445	79.75
299.675	90.75
299.905	75.75
300.136	77.75
300.366	87.75
300.597	75.75
300.827	90.75
301.057	77.75
301.288	80.75
301.518	87.75
301.748	81.75
301.979	101.75
302.209	88.75
302.439	79.75
302.669	84.75
302.9	77.75
303.13	97.75
303.36	89.75
303.59	89.75
303.82	92.75
304.051	81.75
304.281	81.75
304.511	77.75
304.741	84.75
304.971	84.75
305.201	74.75
305.431	86.75
305.661	97.75
305.891	92.75
306.121	79.75
306.352	84.75
306.582	81.75
306.812	100.75
307.042	83.75
307.272	88.75
307.502	89.75
307.731	85.75
307.961	83.75
308.191	88.75
308.421	92.75
308.651	88.75
308.881	84.75
309.111	80.75
309.341	68.75
309.571	79.75
309.8	69.75
310.03	85.75
310.26	88.75
310.49	77.75
310.72	79.75
310.949	89.75
311.179	85.75
311.409	83.75
311.639	69.75
311.868	83.75
312.098	75.75
312.328	75.75
312.557	96.75
312.787	85.75
313.017	84.75
313.246	85.75
313.476	72.75
313.706	82.75
313.935	81.75
314.165	77.75
314.394	69.75
314.624	72.75
314.853	92.75
315.083	97.75
315.312	91.75
315.542	88.75
315.771	71.75
316.001	89.75
316.23	81.75
316.46	85.75
316.689	104.75
316.919	102.75
317.148	85.75
317.377	83.75
317.607	76.75
317.836	78.75
318.065	77.75
318.295	95.75
318.524	105.75
318.753	89.75
318.983	73.75
319.212	71.75
319.441	75.75
319.67	82.75
319.9	92.75
320.129	77.75
320.358	88.75
320.587	75.75
320.816	93.75
321.046	88.75
321.275	91.75
321.504	82.75
321.733	81.75
321.962	100.75
322.191	89.75
322.42	83.75
322.649	81.75
322.878	85.75
323.108	81.75
323.337	91.75
323.566	78.75
323.795	79.75
324.024	86.75
324.253	75.75
324.482	103.75
324.71	76.75
324.939	89.75
325.168	73.75
325.397	80.75
325.626	101.75
325.855	82.75
326.084	94.75
326.313	77.75
326.542	91.75
326.77	93.75
326.999	76.75
327.228	68.75
327.457	87.75
327.686	69.75
327.914	76.75
328.143	79.75
328.372	83.75
328.6	86.75
328.829	87.75
329.058	77.75
329.287	84.75
329.515	73.75
329.744	73.75
329.972	74.75
330.201	93.75
330.43	95.75
330.658	74.75
330.887	77.75
331.115	75.75
331.344	89.75
331.572	90.75
331.801	90.75
332.03	84.75
332.258	84.75
332.486	92.75
332.715	81.75
332.943	71.75
333.172	79.75
333.4	87.75
333.629	87.75
333.857	78.75
334.085	76.75
334.314	89.75
334.542	79.75
334.771	80.75
334.999	76.75
335.227	87.75
335.455	91.75
335.684	85.75
335.912	72.75
336.14	76.75
336.369	82.75
336.597	78.75
336.825	80.75
337.053	82.75
337.281	83.75
337.51	99.75
337.738	72.75
337.966	89.75
338.194	72.75
338.422	87.75
338.65	77.75
338.878	83.75
339.106	96.75
339.334	105.75
339.562	73.75
339.79	75.75
340.018	69.75
340.246	85.75
340.474	97.75
340.702	91.75
340.93	75.75
341.158	80.75
341.386	80.75
341.614	83.75
341.842	79.75
342.07	84.75
342.298	79.75
342.526	86.75
342.754	78.75
342.981	80.75
343.209	62.75
343.437	88.75
343.665	76.75
343.893	92.75
344.12	99.75
344.348	87.75
344.576	73.75
344.804	83.75
345.031	87.75
345.259	79.75
345.487	77.75
345.714	88.75
345.942	84.75
346.17	88.75
346.397	65.75
346.625	86.75
346.853	87.75
347.08	94.75
347.308	83.75
347.535	96.75
347.763	95.75
347.99	85.75
348.218	91.75
348.445	92.75
348.673	80.75
348.9	82.75
349.128	80.75
349.355	82.75
349.583	87.75
349.81	85.75
350.037	98.75
350.265	88.75
350.492	74.75
350.72	80.75
350.947	76.75
351.174	67.75
351.402	83.75
351.629	87.75
351.856	85.75
352.083	85.75
352.311	86.75
352.538	82.75
352.765	78.75
352.992	93.75
353.22	74.75
353.447	82.75
353.674	82.75
353.901	70.75
354.128	90.75
354.355	82.75
354.583	89.75
354.81	75.75
355.037	61.75
355.264	83.75
355.491	93.75
355.718	103.75
355.945	82.75
356.172	100.75
356.399	82.75
356.626	84.75
356.853	80.75
357.08	89.75
357.307	91.75
357.534	78.75
357.761	72.75
357.988	101.75
358.215	87.75
358.441	81.75
358.668	73.75
358.895	78.75
359.122	87.75
359.349	93.75
359.576	92.75
359.802	90.75
360.029	82.75
360.256	91.75
360.483	84.75
360.709	86.75
360.936	81.75
361.163	80.75
361.39	85.75
361.616	73.75
361.843	98.75
362.07	85.75
362.296	75.75
362.523	84.75
362.749	82.75
362.976	82.75
363.203	78.75
363.429	86.75
363.656	89.75
363.882	75.75
364.109	73.75
364.335	88.75
364.562	76.75
364.788	76.75
365.015	80.75
365.241	73.75
365.468	79.75
365.694	75.75
365.92	83.75
366.147	79.75
366.373	82.75
366.599	85.75
366.826	69.75
367.052	79.75
367.278	76.75
367.505	80.75
367.731	96.75
367.957	85.75
368.184	89.75
368.41	92.75
368.636	85.75
368.862	88.75
369.089	73.75
369.315	79.75
369.541	84.75
369.767	81.75
369.993	85.75
370.219	89.75
370.445	99.75
370.672	87.75
370.898	66.75
371.124	83.75
371.35	77.75
371.576	75.75
371.802	90.75
372.028	89.75
372.254	81.75
372.48	67.75
372.706	75.75
372.932	87.75
373.158	81.75
373.384	82.75
373.61	88.75
373.835	73.75
374.061	94.75
374.287	75.75
374.513	84.75
374.739	79.75
374.965	77.75
375.191	77.75
375.416	85.75
375.642	83.75
375.868	75.75
376.094	83.75
376.319	80.75
376.545	69.75
376.771	64.75
376.997	66.75
377.222	84.75
377.448	95.75
377.674	82.75
377.899	69.75
378.125	80.75
378.35	89.75
378.576	92.75
378.802	70.75
379.027	89.75
379.253	82.75
379.478	63.75
379.704	92.75
379.929	79.75
380.155	91.75
380.38	93.75
380.606	75.75
380.831	95.75
381.057	98.75
381.282	90.75
381.507	72.75
381.733	85.75
381.958	91.75
382.184	79.75
382.409	70.75
382.634	80.75
382.86	85.75
383.085	79.75
383.31	96.75
383.535	81.75
383.761	68.75
383.986	85.75
384.211	85.75
384.436	84.75
384.662	77.75
384.887	79.75
385.112	98.75
385.337	78.75
385.562	81.75
385.787	78.75
386.013	77.75
386.238	73.75
386.463	86.75
386.688	97.75
386.913	89.75
387.138	84.75
387.363	83.75
387.588	92.75
387.813	76.75
388.038	72.75
388.263	78.75
388.488	93.75
388.713	69.75
388.938	81.75
389.163	75.75
389.387	81.75
389.612	74.75
389.837	93.75
390.062	92.75
390.287	71.75
390.512	77.75
390.736	84.75
390.961	90.75
391.186	64.75
391.411	82.75
391.636	84.75
391.86	85.75
392.085	78.75
392.31	84.75
392.534	83.75
392.759	68.75
392.984	78.75
393.208	62.75
393.433	84.75
393.658	74.75
393.882	83.75
394.107	79.75
394.331	87.75
394.556	84.75
394.78	87.75
395.005	89.75
395.229	66.75
395.454	74.75
395.678	69.75
395.903	79.75
396.127	79.75
396.352	62.75
396.576	81.75
396.801	80.75
397.025	79.75
397.249	84.75
397.474	81.75
397.698	79.75
397.922	79.75
398.147	76.75
398.371	82.75
398.595	65.75
398.82	84.75
399.044	83.75
399.268	69.75
399.492	85.75
399.717	80.75
399.941	95.75
400.165	82.75
400.389	77.75
400.613	77.75
400.837	85.75
401.062	84.75
401.286	81.75
401.51	80.75
401.734	89.75
401.958	70.75
402.182	85.75
402.406	69.75
402.63	81.75
402.854	80.75
403.078	87.75
403.302	68.75
403.526	86.75
403.75	81.75
403.974	63.75
404.198	81.75
404.422	78.75
404.645	80.75
404.869	74.75
405.093	83.75
405.317	83.75
405.541	83.75
405.765	74.75
405.988	65.75
406.212	86.75
406.436	80.75
406.66	95.75
406.883	80.75
407.107	79.75
407.331	59.75
407.555	70.75
407.778	83.75
408.002	76.75
408.226	72.75
408.449	95.75
408.673	91.75
408.896	79.75
409.12	73.75
409.344	99.75
409.567	78.75
409.791	79.75
410.014	99.75
410.238	76.75
410.461	84.75
410.685	84.75
410.908	67.75
411.132	89.75
411.355	69.75
411.578	80.75
411.802	77.75
412.025	75.75
412.249	86.75
412.472	83.75
412.695	81.75
412.919	72.75
413.142	77.75
413.365	89.75
413.589	84.75
413.812	93.75
414.035	80.75
414.258	70.75
414.482	94.75
414.705	95.75
414.928	85.75
415.151	79.75
415.374	69.75
415.597	87.75
415.821	75.75
416.044	74.75
416.267	69.75
416.49	88.75
416.713	68.75
416.936	89.75
417.159	85.75
417.382	72.75
417.605	82.75
417.828	79.75
418.051	78.75
418.274	78.75
418.497	80.75
418.72	74.75
418.943	91.75
419.166	91.75
419.389	67.75
419.611	83.75
419.834	88.75
420.057	81.75
420.28	73.75
420.503	86.75
420.726	75.75
420.948	79.75
421.171	85.75
421.394	75.75
421.617	78.75
421.839	79.75
422.062	81.75
422.285	74.75
422.507	84.75
422.73	75.75
422.953	83.75
423.175	82.75
423.398	74.75
423.621	91.75
423.843	81.75
424.066	71.75
424.288	72.75
424.511	85.75
424.733	74.75
424.956	84.75
425.178	76.75
425.401	82.75
425.623	80.75
425.846	80.75
426.068	68.75
426.291	69.75
426.513	80.75
426.735	75.75
426.958	72.75
427.18	77.75
427.402	78.75
427.625	70.75
427.847	80.75
428.069	92.75
428.292	72.75
428.514	82.75
428.736	85.75
428.958	67.75
429.181	80.75
429.403	79.75
429.625	76.75
429.847	83.75
430.069	86.75
430.292	73.75
430.514	84.75
430.736	82.75
430.958	73.75
431.18	87.75
431.402	80.75
431.624	79.75
431.846	70.75
432.068	72.75
432.29	72.75
432.512	79.75
432.734	62.75
432.956	68.75
433.178	78.75
433.4	75.75
433.622	87.75
433.844	77.75
434.066	91.75
434.287	74.75
434.509	99.75
434.731	76.75
434.953	73.75
435.175	77.75
435.397	75.75
435.618	80.75
435.84	85.75
436.062	100.75
436.284	91.75
436.505	89.75
436.727	75.75
436.949	77.75
437.17	80.75
437.392	76.75
437.614	77.75
437.835	78.75
438.057	87.75
438.278	72.75
438.5	75.75
438.721	76.75
438.943	85.75
439.165	67.75
439.386	67.75
439.608	86.75
439.829	70.75
440.05	82.75
440.272	77.75
440.493	78.75
440.715	80.75
440.936	82.75
441.158	83.75
441.379	69.75
441.6	76.75
441.822	80.75
442.043	76.75
442.264	80.75
442.486	80.75
442.707	79.75
442.928	82.75
443.149	76.75
443.371	72.75
443.592	87.75
443.813	75.75
444.034	94.75
444.255	72.75
444.476	66.75
444.698	83.75
444.919	89.75
445.14	154.75
445.361	113.75
445.582	79.75
445.803	89.75
446.024	105.75
446.245	73.75
446.466	85.75
446.687	82.75
446.908	81.75
447.129	67.75
447.35	79.75
447.571	91.75
447.792	69.75
448.013	66.75
448.234	91.75
448.455	91.75
448.675	77.75
448.896	73.75
449.117	81.75
449.338	77.75
449.559	75.75
449.779	81.75
450	81.75
450.221	91.75
450.442	79.75
450.662	81.75
450.883	91.75
451.104	85.75
451.324	66.75
451.545	87.75
451.766	82.75
451.986	83.75
452.207	85.75
452.428	91.75
452.648	75.75
452.869	82.75
453.089	85.75
453.31	67.75
453.53	75.75
453.751	83.75
453.971	75.75
454.192	75.75
454.412	94.75
454.633	65.75
454.853	80.75
455.073	76.75
455.294	72.75
455.514	85.75
455.734	63.75
455.955	81.75
456.175	94.75
456.395	80.75
456.616	90.75
456.836	73.75
457.056	72.75
457.276	72.75
457.497	80.75
457.717	83.75
457.937	83.75
458.157	78.75
458.377	83.75
458.598	77.75
458.818	104.75
459.038	78.75
459.258	77.75
459.478	77.75
459.698	84.75
459.918	89.75
460.138	89.75
460.358	78.75
460.578	77.75
460.798	87.75
461.018	80.75
461.238	91.75
461.458	78.75
461.678	91.75
461.898	82.75
462.118	84.75
462.338	100.75
462.558	73.75
462.777	80.75
462.997	78.75
463.217	70.75
463.437	83.75
463.657	75.75
463.876	84.75
464.096	97.75
464.316	80.75
464.536	78.75
464.755	85.75
464.975	83.75
465.195	85.75
465.414	79.75
465.634	82.75
465.854	87.75
466.073	73.75
466.293	80.75
466.512	73.75
466.732	89.75
466.951	87.75
467.171	82.75
467.391	86.75
467.61	75.75
467.829	67.75
468.049	59.75
468.268	65.75
468.488	70.75
468.707	81.75
468.927	73.75
469.146	85.75
469.365	77.75
469.585	69.75
469.804	68.75
470.023	93.75
470.243	87.75
470.462	83.75
470.681	79.75
470.901	78.75
471.12	72.75
471.339	106.75
471.558	80.75
471.777	83.75
471.997	95.75
472.216	88.75
472.435	68.75
472.654	86.75
472.873	84.75
473.092	71.75
473.311	90.75
473.53	87.75
473.749	88.75
473.968	81.75
474.187	91.75
474.406	65.75
474.625	84.75
474.844	71.75
475.063	71.75
475.282	72.75
475.501	95.75
475.72	97.75
475.939	79.75
476.158	80.75
476.377	88.75
476.596	79.75
476.814	84.75
477.033	89.75
477.252	68.75
477.471	79.75
477.69	79.75
477.908	65.75
478.127	79.75
478.346	73.75
478.564	76.75
478.783	87.75
479.002	76.75
479.22	73.75
479.439	85.75
479.658	90.75
479.876	69.75
480.095	91.75
480.313	85.75
480.532	74.75
480.751	75.75
480.969	84.75
481.188	71.75
481.406	87.75
481.624	81.75
481.843	87.75
482.061	77.75
482.28	69.75
482.498	77.75
482.717	84.75
482.935	72.75
483.153	68.75
483.372	80.75
483.59	87.75
483.808	68.75
484.027	79.75
484.245	85.75
484.463	79.75
484.681	85.75
484.9	91.75
485.118	93.75
485.336	80.75
485.554	84.75
485.772	76.75
485.99	75.75
486.209	72.75
486.427	81.75
486.645	77.75
486.863	74.75
487.081	68.75
487.299	69.75
487.517	64.75
487.735	82.75
487.953	80.75
488.171	89.75
488.389	84.75
488.607	84.75
488.825	77.75
489.043	70.75
489.261	88.75
489.479	74.75
489.696	71.75
489.914	81.75
490.132	88.75
490.35	89.75
490.568	84.75
490.786	67.75
491.003	99.75
491.221	79.75
491.439	85.75
491.657	83.75
491.874	82.75
492.092	85.75
492.31	77.75
492.527	85.75
492.745	81.75
492.963	85.75
493.18	96.75
493.398	88.75
493.615	76.75
493.833	73.75
494.05	79.75
494.268	75.75
494.485	75.75
494.703	73.75
494.92	77.75
495.138	88.75
495.355	74.75
495.573	82.75
495.79	64.75
496.008	65.75
496.225	84.75
496.442	89.75
496.66	89.75
496.877	75.75
497.094	81.75
497.312	73.75
497.529	82.75
497.746	68.75
497.963	73.75
498.181	87.75
498.398	84.75
498.615	77.75
498.832	79.75
499.049	80.75
499.267	90.75
499.484	96.75
499.701	74.75
499.918	81.75
500.135	90.75
500.352	89.75
500.569	68.75
500.786	84.75
501.003	74.75
501.22	84.75
501.437	89.75
501.654	73.75
501.871	88.75
502.088	85.75
502.305	83.75
502.522	76.75
502.739	79.75
502.956	74.75
503.172	91.75
503.389	82.75
503.606	75.75
503.823	88.75
504.04	87.75
504.256	83.75
504.473	84.75
504.69	75.75
504.907	77.75
505.123	69.75
505.34	87.75
505.557	81.75
505.773	73.75
505.99	77.75
506.207	88.75
506.423	77.75
506.64	73.75
506.856	69.75
507.073	80.75
507.289	89.75
507.506	79.75
507.722	75.75
507.939	86.75
508.155	74.75
508.372	76.75
508.588	81.75
508.805	81.75
509.021	81.75
509.238	86.75
509.454	75.75
509.67	73.75
509.887	79.75
510.103	93.75
510.319	70.75
510.536	85.75
510.752	84.75
510.968	67.75
511.184	79.75
511.401	75.75
511.617	81.75
511.833	89.75
512.049	92.75
512.265	85.75
512.481	81.75
512.698	91.75
512.914	66.75
513.13	84.75
513.346	85.75
513.562	79.75
513.778	80.75
513.994	80.75
514.21	81.75
514.426	79.75
514.642	73.75
514.858	92.75
515.074	65.75
515.29	81.75
515.506	80.75
515.721	84.75
515.937	80.75
516.153	69.75
516.369	85.75
516.585	80.75
516.801	89.75
517.016	81.75
517.232	83.75
517.448	93.75
517.664	75.75
517.879	82.75
518.095	73.75
518.311	82.75
518.527	76.75
518.742	87.75
518.958	73.75
519.173	81.75
519.389	77.75
519.605	74.75
519.82	77.75
520.036	79.75
