Data from Background_1_HRD10591_00048.txt Node
Date: Wed Nov 05 14:39:21 EST 2025
User: Yrep
Spectrometer: HR+D1059
Trigger mode: 1
Integration Time (sec): 1.000000E-1
Scans to average: 1
Electric dark correction enabled: true
Nonlinearity correction enabled: false
Boxcar width: 0
XAxis mode: Wavelengths
Number of Pixels in Spectrum: 2048
>>>>>Begin Spectral Data<<<<<
223.165	-5.94
223.4	-5.94
223.635	-5.94
223.869	-25.94
224.104	-18.94
224.338	-22.94
224.573	-26.94
224.808	-24.94
225.042	-8.94
225.277	-8.94
225.511	-9.94
225.746	12.06
225.98	17.06
226.215	19.06
226.449	15.06
226.683	14.06
226.918	42.06
227.152	34.06
227.387	29.06
227.621	35.06
227.856	46.06
228.09	55.06
228.324	46.06
228.559	52.06
228.793	39.06
229.027	62.06
229.262	78.06
229.496	65.06
229.73	72.06
229.964	53.06
230.199	64.06
230.433	65.06
230.667	64.06
230.901	64.06
231.136	83.06
231.37	60.06
231.604	75.06
231.838	83.06
232.072	80.06
232.306	80.06
232.541	71.06
232.775	64.06
233.009	61.06
233.243	74.06
233.477	87.06
233.711	80.06
233.945	63.06
234.179	72.06
234.413	78.06
234.647	80.06
234.881	71.06
235.115	78.06
235.349	79.06
235.583	78.06
235.817	74.06
236.051	78.06
236.285	68.06
236.519	71.06
236.753	74.06
236.987	82.06
237.221	65.06
237.455	72.06
237.689	71.06
237.922	71.06
238.156	70.06
238.39	87.06
238.624	76.06
238.858	76.06
239.091	61.06
239.325	64.06
239.559	67.06
239.793	71.06
240.027	78.06
240.26	65.06
240.494	78.06
240.728	87.06
240.961	76.06
241.195	79.06
241.429	78.06
241.662	72.06
241.896	70.06
242.13	66.06
242.363	70.06
242.597	70.06
242.83	67.06
243.064	60.06
243.298	70.06
243.531	69.06
243.765	69.06
243.998	80.06
244.232	87.06
244.465	66.06
244.699	62.06
244.932	75.06
245.166	68.06
245.399	71.06
245.633	64.06
245.866	64.06
246.099	75.06
246.333	82.06
246.566	68.06
246.8	70.06
247.033	67.06
247.266	70.06
247.5	60.06
247.733	61.06
247.966	81.06
248.2	70.06
248.433	68.06
248.666	79.06
248.899	91.06
249.133	80.06
249.366	59.06
249.599	66.06
249.832	68.06
250.066	74.06
250.299	83.06
250.532	72.06
250.765	80.06
250.998	68.06
251.231	76.06
251.465	78.06
251.698	75.06
251.931	72.06
252.164	72.06
252.397	72.06
252.63	68.06
252.863	75.06
253.096	61.06
253.329	72.06
253.562	73.06
253.795	73.06
254.028	60.06
254.261	57.06
254.494	89.06
254.727	85.06
254.96	80.06
255.193	84.06
255.426	78.06
255.659	71.06
255.892	69.06
256.124	77.06
256.357	67.06
256.59	70.06
256.823	71.06
257.056	76.06
257.289	83.06
257.521	78.06
257.754	69.06
257.987	78.06
258.22	71.06
258.452	67.06
258.685	70.06
258.918	84.06
259.151	64.06
259.383	76.06
259.616	85.06
259.849	64.06
260.081	87.06
260.314	69.06
260.547	73.06
260.779	72.06
261.012	74.06
261.244	76.06
261.477	83.06
261.71	69.06
261.942	78.06
262.175	74.06
262.407	84.06
262.64	81.06
262.872	82.06
263.105	70.06
263.337	82.06
263.57	94.06
263.802	85.06
264.035	72.06
264.267	66.06
264.499	75.06
264.732	79.06
264.964	73.06
265.197	61.06
265.429	77.06
265.661	82.06
265.894	68.06
266.126	66.06
266.358	71.06
266.591	67.06
266.823	70.06
267.055	76.06
267.287	83.06
267.52	86.06
267.752	74.06
267.984	75.06
268.216	69.06
268.448	82.06
268.681	82.06
268.913	82.06
269.145	82.06
269.377	75.06
269.609	76.06
269.841	77.06
270.073	77.06
270.306	62.06
270.538	62.06
270.77	78.06
271.002	82.06
271.234	82.06
271.466	78.06
271.698	67.06
271.93	70.06
272.162	81.06
272.394	80.06
272.626	75.06
272.858	76.06
273.09	72.06
273.322	84.06
273.553	84.06
273.785	94.06
274.017	86.06
274.249	81.06
274.481	75.06
274.713	79.06
274.945	84.06
275.176	85.06
275.408	65.06
275.64	78.06
275.872	59.06
276.104	86.06
276.335	81.06
276.567	75.06
276.799	74.06
277.031	71.06
277.262	64.06
277.494	67.06
277.726	73.06
277.957	81.06
278.189	78.06
278.421	88.06
278.652	72.06
278.884	79.06
279.115	68.06
279.347	71.06
279.579	71.06
279.81	87.06
280.042	62.06
280.273	80.06
280.505	64.06
280.736	85.06
280.968	78.06
281.199	83.06
281.431	62.06
281.662	86.06
281.894	88.06
282.125	65.06
282.356	68.06
282.588	87.06
282.819	82.06
283.051	77.06
283.282	77.06
283.513	79.06
283.745	72.06
283.976	92.06
284.207	93.06
284.439	90.06
284.67	78.06
284.901	69.06
285.132	80.06
285.364	74.06
285.595	76.06
285.826	77.06
286.057	84.06
286.288	58.06
286.52	96.06
286.751	71.06
286.982	86.06
287.213	84.06
287.444	73.06
287.675	63.06
287.906	64.06
288.138	74.06
288.369	71.06
288.6	78.06
288.831	71.06
289.062	84.06
289.293	82.06
289.524	75.06
289.755	67.06
289.986	77.06
290.217	74.06
290.448	90.06
290.679	86.06
290.91	75.06
291.141	99.06
291.371	71.06
291.602	88.06
291.833	82.06
292.064	94.06
292.295	76.06
292.526	74.06
292.757	85.06
292.987	74.06
293.218	83.06
293.449	60.06
293.68	74.06
293.91	92.06
294.141	78.06
294.372	75.06
294.603	86.06
294.833	84.06
295.064	78.06
295.295	80.06
295.525	68.06
295.756	75.06
295.987	78.06
296.217	83.06
296.448	68.06
296.679	76.06
296.909	92.06
297.14	86.06
297.37	87.06
297.601	76.06
297.831	87.06
298.062	54.06
298.292	70.06
298.523	75.06
298.753	70.06
298.984	83.06
299.214	79.06
299.445	81.06
299.675	66.06
299.905	64.06
300.136	71.06
300.366	84.06
300.597	79.06
300.827	82.06
301.057	94.06
301.288	92.06
301.518	79.06
301.748	82.06
301.979	98.06
302.209	79.06
302.439	81.06
302.669	94.06
302.9	88.06
303.13	76.06
303.36	91.06
303.59	72.06
303.82	80.06
304.051	81.06
304.281	79.06
304.511	91.06
304.741	84.06
304.971	78.06
305.201	83.06
305.431	69.06
305.661	88.06
305.891	93.06
306.121	88.06
306.352	90.06
306.582	86.06
306.812	78.06
307.042	88.06
307.272	71.06
307.502	71.06
307.731	65.06
307.961	78.06
308.191	70.06
308.421	80.06
308.651	76.06
308.881	90.06
309.111	91.06
309.341	84.06
309.571	74.06
309.8	72.06
310.03	72.06
310.26	84.06
310.49	82.06
310.72	88.06
310.949	72.06
311.179	67.06
311.409	72.06
311.639	69.06
311.868	68.06
312.098	84.06
312.328	75.06
312.557	90.06
312.787	93.06
313.017	80.06
313.246	81.06
313.476	83.06
313.706	99.06
313.935	90.06
314.165	87.06
314.394	80.06
314.624	85.06
314.853	72.06
315.083	82.06
315.312	78.06
315.542	68.06
315.771	82.06
316.001	68.06
316.23	85.06
316.46	77.06
316.689	71.06
316.919	78.06
317.148	78.06
317.377	67.06
317.607	81.06
317.836	78.06
318.065	84.06
318.295	69.06
318.524	76.06
318.753	76.06
318.983	90.06
319.212	84.06
319.441	69.06
319.67	79.06
319.9	92.06
320.129	60.06
320.358	81.06
320.587	82.06
320.816	84.06
321.046	73.06
321.275	79.06
321.504	84.06
321.733	80.06
321.962	73.06
322.191	77.06
322.42	87.06
322.649	98.06
322.878	92.06
323.108	66.06
323.337	78.06
323.566	56.06
323.795	68.06
324.024	79.06
324.253	87.06
324.482	83.06
324.71	82.06
324.939	92.06
325.168	64.06
325.397	79.06
325.626	70.06
325.855	82.06
326.084	77.06
326.313	82.06
326.542	76.06
326.77	82.06
326.999	85.06
327.228	78.06
327.457	85.06
327.686	77.06
327.914	68.06
328.143	75.06
328.372	64.06
328.6	87.06
328.829	75.06
329.058	87.06
329.287	80.06
329.515	90.06
329.744	74.06
329.972	86.06
330.201	72.06
330.43	82.06
330.658	76.06
330.887	72.06
331.115	77.06
331.344	92.06
331.572	89.06
331.801	76.06
332.03	77.06
332.258	74.06
332.486	77.06
332.715	75.06
332.943	75.06
333.172	81.06
333.4	65.06
333.629	79.06
333.857	70.06
334.085	84.06
334.314	73.06
334.542	78.06
334.771	75.06
334.999	67.06
335.227	98.06
335.455	91.06
335.684	78.06
335.912	91.06
336.14	80.06
336.369	82.06
336.597	67.06
336.825	90.06
337.053	86.06
337.281	77.06
337.51	85.06
337.738	83.06
337.966	76.06
338.194	67.06
338.422	75.06
338.65	81.06
338.878	84.06
339.106	70.06
339.334	77.06
339.562	69.06
339.79	72.06
340.018	83.06
340.246	81.06
340.474	81.06
340.702	71.06
340.93	88.06
341.158	64.06
341.386	74.06
341.614	94.06
341.842	71.06
342.07	70.06
342.298	83.06
342.526	85.06
342.754	69.06
342.981	81.06
343.209	75.06
343.437	92.06
343.665	101.06
343.893	72.06
344.12	84.06
344.348	77.06
344.576	72.06
344.804	73.06
345.031	85.06
345.259	60.06
345.487	79.06
345.714	83.06
345.942	67.06
346.17	83.06
346.397	70.06
346.625	75.06
346.853	66.06
347.08	69.06
347.308	102.06
347.535	82.06
347.763	78.06
347.99	79.06
348.218	70.06
348.445	89.06
348.673	82.06
348.9	82.06
349.128	82.06
349.355	63.06
349.583	76.06
349.81	78.06
350.037	78.06
350.265	79.06
350.492	73.06
350.72	83.06
350.947	72.06
351.174	80.06
351.402	75.06
351.629	69.06
351.856	79.06
352.083	73.06
352.311	90.06
352.538	74.06
352.765	72.06
352.992	77.06
353.22	76.06
353.447	73.06
353.674	71.06
353.901	74.06
354.128	76.06
354.355	73.06
354.583	77.06
354.81	86.06
355.037	60.06
355.264	73.06
355.491	85.06
355.718	71.06
355.945	74.06
356.172	67.06
356.399	84.06
356.626	89.06
356.853	78.06
357.08	80.06
357.307	62.06
357.534	76.06
357.761	83.06
357.988	65.06
358.215	82.06
358.441	70.06
358.668	81.06
358.895	78.06
359.122	81.06
359.349	68.06
359.576	64.06
359.802	78.06
360.029	85.06
360.256	63.06
360.483	56.06
360.709	75.06
360.936	87.06
361.163	84.06
361.39	75.06
361.616	82.06
361.843	72.06
362.07	79.06
362.296	74.06
362.523	72.06
362.749	73.06
362.976	76.06
363.203	66.06
363.429	68.06
363.656	75.06
363.882	84.06
364.109	88.06
364.335	83.06
364.562	71.06
364.788	76.06
365.015	72.06
365.241	80.06
365.468	82.06
365.694	82.06
365.92	86.06
366.147	83.06
366.373	73.06
366.599	72.06
366.826	86.06
367.052	85.06
367.278	83.06
367.505	69.06
367.731	79.06
367.957	60.06
368.184	74.06
368.41	70.06
368.636	84.06
368.862	80.06
369.089	66.06
369.315	72.06
369.541	55.06
369.767	80.06
369.993	80.06
370.219	78.06
370.445	67.06
370.672	75.06
370.898	70.06
371.124	82.06
371.35	61.06
371.576	70.06
371.802	84.06
372.028	68.06
372.254	70.06
372.48	72.06
372.706	75.06
372.932	91.06
373.158	79.06
373.384	82.06
373.61	90.06
373.835	65.06
374.061	76.06
374.287	71.06
374.513	69.06
374.739	66.06
374.965	73.06
375.191	75.06
375.416	74.06
375.642	75.06
375.868	62.06
376.094	71.06
376.319	72.06
376.545	77.06
376.771	78.06
376.997	83.06
377.222	76.06
377.448	81.06
377.674	76.06
377.899	70.06
378.125	74.06
378.35	77.06
378.576	81.06
378.802	65.06
379.027	75.06
379.253	77.06
379.478	74.06
379.704	82.06
379.929	70.06
380.155	74.06
380.38	74.06
380.606	82.06
380.831	74.06
381.057	78.06
381.282	75.06
381.507	60.06
381.733	74.06
381.958	76.06
382.184	73.06
382.409	70.06
382.634	73.06
382.86	74.06
383.085	76.06
383.31	76.06
383.535	74.06
383.761	78.06
383.986	88.06
384.211	62.06
384.436	74.06
384.662	80.06
384.887	101.06
385.112	85.06
385.337	70.06
385.562	80.06
385.787	69.06
386.013	80.06
386.238	75.06
386.463	72.06
386.688	80.06
386.913	80.06
387.138	70.06
387.363	84.06
387.588	93.06
387.813	94.06
388.038	79.06
388.263	78.06
388.488	73.06
388.713	72.06
388.938	84.06
389.163	69.06
389.387	70.06
389.612	64.06
389.837	86.06
390.062	70.06
390.287	85.06
390.512	84.06
390.736	76.06
390.961	76.06
391.186	84.06
391.411	79.06
391.636	69.06
391.86	79.06
392.085	83.06
392.31	72.06
392.534	83.06
392.759	85.06
392.984	78.06
393.208	82.06
393.433	71.06
393.658	62.06
393.882	76.06
394.107	72.06
394.331	65.06
394.556	81.06
394.78	75.06
395.005	74.06
395.229	82.06
395.454	78.06
395.678	73.06
395.903	63.06
396.127	75.06
396.352	64.06
396.576	80.06
396.801	76.06
397.025	72.06
397.249	77.06
397.474	70.06
397.698	68.06
397.922	74.06
398.147	88.06
398.371	81.06
398.595	81.06
398.82	87.06
399.044	76.06
399.268	75.06
399.492	70.06
399.717	73.06
399.941	69.06
400.165	82.06
400.389	79.06
400.613	87.06
400.837	87.06
401.062	82.06
401.286	71.06
401.51	75.06
401.734	90.06
401.958	83.06
402.182	75.06
402.406	77.06
402.63	74.06
402.854	88.06
403.078	70.06
403.302	74.06
403.526	79.06
403.75	81.06
403.974	65.06
404.198	74.06
404.422	67.06
404.645	70.06
404.869	66.06
405.093	84.06
405.317	66.06
405.541	69.06
405.765	71.06
405.988	66.06
406.212	64.06
406.436	85.06
406.66	74.06
406.883	70.06
407.107	75.06
407.331	72.06
407.555	75.06
407.778	62.06
408.002	72.06
408.226	74.06
408.449	80.06
408.673	64.06
408.896	82.06
409.12	70.06
409.344	85.06
409.567	70.06
409.791	69.06
410.014	82.06
410.238	66.06
410.461	85.06
410.685	80.06
410.908	75.06
411.132	66.06
411.355	70.06
411.578	87.06
411.802	84.06
412.025	74.06
412.249	83.06
412.472	74.06
412.695	68.06
412.919	74.06
413.142	68.06
413.365	83.06
413.589	77.06
413.812	88.06
414.035	69.06
414.258	75.06
414.482	72.06
414.705	83.06
414.928	75.06
415.151	75.06
415.374	77.06
415.597	78.06
415.821	80.06
416.044	72.06
416.267	64.06
416.49	76.06
416.713	77.06
416.936	66.06
417.159	65.06
417.382	69.06
417.605	51.06
417.828	63.06
418.051	72.06
418.274	72.06
418.497	78.06
418.72	70.06
418.943	75.06
419.166	74.06
419.389	81.06
419.611	73.06
419.834	67.06
420.057	70.06
420.28	76.06
420.503	74.06
420.726	83.06
420.948	75.06
421.171	88.06
421.394	70.06
421.617	63.06
421.839	68.06
422.062	70.06
422.285	85.06
422.507	84.06
422.73	81.06
422.953	75.06
423.175	77.06
423.398	79.06
423.621	79.06
423.843	49.06
424.066	73.06
424.288	79.06
424.511	70.06
424.733	66.06
424.956	75.06
425.178	71.06
425.401	56.06
425.623	54.06
425.846	63.06
426.068	85.06
426.291	80.06
426.513	82.06
426.735	70.06
426.958	77.06
427.18	82.06
427.402	69.06
427.625	74.06
427.847	72.06
428.069	86.06
428.292	84.06
428.514	72.06
428.736	75.06
428.958	79.06
429.181	69.06
429.403	68.06
429.625	74.06
429.847	59.06
430.069	56.06
430.292	76.06
430.514	68.06
430.736	72.06
430.958	87.06
431.18	66.06
431.402	66.06
431.624	77.06
431.846	74.06
432.068	81.06
432.29	70.06
432.512	67.06
432.734	82.06
432.956	68.06
433.178	76.06
433.4	80.06
433.622	89.06
433.844	74.06
434.066	81.06
434.287	66.06
434.509	84.06
434.731	66.06
434.953	84.06
435.175	86.06
435.397	84.06
435.618	74.06
435.84	72.06
436.062	65.06
436.284	74.06
436.505	80.06
436.727	72.06
436.949	87.06
437.17	80.06
437.392	78.06
437.614	71.06
437.835	59.06
438.057	52.06
438.278	78.06
438.5	73.06
438.721	85.06
438.943	82.06
439.165	85.06
439.386	77.06
439.608	83.06
439.829	63.06
440.05	69.06
440.272	79.06
440.493	86.06
440.715	58.06
440.936	71.06
441.158	59.06
441.379	71.06
441.6	67.06
441.822	59.06
442.043	79.06
442.264	69.06
442.486	83.06
442.707	91.06
442.928	68.06
443.149	77.06
443.371	74.06
443.592	62.06
443.813	62.06
444.034	66.06
444.255	78.06
444.476	51.06
444.698	77.06
444.919	70.06
445.14	151.06
445.361	116.06
445.582	69.06
445.803	71.06
446.024	69.06
446.245	65.06
446.466	71.06
446.687	69.06
446.908	84.06
447.129	83.06
447.35	70.06
447.571	73.06
447.792	84.06
448.013	66.06
448.234	70.06
448.455	76.06
448.675	87.06
448.896	81.06
449.117	70.06
449.338	80.06
449.559	83.06
449.779	77.06
450	78.06
450.221	64.06
450.442	77.06
450.662	78.06
450.883	70.06
451.104	64.06
451.324	77.06
451.545	69.06
451.766	68.06
451.986	70.06
452.207	60.06
452.428	70.06
452.648	87.06
452.869	80.06
453.089	84.06
453.31	77.06
453.53	70.06
453.751	57.06
453.971	72.06
454.192	69.06
454.412	83.06
454.633	79.06
454.853	71.06
455.073	73.06
455.294	71.06
455.514	77.06
455.734	71.06
455.955	83.06
456.175	76.06
456.395	71.06
456.616	86.06
456.836	73.06
457.056	76.06
457.276	71.06
457.497	74.06
457.717	79.06
457.937	74.06
458.157	74.06
458.377	73.06
458.598	79.06
458.818	76.06
459.038	68.06
459.258	83.06
459.478	72.06
459.698	77.06
459.918	74.06
460.138	70.06
460.358	73.06
460.578	84.06
460.798	79.06
461.018	69.06
461.238	84.06
461.458	65.06
461.678	67.06
461.898	75.06
462.118	70.06
462.338	78.06
462.558	89.06
462.777	74.06
462.997	77.06
463.217	69.06
463.437	86.06
463.657	59.06
463.876	72.06
464.096	70.06
464.316	68.06
464.536	70.06
464.755	79.06
464.975	81.06
465.195	70.06
465.414	70.06
465.634	67.06
465.854	81.06
466.073	86.06
466.293	80.06
466.512	69.06
466.732	82.06
466.951	80.06
467.171	75.06
467.391	80.06
467.61	70.06
467.829	63.06
468.049	68.06
468.268	74.06
468.488	86.06
468.707	79.06
468.927	79.06
469.146	57.06
469.365	83.06
469.585	60.06
469.804	76.06
470.023	78.06
470.243	76.06
470.462	78.06
470.681	92.06
470.901	60.06
471.12	88.06
471.339	78.06
471.558	82.06
471.777	71.06
471.997	77.06
472.216	71.06
472.435	58.06
472.654	84.06
472.873	83.06
473.092	72.06
473.311	59.06
473.53	68.06
473.749	74.06
473.968	81.06
474.187	73.06
474.406	91.06
474.625	70.06
474.844	84.06
475.063	70.06
475.282	75.06
475.501	72.06
475.72	86.06
475.939	81.06
476.158	69.06
476.377	71.06
476.596	86.06
476.814	88.06
477.033	78.06
477.252	83.06
477.471	52.06
477.69	72.06
477.908	83.06
478.127	76.06
478.346	76.06
478.564	94.06
478.783	69.06
479.002	77.06
479.22	79.06
479.439	75.06
479.658	82.06
479.876	84.06
480.095	73.06
480.313	68.06
480.532	88.06
480.751	74.06
480.969	70.06
481.188	75.06
481.406	57.06
481.624	80.06
481.843	78.06
482.061	77.06
482.28	78.06
482.498	76.06
482.717	65.06
482.935	60.06
483.153	74.06
483.372	72.06
483.59	64.06
483.808	82.06
484.027	76.06
484.245	62.06
484.463	78.06
484.681	76.06
484.9	78.06
485.118	84.06
485.336	60.06
485.554	75.06
485.772	63.06
485.99	80.06
486.209	78.06
486.427	79.06
486.645	90.06
486.863	63.06
487.081	72.06
487.299	80.06
487.517	80.06
487.735	84.06
487.953	89.06
488.171	84.06
488.389	74.06
488.607	68.06
488.825	74.06
489.043	73.06
489.261	61.06
489.479	80.06
489.696	65.06
489.914	83.06
490.132	76.06
490.35	84.06
490.568	80.06
490.786	76.06
491.003	83.06
491.221	68.06
491.439	78.06
491.657	74.06
491.874	75.06
492.092	69.06
492.31	86.06
492.527	62.06
492.745	77.06
492.963	70.06
493.18	70.06
493.398	76.06
493.615	77.06
493.833	80.06
494.05	91.06
494.268	93.06
494.485	70.06
494.703	88.06
494.92	82.06
495.138	81.06
495.355	76.06
495.573	72.06
495.79	72.06
496.008	73.06
496.225	75.06
496.442	82.06
496.66	76.06
496.877	78.06
497.094	64.06
497.312	73.06
497.529	69.06
497.746	72.06
497.963	80.06
498.181	84.06
498.398	70.06
498.615	74.06
498.832	68.06
499.049	64.06
499.267	72.06
499.484	78.06
499.701	88.06
499.918	80.06
500.135	85.06
500.352	84.06
500.569	81.06
500.786	82.06
501.003	58.06
501.22	70.06
501.437	85.06
501.654	79.06
501.871	84.06
502.088	89.06
502.305	91.06
502.522	80.06
502.739	71.06
502.956	68.06
503.172	85.06
503.389	86.06
503.606	85.06
503.823	71.06
504.04	80.06
504.256	66.06
504.473	80.06
504.69	78.06
504.907	71.06
505.123	71.06
505.34	76.06
505.557	86.06
505.773	90.06
505.99	76.06
506.207	68.06
506.423	81.06
506.64	61.06
506.856	80.06
507.073	74.06
507.289	77.06
507.506	82.06
507.722	76.06
507.939	72.06
508.155	73.06
508.372	84.06
508.588	87.06
508.805	71.06
509.021	75.06
509.238	88.06
509.454	71.06
509.67	78.06
509.887	78.06
510.103	76.06
510.319	83.06
510.536	78.06
510.752	71.06
510.968	64.06
511.184	70.06
511.401	86.06
511.617	76.06
511.833	73.06
512.049	70.06
512.265	77.06
512.481	85.06
512.698	63.06
512.914	64.06
513.13	87.06
513.346	82.06
513.562	70.06
513.778	83.06
513.994	89.06
514.21	71.06
514.426	73.06
514.642	86.06
514.858	83.06
515.074	77.06
515.29	94.06
515.506	85.06
515.721	75.06
515.937	79.06
516.153	74.06
516.369	73.06
516.585	61.06
516.801	77.06
517.016	75.06
517.232	75.06
517.448	78.06
517.664	76.06
517.879	68.06
518.095	90.06
518.311	80.06
518.527	67.06
518.742	61.06
518.958	90.06
519.173	73.06
519.389	85.06
519.605	80.06
519.82	67.06
520.036	81.06
520.251	64.06
