Data from Background_1_HRD10591_00079.txt Node
Date: Wed Nov 05 14:39:37 EST 2025
User: Yrep
Spectrometer: HR+D1059
Trigger mode: 1
Integration Time (sec): 1.000000E-1
Scans to average: 1
Electric dark correction enabled: true
Nonlinearity correction enabled: false
Boxcar width: 0
XAxis mode: Wavelengths
Number of Pixels in Spectrum: 2048
>>>>>Begin Spectral Data<<<<<
223.165	-15.88
223.4	-15.88
223.635	-15.88
223.869	-18.88
224.104	-7.88
224.338	-22.88
224.573	-1.88
224.808	-8.88
225.042	-12.88
225.277	-4.88
225.511	-2.88
225.746	5.12
225.98	1.12
226.215	13.12
226.449	7.12
226.683	5.12
226.918	37.12
227.152	28.12
227.387	42.12
227.621	38.12
227.856	50.12
228.09	40.12
228.324	53.12
228.559	63.12
228.793	62.12
229.027	65.12
229.262	64.12
229.496	59.12
229.73	77.12
229.964	76.12
230.199	74.12
230.433	72.12
230.667	69.12
230.901	80.12
231.136	74.12
231.37	65.12
231.604	57.12
231.838	75.12
232.072	72.12
232.306	86.12
232.541	83.12
232.775	82.12
233.009	74.12
233.243	82.12
233.477	82.12
233.711	66.12
233.945	84.12
234.179	85.12
234.413	82.12
234.647	72.12
234.881	82.12
235.115	75.12
235.349	67.12
235.583	68.12
235.817	79.12
236.051	86.12
236.285	88.12
236.519	82.12
236.753	82.12
236.987	82.12
237.221	66.12
237.455	69.12
237.689	75.12
237.922	80.12
238.156	74.12
238.39	69.12
238.624	64.12
238.858	73.12
239.091	76.12
239.325	67.12
239.559	72.12
239.793	73.12
240.027	81.12
240.26	75.12
240.494	77.12
240.728	81.12
240.961	76.12
241.195	71.12
241.429	87.12
241.662	71.12
241.896	66.12
242.13	82.12
242.363	78.12
242.597	77.12
242.83	68.12
243.064	87.12
243.298	75.12
243.531	71.12
243.765	79.12
243.998	71.12
244.232	73.12
244.465	65.12
244.699	75.12
244.932	72.12
245.166	78.12
245.399	72.12
245.633	65.12
245.866	81.12
246.099	80.12
246.333	78.12
246.566	70.12
246.8	55.12
247.033	66.12
247.266	91.12
247.5	72.12
247.733	74.12
247.966	79.12
248.2	80.12
248.433	67.12
248.666	76.12
248.899	81.12
249.133	81.12
249.366	77.12
249.599	83.12
249.832	86.12
250.066	73.12
250.299	83.12
250.532	80.12
250.765	78.12
250.998	72.12
251.231	72.12
251.465	64.12
251.698	74.12
251.931	77.12
252.164	84.12
252.397	65.12
252.63	86.12
252.863	77.12
253.096	61.12
253.329	82.12
253.562	75.12
253.795	89.12
254.028	67.12
254.261	75.12
254.494	83.12
254.727	85.12
254.96	73.12
255.193	67.12
255.426	68.12
255.659	83.12
255.892	80.12
256.124	73.12
256.357	78.12
256.59	76.12
256.823	66.12
257.056	73.12
257.289	68.12
257.521	75.12
257.754	89.12
257.987	79.12
258.22	78.12
258.452	95.12
258.685	88.12
258.918	81.12
259.151	77.12
259.383	101.12
259.616	102.12
259.849	73.12
260.081	67.12
260.314	64.12
260.547	92.12
260.779	74.12
261.012	79.12
261.244	79.12
261.477	68.12
261.71	81.12
261.942	77.12
262.175	92.12
262.407	81.12
262.64	71.12
262.872	75.12
263.105	77.12
263.337	91.12
263.57	72.12
263.802	87.12
264.035	81.12
264.267	91.12
264.499	80.12
264.732	72.12
264.964	68.12
265.197	71.12
265.429	80.12
265.661	90.12
265.894	75.12
266.126	94.12
266.358	84.12
266.591	76.12
266.823	73.12
267.055	74.12
267.287	90.12
267.52	86.12
267.752	81.12
267.984	88.12
268.216	75.12
268.448	88.12
268.681	83.12
268.913	89.12
269.145	83.12
269.377	80.12
269.609	90.12
269.841	86.12
270.073	89.12
270.306	74.12
270.538	75.12
270.77	83.12
271.002	87.12
271.234	74.12
271.466	95.12
271.698	84.12
271.93	77.12
272.162	87.12
272.394	80.12
272.626	75.12
272.858	86.12
273.09	83.12
273.322	82.12
273.553	88.12
273.785	87.12
274.017	74.12
274.249	77.12
274.481	78.12
274.713	77.12
274.945	77.12
275.176	78.12
275.408	81.12
275.64	64.12
275.872	80.12
276.104	83.12
276.335	88.12
276.567	80.12
276.799	87.12
277.031	81.12
277.262	71.12
277.494	85.12
277.726	78.12
277.957	85.12
278.189	87.12
278.421	75.12
278.652	88.12
278.884	82.12
279.115	76.12
279.347	94.12
279.579	81.12
279.81	81.12
280.042	96.12
280.273	78.12
280.505	92.12
280.736	86.12
280.968	90.12
281.199	74.12
281.431	78.12
281.662	87.12
281.894	92.12
282.125	62.12
282.356	78.12
282.588	65.12
282.819	70.12
283.051	83.12
283.282	75.12
283.513	81.12
283.745	65.12
283.976	56.12
284.207	82.12
284.439	85.12
284.67	85.12
284.901	80.12
285.132	73.12
285.364	85.12
285.595	73.12
285.826	80.12
286.057	81.12
286.288	84.12
286.52	76.12
286.751	90.12
286.982	79.12
287.213	94.12
287.444	85.12
287.675	97.12
287.906	91.12
288.138	75.12
288.369	90.12
288.6	85.12
288.831	82.12
289.062	97.12
289.293	74.12
289.524	79.12
289.755	79.12
289.986	66.12
290.217	76.12
290.448	101.12
290.679	83.12
290.91	93.12
291.141	86.12
291.371	104.12
291.602	90.12
291.833	80.12
292.064	88.12
292.295	93.12
292.526	90.12
292.757	85.12
292.987	91.12
293.218	85.12
293.449	98.12
293.68	77.12
293.91	88.12
294.141	81.12
294.372	83.12
294.603	86.12
294.833	78.12
295.064	82.12
295.295	85.12
295.525	73.12
295.756	75.12
295.987	72.12
296.217	86.12
296.448	78.12
296.679	77.12
296.909	77.12
297.14	74.12
297.37	96.12
297.601	88.12
297.831	80.12
298.062	87.12
298.292	81.12
298.523	78.12
298.753	83.12
298.984	74.12
299.214	68.12
299.445	92.12
299.675	97.12
299.905	95.12
300.136	77.12
300.366	86.12
300.597	76.12
300.827	67.12
301.057	81.12
301.288	73.12
301.518	93.12
301.748	77.12
301.979	95.12
302.209	84.12
302.439	85.12
302.669	88.12
302.9	77.12
303.13	74.12
303.36	77.12
303.59	89.12
303.82	85.12
304.051	86.12
304.281	85.12
304.511	91.12
304.741	87.12
304.971	91.12
305.201	76.12
305.431	87.12
305.661	79.12
305.891	87.12
306.121	85.12
306.352	66.12
306.582	69.12
306.812	85.12
307.042	75.12
307.272	79.12
307.502	87.12
307.731	79.12
307.961	105.12
308.191	79.12
308.421	85.12
308.651	73.12
308.881	75.12
309.111	92.12
309.341	78.12
309.571	82.12
309.8	81.12
310.03	87.12
310.26	82.12
310.49	80.12
310.72	84.12
310.949	90.12
311.179	85.12
311.409	90.12
311.639	89.12
311.868	82.12
312.098	76.12
312.328	91.12
312.557	95.12
312.787	77.12
313.017	86.12
313.246	78.12
313.476	74.12
313.706	75.12
313.935	85.12
314.165	73.12
314.394	73.12
314.624	87.12
314.853	84.12
315.083	71.12
315.312	78.12
315.542	85.12
315.771	69.12
316.001	78.12
316.23	71.12
316.46	81.12
316.689	91.12
316.919	68.12
317.148	83.12
317.377	85.12
317.607	79.12
317.836	95.12
318.065	77.12
318.295	79.12
318.524	77.12
318.753	74.12
318.983	97.12
319.212	91.12
319.441	95.12
319.67	75.12
319.9	99.12
320.129	71.12
320.358	89.12
320.587	90.12
320.816	73.12
321.046	62.12
321.275	89.12
321.504	90.12
321.733	84.12
321.962	75.12
322.191	82.12
322.42	80.12
322.649	70.12
322.878	80.12
323.108	91.12
323.337	82.12
323.566	82.12
323.795	85.12
324.024	74.12
324.253	84.12
324.482	71.12
324.71	73.12
324.939	65.12
325.168	90.12
325.397	90.12
325.626	82.12
325.855	85.12
326.084	79.12
326.313	74.12
326.542	86.12
326.77	81.12
326.999	78.12
327.228	77.12
327.457	84.12
327.686	75.12
327.914	73.12
328.143	81.12
328.372	72.12
328.6	83.12
328.829	72.12
329.058	87.12
329.287	79.12
329.515	81.12
329.744	94.12
329.972	77.12
330.201	85.12
330.43	87.12
330.658	77.12
330.887	74.12
331.115	84.12
331.344	87.12
331.572	93.12
331.801	87.12
332.03	85.12
332.258	82.12
332.486	86.12
332.715	89.12
332.943	80.12
333.172	86.12
333.4	96.12
333.629	78.12
333.857	74.12
334.085	68.12
334.314	72.12
334.542	64.12
334.771	86.12
334.999	83.12
335.227	73.12
335.455	85.12
335.684	84.12
335.912	82.12
336.14	88.12
336.369	69.12
336.597	89.12
336.825	79.12
337.053	79.12
337.281	70.12
337.51	82.12
337.738	87.12
337.966	79.12
338.194	90.12
338.422	69.12
338.65	86.12
338.878	83.12
339.106	67.12
339.334	78.12
339.562	73.12
339.79	85.12
340.018	81.12
340.246	71.12
340.474	102.12
340.702	77.12
340.93	81.12
341.158	85.12
341.386	89.12
341.614	86.12
341.842	77.12
342.07	65.12
342.298	85.12
342.526	89.12
342.754	71.12
342.981	96.12
343.209	75.12
343.437	85.12
343.665	85.12
343.893	81.12
344.12	83.12
344.348	91.12
344.576	98.12
344.804	96.12
345.031	71.12
345.259	83.12
345.487	82.12
345.714	83.12
345.942	73.12
346.17	87.12
346.397	80.12
346.625	85.12
346.853	71.12
347.08	76.12
347.308	86.12
347.535	98.12
347.763	73.12
347.99	82.12
348.218	101.12
348.445	94.12
348.673	79.12
348.9	85.12
349.128	73.12
349.355	77.12
349.583	82.12
349.81	85.12
350.037	94.12
350.265	81.12
350.492	73.12
350.72	102.12
350.947	71.12
351.174	82.12
351.402	94.12
351.629	67.12
351.856	79.12
352.083	85.12
352.311	85.12
352.538	77.12
352.765	74.12
352.992	72.12
353.22	92.12
353.447	89.12
353.674	89.12
353.901	77.12
354.128	79.12
354.355	85.12
354.583	82.12
354.81	76.12
355.037	93.12
355.264	79.12
355.491	73.12
355.718	95.12
355.945	86.12
356.172	81.12
356.399	79.12
356.626	90.12
356.853	79.12
357.08	90.12
357.307	65.12
357.534	67.12
357.761	79.12
357.988	93.12
358.215	79.12
358.441	79.12
358.668	73.12
358.895	75.12
359.122	87.12
359.349	73.12
359.576	82.12
359.802	85.12
360.029	65.12
360.256	65.12
360.483	89.12
360.709	79.12
360.936	66.12
361.163	77.12
361.39	85.12
361.616	82.12
361.843	92.12
362.07	79.12
362.296	80.12
362.523	96.12
362.749	82.12
362.976	81.12
363.203	100.12
363.429	77.12
363.656	73.12
363.882	79.12
364.109	75.12
364.335	79.12
364.562	79.12
364.788	75.12
365.015	80.12
365.241	83.12
365.468	85.12
365.694	89.12
365.92	87.12
366.147	80.12
366.373	75.12
366.599	83.12
366.826	76.12
367.052	76.12
367.278	92.12
367.505	76.12
367.731	79.12
367.957	87.12
368.184	90.12
368.41	80.12
368.636	79.12
368.862	78.12
369.089	86.12
369.315	83.12
369.541	74.12
369.767	81.12
369.993	87.12
370.219	75.12
370.445	79.12
370.672	86.12
370.898	73.12
371.124	95.12
371.35	75.12
371.576	77.12
371.802	63.12
372.028	91.12
372.254	71.12
372.48	79.12
372.706	91.12
372.932	83.12
373.158	81.12
373.384	94.12
373.61	96.12
373.835	85.12
374.061	89.12
374.287	82.12
374.513	70.12
374.739	81.12
374.965	90.12
375.191	84.12
375.416	61.12
375.642	80.12
375.868	79.12
376.094	87.12
376.319	78.12
376.545	82.12
376.771	74.12
376.997	97.12
377.222	76.12
377.448	80.12
377.674	78.12
377.899	76.12
378.125	83.12
378.35	77.12
378.576	73.12
378.802	75.12
379.027	94.12
379.253	91.12
379.478	93.12
379.704	90.12
379.929	74.12
380.155	74.12
380.38	87.12
380.606	79.12
380.831	74.12
381.057	104.12
381.282	80.12
381.507	99.12
381.733	75.12
381.958	82.12
382.184	79.12
382.409	73.12
382.634	78.12
382.86	90.12
383.085	73.12
383.31	82.12
383.535	78.12
383.761	86.12
383.986	83.12
384.211	89.12
384.436	79.12
384.662	87.12
384.887	86.12
385.112	89.12
385.337	83.12
385.562	95.12
385.787	77.12
386.013	75.12
386.238	81.12
386.463	81.12
386.688	90.12
386.913	73.12
387.138	85.12
387.363	70.12
387.588	86.12
387.813	86.12
388.038	85.12
388.263	93.12
388.488	91.12
388.713	72.12
388.938	72.12
389.163	76.12
389.387	82.12
389.612	74.12
389.837	90.12
390.062	90.12
390.287	77.12
390.512	74.12
390.736	69.12
390.961	79.12
391.186	94.12
391.411	67.12
391.636	81.12
391.86	76.12
392.085	67.12
392.31	78.12
392.534	83.12
392.759	78.12
392.984	77.12
393.208	79.12
393.433	71.12
393.658	82.12
393.882	84.12
394.107	84.12
394.331	88.12
394.556	79.12
394.78	83.12
395.005	79.12
395.229	93.12
395.454	85.12
395.678	87.12
395.903	78.12
396.127	87.12
396.352	79.12
396.576	77.12
396.801	79.12
397.025	86.12
397.249	78.12
397.474	73.12
397.698	73.12
397.922	90.12
398.147	77.12
398.371	88.12
398.595	89.12
398.82	80.12
399.044	84.12
399.268	85.12
399.492	82.12
399.717	71.12
399.941	71.12
400.165	77.12
400.389	85.12
400.613	80.12
400.837	95.12
401.062	85.12
401.286	80.12
401.51	79.12
401.734	73.12
401.958	66.12
402.182	73.12
402.406	79.12
402.63	79.12
402.854	85.12
403.078	80.12
403.302	83.12
403.526	70.12
403.75	74.12
403.974	82.12
404.198	88.12
404.422	85.12
404.645	83.12
404.869	73.12
405.093	79.12
405.317	82.12
405.541	73.12
405.765	63.12
405.988	83.12
406.212	97.12
406.436	85.12
406.66	81.12
406.883	71.12
407.107	67.12
407.331	64.12
407.555	66.12
407.778	72.12
408.002	73.12
408.226	63.12
408.449	82.12
408.673	63.12
408.896	81.12
409.12	83.12
409.344	81.12
409.567	75.12
409.791	78.12
410.014	84.12
410.238	89.12
410.461	75.12
410.685	73.12
410.908	82.12
411.132	74.12
411.355	68.12
411.578	77.12
411.802	84.12
412.025	85.12
412.249	85.12
412.472	68.12
412.695	67.12
412.919	70.12
413.142	91.12
413.365	74.12
413.589	77.12
413.812	71.12
414.035	82.12
414.258	67.12
414.482	78.12
414.705	72.12
414.928	98.12
415.151	83.12
415.374	83.12
415.597	89.12
415.821	79.12
416.044	89.12
416.267	87.12
416.49	73.12
416.713	78.12
416.936	86.12
417.159	80.12
417.382	80.12
417.605	86.12
417.828	71.12
418.051	75.12
418.274	73.12
418.497	82.12
418.72	75.12
418.943	84.12
419.166	75.12
419.389	75.12
419.611	78.12
419.834	81.12
420.057	75.12
420.28	81.12
420.503	75.12
420.726	85.12
420.948	83.12
421.171	91.12
421.394	94.12
421.617	84.12
421.839	85.12
422.062	76.12
422.285	84.12
422.507	78.12
422.73	71.12
422.953	76.12
423.175	85.12
423.398	83.12
423.621	65.12
423.843	77.12
424.066	69.12
424.288	82.12
424.511	98.12
424.733	67.12
424.956	86.12
425.178	93.12
425.401	73.12
425.623	92.12
425.846	81.12
426.068	72.12
426.291	80.12
426.513	91.12
426.735	77.12
426.958	79.12
427.18	84.12
427.402	82.12
427.625	77.12
427.847	77.12
428.069	78.12
428.292	64.12
428.514	73.12
428.736	65.12
428.958	86.12
429.181	81.12
429.403	74.12
429.625	78.12
429.847	80.12
430.069	78.12
430.292	70.12
430.514	85.12
430.736	80.12
430.958	85.12
431.18	74.12
431.402	77.12
431.624	83.12
431.846	86.12
432.068	75.12
432.29	83.12
432.512	71.12
432.734	81.12
432.956	80.12
433.178	90.12
433.4	85.12
433.622	67.12
433.844	73.12
434.066	72.12
434.287	71.12
434.509	85.12
434.731	81.12
434.953	79.12
435.175	77.12
435.397	87.12
435.618	78.12
435.84	81.12
436.062	64.12
436.284	89.12
436.505	90.12
436.727	75.12
436.949	89.12
437.17	74.12
437.392	73.12
437.614	65.12
437.835	81.12
438.057	70.12
438.278	61.12
438.5	77.12
438.721	73.12
438.943	89.12
439.165	78.12
439.386	71.12
439.608	79.12
439.829	79.12
440.05	82.12
440.272	65.12
440.493	93.12
440.715	77.12
440.936	83.12
441.158	82.12
441.379	74.12
441.6	81.12
441.822	70.12
442.043	86.12
442.264	70.12
442.486	77.12
442.707	73.12
442.928	72.12
443.149	79.12
443.371	77.12
443.592	63.12
443.813	75.12
444.034	83.12
444.255	82.12
444.476	83.12
444.698	77.12
444.919	70.12
445.14	178.12
445.361	129.12
445.582	79.12
445.803	85.12
446.024	85.12
446.245	88.12
446.466	85.12
446.687	82.12
446.908	79.12
447.129	81.12
447.35	73.12
447.571	93.12
447.792	78.12
448.013	85.12
448.234	81.12
448.455	77.12
448.675	93.12
448.896	88.12
449.117	64.12
449.338	76.12
449.559	77.12
449.779	78.12
450	81.12
450.221	72.12
450.442	82.12
450.662	94.12
450.883	71.12
451.104	68.12
451.324	76.12
451.545	73.12
451.766	75.12
451.986	76.12
452.207	73.12
452.428	81.12
452.648	71.12
452.869	88.12
453.089	73.12
453.31	82.12
453.53	76.12
453.751	77.12
453.971	74.12
454.192	74.12
454.412	74.12
454.633	78.12
454.853	81.12
455.073	60.12
455.294	73.12
455.514	84.12
455.734	82.12
455.955	73.12
456.175	86.12
456.395	75.12
456.616	70.12
456.836	69.12
457.056	73.12
457.276	78.12
457.497	87.12
457.717	81.12
457.937	78.12
458.157	77.12
458.377	77.12
458.598	72.12
458.818	60.12
459.038	82.12
459.258	74.12
459.478	80.12
459.698	81.12
459.918	83.12
460.138	73.12
460.358	81.12
460.578	88.12
460.798	79.12
461.018	77.12
461.238	94.12
461.458	90.12
461.678	89.12
461.898	80.12
462.118	71.12
462.338	85.12
462.558	94.12
462.777	86.12
462.997	74.12
463.217	75.12
463.437	81.12
463.657	81.12
463.876	76.12
464.096	77.12
464.316	74.12
464.536	83.12
464.755	89.12
464.975	71.12
465.195	71.12
465.414	79.12
465.634	81.12
465.854	66.12
466.073	77.12
466.293	84.12
466.512	77.12
466.732	82.12
466.951	72.12
467.171	79.12
467.391	99.12
467.61	80.12
467.829	73.12
468.049	76.12
468.268	69.12
468.488	97.12
468.707	80.12
468.927	82.12
469.146	90.12
469.365	92.12
469.585	75.12
469.804	87.12
470.023	72.12
470.243	81.12
470.462	66.12
470.681	74.12
470.901	67.12
471.12	84.12
471.339	81.12
471.558	77.12
471.777	73.12
471.997	76.12
472.216	92.12
472.435	92.12
472.654	76.12
472.873	77.12
473.092	84.12
473.311	61.12
473.53	73.12
473.749	79.12
473.968	82.12
474.187	73.12
474.406	75.12
474.625	96.12
474.844	78.12
475.063	82.12
475.282	70.12
475.501	85.12
475.72	81.12
475.939	90.12
476.158	75.12
476.377	74.12
476.596	74.12
476.814	81.12
477.033	85.12
477.252	70.12
477.471	90.12
477.69	79.12
477.908	78.12
478.127	75.12
478.346	80.12
478.564	78.12
478.783	74.12
479.002	70.12
479.22	77.12
479.439	97.12
479.658	73.12
479.876	85.12
480.095	82.12
480.313	69.12
480.532	88.12
480.751	89.12
480.969	92.12
481.188	72.12
481.406	95.12
481.624	79.12
481.843	81.12
482.061	83.12
482.28	75.12
482.498	81.12
482.717	71.12
482.935	78.12
483.153	85.12
483.372	59.12
483.59	76.12
483.808	73.12
484.027	96.12
484.245	90.12
484.463	64.12
484.681	84.12
484.9	80.12
485.118	78.12
485.336	79.12
485.554	88.12
485.772	72.12
485.99	79.12
486.209	84.12
486.427	90.12
486.645	75.12
486.863	79.12
487.081	83.12
487.299	74.12
487.517	80.12
487.735	78.12
487.953	81.12
488.171	82.12
488.389	81.12
488.607	78.12
488.825	77.12
489.043	73.12
489.261	72.12
489.479	77.12
489.696	76.12
489.914	92.12
490.132	68.12
490.35	75.12
490.568	69.12
490.786	85.12
491.003	87.12
491.221	91.12
491.439	73.12
491.657	75.12
491.874	89.12
492.092	83.12
492.31	67.12
492.527	88.12
492.745	78.12
492.963	79.12
493.18	94.12
493.398	80.12
493.615	73.12
493.833	87.12
494.05	73.12
494.268	83.12
494.485	67.12
494.703	66.12
494.92	73.12
495.138	79.12
495.355	77.12
495.573	78.12
495.79	86.12
496.008	70.12
496.225	91.12
496.442	82.12
496.66	87.12
496.877	72.12
497.094	89.12
497.312	75.12
497.529	66.12
497.746	89.12
497.963	81.12
498.181	103.12
498.398	88.12
498.615	85.12
498.832	91.12
499.049	79.12
499.267	77.12
499.484	81.12
499.701	77.12
499.918	77.12
500.135	84.12
500.352	88.12
500.569	81.12
500.786	85.12
501.003	75.12
501.22	68.12
501.437	78.12
501.654	70.12
501.871	84.12
502.088	80.12
502.305	99.12
502.522	74.12
502.739	74.12
502.956	78.12
503.172	89.12
503.389	73.12
503.606	64.12
503.823	85.12
504.04	81.12
504.256	85.12
504.473	79.12
504.69	83.12
504.907	74.12
505.123	68.12
505.34	65.12
505.557	79.12
505.773	65.12
505.99	89.12
506.207	67.12
506.423	73.12
506.64	64.12
506.856	86.12
507.073	90.12
507.289	84.12
507.506	86.12
507.722	88.12
507.939	78.12
508.155	86.12
508.372	85.12
508.588	83.12
508.805	91.12
509.021	82.12
509.238	77.12
509.454	90.12
509.67	94.12
509.887	80.12
510.103	87.12
510.319	78.12
510.536	78.12
510.752	89.12
510.968	68.12
511.184	69.12
511.401	75.12
511.617	83.12
511.833	81.12
512.049	82.12
512.265	79.12
512.481	91.12
512.698	68.12
512.914	84.12
513.13	90.12
513.346	77.12
513.562	97.12
513.778	77.12
513.994	80.12
514.21	80.12
514.426	78.12
514.642	85.12
514.858	72.12
515.074	91.12
515.29	89.12
515.506	77.12
515.721	74.12
515.937	86.12
516.153	83.12
516.369	77.12
516.585	80.12
516.801	85.12
517.016	86.12
517.232	75.12
517.448	76.12
517.664	77.12
517.879	82.12
518.095	89.12
518.311	77.12
518.527	86.12
518.742	71.12
518.958	83.12
519.173	89.12
519.389	83.12
519.605	83.12
519.82	73.12
520.036	88.12
