Data from Background_1_HRD10591_00056.txt Node
Date: Wed Nov 05 14:39:25 EST 2025
User: Yrep
Spectrometer: HR+D1059
Trigger mode: 1
Integration Time (sec): 1.000000E-1
Scans to average: 1
Electric dark correction enabled: true
Nonlinearity correction enabled: false
Boxcar width: 0
XAxis mode: Wavelengths
Number of Pixels in Spectrum: 2048
>>>>>Begin Spectral Data<<<<<
223.165	-21.94
223.4	-21.94
223.635	-21.94
223.869	-21.94
224.104	-14.94
224.338	-15.94
224.573	-26.94
224.808	-2.94
225.042	-3.94
225.277	-6.94
225.511	-6.94
225.746	32.06
225.98	11.06
226.215	-1.94
226.449	17.06
226.683	20.06
226.918	17.06
227.152	27.06
227.387	35.06
227.621	36.06
227.856	33.06
228.09	41.06
228.324	48.06
228.559	57.06
228.793	58.06
229.027	52.06
229.262	54.06
229.496	60.06
229.73	63.06
229.964	80.06
230.199	72.06
230.433	59.06
230.667	72.06
230.901	70.06
231.136	76.06
231.37	84.06
231.604	83.06
231.838	79.06
232.072	80.06
232.306	79.06
232.541	64.06
232.775	81.06
233.009	80.06
233.243	79.06
233.477	80.06
233.711	93.06
233.945	84.06
234.179	80.06
234.413	74.06
234.647	88.06
234.881	80.06
235.115	77.06
235.349	90.06
235.583	74.06
235.817	75.06
236.051	79.06
236.285	91.06
236.519	77.06
236.753	92.06
236.987	87.06
237.221	62.06
237.455	80.06
237.689	85.06
237.922	62.06
238.156	71.06
238.39	93.06
238.624	66.06
238.858	74.06
239.091	79.06
239.325	73.06
239.559	78.06
239.793	77.06
240.027	91.06
240.26	69.06
240.494	71.06
240.728	76.06
240.961	72.06
241.195	78.06
241.429	70.06
241.662	69.06
241.896	73.06
242.13	78.06
242.363	76.06
242.597	82.06
242.83	80.06
243.064	58.06
243.298	93.06
243.531	73.06
243.765	82.06
243.998	75.06
244.232	72.06
244.465	77.06
244.699	82.06
244.932	69.06
245.166	74.06
245.399	77.06
245.633	76.06
245.866	87.06
246.099	76.06
246.333	91.06
246.566	72.06
246.8	88.06
247.033	72.06
247.266	82.06
247.5	75.06
247.733	67.06
247.966	83.06
248.2	70.06
248.433	87.06
248.666	73.06
248.899	81.06
249.133	70.06
249.366	77.06
249.599	77.06
249.832	64.06
250.066	75.06
250.299	75.06
250.532	76.06
250.765	71.06
250.998	86.06
251.231	74.06
251.465	82.06
251.698	74.06
251.931	79.06
252.164	73.06
252.397	81.06
252.63	80.06
252.863	80.06
253.096	76.06
253.329	71.06
253.562	73.06
253.795	64.06
254.028	78.06
254.261	63.06
254.494	80.06
254.727	90.06
254.96	102.06
255.193	88.06
255.426	72.06
255.659	71.06
255.892	88.06
256.124	74.06
256.357	89.06
256.59	86.06
256.823	90.06
257.056	79.06
257.289	67.06
257.521	71.06
257.754	92.06
257.987	70.06
258.22	74.06
258.452	85.06
258.685	75.06
258.918	94.06
259.151	82.06
259.383	80.06
259.616	73.06
259.849	88.06
260.081	79.06
260.314	76.06
260.547	91.06
260.779	78.06
261.012	76.06
261.244	63.06
261.477	72.06
261.71	77.06
261.942	78.06
262.175	74.06
262.407	80.06
262.64	81.06
262.872	78.06
263.105	74.06
263.337	79.06
263.57	84.06
263.802	90.06
264.035	73.06
264.267	78.06
264.499	73.06
264.732	72.06
264.964	88.06
265.197	73.06
265.429	73.06
265.661	82.06
265.894	90.06
266.126	78.06
266.358	84.06
266.591	77.06
266.823	75.06
267.055	85.06
267.287	78.06
267.52	86.06
267.752	81.06
267.984	64.06
268.216	79.06
268.448	74.06
268.681	90.06
268.913	84.06
269.145	76.06
269.377	76.06
269.609	62.06
269.841	75.06
270.073	81.06
270.306	89.06
270.538	74.06
270.77	77.06
271.002	84.06
271.234	81.06
271.466	87.06
271.698	66.06
271.93	95.06
272.162	84.06
272.394	70.06
272.626	66.06
272.858	80.06
273.09	74.06
273.322	81.06
273.553	82.06
273.785	58.06
274.017	80.06
274.249	86.06
274.481	78.06
274.713	76.06
274.945	76.06
275.176	76.06
275.408	85.06
275.64	87.06
275.872	63.06
276.104	74.06
276.335	72.06
276.567	78.06
276.799	70.06
277.031	86.06
277.262	88.06
277.494	93.06
277.726	79.06
277.957	91.06
278.189	77.06
278.421	89.06
278.652	86.06
278.884	77.06
279.115	89.06
279.347	87.06
279.579	77.06
279.81	83.06
280.042	84.06
280.273	76.06
280.505	80.06
280.736	90.06
280.968	93.06
281.199	88.06
281.431	81.06
281.662	88.06
281.894	79.06
282.125	73.06
282.356	80.06
282.588	70.06
282.819	88.06
283.051	76.06
283.282	75.06
283.513	91.06
283.745	92.06
283.976	85.06
284.207	72.06
284.439	85.06
284.67	78.06
284.901	82.06
285.132	85.06
285.364	80.06
285.595	100.06
285.826	77.06
286.057	80.06
286.288	89.06
286.52	76.06
286.751	92.06
286.982	78.06
287.213	83.06
287.444	82.06
287.675	78.06
287.906	84.06
288.138	87.06
288.369	80.06
288.6	80.06
288.831	78.06
289.062	80.06
289.293	86.06
289.524	80.06
289.755	93.06
289.986	88.06
290.217	93.06
290.448	72.06
290.679	87.06
290.91	71.06
291.141	70.06
291.371	86.06
291.602	84.06
291.833	89.06
292.064	92.06
292.295	72.06
292.526	98.06
292.757	82.06
292.987	76.06
293.218	80.06
293.449	82.06
293.68	94.06
293.91	92.06
294.141	90.06
294.372	88.06
294.603	74.06
294.833	86.06
295.064	89.06
295.295	85.06
295.525	84.06
295.756	83.06
295.987	100.06
296.217	98.06
296.448	100.06
296.679	82.06
296.909	85.06
297.14	82.06
297.37	75.06
297.601	78.06
297.831	81.06
298.062	87.06
298.292	76.06
298.523	84.06
298.753	78.06
298.984	78.06
299.214	90.06
299.445	78.06
299.675	85.06
299.905	78.06
300.136	85.06
300.366	73.06
300.597	84.06
300.827	83.06
301.057	81.06
301.288	77.06
301.518	79.06
301.748	81.06
301.979	89.06
302.209	87.06
302.439	74.06
302.669	76.06
302.9	91.06
303.13	80.06
303.36	64.06
303.59	88.06
303.82	85.06
304.051	76.06
304.281	72.06
304.511	72.06
304.741	82.06
304.971	81.06
305.201	79.06
305.431	86.06
305.661	85.06
305.891	88.06
306.121	97.06
306.352	77.06
306.582	94.06
306.812	85.06
307.042	84.06
307.272	86.06
307.502	87.06
307.731	74.06
307.961	93.06
308.191	82.06
308.421	77.06
308.651	89.06
308.881	80.06
309.111	94.06
309.341	73.06
309.571	81.06
309.8	80.06
310.03	86.06
310.26	84.06
310.49	87.06
310.72	82.06
310.949	83.06
311.179	77.06
311.409	77.06
311.639	81.06
311.868	80.06
312.098	80.06
312.328	64.06
312.557	84.06
312.787	71.06
313.017	80.06
313.246	86.06
313.476	75.06
313.706	80.06
313.935	76.06
314.165	77.06
314.394	95.06
314.624	82.06
314.853	96.06
315.083	82.06
315.312	68.06
315.542	90.06
315.771	72.06
316.001	72.06
316.23	72.06
316.46	77.06
316.689	82.06
316.919	92.06
317.148	84.06
317.377	80.06
317.607	77.06
317.836	92.06
318.065	73.06
318.295	76.06
318.524	81.06
318.753	84.06
318.983	69.06
319.212	82.06
319.441	76.06
319.67	79.06
319.9	82.06
320.129	82.06
320.358	88.06
320.587	85.06
320.816	103.06
321.046	79.06
321.275	78.06
321.504	80.06
321.733	81.06
321.962	82.06
322.191	81.06
322.42	82.06
322.649	90.06
322.878	80.06
323.108	84.06
323.337	80.06
323.566	82.06
323.795	77.06
324.024	87.06
324.253	86.06
324.482	100.06
324.71	78.06
324.939	74.06
325.168	99.06
325.397	83.06
325.626	77.06
325.855	79.06
326.084	96.06
326.313	73.06
326.542	87.06
326.77	92.06
326.999	95.06
327.228	96.06
327.457	82.06
327.686	81.06
327.914	68.06
328.143	86.06
328.372	83.06
328.6	88.06
328.829	74.06
329.058	74.06
329.287	79.06
329.515	70.06
329.744	78.06
329.972	87.06
330.201	83.06
330.43	82.06
330.658	81.06
330.887	85.06
331.115	83.06
331.344	88.06
331.572	78.06
331.801	81.06
332.03	80.06
332.258	80.06
332.486	75.06
332.715	84.06
332.943	80.06
333.172	92.06
333.4	90.06
333.629	89.06
333.857	95.06
334.085	86.06
334.314	80.06
334.542	80.06
334.771	83.06
334.999	84.06
335.227	80.06
335.455	82.06
335.684	75.06
335.912	87.06
336.14	86.06
336.369	65.06
336.597	79.06
336.825	77.06
337.053	73.06
337.281	85.06
337.51	86.06
337.738	74.06
337.966	84.06
338.194	85.06
338.422	77.06
338.65	92.06
338.878	105.06
339.106	84.06
339.334	82.06
339.562	97.06
339.79	84.06
340.018	85.06
340.246	79.06
340.474	88.06
340.702	93.06
340.93	92.06
341.158	76.06
341.386	78.06
341.614	90.06
341.842	75.06
342.07	68.06
342.298	85.06
342.526	90.06
342.754	82.06
342.981	83.06
343.209	76.06
343.437	79.06
343.665	96.06
343.893	77.06
344.12	82.06
344.348	76.06
344.576	72.06
344.804	96.06
345.031	87.06
345.259	81.06
345.487	77.06
345.714	91.06
345.942	84.06
346.17	87.06
346.397	84.06
346.625	87.06
346.853	70.06
347.08	81.06
347.308	88.06
347.535	89.06
347.763	71.06
347.99	80.06
348.218	83.06
348.445	76.06
348.673	86.06
348.9	82.06
349.128	90.06
349.355	91.06
349.583	90.06
349.81	84.06
350.037	85.06
350.265	89.06
350.492	78.06
350.72	72.06
350.947	71.06
351.174	82.06
351.402	90.06
351.629	82.06
351.856	87.06
352.083	82.06
352.311	78.06
352.538	82.06
352.765	77.06
352.992	73.06
353.22	70.06
353.447	79.06
353.674	86.06
353.901	78.06
354.128	82.06
354.355	80.06
354.583	80.06
354.81	91.06
355.037	85.06
355.264	92.06
355.491	90.06
355.718	75.06
355.945	84.06
356.172	62.06
356.399	75.06
356.626	83.06
356.853	84.06
357.08	78.06
357.307	92.06
357.534	70.06
357.761	93.06
357.988	75.06
358.215	79.06
358.441	83.06
358.668	86.06
358.895	90.06
359.122	84.06
359.349	93.06
359.576	82.06
359.802	84.06
360.029	78.06
360.256	78.06
360.483	64.06
360.709	72.06
360.936	96.06
361.163	87.06
361.39	93.06
361.616	88.06
361.843	80.06
362.07	91.06
362.296	101.06
362.523	74.06
362.749	75.06
362.976	76.06
363.203	75.06
363.429	85.06
363.656	85.06
363.882	99.06
364.109	80.06
364.335	100.06
364.562	70.06
364.788	82.06
365.015	60.06
365.241	76.06
365.468	74.06
365.694	89.06
365.92	83.06
366.147	90.06
366.373	81.06
366.599	80.06
366.826	91.06
367.052	76.06
367.278	77.06
367.505	90.06
367.731	85.06
367.957	69.06
368.184	85.06
368.41	80.06
368.636	83.06
368.862	78.06
369.089	76.06
369.315	70.06
369.541	90.06
369.767	90.06
369.993	80.06
370.219	76.06
370.445	89.06
370.672	92.06
370.898	87.06
371.124	86.06
371.35	86.06
371.576	86.06
371.802	83.06
372.028	84.06
372.254	75.06
372.48	84.06
372.706	62.06
372.932	88.06
373.158	81.06
373.384	80.06
373.61	84.06
373.835	80.06
374.061	81.06
374.287	81.06
374.513	79.06
374.739	74.06
374.965	67.06
375.191	81.06
375.416	96.06
375.642	75.06
375.868	81.06
376.094	92.06
376.319	78.06
376.545	82.06
376.771	73.06
376.997	78.06
377.222	78.06
377.448	78.06
377.674	83.06
377.899	75.06
378.125	77.06
378.35	79.06
378.576	72.06
378.802	84.06
379.027	85.06
379.253	88.06
379.478	74.06
379.704	80.06
379.929	74.06
380.155	80.06
380.38	74.06
380.606	74.06
380.831	60.06
381.057	92.06
381.282	79.06
381.507	80.06
381.733	70.06
381.958	73.06
382.184	94.06
382.409	94.06
382.634	92.06
382.86	70.06
383.085	69.06
383.31	77.06
383.535	78.06
383.761	80.06
383.986	80.06
384.211	84.06
384.436	83.06
384.662	84.06
384.887	72.06
385.112	78.06
385.337	85.06
385.562	84.06
385.787	71.06
386.013	88.06
386.238	87.06
386.463	82.06
386.688	98.06
386.913	71.06
387.138	92.06
387.363	94.06
387.588	86.06
387.813	87.06
388.038	78.06
388.263	78.06
388.488	80.06
388.713	80.06
388.938	67.06
389.163	90.06
389.387	89.06
389.612	76.06
389.837	74.06
390.062	76.06
390.287	93.06
390.512	72.06
390.736	68.06
390.961	82.06
391.186	89.06
391.411	79.06
391.636	88.06
391.86	81.06
392.085	79.06
392.31	73.06
392.534	86.06
392.759	83.06
392.984	94.06
393.208	78.06
393.433	81.06
393.658	80.06
393.882	86.06
394.107	79.06
394.331	86.06
394.556	65.06
394.78	78.06
395.005	85.06
395.229	64.06
395.454	84.06
395.678	84.06
395.903	72.06
396.127	81.06
396.352	71.06
396.576	72.06
396.801	76.06
397.025	65.06
397.249	72.06
397.474	74.06
397.698	75.06
397.922	52.06
398.147	58.06
398.371	86.06
398.595	80.06
398.82	74.06
399.044	79.06
399.268	90.06
399.492	78.06
399.717	86.06
399.941	76.06
400.165	102.06
400.389	80.06
400.613	78.06
400.837	77.06
401.062	76.06
401.286	61.06
401.51	78.06
401.734	82.06
401.958	74.06
402.182	76.06
402.406	64.06
402.63	57.06
402.854	70.06
403.078	80.06
403.302	87.06
403.526	87.06
403.75	80.06
403.974	72.06
404.198	93.06
404.422	78.06
404.645	74.06
404.869	74.06
405.093	73.06
405.317	73.06
405.541	87.06
405.765	72.06
405.988	73.06
406.212	95.06
406.436	73.06
406.66	76.06
406.883	66.06
407.107	62.06
407.331	80.06
407.555	74.06
407.778	66.06
408.002	87.06
408.226	84.06
408.449	82.06
408.673	84.06
408.896	86.06
409.12	73.06
409.344	87.06
409.567	73.06
409.791	75.06
410.014	93.06
410.238	84.06
410.461	73.06
410.685	72.06
410.908	80.06
411.132	70.06
411.355	87.06
411.578	69.06
411.802	72.06
412.025	83.06
412.249	80.06
412.472	79.06
412.695	81.06
412.919	93.06
413.142	60.06
413.365	62.06
413.589	72.06
413.812	88.06
414.035	103.06
414.258	76.06
414.482	92.06
414.705	73.06
414.928	84.06
415.151	80.06
415.374	79.06
415.597	81.06
415.821	76.06
416.044	77.06
416.267	88.06
416.49	90.06
416.713	72.06
416.936	80.06
417.159	65.06
417.382	70.06
417.605	65.06
417.828	72.06
418.051	84.06
418.274	74.06
418.497	76.06
418.72	89.06
418.943	88.06
419.166	68.06
419.389	76.06
419.611	79.06
419.834	72.06
420.057	72.06
420.28	84.06
420.503	86.06
420.726	76.06
420.948	74.06
421.171	64.06
421.394	86.06
421.617	87.06
421.839	93.06
422.062	87.06
422.285	69.06
422.507	56.06
422.73	70.06
422.953	70.06
423.175	76.06
423.398	87.06
423.621	87.06
423.843	85.06
424.066	80.06
424.288	68.06
424.511	76.06
424.733	76.06
424.956	76.06
425.178	70.06
425.401	85.06
425.623	69.06
425.846	98.06
426.068	80.06
426.291	68.06
426.513	87.06
426.735	81.06
426.958	69.06
427.18	80.06
427.402	90.06
427.625	71.06
427.847	65.06
428.069	65.06
428.292	87.06
428.514	81.06
428.736	76.06
428.958	77.06
429.181	73.06
429.403	65.06
429.625	76.06
429.847	73.06
430.069	79.06
430.292	88.06
430.514	76.06
430.736	75.06
430.958	82.06
431.18	70.06
431.402	88.06
431.624	74.06
431.846	58.06
432.068	76.06
432.29	73.06
432.512	100.06
432.734	72.06
432.956	88.06
433.178	64.06
433.4	79.06
433.622	70.06
433.844	90.06
434.066	69.06
434.287	70.06
434.509	84.06
434.731	85.06
434.953	72.06
435.175	76.06
435.397	79.06
435.618	89.06
435.84	72.06
436.062	74.06
436.284	85.06
436.505	92.06
436.727	85.06
436.949	83.06
437.17	63.06
437.392	70.06
437.614	82.06
437.835	67.06
438.057	72.06
438.278	78.06
438.5	75.06
438.721	101.06
438.943	77.06
439.165	79.06
439.386	66.06
439.608	87.06
439.829	87.06
440.05	84.06
440.272	92.06
440.493	72.06
440.715	58.06
440.936	76.06
441.158	59.06
441.379	77.06
441.6	88.06
441.822	64.06
442.043	73.06
442.264	75.06
442.486	61.06
442.707	80.06
442.928	69.06
443.149	79.06
443.371	75.06
443.592	75.06
443.813	69.06
444.034	74.06
444.255	92.06
444.476	78.06
444.698	74.06
444.919	79.06
445.14	126.06
445.361	113.06
445.582	76.06
445.803	94.06
446.024	84.06
446.245	80.06
446.466	70.06
446.687	62.06
446.908	78.06
447.129	74.06
447.35	99.06
447.571	69.06
447.792	72.06
448.013	78.06
448.234	79.06
448.455	72.06
448.675	85.06
448.896	72.06
449.117	76.06
449.338	71.06
449.559	78.06
449.779	85.06
450	96.06
450.221	76.06
450.442	92.06
450.662	83.06
450.883	80.06
451.104	85.06
451.324	90.06
451.545	79.06
451.766	79.06
451.986	71.06
452.207	67.06
452.428	81.06
452.648	72.06
452.869	84.06
453.089	84.06
453.31	84.06
453.53	74.06
453.751	86.06
453.971	77.06
454.192	74.06
454.412	76.06
454.633	77.06
454.853	79.06
455.073	72.06
455.294	86.06
455.514	87.06
455.734	73.06
455.955	85.06
456.175	87.06
456.395	72.06
456.616	80.06
456.836	76.06
457.056	63.06
457.276	65.06
457.497	68.06
457.717	68.06
457.937	72.06
458.157	79.06
458.377	72.06
458.598	85.06
458.818	64.06
459.038	70.06
459.258	74.06
459.478	66.06
459.698	76.06
459.918	62.06
460.138	73.06
460.358	76.06
460.578	86.06
460.798	69.06
461.018	67.06
461.238	66.06
461.458	52.06
461.678	86.06
461.898	67.06
462.118	88.06
462.338	76.06
462.558	80.06
462.777	84.06
462.997	80.06
463.217	78.06
463.437	88.06
463.657	95.06
463.876	73.06
464.096	62.06
464.316	81.06
464.536	72.06
464.755	87.06
464.975	74.06
465.195	88.06
465.414	78.06
465.634	80.06
465.854	91.06
466.073	70.06
466.293	78.06
466.512	85.06
466.732	66.06
466.951	82.06
467.171	81.06
467.391	70.06
467.61	69.06
467.829	85.06
468.049	70.06
468.268	76.06
468.488	66.06
468.707	76.06
468.927	85.06
469.146	82.06
469.365	87.06
469.585	86.06
469.804	75.06
470.023	76.06
470.243	71.06
470.462	78.06
470.681	70.06
470.901	78.06
471.12	77.06
471.339	78.06
471.558	71.06
471.777	78.06
471.997	76.06
472.216	80.06
472.435	69.06
472.654	72.06
472.873	62.06
473.092	80.06
473.311	84.06
473.53	76.06
473.749	76.06
473.968	86.06
474.187	81.06
474.406	81.06
474.625	82.06
474.844	79.06
475.063	71.06
475.282	72.06
475.501	64.06
475.72	84.06
475.939	76.06
476.158	75.06
476.377	84.06
476.596	86.06
476.814	69.06
477.033	80.06
477.252	82.06
477.471	79.06
477.69	72.06
477.908	76.06
478.127	79.06
478.346	80.06
478.564	81.06
478.783	77.06
479.002	80.06
479.22	83.06
479.439	78.06
479.658	80.06
479.876	83.06
480.095	65.06
480.313	80.06
480.532	79.06
480.751	71.06
480.969	69.06
481.188	78.06
481.406	85.06
481.624	72.06
481.843	76.06
482.061	66.06
482.28	86.06
482.498	76.06
482.717	67.06
482.935	86.06
483.153	80.06
483.372	88.06
483.59	74.06
483.808	78.06
484.027	76.06
484.245	81.06
484.463	80.06
484.681	66.06
484.9	75.06
485.118	74.06
485.336	60.06
485.554	89.06
485.772	74.06
485.99	86.06
486.209	93.06
486.427	64.06
486.645	66.06
486.863	76.06
487.081	76.06
487.299	70.06
487.517	61.06
487.735	73.06
487.953	79.06
488.171	85.06
488.389	86.06
488.607	64.06
488.825	72.06
489.043	83.06
489.261	91.06
489.479	65.06
489.696	79.06
489.914	82.06
490.132	79.06
490.35	80.06
490.568	73.06
490.786	87.06
491.003	79.06
491.221	81.06
491.439	86.06
491.657	88.06
491.874	83.06
492.092	86.06
492.31	74.06
492.527	69.06
492.745	82.06
492.963	80.06
493.18	76.06
493.398	78.06
493.615	92.06
493.833	92.06
494.05	76.06
494.268	81.06
494.485	76.06
494.703	79.06
494.92	73.06
495.138	79.06
495.355	84.06
495.573	85.06
495.79	74.06
496.008	82.06
496.225	84.06
496.442	63.06
496.66	93.06
496.877	84.06
497.094	71.06
497.312	90.06
497.529	78.06
497.746	65.06
497.963	80.06
498.181	72.06
498.398	79.06
498.615	78.06
498.832	75.06
499.049	69.06
499.267	71.06
499.484	90.06
499.701	93.06
499.918	86.06
500.135	78.06
500.352	76.06
500.569	80.06
500.786	85.06
501.003	66.06
501.22	81.06
501.437	78.06
501.654	64.06
501.871	89.06
502.088	79.06
502.305	74.06
502.522	104.06
502.739	88.06
502.956	78.06
503.172	81.06
503.389	74.06
503.606	75.06
503.823	78.06
504.04	85.06
504.256	57.06
504.473	84.06
504.69	66.06
504.907	87.06
505.123	83.06
505.34	87.06
505.557	83.06
505.773	74.06
505.99	79.06
506.207	78.06
506.423	62.06
506.64	85.06
506.856	78.06
507.073	79.06
507.289	85.06
507.506	95.06
507.722	80.06
507.939	81.06
508.155	77.06
508.372	81.06
508.588	68.06
508.805	81.06
509.021	82.06
509.238	85.06
509.454	79.06
509.67	74.06
509.887	90.06
510.103	80.06
510.319	84.06
510.536	79.06
510.752	74.06
510.968	68.06
511.184	80.06
511.401	70.06
511.617	88.06
511.833	86.06
512.049	80.06
512.265	72.06
512.481	72.06
512.698	85.06
512.914	76.06
513.13	93.06
513.346	78.06
513.562	82.06
513.778	71.06
513.994	87.06
514.21	73.06
514.426	81.06
514.642	69.06
514.858	92.06
515.074	72.06
515.29	82.06
515.506	92.06
515.721	84.06
515.937	82.06
516.153	92.06
516.369	68.06
516.585	69.06
516.801	74.06
517.016	90.06
517.232	85.06
517.448	72.06
517.664	72.06
517.879	80.06
518.095	78.06
518.311	74.06
518.527	82.06
518.742	82.06
518.958	73.06
519.173	81.06
519.389	65.06
519.605	74.06
519.82	68.06
520.036	68.06
