Data from Background_1_HRD10591_00040.txt Node
Date: Wed Nov 05 14:39:17 EST 2025
User: Yrep
Spectrometer: HR+D1059
Trigger mode: 1
Integration Time (sec): 1.000000E-1
Scans to average: 1
Electric dark correction enabled: true
Nonlinearity correction enabled: false
Boxcar width: 0
XAxis mode: Wavelengths
Number of Pixels in Spectrum: 2048
>>>>>Begin Spectral Data<<<<<
223.165	-16.12
223.4	-16.12
223.635	-16.12
223.869	-18.12
224.104	-19.12
224.338	-13.12
224.573	-28.12
224.808	-12.12
225.042	-8.12
225.277	-20.12
225.511	-10.12
225.746	4.88
225.98	6.88
226.215	31.88
226.449	17.88
226.683	25.88
226.918	28.88
227.152	28.88
227.387	39.88
227.621	37.88
227.856	52.88
228.09	38.88
228.324	58.88
228.559	51.88
228.793	45.88
229.027	79.88
229.262	80.88
229.496	71.88
229.73	74.88
229.964	69.88
230.199	79.88
230.433	79.88
230.667	92.88
230.901	69.88
231.136	84.88
231.37	85.88
231.604	72.88
231.838	79.88
232.072	105.88
232.306	83.88
232.541	79.88
232.775	73.88
233.009	78.88
233.243	74.88
233.477	86.88
233.711	90.88
233.945	79.88
234.179	92.88
234.413	97.88
234.647	76.88
234.881	86.88
235.115	71.88
235.349	87.88
235.583	81.88
235.817	82.88
236.051	92.88
236.285	87.88
236.519	71.88
236.753	82.88
236.987	86.88
237.221	76.88
237.455	78.88
237.689	77.88
237.922	66.88
238.156	79.88
238.39	95.88
238.624	89.88
238.858	82.88
239.091	75.88
239.325	91.88
239.559	78.88
239.793	81.88
240.027	79.88
240.26	71.88
240.494	76.88
240.728	92.88
240.961	91.88
241.195	71.88
241.429	77.88
241.662	90.88
241.896	71.88
242.13	82.88
242.363	81.88
242.597	79.88
242.83	90.88
243.064	87.88
243.298	79.88
243.531	83.88
243.765	89.88
243.998	82.88
244.232	73.88
244.465	79.88
244.699	82.88
244.932	78.88
245.166	76.88
245.399	76.88
245.633	75.88
245.866	80.88
246.099	75.88
246.333	81.88
246.566	70.88
246.8	87.88
247.033	71.88
247.266	76.88
247.5	84.88
247.733	68.88
247.966	74.88
248.2	69.88
248.433	89.88
248.666	72.88
248.899	74.88
249.133	80.88
249.366	93.88
249.599	71.88
249.832	77.88
250.066	87.88
250.299	86.88
250.532	85.88
250.765	81.88
250.998	75.88
251.231	72.88
251.465	80.88
251.698	82.88
251.931	78.88
252.164	83.88
252.397	73.88
252.63	95.88
252.863	93.88
253.096	81.88
253.329	75.88
253.562	76.88
253.795	80.88
254.028	74.88
254.261	99.88
254.494	82.88
254.727	82.88
254.96	78.88
255.193	83.88
255.426	80.88
255.659	61.88
255.892	99.88
256.124	77.88
256.357	79.88
256.59	82.88
256.823	85.88
257.056	83.88
257.289	98.88
257.521	78.88
257.754	88.88
257.987	93.88
258.22	92.88
258.452	79.88
258.685	78.88
258.918	79.88
259.151	60.88
259.383	88.88
259.616	80.88
259.849	71.88
260.081	82.88
260.314	90.88
260.547	86.88
260.779	54.88
261.012	80.88
261.244	77.88
261.477	82.88
261.71	79.88
261.942	87.88
262.175	79.88
262.407	88.88
262.64	86.88
262.872	89.88
263.105	93.88
263.337	87.88
263.57	69.88
263.802	87.88
264.035	89.88
264.267	84.88
264.499	90.88
264.732	95.88
264.964	82.88
265.197	79.88
265.429	86.88
265.661	83.88
265.894	91.88
266.126	92.88
266.358	87.88
266.591	76.88
266.823	77.88
267.055	85.88
267.287	78.88
267.52	92.88
267.752	89.88
267.984	94.88
268.216	85.88
268.448	91.88
268.681	82.88
268.913	75.88
269.145	87.88
269.377	79.88
269.609	76.88
269.841	85.88
270.073	81.88
270.306	85.88
270.538	89.88
270.77	93.88
271.002	71.88
271.234	96.88
271.466	94.88
271.698	85.88
271.93	86.88
272.162	97.88
272.394	82.88
272.626	79.88
272.858	88.88
273.09	77.88
273.322	78.88
273.553	85.88
273.785	92.88
274.017	78.88
274.249	75.88
274.481	82.88
274.713	79.88
274.945	97.88
275.176	94.88
275.408	71.88
275.64	86.88
275.872	73.88
276.104	83.88
276.335	84.88
276.567	89.88
276.799	83.88
277.031	87.88
277.262	99.88
277.494	89.88
277.726	87.88
277.957	93.88
278.189	81.88
278.421	82.88
278.652	99.88
278.884	93.88
279.115	71.88
279.347	76.88
279.579	79.88
279.81	78.88
280.042	75.88
280.273	84.88
280.505	89.88
280.736	76.88
280.968	83.88
281.199	83.88
281.431	86.88
281.662	86.88
281.894	87.88
282.125	91.88
282.356	65.88
282.588	99.88
282.819	94.88
283.051	79.88
283.282	72.88
283.513	88.88
283.745	79.88
283.976	82.88
284.207	87.88
284.439	83.88
284.67	84.88
284.901	90.88
285.132	92.88
285.364	86.88
285.595	78.88
285.826	89.88
286.057	79.88
286.288	89.88
286.52	104.88
286.751	86.88
286.982	81.88
287.213	79.88
287.444	94.88
287.675	86.88
287.906	105.88
288.138	90.88
288.369	100.88
288.6	89.88
288.831	88.88
289.062	91.88
289.293	84.88
289.524	78.88
289.755	90.88
289.986	86.88
290.217	97.88
290.448	92.88
290.679	90.88
290.91	94.88
291.141	82.88
291.371	80.88
291.602	81.88
291.833	82.88
292.064	84.88
292.295	82.88
292.526	75.88
292.757	93.88
292.987	96.88
293.218	87.88
293.449	98.88
293.68	92.88
293.91	82.88
294.141	83.88
294.372	75.88
294.603	91.88
294.833	92.88
295.064	89.88
295.295	91.88
295.525	94.88
295.756	89.88
295.987	78.88
296.217	83.88
296.448	89.88
296.679	83.88
296.909	82.88
297.14	90.88
297.37	82.88
297.601	82.88
297.831	94.88
298.062	90.88
298.292	98.88
298.523	98.88
298.753	89.88
298.984	84.88
299.214	87.88
299.445	87.88
299.675	80.88
299.905	93.88
300.136	101.88
300.366	101.88
300.597	88.88
300.827	78.88
301.057	84.88
301.288	92.88
301.518	81.88
301.748	89.88
301.979	101.88
302.209	87.88
302.439	87.88
302.669	111.88
302.9	82.88
303.13	79.88
303.36	82.88
303.59	77.88
303.82	88.88
304.051	76.88
304.281	85.88
304.511	99.88
304.741	86.88
304.971	86.88
305.201	87.88
305.431	85.88
305.661	88.88
305.891	89.88
306.121	92.88
306.352	95.88
306.582	63.88
306.812	85.88
307.042	94.88
307.272	86.88
307.502	74.88
307.731	85.88
307.961	88.88
308.191	81.88
308.421	81.88
308.651	82.88
308.881	84.88
309.111	83.88
309.341	77.88
309.571	80.88
309.8	87.88
310.03	85.88
310.26	79.88
310.49	89.88
310.72	79.88
310.949	72.88
311.179	97.88
311.409	91.88
311.639	98.88
311.868	89.88
312.098	83.88
312.328	79.88
312.557	98.88
312.787	103.88
313.017	91.88
313.246	73.88
313.476	99.88
313.706	101.88
313.935	103.88
314.165	79.88
314.394	91.88
314.624	83.88
314.853	92.88
315.083	83.88
315.312	81.88
315.542	72.88
315.771	71.88
316.001	84.88
316.23	84.88
316.46	75.88
316.689	79.88
316.919	109.88
317.148	83.88
317.377	92.88
317.607	86.88
317.836	91.88
318.065	98.88
318.295	80.88
318.524	91.88
318.753	81.88
318.983	91.88
319.212	82.88
319.441	78.88
319.67	87.88
319.9	83.88
320.129	99.88
320.358	86.88
320.587	83.88
320.816	92.88
321.046	93.88
321.275	87.88
321.504	74.88
321.733	94.88
321.962	86.88
322.191	85.88
322.42	88.88
322.649	85.88
322.878	83.88
323.108	86.88
323.337	80.88
323.566	97.88
323.795	89.88
324.024	90.88
324.253	77.88
324.482	82.88
324.71	81.88
324.939	95.88
325.168	79.88
325.397	92.88
325.626	79.88
325.855	90.88
326.084	89.88
326.313	81.88
326.542	72.88
326.77	77.88
326.999	86.88
327.228	82.88
327.457	85.88
327.686	76.88
327.914	97.88
328.143	77.88
328.372	77.88
328.6	89.88
328.829	85.88
329.058	93.88
329.287	84.88
329.515	92.88
329.744	82.88
329.972	97.88
330.201	84.88
330.43	83.88
330.658	94.88
330.887	80.88
331.115	89.88
331.344	91.88
331.572	85.88
331.801	82.88
332.03	84.88
332.258	79.88
332.486	83.88
332.715	95.88
332.943	80.88
333.172	86.88
333.4	83.88
333.629	89.88
333.857	92.88
334.085	91.88
334.314	89.88
334.542	91.88
334.771	89.88
334.999	96.88
335.227	74.88
335.455	96.88
335.684	87.88
335.912	94.88
336.14	77.88
336.369	78.88
336.597	106.88
336.825	81.88
337.053	88.88
337.281	77.88
337.51	87.88
337.738	89.88
337.966	99.88
338.194	85.88
338.422	88.88
338.65	92.88
338.878	77.88
339.106	83.88
339.334	82.88
339.562	71.88
339.79	82.88
340.018	86.88
340.246	93.88
340.474	81.88
340.702	84.88
340.93	86.88
341.158	70.88
341.386	78.88
341.614	98.88
341.842	91.88
342.07	73.88
342.298	83.88
342.526	83.88
342.754	98.88
342.981	90.88
343.209	82.88
343.437	96.88
343.665	83.88
343.893	94.88
344.12	93.88
344.348	90.88
344.576	71.88
344.804	71.88
345.031	76.88
345.259	93.88
345.487	69.88
345.714	85.88
345.942	79.88
346.17	84.88
346.397	95.88
346.625	85.88
346.853	91.88
347.08	88.88
347.308	92.88
347.535	81.88
347.763	88.88
347.99	80.88
348.218	83.88
348.445	87.88
348.673	67.88
348.9	84.88
349.128	89.88
349.355	94.88
349.583	100.88
349.81	82.88
350.037	80.88
350.265	85.88
350.492	83.88
350.72	96.88
350.947	94.88
351.174	79.88
351.402	73.88
351.629	85.88
351.856	81.88
352.083	71.88
352.311	93.88
352.538	92.88
352.765	89.88
352.992	83.88
353.22	85.88
353.447	84.88
353.674	91.88
353.901	92.88
354.128	91.88
354.355	74.88
354.583	75.88
354.81	101.88
355.037	81.88
355.264	100.88
355.491	101.88
355.718	87.88
355.945	93.88
356.172	89.88
356.399	80.88
356.626	78.88
356.853	73.88
357.08	83.88
357.307	79.88
357.534	84.88
357.761	81.88
357.988	88.88
358.215	80.88
358.441	86.88
358.668	87.88
358.895	81.88
359.122	84.88
359.349	83.88
359.576	86.88
359.802	84.88
360.029	90.88
360.256	81.88
360.483	84.88
360.709	89.88
360.936	84.88
361.163	91.88
361.39	79.88
361.616	88.88
361.843	73.88
362.07	84.88
362.296	91.88
362.523	91.88
362.749	82.88
362.976	82.88
363.203	89.88
363.429	84.88
363.656	78.88
363.882	68.88
364.109	74.88
364.335	86.88
364.562	77.88
364.788	86.88
365.015	74.88
365.241	87.88
365.468	91.88
365.694	81.88
365.92	91.88
366.147	82.88
366.373	96.88
366.599	94.88
366.826	91.88
367.052	67.88
367.278	82.88
367.505	94.88
367.731	95.88
367.957	79.88
368.184	82.88
368.41	92.88
368.636	91.88
368.862	95.88
369.089	78.88
369.315	92.88
369.541	85.88
369.767	91.88
369.993	80.88
370.219	88.88
370.445	78.88
370.672	85.88
370.898	101.88
371.124	92.88
371.35	86.88
371.576	76.88
371.802	83.88
372.028	89.88
372.254	81.88
372.48	92.88
372.706	92.88
372.932	86.88
373.158	90.88
373.384	87.88
373.61	90.88
373.835	90.88
374.061	84.88
374.287	73.88
374.513	86.88
374.739	84.88
374.965	78.88
375.191	78.88
375.416	80.88
375.642	92.88
375.868	91.88
376.094	86.88
376.319	84.88
376.545	82.88
376.771	91.88
376.997	78.88
377.222	85.88
377.448	77.88
377.674	73.88
377.899	75.88
378.125	73.88
378.35	92.88
378.576	92.88
378.802	91.88
379.027	82.88
379.253	83.88
379.478	85.88
379.704	83.88
379.929	73.88
380.155	79.88
380.38	75.88
380.606	77.88
380.831	81.88
381.057	89.88
381.282	96.88
381.507	82.88
381.733	93.88
381.958	85.88
382.184	83.88
382.409	87.88
382.634	87.88
382.86	82.88
383.085	80.88
383.31	89.88
383.535	75.88
383.761	87.88
383.986	89.88
384.211	85.88
384.436	86.88
384.662	67.88
384.887	83.88
385.112	77.88
385.337	85.88
385.562	87.88
385.787	80.88
386.013	90.88
386.238	85.88
386.463	79.88
386.688	94.88
386.913	75.88
387.138	74.88
387.363	78.88
387.588	98.88
387.813	90.88
388.038	76.88
388.263	82.88
388.488	79.88
388.713	99.88
388.938	95.88
389.163	89.88
389.387	81.88
389.612	75.88
389.837	75.88
390.062	94.88
390.287	89.88
390.512	78.88
390.736	90.88
390.961	97.88
391.186	86.88
391.411	86.88
391.636	97.88
391.86	81.88
392.085	90.88
392.31	94.88
392.534	83.88
392.759	105.88
392.984	83.88
393.208	86.88
393.433	89.88
393.658	77.88
393.882	90.88
394.107	77.88
394.331	86.88
394.556	90.88
394.78	92.88
395.005	82.88
395.229	93.88
395.454	96.88
395.678	72.88
395.903	84.88
396.127	86.88
396.352	86.88
396.576	86.88
396.801	83.88
397.025	76.88
397.249	81.88
397.474	77.88
397.698	85.88
397.922	83.88
398.147	77.88
398.371	75.88
398.595	75.88
398.82	73.88
399.044	74.88
399.268	81.88
399.492	67.88
399.717	80.88
399.941	87.88
400.165	83.88
400.389	77.88
400.613	74.88
400.837	74.88
401.062	89.88
401.286	73.88
401.51	70.88
401.734	74.88
401.958	83.88
402.182	83.88
402.406	75.88
402.63	89.88
402.854	79.88
403.078	70.88
403.302	87.88
403.526	77.88
403.75	77.88
403.974	73.88
404.198	80.88
404.422	82.88
404.645	95.88
404.869	85.88
405.093	68.88
405.317	86.88
405.541	77.88
405.765	89.88
405.988	92.88
406.212	93.88
406.436	78.88
406.66	66.88
406.883	80.88
407.107	81.88
407.331	89.88
407.555	81.88
407.778	90.88
408.002	79.88
408.226	77.88
408.449	84.88
408.673	82.88
408.896	82.88
409.12	84.88
409.344	91.88
409.567	85.88
409.791	81.88
410.014	88.88
410.238	81.88
410.461	83.88
410.685	90.88
410.908	78.88
411.132	83.88
411.355	75.88
411.578	94.88
411.802	70.88
412.025	99.88
412.249	71.88
412.472	75.88
412.695	86.88
412.919	75.88
413.142	79.88
413.365	92.88
413.589	81.88
413.812	79.88
414.035	100.88
414.258	80.88
414.482	87.88
414.705	97.88
414.928	87.88
415.151	77.88
415.374	70.88
415.597	85.88
415.821	85.88
416.044	83.88
416.267	84.88
416.49	83.88
416.713	94.88
416.936	100.88
417.159	94.88
417.382	69.88
417.605	96.88
417.828	75.88
418.051	108.88
418.274	78.88
418.497	71.88
418.72	91.88
418.943	85.88
419.166	74.88
419.389	78.88
419.611	75.88
419.834	77.88
420.057	95.88
420.28	81.88
420.503	72.88
420.726	79.88
420.948	74.88
421.171	81.88
421.394	68.88
421.617	75.88
421.839	68.88
422.062	84.88
422.285	77.88
422.507	75.88
422.73	81.88
422.953	79.88
423.175	86.88
423.398	85.88
423.621	83.88
423.843	78.88
424.066	86.88
424.288	87.88
424.511	81.88
424.733	87.88
424.956	86.88
425.178	85.88
425.401	85.88
425.623	75.88
425.846	91.88
426.068	75.88
426.291	76.88
426.513	89.88
426.735	89.88
426.958	79.88
427.18	93.88
427.402	71.88
427.625	72.88
427.847	76.88
428.069	69.88
428.292	93.88
428.514	101.88
428.736	94.88
428.958	85.88
429.181	89.88
429.403	78.88
429.625	84.88
429.847	80.88
430.069	80.88
430.292	86.88
430.514	86.88
430.736	82.88
430.958	93.88
431.18	73.88
431.402	72.88
431.624	70.88
431.846	86.88
432.068	94.88
432.29	84.88
432.512	95.88
432.734	83.88
432.956	73.88
433.178	82.88
433.4	77.88
433.622	76.88
433.844	75.88
434.066	84.88
434.287	77.88
434.509	75.88
434.731	71.88
434.953	78.88
435.175	65.88
435.397	91.88
435.618	93.88
435.84	72.88
436.062	73.88
436.284	84.88
436.505	75.88
436.727	86.88
436.949	83.88
437.17	85.88
437.392	78.88
437.614	71.88
437.835	85.88
438.057	66.88
438.278	68.88
438.5	82.88
438.721	99.88
438.943	94.88
439.165	84.88
439.386	90.88
439.608	96.88
439.829	91.88
440.05	85.88
440.272	83.88
440.493	75.88
440.715	86.88
440.936	105.88
441.158	82.88
441.379	83.88
441.6	77.88
441.822	75.88
442.043	77.88
442.264	79.88
442.486	80.88
442.707	91.88
442.928	90.88
443.149	78.88
443.371	72.88
443.592	89.88
443.813	82.88
444.034	98.88
444.255	77.88
444.476	81.88
444.698	83.88
444.919	81.88
445.14	139.88
445.361	114.88
445.582	102.88
445.803	89.88
446.024	81.88
446.245	83.88
446.466	67.88
446.687	76.88
446.908	77.88
447.129	81.88
447.35	76.88
447.571	87.88
447.792	75.88
448.013	70.88
448.234	83.88
448.455	84.88
448.675	82.88
448.896	96.88
449.117	92.88
449.338	89.88
449.559	75.88
449.779	72.88
450	80.88
450.221	77.88
450.442	82.88
450.662	81.88
450.883	75.88
451.104	78.88
451.324	79.88
451.545	89.88
451.766	89.88
451.986	88.88
452.207	78.88
452.428	91.88
452.648	68.88
452.869	87.88
453.089	93.88
453.31	96.88
453.53	74.88
453.751	74.88
453.971	86.88
454.192	82.88
454.412	80.88
454.633	94.88
454.853	73.88
455.073	84.88
455.294	91.88
455.514	93.88
455.734	86.88
455.955	87.88
456.175	70.88
456.395	75.88
456.616	84.88
456.836	69.88
457.056	86.88
457.276	89.88
457.497	82.88
457.717	72.88
457.937	69.88
458.157	83.88
458.377	84.88
458.598	91.88
458.818	75.88
459.038	73.88
459.258	85.88
459.478	79.88
459.698	84.88
459.918	106.88
460.138	84.88
460.358	80.88
460.578	86.88
460.798	78.88
461.018	78.88
461.238	81.88
461.458	83.88
461.678	81.88
461.898	83.88
462.118	81.88
462.338	78.88
462.558	72.88
462.777	87.88
462.997	70.88
463.217	86.88
463.437	62.88
463.657	83.88
463.876	82.88
464.096	99.88
464.316	84.88
464.536	92.88
464.755	100.88
464.975	84.88
465.195	78.88
465.414	81.88
465.634	85.88
465.854	80.88
466.073	70.88
466.293	97.88
466.512	94.88
466.732	80.88
466.951	74.88
467.171	99.88
467.391	78.88
467.61	75.88
467.829	84.88
468.049	72.88
468.268	87.88
468.488	76.88
468.707	87.88
468.927	83.88
469.146	90.88
469.365	87.88
469.585	68.88
469.804	95.88
470.023	79.88
470.243	100.88
470.462	71.88
470.681	85.88
470.901	85.88
471.12	96.88
471.339	86.88
471.558	78.88
471.777	87.88
471.997	75.88
472.216	81.88
472.435	73.88
472.654	71.88
472.873	90.88
473.092	91.88
473.311	100.88
473.53	98.88
473.749	74.88
473.968	89.88
474.187	86.88
474.406	82.88
474.625	85.88
474.844	81.88
475.063	83.88
475.282	79.88
475.501	77.88
475.72	92.88
475.939	79.88
476.158	80.88
476.377	71.88
476.596	71.88
476.814	83.88
477.033	67.88
477.252	70.88
477.471	97.88
477.69	92.88
477.908	91.88
478.127	99.88
478.346	76.88
478.564	84.88
478.783	93.88
479.002	85.88
479.22	78.88
479.439	83.88
479.658	78.88
479.876	73.88
480.095	75.88
480.313	85.88
480.532	77.88
480.751	90.88
480.969	81.88
481.188	77.88
481.406	83.88
481.624	84.88
481.843	79.88
482.061	77.88
482.28	97.88
482.498	98.88
482.717	99.88
482.935	88.88
483.153	89.88
483.372	83.88
483.59	71.88
483.808	76.88
484.027	95.88
484.245	88.88
484.463	75.88
484.681	93.88
484.9	82.88
485.118	83.88
485.336	91.88
485.554	78.88
485.772	81.88
485.99	82.88
486.209	79.88
486.427	99.88
486.645	76.88
486.863	92.88
487.081	77.88
487.299	76.88
487.517	86.88
487.735	83.88
487.953	82.88
488.171	75.88
488.389	86.88
488.607	78.88
488.825	87.88
489.043	73.88
489.261	73.88
489.479	68.88
489.696	91.88
489.914	92.88
490.132	92.88
490.35	79.88
490.568	83.88
490.786	89.88
491.003	78.88
491.221	91.88
491.439	71.88
491.657	87.88
491.874	72.88
492.092	90.88
492.31	89.88
492.527	88.88
492.745	81.88
492.963	84.88
493.18	93.88
493.398	90.88
493.615	93.88
493.833	74.88
494.05	98.88
494.268	91.88
494.485	68.88
494.703	81.88
494.92	89.88
495.138	87.88
495.355	85.88
495.573	72.88
495.79	70.88
496.008	82.88
496.225	81.88
496.442	82.88
496.66	95.88
496.877	93.88
497.094	78.88
497.312	85.88
497.529	78.88
497.746	89.88
497.963	92.88
498.181	81.88
498.398	81.88
498.615	79.88
498.832	84.88
499.049	82.88
499.267	93.88
499.484	92.88
499.701	69.88
499.918	77.88
500.135	83.88
500.352	78.88
500.569	94.88
500.786	86.88
501.003	79.88
501.22	87.88
501.437	76.88
501.654	73.88
501.871	82.88
502.088	78.88
502.305	85.88
502.522	102.88
502.739	87.88
502.956	87.88
503.172	95.88
503.389	79.88
503.606	80.88
503.823	83.88
504.04	106.88
504.256	94.88
504.473	90.88
504.69	77.88
504.907	83.88
505.123	87.88
505.34	80.88
505.557	90.88
505.773	82.88
505.99	82.88
506.207	76.88
506.423	76.88
506.64	76.88
506.856	85.88
507.073	93.88
507.289	90.88
507.506	85.88
507.722	77.88
507.939	92.88
508.155	84.88
508.372	84.88
508.588	86.88
508.805	74.88
509.021	85.88
509.238	78.88
509.454	90.88
509.67	82.88
509.887	82.88
510.103	77.88
510.319	75.88
510.536	84.88
510.752	81.88
510.968	78.88
511.184	82.88
511.401	87.88
511.617	99.88
511.833	72.88
512.049	89.88
512.265	78.88
512.481	92.88
512.698	86.88
512.914	80.88
513.13	89.88
513.346	78.88
513.562	82.88
513.778	92.88
513.994	85.88
514.21	93.88
514.426	89.88
514.642	90.88
514.858	78.88
515.074	82.88
515.29	77.88
515.506	78.88
515.721	91.88
515.937	102.88
516.153	91.88
516.369	88.88
516.585	87.88
516.801	82.88
517.016	78.88
517.232	85.88
517.448	81.88
517.664	80.88
517.879	84.88
518.095	78.88
518.311	77.88
518.527	77.88
518.742	69.88
518.958	76.88
519.173	72.88
519.389	86.88
519.605	84.88
519.82	80.88
