Data from Background_1_HRD10591_00064.txt Node
Date: Wed Nov 05 14:39:29 EST 2025
User: Yrep
Spectrometer: HR+D1059
Trigger mode: 1
Integration Time (sec): 1.000000E-1
Scans to average: 1
Electric dark correction enabled: true
Nonlinearity correction enabled: false
Boxcar width: 0
XAxis mode: Wavelengths
Number of Pixels in Spectrum: 2048
>>>>>Begin Spectral Data<<<<<
223.165	-11.94
223.4	-11.94
223.635	-11.94
223.869	-8.94
224.104	-19.94
224.338	-16.94
224.573	-34.94
224.808	-16.94
225.042	-7.94
225.277	2.06
225.511	-5.94
225.746	7.06
225.98	1.06
226.215	11.06
226.449	26.06
226.683	18.06
226.918	37.06
227.152	21.06
227.387	28.06
227.621	37.06
227.856	42.06
228.09	55.06
228.324	49.06
228.559	59.06
228.793	60.06
229.027	63.06
229.262	57.06
229.496	68.06
229.73	66.06
229.964	63.06
230.199	63.06
230.433	83.06
230.667	84.06
230.901	73.06
231.136	87.06
231.37	85.06
231.604	85.06
231.838	78.06
232.072	83.06
232.306	90.06
232.541	63.06
232.775	65.06
233.009	90.06
233.243	81.06
233.477	71.06
233.711	89.06
233.945	79.06
234.179	65.06
234.413	90.06
234.647	73.06
234.881	73.06
235.115	75.06
235.349	81.06
235.583	83.06
235.817	81.06
236.051	73.06
236.285	67.06
236.519	65.06
236.753	64.06
236.987	70.06
237.221	61.06
237.455	60.06
237.689	62.06
237.922	73.06
238.156	77.06
238.39	64.06
238.624	87.06
238.858	79.06
239.091	89.06
239.325	74.06
239.559	65.06
239.793	73.06
240.027	73.06
240.26	64.06
240.494	61.06
240.728	61.06
240.961	72.06
241.195	77.06
241.429	87.06
241.662	75.06
241.896	80.06
242.13	74.06
242.363	78.06
242.597	65.06
242.83	77.06
243.064	78.06
243.298	80.06
243.531	72.06
243.765	74.06
243.998	75.06
244.232	71.06
244.465	68.06
244.699	74.06
244.932	66.06
245.166	88.06
245.399	82.06
245.633	77.06
245.866	76.06
246.099	79.06
246.333	74.06
246.566	83.06
246.8	60.06
247.033	60.06
247.266	62.06
247.5	85.06
247.733	73.06
247.966	71.06
248.2	81.06
248.433	88.06
248.666	63.06
248.899	70.06
249.133	79.06
249.366	77.06
249.599	62.06
249.832	84.06
250.066	84.06
250.299	80.06
250.532	89.06
250.765	77.06
250.998	78.06
251.231	73.06
251.465	88.06
251.698	71.06
251.931	78.06
252.164	85.06
252.397	89.06
252.63	82.06
252.863	73.06
253.096	85.06
253.329	85.06
253.562	77.06
253.795	91.06
254.028	90.06
254.261	83.06
254.494	73.06
254.727	78.06
254.96	67.06
255.193	75.06
255.426	81.06
255.659	87.06
255.892	72.06
256.124	87.06
256.357	74.06
256.59	74.06
256.823	87.06
257.056	88.06
257.289	74.06
257.521	72.06
257.754	77.06
257.987	77.06
258.22	75.06
258.452	84.06
258.685	77.06
258.918	79.06
259.151	79.06
259.383	63.06
259.616	65.06
259.849	70.06
260.081	73.06
260.314	76.06
260.547	79.06
260.779	79.06
261.012	75.06
261.244	82.06
261.477	83.06
261.71	83.06
261.942	90.06
262.175	80.06
262.407	82.06
262.64	77.06
262.872	77.06
263.105	87.06
263.337	83.06
263.57	69.06
263.802	77.06
264.035	68.06
264.267	79.06
264.499	67.06
264.732	77.06
264.964	73.06
265.197	81.06
265.429	78.06
265.661	87.06
265.894	81.06
266.126	81.06
266.358	86.06
266.591	77.06
266.823	72.06
267.055	90.06
267.287	85.06
267.52	77.06
267.752	75.06
267.984	84.06
268.216	74.06
268.448	81.06
268.681	77.06
268.913	80.06
269.145	73.06
269.377	84.06
269.609	77.06
269.841	79.06
270.073	78.06
270.306	80.06
270.538	82.06
270.77	68.06
271.002	71.06
271.234	86.06
271.466	98.06
271.698	94.06
271.93	78.06
272.162	81.06
272.394	88.06
272.626	81.06
272.858	71.06
273.09	85.06
273.322	77.06
273.553	79.06
273.785	86.06
274.017	73.06
274.249	82.06
274.481	83.06
274.713	80.06
274.945	90.06
275.176	91.06
275.408	75.06
275.64	80.06
275.872	82.06
276.104	83.06
276.335	81.06
276.567	70.06
276.799	85.06
277.031	85.06
277.262	75.06
277.494	81.06
277.726	73.06
277.957	77.06
278.189	85.06
278.421	73.06
278.652	73.06
278.884	71.06
279.115	78.06
279.347	76.06
279.579	70.06
279.81	79.06
280.042	87.06
280.273	67.06
280.505	77.06
280.736	80.06
280.968	87.06
281.199	77.06
281.431	86.06
281.662	82.06
281.894	89.06
282.125	79.06
282.356	75.06
282.588	75.06
282.819	76.06
283.051	94.06
283.282	80.06
283.513	82.06
283.745	84.06
283.976	79.06
284.207	93.06
284.439	72.06
284.67	80.06
284.901	77.06
285.132	77.06
285.364	80.06
285.595	87.06
285.826	82.06
286.057	92.06
286.288	98.06
286.52	78.06
286.751	82.06
286.982	80.06
287.213	79.06
287.444	79.06
287.675	89.06
287.906	81.06
288.138	67.06
288.369	91.06
288.6	83.06
288.831	85.06
289.062	85.06
289.293	73.06
289.524	94.06
289.755	84.06
289.986	97.06
290.217	98.06
290.448	78.06
290.679	88.06
290.91	73.06
291.141	75.06
291.371	70.06
291.602	87.06
291.833	88.06
292.064	94.06
292.295	77.06
292.526	77.06
292.757	67.06
292.987	80.06
293.218	74.06
293.449	67.06
293.68	82.06
293.91	92.06
294.141	91.06
294.372	75.06
294.603	76.06
294.833	85.06
295.064	89.06
295.295	97.06
295.525	85.06
295.756	91.06
295.987	83.06
296.217	81.06
296.448	68.06
296.679	73.06
296.909	78.06
297.14	83.06
297.37	94.06
297.601	85.06
297.831	86.06
298.062	96.06
298.292	86.06
298.523	75.06
298.753	79.06
298.984	76.06
299.214	87.06
299.445	91.06
299.675	70.06
299.905	75.06
300.136	71.06
300.366	78.06
300.597	84.06
300.827	81.06
301.057	75.06
301.288	83.06
301.518	80.06
301.748	77.06
301.979	93.06
302.209	94.06
302.439	103.06
302.669	77.06
302.9	85.06
303.13	77.06
303.36	84.06
303.59	88.06
303.82	95.06
304.051	75.06
304.281	75.06
304.511	81.06
304.741	92.06
304.971	67.06
305.201	86.06
305.431	84.06
305.661	90.06
305.891	83.06
306.121	87.06
306.352	96.06
306.582	75.06
306.812	89.06
307.042	74.06
307.272	101.06
307.502	89.06
307.731	81.06
307.961	93.06
308.191	75.06
308.421	83.06
308.651	78.06
308.881	87.06
309.111	81.06
309.341	71.06
309.571	87.06
309.8	91.06
310.03	86.06
310.26	95.06
310.49	93.06
310.72	84.06
310.949	75.06
311.179	75.06
311.409	76.06
311.639	80.06
311.868	83.06
312.098	84.06
312.328	83.06
312.557	84.06
312.787	87.06
313.017	92.06
313.246	85.06
313.476	87.06
313.706	81.06
313.935	84.06
314.165	83.06
314.394	91.06
314.624	77.06
314.853	99.06
315.083	88.06
315.312	88.06
315.542	85.06
315.771	67.06
316.001	68.06
316.23	76.06
316.46	78.06
316.689	85.06
316.919	89.06
317.148	77.06
317.377	79.06
317.607	88.06
317.836	77.06
318.065	89.06
318.295	65.06
318.524	74.06
318.753	87.06
318.983	79.06
319.212	81.06
319.441	91.06
319.67	75.06
319.9	95.06
320.129	83.06
320.358	86.06
320.587	90.06
320.816	82.06
321.046	84.06
321.275	80.06
321.504	93.06
321.733	60.06
321.962	86.06
322.191	75.06
322.42	79.06
322.649	78.06
322.878	90.06
323.108	92.06
323.337	74.06
323.566	77.06
323.795	65.06
324.024	77.06
324.253	94.06
324.482	75.06
324.71	87.06
324.939	92.06
325.168	67.06
325.397	81.06
325.626	90.06
325.855	79.06
326.084	81.06
326.313	93.06
326.542	88.06
326.77	73.06
326.999	86.06
327.228	90.06
327.457	90.06
327.686	73.06
327.914	76.06
328.143	97.06
328.372	85.06
328.6	83.06
328.829	81.06
329.058	89.06
329.287	85.06
329.515	86.06
329.744	91.06
329.972	82.06
330.201	79.06
330.43	79.06
330.658	65.06
330.887	84.06
331.115	65.06
331.344	71.06
331.572	83.06
331.801	87.06
332.03	82.06
332.258	78.06
332.486	77.06
332.715	75.06
332.943	77.06
333.172	82.06
333.4	82.06
333.629	94.06
333.857	94.06
334.085	79.06
334.314	89.06
334.542	85.06
334.771	82.06
334.999	70.06
335.227	73.06
335.455	81.06
335.684	82.06
335.912	59.06
336.14	87.06
336.369	79.06
336.597	90.06
336.825	91.06
337.053	74.06
337.281	67.06
337.51	90.06
337.738	89.06
337.966	78.06
338.194	73.06
338.422	75.06
338.65	74.06
338.878	90.06
339.106	83.06
339.334	81.06
339.562	78.06
339.79	91.06
340.018	85.06
340.246	71.06
340.474	71.06
340.702	82.06
340.93	87.06
341.158	90.06
341.386	77.06
341.614	77.06
341.842	78.06
342.07	71.06
342.298	78.06
342.526	85.06
342.754	81.06
342.981	81.06
343.209	73.06
343.437	86.06
343.665	89.06
343.893	85.06
344.12	88.06
344.348	82.06
344.576	81.06
344.804	86.06
345.031	77.06
345.259	90.06
345.487	101.06
345.714	90.06
345.942	81.06
346.17	77.06
346.397	74.06
346.625	79.06
346.853	71.06
347.08	90.06
347.308	91.06
347.535	71.06
347.763	91.06
347.99	79.06
348.218	85.06
348.445	86.06
348.673	93.06
348.9	81.06
349.128	68.06
349.355	93.06
349.583	89.06
349.81	84.06
350.037	75.06
350.265	80.06
350.492	81.06
350.72	84.06
350.947	88.06
351.174	87.06
351.402	85.06
351.629	94.06
351.856	75.06
352.083	79.06
352.311	80.06
352.538	83.06
352.765	94.06
352.992	90.06
353.22	66.06
353.447	97.06
353.674	79.06
353.901	89.06
354.128	88.06
354.355	87.06
354.583	76.06
354.81	86.06
355.037	63.06
355.264	74.06
355.491	81.06
355.718	89.06
355.945	75.06
356.172	82.06
356.399	83.06
356.626	86.06
356.853	79.06
357.08	106.06
357.307	83.06
357.534	73.06
357.761	77.06
357.988	87.06
358.215	80.06
358.441	82.06
358.668	75.06
358.895	82.06
359.122	67.06
359.349	81.06
359.576	79.06
359.802	76.06
360.029	79.06
360.256	73.06
360.483	86.06
360.709	71.06
360.936	78.06
361.163	81.06
361.39	72.06
361.616	75.06
361.843	74.06
362.07	75.06
362.296	89.06
362.523	88.06
362.749	93.06
362.976	89.06
363.203	76.06
363.429	89.06
363.656	87.06
363.882	81.06
364.109	78.06
364.335	93.06
364.562	79.06
364.788	72.06
365.015	83.06
365.241	86.06
365.468	77.06
365.694	83.06
365.92	93.06
366.147	81.06
366.373	87.06
366.599	81.06
366.826	90.06
367.052	81.06
367.278	93.06
367.505	87.06
367.731	96.06
367.957	89.06
368.184	72.06
368.41	73.06
368.636	94.06
368.862	85.06
369.089	92.06
369.315	77.06
369.541	75.06
369.767	79.06
369.993	94.06
370.219	73.06
370.445	74.06
370.672	90.06
370.898	101.06
371.124	87.06
371.35	78.06
371.576	84.06
371.802	94.06
372.028	102.06
372.254	77.06
372.48	104.06
372.706	88.06
372.932	81.06
373.158	82.06
373.384	87.06
373.61	96.06
373.835	96.06
374.061	87.06
374.287	77.06
374.513	72.06
374.739	89.06
374.965	93.06
375.191	78.06
375.416	79.06
375.642	75.06
375.868	89.06
376.094	96.06
376.319	82.06
376.545	77.06
376.771	67.06
376.997	79.06
377.222	90.06
377.448	77.06
377.674	65.06
377.899	92.06
378.125	74.06
378.35	88.06
378.576	91.06
378.802	81.06
379.027	79.06
379.253	74.06
379.478	70.06
379.704	76.06
379.929	72.06
380.155	72.06
380.38	78.06
380.606	78.06
380.831	101.06
381.057	80.06
381.282	82.06
381.507	82.06
381.733	72.06
381.958	84.06
382.184	73.06
382.409	71.06
382.634	85.06
382.86	86.06
383.085	91.06
383.31	74.06
383.535	83.06
383.761	91.06
383.986	82.06
384.211	89.06
384.436	83.06
384.662	68.06
384.887	76.06
385.112	68.06
385.337	82.06
385.562	87.06
385.787	77.06
386.013	71.06
386.238	87.06
386.463	82.06
386.688	91.06
386.913	81.06
387.138	65.06
387.363	78.06
387.588	77.06
387.813	75.06
388.038	89.06
388.263	86.06
388.488	78.06
388.713	83.06
388.938	73.06
389.163	82.06
389.387	85.06
389.612	75.06
389.837	81.06
390.062	85.06
390.287	77.06
390.512	81.06
390.736	76.06
390.961	71.06
391.186	91.06
391.411	79.06
391.636	77.06
391.86	85.06
392.085	79.06
392.31	70.06
392.534	74.06
392.759	90.06
392.984	69.06
393.208	80.06
393.433	84.06
393.658	84.06
393.882	88.06
394.107	91.06
394.331	80.06
394.556	76.06
394.78	73.06
395.005	101.06
395.229	76.06
395.454	65.06
395.678	70.06
395.903	87.06
396.127	75.06
396.352	91.06
396.576	83.06
396.801	84.06
397.025	82.06
397.249	85.06
397.474	82.06
397.698	77.06
397.922	91.06
398.147	87.06
398.371	82.06
398.595	79.06
398.82	73.06
399.044	63.06
399.268	77.06
399.492	68.06
399.717	86.06
399.941	71.06
400.165	80.06
400.389	75.06
400.613	80.06
400.837	84.06
401.062	71.06
401.286	57.06
401.51	74.06
401.734	81.06
401.958	77.06
402.182	81.06
402.406	83.06
402.63	78.06
402.854	89.06
403.078	83.06
403.302	89.06
403.526	73.06
403.75	76.06
403.974	85.06
404.198	75.06
404.422	72.06
404.645	73.06
404.869	78.06
405.093	67.06
405.317	79.06
405.541	81.06
405.765	75.06
405.988	78.06
406.212	70.06
406.436	82.06
406.66	86.06
406.883	74.06
407.107	85.06
407.331	83.06
407.555	77.06
407.778	86.06
408.002	86.06
408.226	78.06
408.449	71.06
408.673	75.06
408.896	69.06
409.12	69.06
409.344	77.06
409.567	71.06
409.791	75.06
410.014	87.06
410.238	86.06
410.461	69.06
410.685	68.06
410.908	80.06
411.132	85.06
411.355	67.06
411.578	68.06
411.802	69.06
412.025	73.06
412.249	78.06
412.472	85.06
412.695	95.06
412.919	77.06
413.142	89.06
413.365	73.06
413.589	82.06
413.812	88.06
414.035	86.06
414.258	92.06
414.482	69.06
414.705	87.06
414.928	84.06
415.151	78.06
415.374	82.06
415.597	73.06
415.821	82.06
416.044	79.06
416.267	94.06
416.49	86.06
416.713	75.06
416.936	79.06
417.159	79.06
417.382	83.06
417.605	64.06
417.828	80.06
418.051	73.06
418.274	68.06
418.497	81.06
418.72	75.06
418.943	76.06
419.166	77.06
419.389	78.06
419.611	79.06
419.834	77.06
420.057	81.06
420.28	77.06
420.503	81.06
420.726	73.06
420.948	77.06
421.171	90.06
421.394	59.06
421.617	73.06
421.839	88.06
422.062	78.06
422.285	87.06
422.507	82.06
422.73	89.06
422.953	78.06
423.175	69.06
423.398	71.06
423.621	89.06
423.843	75.06
424.066	83.06
424.288	89.06
424.511	84.06
424.733	83.06
424.956	80.06
425.178	73.06
425.401	80.06
425.623	77.06
425.846	79.06
426.068	74.06
426.291	83.06
426.513	93.06
426.735	84.06
426.958	93.06
427.18	73.06
427.402	71.06
427.625	70.06
427.847	73.06
428.069	73.06
428.292	78.06
428.514	73.06
428.736	76.06
428.958	88.06
429.181	85.06
429.403	78.06
429.625	97.06
429.847	70.06
430.069	87.06
430.292	87.06
430.514	71.06
430.736	73.06
430.958	83.06
431.18	68.06
431.402	73.06
431.624	76.06
431.846	69.06
432.068	76.06
432.29	70.06
432.512	79.06
432.734	77.06
432.956	71.06
433.178	99.06
433.4	85.06
433.622	75.06
433.844	77.06
434.066	85.06
434.287	77.06
434.509	79.06
434.731	85.06
434.953	73.06
435.175	76.06
435.397	69.06
435.618	83.06
435.84	87.06
436.062	87.06
436.284	90.06
436.505	79.06
436.727	77.06
436.949	62.06
437.17	73.06
437.392	77.06
437.614	90.06
437.835	83.06
438.057	63.06
438.278	97.06
438.5	85.06
438.721	82.06
438.943	85.06
439.165	87.06
439.386	86.06
439.608	73.06
439.829	71.06
440.05	74.06
440.272	74.06
440.493	83.06
440.715	77.06
440.936	68.06
441.158	68.06
441.379	56.06
441.6	85.06
441.822	74.06
442.043	80.06
442.264	88.06
442.486	84.06
442.707	75.06
442.928	82.06
443.149	72.06
443.371	66.06
443.592	80.06
443.813	67.06
444.034	76.06
444.255	87.06
444.476	69.06
444.698	82.06
444.919	69.06
445.14	173.06
445.361	118.06
445.582	79.06
445.803	64.06
446.024	75.06
446.245	77.06
446.466	73.06
446.687	65.06
446.908	79.06
447.129	77.06
447.35	61.06
447.571	74.06
447.792	77.06
448.013	72.06
448.234	80.06
448.455	87.06
448.675	92.06
448.896	79.06
449.117	73.06
449.338	82.06
449.559	89.06
449.779	82.06
450	82.06
450.221	78.06
450.442	82.06
450.662	92.06
450.883	84.06
451.104	89.06
451.324	66.06
451.545	82.06
451.766	69.06
451.986	74.06
452.207	78.06
452.428	81.06
452.648	94.06
452.869	83.06
453.089	75.06
453.31	73.06
453.53	85.06
453.751	77.06
453.971	85.06
454.192	74.06
454.412	73.06
454.633	70.06
454.853	83.06
455.073	70.06
455.294	65.06
455.514	71.06
455.734	71.06
455.955	74.06
456.175	72.06
456.395	86.06
456.616	90.06
456.836	67.06
457.056	81.06
457.276	73.06
457.497	81.06
457.717	87.06
457.937	81.06
458.157	75.06
458.377	77.06
458.598	86.06
458.818	80.06
459.038	73.06
459.258	79.06
459.478	75.06
459.698	75.06
459.918	79.06
460.138	85.06
460.358	71.06
460.578	78.06
460.798	85.06
461.018	85.06
461.238	72.06
461.458	85.06
461.678	79.06
461.898	64.06
462.118	84.06
462.338	85.06
462.558	81.06
462.777	92.06
462.997	65.06
463.217	71.06
463.437	78.06
463.657	73.06
463.876	77.06
464.096	74.06
464.316	68.06
464.536	73.06
464.755	93.06
464.975	74.06
465.195	85.06
465.414	84.06
465.634	85.06
465.854	82.06
466.073	76.06
466.293	89.06
466.512	74.06
466.732	85.06
466.951	69.06
467.171	75.06
467.391	79.06
467.61	73.06
467.829	85.06
468.049	74.06
468.268	88.06
468.488	67.06
468.707	89.06
468.927	82.06
469.146	78.06
469.365	67.06
469.585	82.06
469.804	90.06
470.023	85.06
470.243	91.06
470.462	91.06
470.681	82.06
470.901	73.06
471.12	67.06
471.339	92.06
471.558	65.06
471.777	88.06
471.997	73.06
472.216	75.06
472.435	87.06
472.654	76.06
472.873	77.06
473.092	74.06
473.311	77.06
473.53	82.06
473.749	72.06
473.968	91.06
474.187	79.06
474.406	80.06
474.625	82.06
474.844	83.06
475.063	71.06
475.282	83.06
475.501	91.06
475.72	88.06
475.939	72.06
476.158	61.06
476.377	87.06
476.596	87.06
476.814	73.06
477.033	83.06
477.252	75.06
477.471	74.06
477.69	72.06
477.908	82.06
478.127	73.06
478.346	77.06
478.564	81.06
478.783	81.06
479.002	82.06
479.22	79.06
479.439	99.06
479.658	67.06
479.876	87.06
480.095	89.06
480.313	72.06
480.532	94.06
480.751	91.06
480.969	79.06
481.188	87.06
481.406	78.06
481.624	75.06
481.843	99.06
482.061	90.06
482.28	81.06
482.498	80.06
482.717	91.06
482.935	76.06
483.153	82.06
483.372	70.06
483.59	76.06
483.808	85.06
484.027	72.06
484.245	75.06
484.463	87.06
484.681	78.06
484.9	87.06
485.118	89.06
485.336	86.06
485.554	80.06
485.772	87.06
485.99	85.06
486.209	86.06
486.427	77.06
486.645	66.06
486.863	81.06
487.081	81.06
487.299	71.06
487.517	76.06
487.735	82.06
487.953	68.06
488.171	83.06
488.389	87.06
488.607	84.06
488.825	80.06
489.043	74.06
489.261	65.06
489.479	82.06
489.696	81.06
489.914	89.06
490.132	80.06
490.35	85.06
490.568	69.06
490.786	79.06
491.003	72.06
491.221	83.06
491.439	89.06
491.657	96.06
491.874	105.06
492.092	85.06
492.31	86.06
492.527	81.06
492.745	87.06
492.963	77.06
493.18	85.06
493.398	87.06
493.615	93.06
493.833	73.06
494.05	93.06
494.268	62.06
494.485	89.06
494.703	85.06
494.92	63.06
495.138	78.06
495.355	89.06
495.573	84.06
495.79	74.06
496.008	102.06
496.225	93.06
496.442	89.06
496.66	76.06
496.877	93.06
497.094	90.06
497.312	79.06
497.529	94.06
497.746	89.06
497.963	93.06
498.181	82.06
498.398	90.06
498.615	73.06
498.832	87.06
499.049	74.06
499.267	77.06
499.484	75.06
499.701	71.06
499.918	93.06
500.135	79.06
500.352	69.06
500.569	73.06
500.786	89.06
501.003	84.06
501.22	75.06
501.437	82.06
501.654	76.06
501.871	79.06
502.088	88.06
502.305	97.06
502.522	81.06
502.739	85.06
502.956	90.06
503.172	86.06
503.389	85.06
503.606	68.06
503.823	74.06
504.04	83.06
504.256	74.06
504.473	80.06
504.69	85.06
504.907	80.06
505.123	71.06
505.34	80.06
505.557	83.06
505.773	76.06
505.99	93.06
506.207	73.06
506.423	85.06
506.64	85.06
506.856	74.06
507.073	75.06
507.289	84.06
507.506	89.06
507.722	83.06
507.939	78.06
508.155	81.06
508.372	81.06
508.588	81.06
508.805	90.06
509.021	83.06
509.238	87.06
509.454	92.06
509.67	73.06
509.887	89.06
510.103	78.06
510.319	66.06
510.536	82.06
510.752	82.06
510.968	87.06
511.184	85.06
511.401	67.06
511.617	77.06
511.833	87.06
512.049	77.06
512.265	77.06
512.481	72.06
512.698	85.06
512.914	81.06
513.13	91.06
513.346	85.06
513.562	80.06
513.778	89.06
513.994	74.06
514.21	87.06
514.426	78.06
514.642	71.06
514.858	83.06
515.074	96.06
515.29	90.06
515.506	84.06
515.721	87.06
515.937	84.06
516.153	77.06
516.369	74.06
516.585	89.06
516.801	77.06
517.016	101.06
517.232	87.06
517.448	91.06
517.664	74.06
517.879	83.06
518.095	96.06
518.311	82.06
518.527	73.06
518.742	81.06
518.958	93.06
519.173	89.06
519.389	80.06
519.605	91.06
519.82	85.06
520.036	89.06
