Data from Background_1_HRD10591_00098.txt Node
Date: Wed Nov 05 14:39:46 EST 2025
User: Yrep
Spectrometer: HR+D1059
Trigger mode: 1
Integration Time (sec): 1.000000E-1
Scans to average: 1
Electric dark correction enabled: true
Nonlinearity correction enabled: false
Boxcar width: 0
XAxis mode: Wavelengths
Number of Pixels in Spectrum: 2048
>>>>>Begin Spectral Data<<<<<
223.165	-9
223.4	-9
223.635	-9
223.869	-14
224.104	-20
224.338	-14
224.573	-8
224.808	-9
225.042	-8
225.277	-3
225.511	4
225.746	-8
225.98	-5
226.215	12
226.449	3
226.683	18
226.918	28
227.152	33
227.387	33
227.621	30
227.856	43
228.09	50
228.324	58
228.559	47
228.793	53
229.027	56
229.262	60
229.496	58
229.73	72
229.964	74
230.199	87
230.433	74
230.667	75
230.901	74
231.136	71
231.37	74
231.604	68
231.838	75
232.072	64
232.306	86
232.541	84
232.775	72
233.009	76
233.243	65
233.477	84
233.711	89
233.945	91
234.179	93
234.413	74
234.647	75
234.881	69
235.115	84
235.349	83
235.583	60
235.817	78
236.051	69
236.285	77
236.519	86
236.753	84
236.987	82
237.221	89
237.455	75
237.689	65
237.922	80
238.156	65
238.39	83
238.624	82
238.858	76
239.091	87
239.325	63
239.559	66
239.793	64
240.027	76
240.26	78
240.494	67
240.728	76
240.961	82
241.195	65
241.429	79
241.662	70
241.896	75
242.13	72
242.363	65
242.597	74
242.83	77
243.064	68
243.298	88
243.531	83
243.765	88
243.998	68
244.232	74
244.465	96
244.699	60
244.932	77
245.166	74
245.399	81
245.633	84
245.866	74
246.099	80
246.333	72
246.566	86
246.8	83
247.033	68
247.266	73
247.5	68
247.733	86
247.966	82
248.2	82
248.433	69
248.666	76
248.899	68
249.133	85
249.366	88
249.599	84
249.832	81
250.066	80
250.299	84
250.532	75
250.765	83
250.998	75
251.231	68
251.465	89
251.698	80
251.931	83
252.164	91
252.397	70
252.63	67
252.863	62
253.096	72
253.329	84
253.562	83
253.795	82
254.028	74
254.261	84
254.494	69
254.727	78
254.96	84
255.193	75
255.426	75
255.659	90
255.892	80
256.124	71
256.357	86
256.59	72
256.823	67
257.056	94
257.289	77
257.521	85
257.754	74
257.987	88
258.22	83
258.452	64
258.685	62
258.918	75
259.151	82
259.383	96
259.616	96
259.849	75
260.081	82
260.314	85
260.547	84
260.779	64
261.012	84
261.244	83
261.477	82
261.71	69
261.942	84
262.175	81
262.407	98
262.64	95
262.872	84
263.105	72
263.337	84
263.57	80
263.802	78
264.035	65
264.267	82
264.499	86
264.732	84
264.964	82
265.197	65
265.429	86
265.661	86
265.894	74
266.126	93
266.358	71
266.591	78
266.823	72
267.055	81
267.287	81
267.52	84
267.752	87
267.984	83
268.216	79
268.448	81
268.681	80
268.913	87
269.145	68
269.377	75
269.609	89
269.841	74
270.073	78
270.306	74
270.538	76
270.77	92
271.002	89
271.234	85
271.466	84
271.698	65
271.93	84
272.162	72
272.394	94
272.626	83
272.858	94
273.09	86
273.322	69
273.553	90
273.785	88
274.017	88
274.249	89
274.481	68
274.713	91
274.945	92
275.176	81
275.408	79
275.64	65
275.872	93
276.104	87
276.335	86
276.567	62
276.799	87
277.031	75
277.262	86
277.494	84
277.726	83
277.957	84
278.189	69
278.421	90
278.652	87
278.884	74
279.115	86
279.347	69
279.579	82
279.81	70
280.042	83
280.273	87
280.505	76
280.736	84
280.968	90
281.199	82
281.431	84
281.662	79
281.894	86
282.125	74
282.356	94
282.588	80
282.819	89
283.051	78
283.282	85
283.513	86
283.745	76
283.976	83
284.207	72
284.439	88
284.67	84
284.901	94
285.132	82
285.364	78
285.595	76
285.826	78
286.057	72
286.288	76
286.52	79
286.751	78
286.982	72
287.213	85
287.444	74
287.675	74
287.906	87
288.138	87
288.369	87
288.6	63
288.831	90
289.062	105
289.293	90
289.524	78
289.755	71
289.986	76
290.217	74
290.448	65
290.679	78
290.91	76
291.141	74
291.371	73
291.602	81
291.833	96
292.064	80
292.295	83
292.526	90
292.757	78
292.987	83
293.218	79
293.449	93
293.68	73
293.91	76
294.141	76
294.372	81
294.603	88
294.833	89
295.064	92
295.295	71
295.525	81
295.756	73
295.987	82
296.217	80
296.448	83
296.679	76
296.909	77
297.14	81
297.37	79
297.601	74
297.831	85
298.062	97
298.292	86
298.523	82
298.753	86
298.984	93
299.214	101
299.445	86
299.675	76
299.905	74
300.136	79
300.366	94
300.597	80
300.827	81
301.057	84
301.288	89
301.518	88
301.748	78
301.979	110
302.209	96
302.439	86
302.669	75
302.9	76
303.13	93
303.36	94
303.59	88
303.82	79
304.051	74
304.281	84
304.511	74
304.741	84
304.971	92
305.201	85
305.431	91
305.661	91
305.891	81
306.121	87
306.352	83
306.582	89
306.812	74
307.042	79
307.272	75
307.502	81
307.731	91
307.961	75
308.191	84
308.421	94
308.651	82
308.881	80
309.111	76
309.341	76
309.571	90
309.8	98
310.03	81
310.26	75
310.49	76
310.72	94
310.949	93
311.179	90
311.409	83
311.639	75
311.868	89
312.098	76
312.328	87
312.557	83
312.787	82
313.017	78
313.246	83
313.476	69
313.706	75
313.935	77
314.165	93
314.394	96
314.624	78
314.853	86
315.083	74
315.312	65
315.542	64
315.771	80
316.001	81
316.23	80
316.46	81
316.689	92
316.919	80
317.148	101
317.377	74
317.607	87
317.836	83
318.065	82
318.295	83
318.524	82
318.753	83
318.983	88
319.212	97
319.441	90
319.67	82
319.9	75
320.129	78
320.358	72
320.587	75
320.816	88
321.046	73
321.275	84
321.504	88
321.733	96
321.962	86
322.191	79
322.42	86
322.649	72
322.878	87
323.108	99
323.337	86
323.566	94
323.795	75
324.024	76
324.253	94
324.482	70
324.71	97
324.939	90
325.168	86
325.397	92
325.626	88
325.855	79
326.084	83
326.313	82
326.542	83
326.77	94
326.999	89
327.228	97
327.457	86
327.686	80
327.914	78
328.143	98
328.372	78
328.6	86
328.829	88
329.058	86
329.287	76
329.515	80
329.744	92
329.972	79
330.201	80
330.43	106
330.658	79
330.887	90
331.115	92
331.344	90
331.572	75
331.801	76
332.03	84
332.258	91
332.486	82
332.715	82
332.943	80
333.172	98
333.4	76
333.629	81
333.857	72
334.085	83
334.314	86
334.542	82
334.771	94
334.999	86
335.227	96
335.455	79
335.684	83
335.912	78
336.14	87
336.369	81
336.597	85
336.825	90
337.053	87
337.281	81
337.51	81
337.738	93
337.966	79
338.194	78
338.422	87
338.65	95
338.878	81
339.106	92
339.334	90
339.562	67
339.79	74
340.018	88
340.246	76
340.474	87
340.702	86
340.93	78
341.158	76
341.386	84
341.614	87
341.842	76
342.07	85
342.298	82
342.526	90
342.754	87
342.981	74
343.209	97
343.437	89
343.665	74
343.893	84
344.12	82
344.348	75
344.576	75
344.804	77
345.031	78
345.259	72
345.487	78
345.714	89
345.942	92
346.17	101
346.397	87
346.625	94
346.853	78
347.08	96
347.308	82
347.535	69
347.763	82
347.99	81
348.218	83
348.445	90
348.673	86
348.9	88
349.128	80
349.355	92
349.583	81
349.81	86
350.037	72
350.265	79
350.492	72
350.72	76
350.947	80
351.174	91
351.402	82
351.629	92
351.856	88
352.083	86
352.311	81
352.538	80
352.765	82
352.992	100
353.22	84
353.447	90
353.674	87
353.901	102
354.128	86
354.355	82
354.583	73
354.81	87
355.037	89
355.264	87
355.491	86
355.718	82
355.945	87
356.172	87
356.399	94
356.626	91
356.853	94
357.08	61
357.307	75
357.534	85
357.761	90
357.988	64
358.215	82
358.441	82
358.668	83
358.895	78
359.122	91
359.349	77
359.576	87
359.802	69
360.029	81
360.256	84
360.483	83
360.709	90
360.936	97
361.163	92
361.39	90
361.616	87
361.843	82
362.07	88
362.296	80
362.523	100
362.749	96
362.976	78
363.203	84
363.429	80
363.656	78
363.882	74
364.109	92
364.335	96
364.562	88
364.788	87
365.015	95
365.241	95
365.468	83
365.694	106
365.92	84
366.147	82
366.373	95
366.599	81
366.826	78
367.052	87
367.278	81
367.505	84
367.731	95
367.957	84
368.184	75
368.41	92
368.636	77
368.862	76
369.089	66
369.315	81
369.541	87
369.767	82
369.993	82
370.219	70
370.445	58
370.672	82
370.898	102
371.124	90
371.35	81
371.576	94
371.802	91
372.028	83
372.254	82
372.48	83
372.706	81
372.932	80
373.158	95
373.384	81
373.61	102
373.835	71
374.061	80
374.287	73
374.513	86
374.739	106
374.965	85
375.191	76
375.416	90
375.642	83
375.868	81
376.094	77
376.319	78
376.545	95
376.771	80
376.997	88
377.222	72
377.448	78
377.674	80
377.899	84
378.125	81
378.35	73
378.576	87
378.802	77
379.027	83
379.253	88
379.478	72
379.704	83
379.929	86
380.155	80
380.38	68
380.606	89
380.831	84
381.057	91
381.282	82
381.507	87
381.733	90
381.958	76
382.184	106
382.409	78
382.634	92
382.86	88
383.085	84
383.31	80
383.535	74
383.761	88
383.986	87
384.211	72
384.436	83
384.662	81
384.887	76
385.112	93
385.337	95
385.562	98
385.787	83
386.013	89
386.238	83
386.463	74
386.688	90
386.913	82
387.138	87
387.363	70
387.588	85
387.813	74
388.038	81
388.263	84
388.488	89
388.713	77
388.938	86
389.163	68
389.387	89
389.612	79
389.837	79
390.062	73
390.287	92
390.512	88
390.736	87
390.961	79
391.186	78
391.411	99
391.636	79
391.86	74
392.085	70
392.31	90
392.534	76
392.759	78
392.984	92
393.208	85
393.433	78
393.658	76
393.882	78
394.107	73
394.331	75
394.556	77
394.78	84
395.005	64
395.229	85
395.454	82
395.678	90
395.903	85
396.127	81
396.352	82
396.576	80
396.801	79
397.025	85
397.249	94
397.474	90
397.698	93
397.922	82
398.147	75
398.371	79
398.595	72
398.82	76
399.044	86
399.268	83
399.492	80
399.717	78
399.941	78
400.165	90
400.389	86
400.613	83
400.837	66
401.062	79
401.286	75
401.51	81
401.734	83
401.958	90
402.182	96
402.406	74
402.63	74
402.854	92
403.078	82
403.302	79
403.526	78
403.75	90
403.974	67
404.198	70
404.422	81
404.645	80
404.869	86
405.093	75
405.317	78
405.541	88
405.765	78
405.988	76
406.212	88
406.436	81
406.66	80
406.883	85
407.107	90
407.331	74
407.555	92
407.778	82
408.002	88
408.226	80
408.449	82
408.673	70
408.896	74
409.12	67
409.344	85
409.567	72
409.791	72
410.014	76
410.238	72
410.461	72
410.685	73
410.908	94
411.132	88
411.355	88
411.578	72
411.802	86
412.025	87
412.249	79
412.472	86
412.695	80
412.919	81
413.142	73
413.365	83
413.589	85
413.812	78
414.035	78
414.258	84
414.482	85
414.705	98
414.928	83
415.151	80
415.374	92
415.597	86
415.821	84
416.044	75
416.267	77
416.49	86
416.713	88
416.936	69
417.159	82
417.382	56
417.605	93
417.828	84
418.051	72
418.274	83
418.497	84
418.72	75
418.943	80
419.166	86
419.389	78
419.611	78
419.834	78
420.057	78
420.28	79
420.503	87
420.726	88
420.948	86
421.171	82
421.394	75
421.617	84
421.839	73
422.062	75
422.285	87
422.507	67
422.73	74
422.953	74
423.175	71
423.398	94
423.621	88
423.843	81
424.066	72
424.288	83
424.511	81
424.733	68
424.956	86
425.178	86
425.401	73
425.623	81
425.846	83
426.068	90
426.291	68
426.513	79
426.735	78
426.958	90
427.18	80
427.402	94
427.625	70
427.847	89
428.069	88
428.292	85
428.514	89
428.736	74
428.958	65
429.181	78
429.403	83
429.625	91
429.847	90
430.069	82
430.292	76
430.514	83
430.736	86
430.958	90
431.18	73
431.402	71
431.624	77
431.846	77
432.068	74
432.29	92
432.512	83
432.734	74
432.956	79
433.178	79
433.4	79
433.622	76
433.844	88
434.066	75
434.287	87
434.509	94
434.731	80
434.953	95
435.175	87
435.397	83
435.618	83
435.84	90
436.062	83
436.284	88
436.505	83
436.727	66
436.949	81
437.17	74
437.392	65
437.614	70
437.835	75
438.057	83
438.278	68
438.5	74
438.721	79
438.943	90
439.165	75
439.386	65
439.608	76
439.829	80
440.05	88
440.272	92
440.493	77
440.715	79
440.936	72
441.158	71
441.379	84
441.6	80
441.822	77
442.043	75
442.264	59
442.486	75
442.707	78
442.928	87
443.149	94
443.371	86
443.592	71
443.813	81
444.034	88
444.255	81
444.476	95
444.698	79
444.919	81
445.14	158
445.361	122
445.582	94
445.803	90
446.024	84
446.245	94
446.466	78
446.687	86
446.908	78
447.129	83
447.35	76
447.571	62
447.792	84
448.013	79
448.234	78
448.455	81
448.675	80
448.896	70
449.117	76
449.338	95
449.559	78
449.779	85
450	82
450.221	72
450.442	83
450.662	81
450.883	79
451.104	81
451.324	78
451.545	75
451.766	80
451.986	100
452.207	81
452.428	74
452.648	72
452.869	90
453.089	74
453.31	75
453.53	80
453.751	80
453.971	86
454.192	67
454.412	82
454.633	77
454.853	89
455.073	82
455.294	75
455.514	69
455.734	81
455.955	84
456.175	78
456.395	92
456.616	79
456.836	83
457.056	81
457.276	73
457.497	79
457.717	74
457.937	88
458.157	72
458.377	79
458.598	84
458.818	82
459.038	98
459.258	74
459.478	82
459.698	76
459.918	81
460.138	74
460.358	67
460.578	78
460.798	90
461.018	88
461.238	71
461.458	82
461.678	85
461.898	77
462.118	71
462.338	65
462.558	83
462.777	85
462.997	65
463.217	72
463.437	76
463.657	82
463.876	61
464.096	71
464.316	79
464.536	85
464.755	85
464.975	80
465.195	80
465.414	91
465.634	87
465.854	86
466.073	91
466.293	81
466.512	72
466.732	77
466.951	76
467.171	90
467.391	83
467.61	84
467.829	87
468.049	88
468.268	75
468.488	83
468.707	77
468.927	84
469.146	70
469.365	68
469.585	78
469.804	88
470.023	67
470.243	94
470.462	80
470.681	68
470.901	103
471.12	74
471.339	78
471.558	84
471.777	80
471.997	79
472.216	88
472.435	75
472.654	82
472.873	92
473.092	91
473.311	97
473.53	100
473.749	83
473.968	79
474.187	86
474.406	80
474.625	84
474.844	86
475.063	65
475.282	84
475.501	70
475.72	80
475.939	69
476.158	74
476.377	74
476.596	67
476.814	86
477.033	86
477.252	72
477.471	69
477.69	89
477.908	81
478.127	75
478.346	85
478.564	78
478.783	79
479.002	80
479.22	86
479.439	99
479.658	76
479.876	74
480.095	69
480.313	88
480.532	81
480.751	94
480.969	84
481.188	92
481.406	87
481.624	82
481.843	85
482.061	69
482.28	64
482.498	81
482.717	89
482.935	79
483.153	82
483.372	88
483.59	88
483.808	89
484.027	77
484.245	67
484.463	68
484.681	76
484.9	84
485.118	75
485.336	68
485.554	82
485.772	65
485.99	73
486.209	71
486.427	86
486.645	89
486.863	95
487.081	72
487.299	82
487.517	68
487.735	86
487.953	86
488.171	76
488.389	74
488.607	78
488.825	80
489.043	81
489.261	91
489.479	84
489.696	89
489.914	88
490.132	91
490.35	70
490.568	90
490.786	86
491.003	97
491.221	74
491.439	74
491.657	70
491.874	72
492.092	74
492.31	78
492.527	86
492.745	91
492.963	86
493.18	97
493.398	82
493.615	79
493.833	74
494.05	84
494.268	87
494.485	73
494.703	74
494.92	73
495.138	84
495.355	83
495.573	80
495.79	79
496.008	92
496.225	74
496.442	78
496.66	86
496.877	83
497.094	81
497.312	67
497.529	89
497.746	80
497.963	77
498.181	81
498.398	77
498.615	75
498.832	79
499.049	66
499.267	72
499.484	83
499.701	78
499.918	90
500.135	74
500.352	67
500.569	78
500.786	78
501.003	78
501.22	81
501.437	86
501.654	97
501.871	80
502.088	82
502.305	75
502.522	92
502.739	87
502.956	92
503.172	83
503.389	83
503.606	93
503.823	85
504.04	75
504.256	64
504.473	80
504.69	86
504.907	80
505.123	78
505.34	81
505.557	87
505.773	82
505.99	84
506.207	95
506.423	82
506.64	74
506.856	80
507.073	75
507.289	84
507.506	86
507.722	80
507.939	79
508.155	95
508.372	86
508.588	88
508.805	87
509.021	86
509.238	78
509.454	84
509.67	95
509.887	82
510.103	74
510.319	68
510.536	82
510.752	83
510.968	59
511.184	86
511.401	81
511.617	78
511.833	89
512.049	94
512.265	77
512.481	67
512.698	97
512.914	75
513.13	84
513.346	79
513.562	80
513.778	81
513.994	70
514.21	68
514.426	86
514.642	92
514.858	77
515.074	92
515.29	92
515.506	87
515.721	69
515.937	92
516.153	76
516.369	75
516.585	95
516.801	78
517.016	80
517.232	88
517.448	83
517.664	78
517.879	83
518.095	82
518.311	76
518.527	78
518.742	76
518.958	88
519.173	80
519.389	62
519.605	84
519.82	77
520.036	99
520.251	83
520.467	82
520.682	72
520.898	74
521.113	77
521.329	91
521.544	71
521.76	85
521.975	77
522.19	84
522.406	85
522.621	83
522.836	79
523.052	79
523.267	87
523.482	92
523.698	88
523.913	80
524.128	98
524.343	86
524.559	87
524.774	77
524.989	81
525.204	84
525.419	81
525.634	91
525.849	94
526.064	64
526.28	90
526.495	93
526.71	85
526.925	74
527.14	82
527.355	83
527.57	77
527.785	70
527.999	88
528.214	82
528.429	97
528.644	78
528.859	78
529.074	81
529.289	82
529.503	80
529.718	78
529.933	72
530.148	91
530.363	91
530.577	91
530.792	91
531.007	74
531.221	87
531.436	75
531.651	91
531.865	76
532.08	85
532.295	80
532.509	77
532.724	88
532.938	102
533.153	84
533.367	78
533.582	74
533.796	72
534.011	77
534.225	80
534.44	86
534.654	93
534.868	78
535.083	86
535.297	76
535.511	90
535.726	91
535.94	81
536.154	86
536.369	78
536.583	73
536.797	86
537.011	81
537.225	82
537.44	96
537.654	89
537.868	90
538.082	78
538.296	80
538.51	80
538.724	74
538.938	83
539.153	92
539.367	90
539.581	84
539.795	96
540.009	83
540.222	95
540.436	78
540.65	78
540.864	89
541.078	66
541.292	84
541.506	86
541.72	84
541.934	86
542.147	76
542.361	89
542.575	86
542.789	82
543.002	79
543.216	74
543.43	77
543.644	95
543.857	81
544.071	83
544.285	83
544.498	89
544.712	91
544.925	90
545.139	87
545.352	75
545.566	70
545.779	76
545.993	86
546.206	73
546.42	74
546.633	86
546.847	84
547.06	80
547.274	84
547.487	73
547.7	88
547.914	95
548.127	82
548.34	74
548.554	85
548.767	72
548.98	93
549.193	76
549.407	80
549.62	93
549.833	76
550.046	80
550.259	72
550.473	91
550.686	84
550.899	95
551.112	87
551.325	74
551.538	80
551.751	78
551.964	91
552.177	79
552.39	64
552.603	83
552.816	68
553.029	82
553.242	81
553.455	80
553.667	85
553.88	79
554.093	89
554.306	74
554.519	78
554.732	68
554.944	90
555.157	69
555.37	78
555.583	82
555.795	79
556.008	89
556.221	86
556.433	84
556.646	89
556.859	91
557.071	89
557.284	93
557.496	79
557.709	88
557.921	81
558.134	94
558.346	68
558.559	79
558.771	65
558.984	81
559.196	74
559.409	72
559.621	80
559.833	89
560.046	81
560.258	91
560.47	94
560.683	66
560.895	86
561.107	80
561.32	85
561.532	77
561.744	87
561.956	91
562.168	88
562.381	93
562.593	73
562.805	85
563.017	94
563.229	77
563.441	59
563.653	78
563.865	80
564.077	78
564.289	80
564.501	84
564.713	84
564.925	74
565.137	80
565.349	93
565.561	80
565.773	85
565.985	77
566.197	86
566.408	84
566.62	90
566.832	79
567.044	83
567.255	84
567.467	83
567.679	85
567.891	78
568.102	87
568.314	82
568.526	94
568.737	83
568.949	72
569.161	74
569.372	89
569.584	98
569.795	72
570.007	82
570.218	79
570.43	76
570.641	84
570.853	91
571.064	86
571.276	89
571.487	83
571.698	89
571.91	82
572.121	75
572.333	74
572.544	74
572.755	88
572.966	86
573.178	67
573.389	72
573.6	81
573.811	76
574.023	86
574.234	89
574.445	67
574.656	78
574.867	75
575.078	77
575.289	75
575.501	88
575.712	89
575.923	92
576.134	96
576.345	92
576.556	88
576.767	84
576.978	84
577.188	82
577.399	80
577.61	78
577.821	99
578.032	83
578.243	81
578.454	71
578.665	78
578.875	76
579.086	84
579.297	81
579.508	80
579.718	82
579.929	88
580.14	88
580.35	84
580.561	88
580.772	84
580.982	83
581.193	88
581.403	80
581.614	79
581.825	90
582.035	75
582.246	71
582.456	74
582.667	78
582.877	54
583.087	81
583.298	89
583.508	90
583.719	76
583.929	99
584.139	79
584.35	95
584.56	100
584.77	98
584.981	83
585.191	82
585.401	83
585.611	75
585.821	82
586.032	80
586.242	90
586.452	75
586.662	92
586.872	86
587.082	86
587.292	83
587.502	75
587.713	76
587.923	87
588.133	78
588.343	88
588.553	79
588.762	97
588.972	79
589.182	78
589.392	82
589.602	81
589.812	81
590.022	88
590.232	75
590.441	76
590.651	80
