Data from Background_1_HRD10591_00096.txt Node
Date: Wed Nov 05 14:39:45 EST 2025
User: Yrep
Spectrometer: HR+D1059
Trigger mode: 1
Integration Time (sec): 1.000000E-1
Scans to average: 1
Electric dark correction enabled: true
Nonlinearity correction enabled: false
Boxcar width: 0
XAxis mode: Wavelengths
Number of Pixels in Spectrum: 2048
>>>>>Begin Spectral Data<<<<<
223.165	-10.12
223.4	-10.12
223.635	-10.12
223.869	-22.12
224.104	-20.12
224.338	-20.12
224.573	-15.12
224.808	-19.12
225.042	-16.12
225.277	-0.12
225.511	-3.12
225.746	5.88
225.98	7.88
226.215	2.88
226.449	30.88
226.683	20.88
226.918	26.88
227.152	30.88
227.387	33.88
227.621	35.88
227.856	38.88
228.09	39.88
228.324	49.88
228.559	62.88
228.793	69.88
229.027	55.88
229.262	53.88
229.496	63.88
229.73	78.88
229.964	75.88
230.199	71.88
230.433	86.88
230.667	84.88
230.901	66.88
231.136	82.88
231.37	76.88
231.604	83.88
231.838	77.88
232.072	89.88
232.306	67.88
232.541	83.88
232.775	66.88
233.009	73.88
233.243	84.88
233.477	87.88
233.711	92.88
233.945	89.88
234.179	81.88
234.413	77.88
234.647	89.88
234.881	76.88
235.115	70.88
235.349	71.88
235.583	78.88
235.817	70.88
236.051	82.88
236.285	84.88
236.519	79.88
236.753	69.88
236.987	79.88
237.221	71.88
237.455	80.88
237.689	80.88
237.922	77.88
238.156	84.88
238.39	75.88
238.624	65.88
238.858	84.88
239.091	78.88
239.325	86.88
239.559	75.88
239.793	87.88
240.027	71.88
240.26	85.88
240.494	85.88
240.728	75.88
240.961	77.88
241.195	87.88
241.429	71.88
241.662	75.88
241.896	75.88
242.13	74.88
242.363	80.88
242.597	82.88
242.83	67.88
243.064	65.88
243.298	75.88
243.531	72.88
243.765	66.88
243.998	81.88
244.232	75.88
244.465	85.88
244.699	67.88
244.932	75.88
245.166	76.88
245.399	69.88
245.633	67.88
245.866	77.88
246.099	69.88
246.333	79.88
246.566	78.88
246.8	83.88
247.033	66.88
247.266	78.88
247.5	75.88
247.733	92.88
247.966	69.88
248.2	70.88
248.433	85.88
248.666	94.88
248.899	80.88
249.133	75.88
249.366	92.88
249.599	66.88
249.832	83.88
250.066	91.88
250.299	83.88
250.532	79.88
250.765	79.88
250.998	83.88
251.231	81.88
251.465	68.88
251.698	73.88
251.931	65.88
252.164	87.88
252.397	71.88
252.63	72.88
252.863	82.88
253.096	66.88
253.329	70.88
253.562	85.88
253.795	79.88
254.028	89.88
254.261	81.88
254.494	83.88
254.727	73.88
254.96	76.88
255.193	75.88
255.426	68.88
255.659	83.88
255.892	79.88
256.124	87.88
256.357	71.88
256.59	84.88
256.823	76.88
257.056	89.88
257.289	94.88
257.521	80.88
257.754	80.88
257.987	67.88
258.22	91.88
258.452	84.88
258.685	82.88
258.918	75.88
259.151	74.88
259.383	72.88
259.616	77.88
259.849	89.88
260.081	81.88
260.314	73.88
260.547	85.88
260.779	65.88
261.012	85.88
261.244	69.88
261.477	81.88
261.71	73.88
261.942	77.88
262.175	68.88
262.407	75.88
262.64	68.88
262.872	98.88
263.105	80.88
263.337	70.88
263.57	87.88
263.802	87.88
264.035	79.88
264.267	69.88
264.499	83.88
264.732	82.88
264.964	84.88
265.197	74.88
265.429	91.88
265.661	85.88
265.894	65.88
266.126	85.88
266.358	76.88
266.591	75.88
266.823	86.88
267.055	76.88
267.287	75.88
267.52	81.88
267.752	90.88
267.984	81.88
268.216	85.88
268.448	66.88
268.681	82.88
268.913	78.88
269.145	91.88
269.377	87.88
269.609	83.88
269.841	92.88
270.073	69.88
270.306	79.88
270.538	70.88
270.77	74.88
271.002	90.88
271.234	85.88
271.466	94.88
271.698	76.88
271.93	99.88
272.162	76.88
272.394	82.88
272.626	87.88
272.858	83.88
273.09	81.88
273.322	84.88
273.553	88.88
273.785	77.88
274.017	82.88
274.249	79.88
274.481	83.88
274.713	82.88
274.945	88.88
275.176	82.88
275.408	84.88
275.64	81.88
275.872	92.88
276.104	79.88
276.335	83.88
276.567	97.88
276.799	78.88
277.031	88.88
277.262	92.88
277.494	84.88
277.726	91.88
277.957	77.88
278.189	98.88
278.421	79.88
278.652	75.88
278.884	90.88
279.115	83.88
279.347	80.88
279.579	79.88
279.81	77.88
280.042	85.88
280.273	84.88
280.505	83.88
280.736	89.88
280.968	78.88
281.199	79.88
281.431	87.88
281.662	81.88
281.894	91.88
282.125	96.88
282.356	77.88
282.588	83.88
282.819	89.88
283.051	80.88
283.282	95.88
283.513	82.88
283.745	89.88
283.976	83.88
284.207	87.88
284.439	82.88
284.67	86.88
284.901	103.88
285.132	90.88
285.364	84.88
285.595	91.88
285.826	69.88
286.057	89.88
286.288	76.88
286.52	81.88
286.751	73.88
286.982	84.88
287.213	83.88
287.444	93.88
287.675	81.88
287.906	78.88
288.138	95.88
288.369	91.88
288.6	87.88
288.831	80.88
289.062	80.88
289.293	82.88
289.524	90.88
289.755	83.88
289.986	81.88
290.217	82.88
290.448	85.88
290.679	85.88
290.91	80.88
291.141	83.88
291.371	78.88
291.602	84.88
291.833	87.88
292.064	92.88
292.295	77.88
292.526	72.88
292.757	70.88
292.987	80.88
293.218	87.88
293.449	91.88
293.68	83.88
293.91	85.88
294.141	89.88
294.372	69.88
294.603	105.88
294.833	77.88
295.064	80.88
295.295	82.88
295.525	83.88
295.756	84.88
295.987	95.88
296.217	87.88
296.448	80.88
296.679	84.88
296.909	91.88
297.14	88.88
297.37	91.88
297.601	95.88
297.831	81.88
298.062	92.88
298.292	65.88
298.523	75.88
298.753	90.88
298.984	81.88
299.214	85.88
299.445	99.88
299.675	79.88
299.905	84.88
300.136	79.88
300.366	88.88
300.597	81.88
300.827	94.88
301.057	62.88
301.288	78.88
301.518	76.88
301.748	81.88
301.979	96.88
302.209	91.88
302.439	81.88
302.669	85.88
302.9	93.88
303.13	92.88
303.36	89.88
303.59	82.88
303.82	86.88
304.051	84.88
304.281	83.88
304.511	77.88
304.741	88.88
304.971	98.88
305.201	106.88
305.431	83.88
305.661	93.88
305.891	88.88
306.121	68.88
306.352	89.88
306.582	91.88
306.812	83.88
307.042	91.88
307.272	85.88
307.502	77.88
307.731	87.88
307.961	84.88
308.191	79.88
308.421	83.88
308.651	85.88
308.881	86.88
309.111	81.88
309.341	103.88
309.571	87.88
309.8	94.88
310.03	87.88
310.26	80.88
310.49	90.88
310.72	87.88
310.949	75.88
311.179	85.88
311.409	87.88
311.639	79.88
311.868	83.88
312.098	92.88
312.328	89.88
312.557	80.88
312.787	69.88
313.017	96.88
313.246	92.88
313.476	79.88
313.706	77.88
313.935	91.88
314.165	93.88
314.394	87.88
314.624	87.88
314.853	93.88
315.083	89.88
315.312	73.88
315.542	81.88
315.771	76.88
316.001	87.88
316.23	84.88
316.46	81.88
316.689	83.88
316.919	96.88
317.148	73.88
317.377	93.88
317.607	81.88
317.836	81.88
318.065	87.88
318.295	84.88
318.524	82.88
318.753	81.88
318.983	85.88
319.212	93.88
319.441	98.88
319.67	99.88
319.9	96.88
320.129	75.88
320.358	82.88
320.587	84.88
320.816	75.88
321.046	78.88
321.275	76.88
321.504	73.88
321.733	88.88
321.962	96.88
322.191	89.88
322.42	74.88
322.649	77.88
322.878	86.88
323.108	95.88
323.337	82.88
323.566	93.88
323.795	87.88
324.024	89.88
324.253	80.88
324.482	86.88
324.71	69.88
324.939	89.88
325.168	84.88
325.397	92.88
325.626	79.88
325.855	81.88
326.084	87.88
326.313	89.88
326.542	84.88
326.77	85.88
326.999	90.88
327.228	89.88
327.457	78.88
327.686	105.88
327.914	82.88
328.143	91.88
328.372	97.88
328.6	83.88
328.829	89.88
329.058	83.88
329.287	90.88
329.515	81.88
329.744	88.88
329.972	89.88
330.201	86.88
330.43	98.88
330.658	75.88
330.887	71.88
331.115	96.88
331.344	75.88
331.572	96.88
331.801	84.88
332.03	73.88
332.258	77.88
332.486	81.88
332.715	80.88
332.943	80.88
333.172	74.88
333.4	70.88
333.629	76.88
333.857	80.88
334.085	74.88
334.314	89.88
334.542	84.88
334.771	71.88
334.999	82.88
335.227	85.88
335.455	83.88
335.684	86.88
335.912	100.88
336.14	88.88
336.369	84.88
336.597	84.88
336.825	99.88
337.053	90.88
337.281	87.88
337.51	82.88
337.738	84.88
337.966	81.88
338.194	81.88
338.422	88.88
338.65	85.88
338.878	87.88
339.106	95.88
339.334	84.88
339.562	90.88
339.79	85.88
340.018	94.88
340.246	84.88
340.474	90.88
340.702	89.88
340.93	88.88
341.158	84.88
341.386	82.88
341.614	94.88
341.842	82.88
342.07	91.88
342.298	83.88
342.526	67.88
342.754	81.88
342.981	68.88
343.209	95.88
343.437	101.88
343.665	91.88
343.893	91.88
344.12	83.88
344.348	104.88
344.576	81.88
344.804	84.88
345.031	86.88
345.259	73.88
345.487	90.88
345.714	86.88
345.942	76.88
346.17	82.88
346.397	75.88
346.625	84.88
346.853	75.88
347.08	82.88
347.308	87.88
347.535	73.88
347.763	91.88
347.99	87.88
348.218	101.88
348.445	83.88
348.673	89.88
348.9	86.88
349.128	96.88
349.355	72.88
349.583	87.88
349.81	87.88
350.037	93.88
350.265	79.88
350.492	83.88
350.72	89.88
350.947	84.88
351.174	91.88
351.402	89.88
351.629	75.88
351.856	89.88
352.083	83.88
352.311	91.88
352.538	75.88
352.765	76.88
352.992	82.88
353.22	85.88
353.447	90.88
353.674	91.88
353.901	83.88
354.128	82.88
354.355	72.88
354.583	91.88
354.81	90.88
355.037	99.88
355.264	76.88
355.491	89.88
355.718	90.88
355.945	79.88
356.172	81.88
356.399	80.88
356.626	86.88
356.853	92.88
357.08	79.88
357.307	83.88
357.534	72.88
357.761	85.88
357.988	85.88
358.215	82.88
358.441	79.88
358.668	103.88
358.895	74.88
359.122	84.88
359.349	78.88
359.576	82.88
359.802	76.88
360.029	74.88
360.256	74.88
360.483	92.88
360.709	70.88
360.936	91.88
361.163	83.88
361.39	83.88
361.616	77.88
361.843	86.88
362.07	82.88
362.296	84.88
362.523	98.88
362.749	77.88
362.976	79.88
363.203	107.88
363.429	86.88
363.656	93.88
363.882	78.88
364.109	96.88
364.335	97.88
364.562	93.88
364.788	96.88
365.015	82.88
365.241	92.88
365.468	89.88
365.694	93.88
365.92	82.88
366.147	83.88
366.373	74.88
366.599	94.88
366.826	75.88
367.052	83.88
367.278	82.88
367.505	85.88
367.731	83.88
367.957	91.88
368.184	75.88
368.41	85.88
368.636	97.88
368.862	81.88
369.089	79.88
369.315	80.88
369.541	75.88
369.767	90.88
369.993	84.88
370.219	83.88
370.445	90.88
370.672	96.88
370.898	87.88
371.124	79.88
371.35	90.88
371.576	86.88
371.802	81.88
372.028	85.88
372.254	74.88
372.48	87.88
372.706	76.88
372.932	70.88
373.158	75.88
373.384	96.88
373.61	97.88
373.835	93.88
374.061	82.88
374.287	92.88
374.513	89.88
374.739	90.88
374.965	80.88
375.191	70.88
375.416	84.88
375.642	73.88
375.868	81.88
376.094	81.88
376.319	78.88
376.545	89.88
376.771	87.88
376.997	82.88
377.222	78.88
377.448	84.88
377.674	83.88
377.899	77.88
378.125	94.88
378.35	73.88
378.576	80.88
378.802	81.88
379.027	92.88
379.253	93.88
379.478	81.88
379.704	85.88
379.929	82.88
380.155	84.88
380.38	84.88
380.606	81.88
380.831	89.88
381.057	83.88
381.282	82.88
381.507	90.88
381.733	81.88
381.958	85.88
382.184	89.88
382.409	81.88
382.634	82.88
382.86	72.88
383.085	88.88
383.31	82.88
383.535	91.88
383.761	88.88
383.986	91.88
384.211	87.88
384.436	83.88
384.662	81.88
384.887	81.88
385.112	88.88
385.337	97.88
385.562	83.88
385.787	84.88
386.013	84.88
386.238	72.88
386.463	77.88
386.688	89.88
386.913	80.88
387.138	62.88
387.363	83.88
387.588	87.88
387.813	82.88
388.038	87.88
388.263	94.88
388.488	68.88
388.713	88.88
388.938	93.88
389.163	92.88
389.387	80.88
389.612	90.88
389.837	80.88
390.062	78.88
390.287	87.88
390.512	76.88
390.736	89.88
390.961	87.88
391.186	92.88
391.411	77.88
391.636	94.88
391.86	77.88
392.085	96.88
392.31	87.88
392.534	87.88
392.759	87.88
392.984	92.88
393.208	85.88
393.433	81.88
393.658	83.88
393.882	87.88
394.107	95.88
394.331	90.88
394.556	74.88
394.78	76.88
395.005	83.88
395.229	85.88
395.454	91.88
395.678	77.88
395.903	84.88
396.127	76.88
396.352	90.88
396.576	92.88
396.801	93.88
397.025	84.88
397.249	82.88
397.474	76.88
397.698	90.88
397.922	80.88
398.147	81.88
398.371	83.88
398.595	83.88
398.82	83.88
399.044	86.88
399.268	79.88
399.492	84.88
399.717	84.88
399.941	80.88
400.165	65.88
400.389	95.88
400.613	93.88
400.837	80.88
401.062	85.88
401.286	83.88
401.51	90.88
401.734	84.88
401.958	78.88
402.182	72.88
402.406	81.88
402.63	85.88
402.854	88.88
403.078	94.88
403.302	76.88
403.526	67.88
403.75	80.88
403.974	80.88
404.198	82.88
404.422	89.88
404.645	86.88
404.869	85.88
405.093	88.88
405.317	98.88
405.541	82.88
405.765	81.88
405.988	72.88
406.212	75.88
406.436	85.88
406.66	81.88
406.883	76.88
407.107	73.88
407.331	92.88
407.555	87.88
407.778	79.88
408.002	85.88
408.226	86.88
408.449	89.88
408.673	77.88
408.896	66.88
409.12	81.88
409.344	83.88
409.567	72.88
409.791	93.88
410.014	92.88
410.238	81.88
410.461	82.88
410.685	79.88
410.908	82.88
411.132	79.88
411.355	73.88
411.578	81.88
411.802	76.88
412.025	70.88
412.249	91.88
412.472	90.88
412.695	94.88
412.919	84.88
413.142	71.88
413.365	77.88
413.589	81.88
413.812	73.88
414.035	84.88
414.258	80.88
414.482	76.88
414.705	84.88
414.928	78.88
415.151	80.88
415.374	78.88
415.597	75.88
415.821	68.88
416.044	89.88
416.267	81.88
416.49	86.88
416.713	92.88
416.936	75.88
417.159	79.88
417.382	88.88
417.605	68.88
417.828	96.88
418.051	69.88
418.274	88.88
418.497	98.88
418.72	80.88
418.943	87.88
419.166	76.88
419.389	82.88
419.611	68.88
419.834	72.88
420.057	74.88
420.28	90.88
420.503	94.88
420.726	83.88
420.948	79.88
421.171	87.88
421.394	85.88
421.617	75.88
421.839	79.88
422.062	79.88
422.285	79.88
422.507	74.88
422.73	68.88
422.953	84.88
423.175	79.88
423.398	75.88
423.621	68.88
423.843	88.88
424.066	76.88
424.288	90.88
424.511	92.88
424.733	88.88
424.956	94.88
425.178	80.88
425.401	88.88
425.623	70.88
425.846	73.88
426.068	80.88
426.291	80.88
426.513	92.88
426.735	85.88
426.958	78.88
427.18	79.88
427.402	92.88
427.625	80.88
427.847	84.88
428.069	85.88
428.292	105.88
428.514	81.88
428.736	84.88
428.958	79.88
429.181	93.88
429.403	83.88
429.625	73.88
429.847	65.88
430.069	71.88
430.292	89.88
430.514	73.88
430.736	88.88
430.958	81.88
431.18	81.88
431.402	83.88
431.624	72.88
431.846	80.88
432.068	89.88
432.29	75.88
432.512	82.88
432.734	75.88
432.956	89.88
433.178	98.88
433.4	86.88
433.622	75.88
433.844	70.88
434.066	86.88
434.287	84.88
434.509	82.88
434.731	90.88
434.953	81.88
435.175	75.88
435.397	87.88
435.618	65.88
435.84	83.88
436.062	73.88
436.284	78.88
436.505	90.88
436.727	84.88
436.949	85.88
437.17	82.88
437.392	92.88
437.614	83.88
437.835	77.88
438.057	77.88
438.278	78.88
438.5	86.88
438.721	101.88
438.943	77.88
439.165	82.88
439.386	77.88
439.608	78.88
439.829	75.88
440.05	77.88
440.272	80.88
440.493	79.88
440.715	82.88
440.936	75.88
441.158	90.88
441.379	71.88
441.6	82.88
441.822	89.88
442.043	87.88
442.264	81.88
442.486	71.88
442.707	85.88
442.928	67.88
443.149	90.88
443.371	87.88
443.592	88.88
443.813	68.88
444.034	79.88
444.255	92.88
444.476	68.88
444.698	80.88
444.919	80.88
445.14	165.88
445.361	123.88
445.582	74.88
445.803	81.88
446.024	73.88
446.245	68.88
446.466	88.88
446.687	85.88
446.908	84.88
447.129	90.88
447.35	74.88
447.571	76.88
447.792	76.88
448.013	91.88
448.234	79.88
448.455	83.88
448.675	89.88
448.896	80.88
449.117	82.88
449.338	88.88
449.559	85.88
449.779	86.88
450	71.88
450.221	84.88
450.442	68.88
450.662	74.88
450.883	102.88
451.104	75.88
451.324	84.88
451.545	91.88
451.766	82.88
451.986	80.88
452.207	82.88
452.428	85.88
452.648	78.88
452.869	82.88
453.089	76.88
453.31	86.88
453.53	76.88
453.751	80.88
453.971	85.88
454.192	80.88
454.412	84.88
454.633	80.88
454.853	87.88
455.073	70.88
455.294	89.88
455.514	82.88
455.734	82.88
455.955	80.88
456.175	87.88
456.395	86.88
456.616	70.88
456.836	78.88
457.056	75.88
457.276	83.88
457.497	79.88
457.717	88.88
457.937	89.88
458.157	78.88
458.377	87.88
458.598	81.88
458.818	69.88
459.038	79.88
459.258	84.88
459.478	75.88
459.698	83.88
459.918	89.88
460.138	84.88
460.358	75.88
460.578	91.88
460.798	100.88
461.018	86.88
461.238	86.88
461.458	75.88
461.678	91.88
461.898	80.88
462.118	85.88
462.338	75.88
462.558	82.88
462.777	69.88
462.997	97.88
463.217	81.88
463.437	77.88
463.657	79.88
463.876	76.88
464.096	87.88
464.316	84.88
464.536	76.88
464.755	80.88
464.975	87.88
465.195	83.88
465.414	84.88
465.634	78.88
465.854	84.88
466.073	86.88
466.293	89.88
466.512	80.88
466.732	87.88
466.951	85.88
467.171	96.88
467.391	78.88
467.61	91.88
467.829	79.88
468.049	68.88
468.268	80.88
468.488	80.88
468.707	83.88
468.927	79.88
469.146	86.88
469.365	73.88
469.585	82.88
469.804	67.88
470.023	91.88
470.243	77.88
470.462	73.88
470.681	72.88
470.901	84.88
471.12	85.88
471.339	82.88
471.558	73.88
471.777	75.88
471.997	70.88
472.216	82.88
472.435	77.88
472.654	82.88
472.873	87.88
473.092	93.88
473.311	61.88
473.53	93.88
473.749	88.88
473.968	91.88
474.187	78.88
474.406	76.88
474.625	75.88
474.844	91.88
475.063	88.88
475.282	75.88
475.501	88.88
475.72	90.88
475.939	83.88
476.158	85.88
476.377	96.88
476.596	93.88
476.814	67.88
477.033	79.88
477.252	65.88
477.471	87.88
477.69	89.88
477.908	92.88
478.127	96.88
478.346	80.88
478.564	84.88
478.783	92.88
479.002	76.88
479.22	82.88
479.439	91.88
479.658	83.88
479.876	82.88
480.095	82.88
480.313	80.88
480.532	81.88
480.751	89.88
480.969	76.88
481.188	66.88
481.406	76.88
481.624	79.88
481.843	85.88
482.061	83.88
482.28	68.88
482.498	73.88
482.717	95.88
482.935	84.88
483.153	79.88
483.372	73.88
483.59	78.88
483.808	65.88
484.027	73.88
484.245	72.88
484.463	88.88
484.681	80.88
484.9	89.88
485.118	73.88
485.336	64.88
485.554	90.88
485.772	70.88
485.99	89.88
486.209	96.88
486.427	89.88
486.645	76.88
486.863	76.88
487.081	88.88
487.299	83.88
487.517	88.88
487.735	79.88
487.953	91.88
488.171	74.88
488.389	87.88
488.607	88.88
488.825	87.88
489.043	100.88
489.261	83.88
489.479	99.88
489.696	78.88
489.914	88.88
490.132	78.88
490.35	83.88
490.568	83.88
490.786	82.88
491.003	84.88
491.221	93.88
491.439	83.88
491.657	80.88
491.874	84.88
492.092	66.88
492.31	88.88
492.527	84.88
492.745	82.88
492.963	65.88
493.18	77.88
493.398	78.88
493.615	81.88
493.833	73.88
494.05	89.88
494.268	86.88
494.485	81.88
494.703	85.88
494.92	88.88
495.138	83.88
495.355	88.88
495.573	85.88
495.79	78.88
496.008	99.88
496.225	82.88
496.442	89.88
496.66	80.88
496.877	75.88
497.094	101.88
497.312	85.88
497.529	85.88
497.746	76.88
497.963	94.88
498.181	73.88
498.398	86.88
498.615	81.88
498.832	64.88
499.049	85.88
499.267	77.88
499.484	91.88
499.701	82.88
499.918	92.88
500.135	76.88
500.352	80.88
500.569	79.88
500.786	84.88
501.003	88.88
501.22	71.88
501.437	81.88
501.654	89.88
501.871	85.88
502.088	87.88
502.305	87.88
502.522	73.88
502.739	90.88
502.956	98.88
503.172	84.88
503.389	91.88
503.606	83.88
503.823	88.88
504.04	69.88
504.256	79.88
504.473	91.88
504.69	88.88
504.907	83.88
505.123	95.88
505.34	83.88
505.557	84.88
505.773	78.88
505.99	82.88
506.207	109.88
506.423	76.88
506.64	76.88
506.856	65.88
507.073	84.88
507.289	74.88
507.506	79.88
507.722	90.88
507.939	84.88
508.155	92.88
508.372	97.88
508.588	75.88
508.805	76.88
509.021	90.88
509.238	85.88
509.454	86.88
509.67	75.88
509.887	78.88
510.103	78.88
510.319	88.88
510.536	73.88
510.752	92.88
510.968	87.88
511.184	91.88
511.401	82.88
511.617	91.88
511.833	82.88
512.049	78.88
512.265	76.88
512.481	76.88
512.698	92.88
512.914	84.88
513.13	75.88
513.346	84.88
513.562	68.88
513.778	81.88
513.994	74.88
514.21	92.88
514.426	83.88
514.642	80.88
514.858	75.88
515.074	73.88
515.29	96.88
515.506	71.88
515.721	76.88
515.937	84.88
516.153	77.88
516.369	75.88
516.585	75.88
516.801	74.88
517.016	77.88
517.232	79.88
517.448	83.88
517.664	81.88
517.879	79.88
518.095	83.88
518.311	74.88
518.527	73.88
518.742	87.88
518.958	90.88
519.173	75.88
519.389	82.88
519.605	82.88
519.82	92.88
520.036	98.88
