Data from Background_1_HRD10591_00009.txt Node
Date: Wed Nov 05 14:39:02 EST 2025
User: Yrep
Spectrometer: HR+D1059
Trigger mode: 1
Integration Time (sec): 1.000000E-1
Scans to average: 1
Electric dark correction enabled: true
Nonlinearity correction enabled: false
Boxcar width: 0
XAxis mode: Wavelengths
Number of Pixels in Spectrum: 2048
>>>>>Begin Spectral Data<<<<<
223.165	-18.06
223.4	-18.06
223.635	-18.06
223.869	-23.06
224.104	-20.06
224.338	-26.06
224.573	-19.06
224.808	-9.06
225.042	-19.06
225.277	-3.06
225.511	-11.06
225.746	10.94
225.98	9.94
226.215	20.94
226.449	17.94
226.683	24.94
226.918	31.94
227.152	31.94
227.387	24.94
227.621	23.94
227.856	29.94
228.09	50.94
228.324	41.94
228.559	52.94
228.793	52.94
229.027	62.94
229.262	58.94
229.496	65.94
229.73	68.94
229.964	66.94
230.199	76.94
230.433	72.94
230.667	80.94
230.901	90.94
231.136	86.94
231.37	73.94
231.604	77.94
231.838	76.94
232.072	70.94
232.306	83.94
232.541	85.94
232.775	70.94
233.009	80.94
233.243	92.94
233.477	80.94
233.711	81.94
233.945	84.94
234.179	83.94
234.413	75.94
234.647	76.94
234.881	71.94
235.115	84.94
235.349	89.94
235.583	54.94
235.817	72.94
236.051	85.94
236.285	76.94
236.519	85.94
236.753	89.94
236.987	71.94
237.221	70.94
237.455	69.94
237.689	77.94
237.922	55.94
238.156	93.94
238.39	72.94
238.624	60.94
238.858	66.94
239.091	81.94
239.325	76.94
239.559	66.94
239.793	76.94
240.027	71.94
240.26	79.94
240.494	70.94
240.728	71.94
240.961	78.94
241.195	86.94
241.429	76.94
241.662	71.94
241.896	74.94
242.13	70.94
242.363	75.94
242.597	74.94
242.83	80.94
243.064	82.94
243.298	73.94
243.531	84.94
243.765	63.94
243.998	77.94
244.232	70.94
244.465	77.94
244.699	77.94
244.932	81.94
245.166	80.94
245.399	77.94
245.633	77.94
245.866	80.94
246.099	72.94
246.333	81.94
246.566	70.94
246.8	80.94
247.033	70.94
247.266	70.94
247.5	66.94
247.733	75.94
247.966	82.94
248.2	78.94
248.433	81.94
248.666	72.94
248.899	72.94
249.133	70.94
249.366	77.94
249.599	85.94
249.832	71.94
250.066	80.94
250.299	67.94
250.532	73.94
250.765	73.94
250.998	79.94
251.231	64.94
251.465	80.94
251.698	80.94
251.931	82.94
252.164	79.94
252.397	82.94
252.63	71.94
252.863	76.94
253.096	58.94
253.329	74.94
253.562	80.94
253.795	76.94
254.028	82.94
254.261	76.94
254.494	75.94
254.727	80.94
254.96	82.94
255.193	75.94
255.426	79.94
255.659	77.94
255.892	74.94
256.124	88.94
256.357	87.94
256.59	80.94
256.823	78.94
257.056	76.94
257.289	82.94
257.521	78.94
257.754	72.94
257.987	82.94
258.22	88.94
258.452	78.94
258.685	69.94
258.918	83.94
259.151	79.94
259.383	64.94
259.616	75.94
259.849	77.94
260.081	71.94
260.314	65.94
260.547	74.94
260.779	70.94
261.012	80.94
261.244	78.94
261.477	76.94
261.71	73.94
261.942	72.94
262.175	80.94
262.407	82.94
262.64	84.94
262.872	79.94
263.105	72.94
263.337	85.94
263.57	86.94
263.802	70.94
264.035	63.94
264.267	74.94
264.499	80.94
264.732	77.94
264.964	76.94
265.197	77.94
265.429	79.94
265.661	74.94
265.894	81.94
266.126	84.94
266.358	80.94
266.591	81.94
266.823	74.94
267.055	82.94
267.287	82.94
267.52	68.94
267.752	77.94
267.984	82.94
268.216	91.94
268.448	94.94
268.681	69.94
268.913	92.94
269.145	68.94
269.377	73.94
269.609	68.94
269.841	80.94
270.073	88.94
270.306	81.94
270.538	88.94
270.77	82.94
271.002	85.94
271.234	83.94
271.466	87.94
271.698	61.94
271.93	82.94
272.162	81.94
272.394	87.94
272.626	86.94
272.858	78.94
273.09	90.94
273.322	77.94
273.553	81.94
273.785	74.94
274.017	78.94
274.249	80.94
274.481	82.94
274.713	104.94
274.945	78.94
275.176	77.94
275.408	80.94
275.64	74.94
275.872	72.94
276.104	70.94
276.335	79.94
276.567	92.94
276.799	88.94
277.031	74.94
277.262	84.94
277.494	81.94
277.726	79.94
277.957	83.94
278.189	76.94
278.421	81.94
278.652	80.94
278.884	79.94
279.115	70.94
279.347	89.94
279.579	76.94
279.81	81.94
280.042	84.94
280.273	79.94
280.505	81.94
280.736	80.94
280.968	82.94
281.199	81.94
281.431	79.94
281.662	63.94
281.894	89.94
282.125	94.94
282.356	72.94
282.588	77.94
282.819	87.94
283.051	79.94
283.282	75.94
283.513	84.94
283.745	98.94
283.976	92.94
284.207	77.94
284.439	73.94
284.67	84.94
284.901	88.94
285.132	75.94
285.364	84.94
285.595	88.94
285.826	79.94
286.057	93.94
286.288	82.94
286.52	79.94
286.751	88.94
286.982	86.94
287.213	71.94
287.444	77.94
287.675	80.94
287.906	81.94
288.138	84.94
288.369	82.94
288.6	80.94
288.831	76.94
289.062	73.94
289.293	80.94
289.524	86.94
289.755	79.94
289.986	75.94
290.217	87.94
290.448	87.94
290.679	74.94
290.91	84.94
291.141	80.94
291.371	80.94
291.602	64.94
291.833	76.94
292.064	82.94
292.295	86.94
292.526	76.94
292.757	89.94
292.987	88.94
293.218	80.94
293.449	79.94
293.68	79.94
293.91	84.94
294.141	98.94
294.372	85.94
294.603	92.94
294.833	74.94
295.064	96.94
295.295	90.94
295.525	85.94
295.756	78.94
295.987	87.94
296.217	78.94
296.448	78.94
296.679	78.94
296.909	78.94
297.14	70.94
297.37	79.94
297.601	86.94
297.831	79.94
298.062	76.94
298.292	86.94
298.523	79.94
298.753	78.94
298.984	88.94
299.214	84.94
299.445	74.94
299.675	84.94
299.905	82.94
300.136	69.94
300.366	81.94
300.597	82.94
300.827	69.94
301.057	82.94
301.288	86.94
301.518	66.94
301.748	89.94
301.979	102.94
302.209	98.94
302.439	96.94
302.669	76.94
302.9	85.94
303.13	78.94
303.36	76.94
303.59	78.94
303.82	76.94
304.051	70.94
304.281	81.94
304.511	79.94
304.741	81.94
304.971	81.94
305.201	76.94
305.431	79.94
305.661	80.94
305.891	94.94
306.121	93.94
306.352	70.94
306.582	80.94
306.812	76.94
307.042	89.94
307.272	78.94
307.502	70.94
307.731	87.94
307.961	84.94
308.191	85.94
308.421	87.94
308.651	93.94
308.881	82.94
309.111	78.94
309.341	78.94
309.571	75.94
309.8	75.94
310.03	73.94
310.26	87.94
310.49	86.94
310.72	73.94
310.949	72.94
311.179	83.94
311.409	82.94
311.639	78.94
311.868	73.94
312.098	85.94
312.328	79.94
312.557	90.94
312.787	70.94
313.017	81.94
313.246	80.94
313.476	82.94
313.706	72.94
313.935	76.94
314.165	84.94
314.394	78.94
314.624	95.94
314.853	76.94
315.083	75.94
315.312	66.94
315.542	84.94
315.771	74.94
316.001	81.94
316.23	88.94
316.46	81.94
316.689	82.94
316.919	80.94
317.148	84.94
317.377	87.94
317.607	76.94
317.836	96.94
318.065	83.94
318.295	81.94
318.524	84.94
318.753	91.94
318.983	73.94
319.212	80.94
319.441	73.94
319.67	78.94
319.9	82.94
320.129	87.94
320.358	91.94
320.587	79.94
320.816	94.94
321.046	86.94
321.275	74.94
321.504	75.94
321.733	83.94
321.962	92.94
322.191	92.94
322.42	72.94
322.649	84.94
322.878	79.94
323.108	80.94
323.337	81.94
323.566	73.94
323.795	77.94
324.024	82.94
324.253	93.94
324.482	80.94
324.71	86.94
324.939	84.94
325.168	89.94
325.397	77.94
325.626	72.94
325.855	81.94
326.084	93.94
326.313	83.94
326.542	85.94
326.77	87.94
326.999	63.94
327.228	76.94
327.457	85.94
327.686	95.94
327.914	78.94
328.143	81.94
328.372	84.94
328.6	74.94
328.829	81.94
329.058	83.94
329.287	86.94
329.515	83.94
329.744	72.94
329.972	78.94
330.201	74.94
330.43	75.94
330.658	114.94
330.887	96.94
331.115	85.94
331.344	84.94
331.572	98.94
331.801	66.94
332.03	80.94
332.258	79.94
332.486	82.94
332.715	86.94
332.943	73.94
333.172	79.94
333.4	71.94
333.629	84.94
333.857	81.94
334.085	73.94
334.314	80.94
334.542	66.94
334.771	84.94
334.999	84.94
335.227	86.94
335.455	83.94
335.684	72.94
335.912	75.94
336.14	80.94
336.369	94.94
336.597	82.94
336.825	81.94
337.053	79.94
337.281	76.94
337.51	70.94
337.738	64.94
337.966	88.94
338.194	88.94
338.422	71.94
338.65	91.94
338.878	92.94
339.106	82.94
339.334	82.94
339.562	67.94
339.79	65.94
340.018	70.94
340.246	72.94
340.474	66.94
340.702	84.94
340.93	83.94
341.158	73.94
341.386	71.94
341.614	81.94
341.842	85.94
342.07	83.94
342.298	87.94
342.526	75.94
342.754	72.94
342.981	74.94
343.209	89.94
343.437	86.94
343.665	84.94
343.893	78.94
344.12	91.94
344.348	87.94
344.576	79.94
344.804	87.94
345.031	82.94
345.259	82.94
345.487	86.94
345.714	86.94
345.942	79.94
346.17	84.94
346.397	81.94
346.625	88.94
346.853	72.94
347.08	86.94
347.308	79.94
347.535	80.94
347.763	76.94
347.99	85.94
348.218	98.94
348.445	82.94
348.673	73.94
348.9	96.94
349.128	80.94
349.355	79.94
349.583	82.94
349.81	72.94
350.037	82.94
350.265	80.94
350.492	80.94
350.72	78.94
350.947	85.94
351.174	92.94
351.402	80.94
351.629	87.94
351.856	78.94
352.083	77.94
352.311	77.94
352.538	81.94
352.765	88.94
352.992	79.94
353.22	87.94
353.447	84.94
353.674	85.94
353.901	93.94
354.128	72.94
354.355	78.94
354.583	86.94
354.81	77.94
355.037	75.94
355.264	88.94
355.491	76.94
355.718	78.94
355.945	78.94
356.172	67.94
356.399	84.94
356.626	75.94
356.853	81.94
357.08	62.94
357.307	87.94
357.534	83.94
357.761	75.94
357.988	80.94
358.215	76.94
358.441	75.94
358.668	94.94
358.895	86.94
359.122	75.94
359.349	88.94
359.576	99.94
359.802	83.94
360.029	84.94
360.256	89.94
360.483	85.94
360.709	65.94
360.936	84.94
361.163	68.94
361.39	72.94
361.616	72.94
361.843	76.94
362.07	94.94
362.296	72.94
362.523	76.94
362.749	82.94
362.976	80.94
363.203	82.94
363.429	86.94
363.656	84.94
363.882	97.94
364.109	98.94
364.335	78.94
364.562	84.94
364.788	86.94
365.015	92.94
365.241	83.94
365.468	68.94
365.694	82.94
365.92	72.94
366.147	98.94
366.373	80.94
366.599	77.94
366.826	73.94
367.052	82.94
367.278	88.94
367.505	84.94
367.731	85.94
367.957	71.94
368.184	91.94
368.41	86.94
368.636	78.94
368.862	75.94
369.089	86.94
369.315	87.94
369.541	76.94
369.767	75.94
369.993	80.94
370.219	83.94
370.445	83.94
370.672	60.94
370.898	90.94
371.124	70.94
371.35	70.94
371.576	82.94
371.802	67.94
372.028	73.94
372.254	79.94
372.48	79.94
372.706	71.94
372.932	91.94
373.158	86.94
373.384	75.94
373.61	88.94
373.835	74.94
374.061	87.94
374.287	65.94
374.513	73.94
374.739	89.94
374.965	58.94
375.191	64.94
375.416	71.94
375.642	82.94
375.868	99.94
376.094	90.94
376.319	72.94
376.545	72.94
376.771	66.94
376.997	64.94
377.222	82.94
377.448	84.94
377.674	82.94
377.899	76.94
378.125	77.94
378.35	86.94
378.576	76.94
378.802	86.94
379.027	71.94
379.253	80.94
379.478	87.94
379.704	84.94
379.929	80.94
380.155	78.94
380.38	73.94
380.606	96.94
380.831	90.94
381.057	94.94
381.282	75.94
381.507	76.94
381.733	84.94
381.958	82.94
382.184	64.94
382.409	88.94
382.634	81.94
382.86	78.94
383.085	75.94
383.31	77.94
383.535	79.94
383.761	84.94
383.986	81.94
384.211	94.94
384.436	75.94
384.662	78.94
384.887	75.94
385.112	74.94
385.337	76.94
385.562	81.94
385.787	76.94
386.013	71.94
386.238	84.94
386.463	78.94
386.688	81.94
386.913	84.94
387.138	84.94
387.363	80.94
387.588	83.94
387.813	79.94
388.038	68.94
388.263	84.94
388.488	72.94
388.713	71.94
388.938	69.94
389.163	70.94
389.387	89.94
389.612	88.94
389.837	69.94
390.062	76.94
390.287	78.94
390.512	88.94
390.736	94.94
390.961	76.94
391.186	79.94
391.411	78.94
391.636	87.94
391.86	88.94
392.085	78.94
392.31	87.94
392.534	85.94
392.759	79.94
392.984	84.94
393.208	78.94
393.433	67.94
393.658	75.94
393.882	69.94
394.107	76.94
394.331	84.94
394.556	81.94
394.78	76.94
395.005	69.94
395.229	78.94
395.454	88.94
395.678	74.94
395.903	76.94
396.127	76.94
396.352	75.94
396.576	88.94
396.801	90.94
397.025	83.94
397.249	78.94
397.474	88.94
397.698	96.94
397.922	99.94
398.147	80.94
398.371	78.94
398.595	81.94
398.82	82.94
399.044	62.94
399.268	87.94
399.492	90.94
399.717	89.94
399.941	76.94
400.165	67.94
400.389	72.94
400.613	80.94
400.837	73.94
401.062	73.94
401.286	78.94
401.51	74.94
401.734	80.94
401.958	92.94
402.182	87.94
402.406	77.94
402.63	85.94
402.854	89.94
403.078	76.94
403.302	82.94
403.526	80.94
403.75	81.94
403.974	85.94
404.198	80.94
404.422	80.94
404.645	83.94
404.869	73.94
405.093	74.94
405.317	92.94
405.541	84.94
405.765	76.94
405.988	74.94
406.212	77.94
406.436	86.94
406.66	86.94
406.883	68.94
407.107	75.94
407.331	82.94
407.555	85.94
407.778	100.94
408.002	84.94
408.226	75.94
408.449	75.94
408.673	67.94
408.896	72.94
409.12	86.94
409.344	84.94
409.567	73.94
409.791	80.94
410.014	83.94
410.238	70.94
410.461	81.94
410.685	80.94
410.908	83.94
411.132	91.94
411.355	85.94
411.578	71.94
411.802	72.94
412.025	74.94
412.249	92.94
412.472	89.94
412.695	76.94
412.919	79.94
413.142	75.94
413.365	82.94
413.589	65.94
413.812	90.94
414.035	74.94
414.258	81.94
414.482	81.94
414.705	73.94
414.928	85.94
415.151	78.94
415.374	75.94
415.597	67.94
415.821	72.94
416.044	76.94
416.267	77.94
416.49	85.94
416.713	65.94
416.936	69.94
417.159	71.94
417.382	59.94
417.605	75.94
417.828	80.94
418.051	93.94
418.274	87.94
418.497	72.94
418.72	77.94
418.943	76.94
419.166	85.94
419.389	63.94
419.611	77.94
419.834	75.94
420.057	67.94
420.28	76.94
420.503	77.94
420.726	69.94
420.948	75.94
421.171	75.94
421.394	76.94
421.617	87.94
421.839	77.94
422.062	78.94
422.285	69.94
422.507	82.94
422.73	75.94
422.953	72.94
423.175	74.94
423.398	84.94
423.621	84.94
423.843	79.94
424.066	70.94
424.288	84.94
424.511	78.94
424.733	86.94
424.956	71.94
425.178	76.94
425.401	76.94
425.623	82.94
425.846	78.94
426.068	95.94
426.291	78.94
426.513	91.94
426.735	80.94
426.958	74.94
427.18	78.94
427.402	88.94
427.625	66.94
427.847	90.94
428.069	74.94
428.292	84.94
428.514	78.94
428.736	77.94
428.958	72.94
429.181	83.94
429.403	74.94
429.625	86.94
429.847	84.94
430.069	71.94
430.292	80.94
430.514	82.94
430.736	81.94
430.958	77.94
431.18	77.94
431.402	73.94
431.624	61.94
431.846	74.94
432.068	93.94
432.29	87.94
432.512	78.94
432.734	81.94
432.956	79.94
433.178	83.94
433.4	83.94
433.622	82.94
433.844	89.94
434.066	76.94
434.287	76.94
434.509	76.94
434.731	91.94
434.953	91.94
435.175	95.94
435.397	78.94
435.618	83.94
435.84	88.94
436.062	77.94
436.284	77.94
436.505	71.94
436.727	95.94
436.949	86.94
437.17	84.94
437.392	75.94
437.614	72.94
437.835	86.94
438.057	75.94
438.278	77.94
438.5	79.94
438.721	85.94
438.943	64.94
439.165	82.94
439.386	69.94
439.608	81.94
439.829	70.94
440.05	73.94
440.272	74.94
440.493	77.94
440.715	76.94
440.936	73.94
441.158	84.94
441.379	59.94
441.6	96.94
441.822	80.94
442.043	82.94
442.264	77.94
442.486	87.94
442.707	77.94
442.928	66.94
443.149	78.94
443.371	72.94
443.592	74.94
443.813	80.94
444.034	78.94
444.255	84.94
444.476	70.94
444.698	74.94
444.919	84.94
445.14	137.94
445.361	93.94
445.582	88.94
445.803	86.94
446.024	71.94
446.245	97.94
446.466	93.94
446.687	79.94
446.908	76.94
447.129	80.94
447.35	90.94
447.571	78.94
447.792	71.94
448.013	72.94
448.234	84.94
448.455	75.94
448.675	79.94
448.896	58.94
449.117	84.94
449.338	74.94
449.559	92.94
449.779	82.94
450	81.94
450.221	79.94
450.442	80.94
450.662	82.94
450.883	79.94
451.104	89.94
451.324	77.94
451.545	92.94
451.766	77.94
451.986	81.94
452.207	92.94
452.428	77.94
452.648	90.94
452.869	74.94
453.089	93.94
453.31	81.94
453.53	74.94
453.751	67.94
453.971	74.94
454.192	67.94
454.412	83.94
454.633	85.94
454.853	62.94
455.073	79.94
455.294	74.94
455.514	76.94
455.734	69.94
455.955	68.94
456.175	73.94
456.395	76.94
456.616	61.94
456.836	88.94
457.056	76.94
457.276	75.94
457.497	80.94
457.717	80.94
457.937	80.94
458.157	79.94
458.377	84.94
458.598	88.94
458.818	67.94
459.038	86.94
459.258	64.94
459.478	73.94
459.698	74.94
459.918	75.94
460.138	82.94
460.358	82.94
460.578	79.94
460.798	66.94
461.018	90.94
461.238	80.94
461.458	76.94
461.678	92.94
461.898	82.94
462.118	91.94
462.338	88.94
462.558	82.94
462.777	73.94
462.997	75.94
463.217	85.94
463.437	80.94
463.657	79.94
463.876	72.94
464.096	75.94
464.316	72.94
464.536	81.94
464.755	83.94
464.975	84.94
465.195	82.94
465.414	65.94
465.634	77.94
465.854	97.94
466.073	85.94
466.293	69.94
466.512	80.94
466.732	83.94
466.951	85.94
467.171	80.94
467.391	78.94
467.61	84.94
467.829	79.94
468.049	76.94
468.268	79.94
468.488	86.94
468.707	77.94
468.927	75.94
469.146	75.94
469.365	77.94
469.585	80.94
469.804	80.94
470.023	75.94
470.243	75.94
470.462	75.94
470.681	82.94
470.901	73.94
471.12	81.94
471.339	83.94
471.558	71.94
471.777	87.94
471.997	72.94
472.216	89.94
472.435	96.94
472.654	78.94
472.873	75.94
473.092	73.94
473.311	76.94
473.53	81.94
473.749	70.94
473.968	77.94
474.187	86.94
474.406	80.94
474.625	87.94
474.844	68.94
475.063	82.94
475.282	86.94
475.501	90.94
475.72	79.94
475.939	78.94
476.158	91.94
476.377	81.94
476.596	79.94
476.814	88.94
477.033	85.94
477.252	79.94
477.471	84.94
477.69	95.94
477.908	81.94
478.127	79.94
478.346	95.94
478.564	85.94
478.783	79.94
479.002	81.94
479.22	76.94
479.439	79.94
479.658	95.94
479.876	74.94
480.095	81.94
480.313	67.94
480.532	83.94
480.751	73.94
480.969	66.94
481.188	67.94
481.406	89.94
481.624	82.94
481.843	80.94
482.061	80.94
482.28	75.94
482.498	78.94
482.717	83.94
482.935	72.94
483.153	75.94
483.372	85.94
483.59	72.94
483.808	80.94
484.027	77.94
484.245	74.94
484.463	85.94
484.681	88.94
484.9	82.94
485.118	71.94
485.336	88.94
485.554	85.94
485.772	81.94
485.99	72.94
486.209	95.94
486.427	84.94
486.645	69.94
486.863	76.94
487.081	83.94
487.299	95.94
487.517	78.94
487.735	90.94
487.953	71.94
488.171	90.94
488.389	76.94
488.607	78.94
488.825	81.94
489.043	80.94
489.261	86.94
489.479	90.94
489.696	80.94
489.914	81.94
490.132	83.94
490.35	83.94
490.568	65.94
490.786	80.94
491.003	85.94
491.221	83.94
491.439	82.94
491.657	74.94
491.874	85.94
492.092	76.94
492.31	76.94
492.527	81.94
492.745	79.94
492.963	92.94
493.18	77.94
493.398	81.94
493.615	80.94
493.833	90.94
494.05	75.94
494.268	71.94
494.485	91.94
494.703	81.94
494.92	83.94
495.138	91.94
495.355	75.94
495.573	77.94
495.79	92.94
496.008	77.94
496.225	89.94
496.442	90.94
496.66	91.94
496.877	78.94
497.094	86.94
497.312	69.94
497.529	88.94
497.746	93.94
497.963	97.94
498.181	90.94
498.398	83.94
498.615	80.94
498.832	76.94
499.049	88.94
499.267	70.94
499.484	72.94
499.701	77.94
499.918	84.94
500.135	88.94
500.352	64.94
500.569	73.94
500.786	79.94
501.003	70.94
501.22	83.94
501.437	82.94
501.654	72.94
501.871	84.94
502.088	67.94
502.305	75.94
502.522	74.94
502.739	78.94
502.956	94.94
503.172	83.94
503.389	74.94
503.606	73.94
503.823	88.94
504.04	92.94
504.256	92.94
504.473	96.94
504.69	71.94
504.907	96.94
505.123	69.94
505.34	82.94
505.557	83.94
505.773	87.94
505.99	80.94
506.207	66.94
506.423	72.94
506.64	75.94
506.856	90.94
507.073	84.94
507.289	85.94
507.506	78.94
507.722	63.94
507.939	84.94
508.155	80.94
508.372	80.94
508.588	83.94
508.805	84.94
509.021	95.94
509.238	68.94
509.454	86.94
509.67	76.94
509.887	87.94
510.103	80.94
510.319	71.94
510.536	93.94
510.752	97.94
510.968	84.94
511.184	80.94
511.401	88.94
511.617	80.94
511.833	76.94
512.049	86.94
512.265	62.94
512.481	80.94
512.698	84.94
512.914	84.94
513.13	93.94
513.346	89.94
513.562	81.94
513.778	75.94
513.994	76.94
514.21	74.94
514.426	80.94
514.642	80.94
514.858	87.94
515.074	87.94
515.29	82.94
515.506	76.94
515.721	78.94
515.937	84.94
516.153	66.94
516.369	86.94
516.585	92.94
516.801	74.94
517.016	72.94
517.232	91.94
517.448	88.94
517.664	66.94
517.879	95.94
518.095	74.94
518.311	63.94
518.527	94.94
518.742	80.94
518.958	73.94
519.173	93.94
519.389	82.94
519.605	77.94
519.82	89.94
520.036	80.94
