Data from Background_1_HRD10591_00082.txt Node
Date: Wed Nov 05 14:39:38 EST 2025
User: Yrep
Spectrometer: HR+D1059
Trigger mode: 1
Integration Time (sec): 1.000000E-1
Scans to average: 1
Electric dark correction enabled: true
Nonlinearity correction enabled: false
Boxcar width: 0
XAxis mode: Wavelengths
Number of Pixels in Spectrum: 2048
>>>>>Begin Spectral Data<<<<<
223.165	-17.88
223.4	-17.88
223.635	-17.88
223.869	-20.88
224.104	-10.88
224.338	-15.88
224.573	-18.88
224.808	-14.88
225.042	-4.88
225.277	-6.88
225.511	9.12
225.746	5.12
225.98	1.12
226.215	12.12
226.449	19.12
226.683	19.12
226.918	13.12
227.152	32.12
227.387	41.12
227.621	57.12
227.856	51.12
228.09	64.12
228.324	49.12
228.559	60.12
228.793	63.12
229.027	49.12
229.262	67.12
229.496	58.12
229.73	72.12
229.964	70.12
230.199	86.12
230.433	67.12
230.667	65.12
230.901	69.12
231.136	71.12
231.37	82.12
231.604	84.12
231.838	79.12
232.072	95.12
232.306	82.12
232.541	101.12
232.775	81.12
233.009	83.12
233.243	69.12
233.477	80.12
233.711	85.12
233.945	83.12
234.179	81.12
234.413	91.12
234.647	83.12
234.881	71.12
235.115	80.12
235.349	80.12
235.583	73.12
235.817	84.12
236.051	73.12
236.285	90.12
236.519	83.12
236.753	78.12
236.987	72.12
237.221	77.12
237.455	91.12
237.689	67.12
237.922	77.12
238.156	67.12
238.39	65.12
238.624	88.12
238.858	85.12
239.091	79.12
239.325	77.12
239.559	77.12
239.793	82.12
240.027	82.12
240.26	79.12
240.494	65.12
240.728	74.12
240.961	79.12
241.195	80.12
241.429	70.12
241.662	66.12
241.896	76.12
242.13	86.12
242.363	77.12
242.597	73.12
242.83	75.12
243.064	90.12
243.298	70.12
243.531	70.12
243.765	70.12
243.998	66.12
244.232	79.12
244.465	80.12
244.699	78.12
244.932	66.12
245.166	68.12
245.399	69.12
245.633	86.12
245.866	75.12
246.099	70.12
246.333	89.12
246.566	82.12
246.8	77.12
247.033	80.12
247.266	78.12
247.5	68.12
247.733	63.12
247.966	78.12
248.2	78.12
248.433	76.12
248.666	81.12
248.899	69.12
249.133	76.12
249.366	79.12
249.599	82.12
249.832	70.12
250.066	81.12
250.299	83.12
250.532	97.12
250.765	74.12
250.998	70.12
251.231	75.12
251.465	83.12
251.698	77.12
251.931	86.12
252.164	81.12
252.397	84.12
252.63	68.12
252.863	85.12
253.096	76.12
253.329	87.12
253.562	86.12
253.795	86.12
254.028	93.12
254.261	100.12
254.494	89.12
254.727	79.12
254.96	71.12
255.193	79.12
255.426	83.12
255.659	67.12
255.892	76.12
256.124	65.12
256.357	69.12
256.59	75.12
256.823	79.12
257.056	67.12
257.289	71.12
257.521	88.12
257.754	91.12
257.987	89.12
258.22	93.12
258.452	81.12
258.685	79.12
258.918	85.12
259.151	83.12
259.383	101.12
259.616	81.12
259.849	80.12
260.081	85.12
260.314	98.12
260.547	79.12
260.779	78.12
261.012	75.12
261.244	87.12
261.477	100.12
261.71	78.12
261.942	74.12
262.175	81.12
262.407	93.12
262.64	65.12
262.872	91.12
263.105	86.12
263.337	96.12
263.57	85.12
263.802	78.12
264.035	88.12
264.267	86.12
264.499	83.12
264.732	91.12
264.964	80.12
265.197	92.12
265.429	70.12
265.661	82.12
265.894	77.12
266.126	79.12
266.358	88.12
266.591	100.12
266.823	97.12
267.055	80.12
267.287	85.12
267.52	70.12
267.752	82.12
267.984	78.12
268.216	73.12
268.448	74.12
268.681	81.12
268.913	81.12
269.145	87.12
269.377	75.12
269.609	75.12
269.841	79.12
270.073	74.12
270.306	76.12
270.538	80.12
270.77	95.12
271.002	83.12
271.234	82.12
271.466	87.12
271.698	103.12
271.93	84.12
272.162	74.12
272.394	71.12
272.626	71.12
272.858	66.12
273.09	74.12
273.322	87.12
273.553	86.12
273.785	89.12
274.017	69.12
274.249	78.12
274.481	79.12
274.713	69.12
274.945	86.12
275.176	87.12
275.408	77.12
275.64	81.12
275.872	91.12
276.104	90.12
276.335	81.12
276.567	83.12
276.799	66.12
277.031	90.12
277.262	69.12
277.494	85.12
277.726	94.12
277.957	92.12
278.189	84.12
278.421	91.12
278.652	83.12
278.884	86.12
279.115	78.12
279.347	87.12
279.579	79.12
279.81	85.12
280.042	71.12
280.273	82.12
280.505	95.12
280.736	78.12
280.968	79.12
281.199	94.12
281.431	86.12
281.662	81.12
281.894	98.12
282.125	81.12
282.356	75.12
282.588	86.12
282.819	82.12
283.051	82.12
283.282	72.12
283.513	87.12
283.745	83.12
283.976	73.12
284.207	72.12
284.439	91.12
284.67	81.12
284.901	100.12
285.132	78.12
285.364	94.12
285.595	86.12
285.826	80.12
286.057	85.12
286.288	99.12
286.52	84.12
286.751	76.12
286.982	76.12
287.213	94.12
287.444	87.12
287.675	84.12
287.906	88.12
288.138	78.12
288.369	93.12
288.6	87.12
288.831	93.12
289.062	103.12
289.293	99.12
289.524	86.12
289.755	85.12
289.986	75.12
290.217	86.12
290.448	94.12
290.679	96.12
290.91	103.12
291.141	94.12
291.371	103.12
291.602	99.12
291.833	84.12
292.064	92.12
292.295	91.12
292.526	93.12
292.757	85.12
292.987	93.12
293.218	92.12
293.449	84.12
293.68	89.12
293.91	91.12
294.141	92.12
294.372	88.12
294.603	88.12
294.833	81.12
295.064	88.12
295.295	99.12
295.525	86.12
295.756	87.12
295.987	91.12
296.217	85.12
296.448	97.12
296.679	89.12
296.909	90.12
297.14	103.12
297.37	99.12
297.601	96.12
297.831	93.12
298.062	79.12
298.292	87.12
298.523	88.12
298.753	86.12
298.984	81.12
299.214	76.12
299.445	78.12
299.675	79.12
299.905	91.12
300.136	80.12
300.366	82.12
300.597	86.12
300.827	81.12
301.057	77.12
301.288	92.12
301.518	91.12
301.748	72.12
301.979	93.12
302.209	84.12
302.439	80.12
302.669	84.12
302.9	88.12
303.13	83.12
303.36	96.12
303.59	83.12
303.82	83.12
304.051	91.12
304.281	88.12
304.511	103.12
304.741	80.12
304.971	94.12
305.201	91.12
305.431	86.12
305.661	93.12
305.891	92.12
306.121	91.12
306.352	97.12
306.582	95.12
306.812	85.12
307.042	91.12
307.272	79.12
307.502	90.12
307.731	87.12
307.961	84.12
308.191	84.12
308.421	99.12
308.651	73.12
308.881	89.12
309.111	90.12
309.341	84.12
309.571	91.12
309.8	90.12
310.03	84.12
310.26	76.12
310.49	83.12
310.72	95.12
310.949	82.12
311.179	93.12
311.409	78.12
311.639	81.12
311.868	85.12
312.098	86.12
312.328	80.12
312.557	73.12
312.787	82.12
313.017	94.12
313.246	83.12
313.476	84.12
313.706	79.12
313.935	82.12
314.165	79.12
314.394	109.12
314.624	82.12
314.853	85.12
315.083	87.12
315.312	91.12
315.542	89.12
315.771	100.12
316.001	97.12
316.23	81.12
316.46	90.12
316.689	85.12
316.919	77.12
317.148	98.12
317.377	76.12
317.607	100.12
317.836	97.12
318.065	85.12
318.295	97.12
318.524	102.12
318.753	81.12
318.983	66.12
319.212	81.12
319.441	85.12
319.67	78.12
319.9	80.12
320.129	96.12
320.358	99.12
320.587	77.12
320.816	84.12
321.046	81.12
321.275	90.12
321.504	79.12
321.733	87.12
321.962	81.12
322.191	94.12
322.42	95.12
322.649	91.12
322.878	74.12
323.108	100.12
323.337	94.12
323.566	72.12
323.795	85.12
324.024	97.12
324.253	90.12
324.482	70.12
324.71	73.12
324.939	82.12
325.168	81.12
325.397	92.12
325.626	75.12
325.855	78.12
326.084	88.12
326.313	81.12
326.542	80.12
326.77	89.12
326.999	102.12
327.228	75.12
327.457	83.12
327.686	67.12
327.914	88.12
328.143	91.12
328.372	80.12
328.6	98.12
328.829	76.12
329.058	83.12
329.287	80.12
329.515	78.12
329.744	102.12
329.972	68.12
330.201	99.12
330.43	78.12
330.658	87.12
330.887	94.12
331.115	92.12
331.344	77.12
331.572	79.12
331.801	86.12
332.03	73.12
332.258	91.12
332.486	92.12
332.715	84.12
332.943	95.12
333.172	90.12
333.4	89.12
333.629	89.12
333.857	92.12
334.085	82.12
334.314	93.12
334.542	72.12
334.771	84.12
334.999	76.12
335.227	86.12
335.455	69.12
335.684	81.12
335.912	81.12
336.14	89.12
336.369	82.12
336.597	88.12
336.825	96.12
337.053	93.12
337.281	84.12
337.51	97.12
337.738	97.12
337.966	70.12
338.194	84.12
338.422	85.12
338.65	93.12
338.878	87.12
339.106	89.12
339.334	87.12
339.562	73.12
339.79	83.12
340.018	82.12
340.246	70.12
340.474	78.12
340.702	84.12
340.93	86.12
341.158	84.12
341.386	78.12
341.614	80.12
341.842	92.12
342.07	91.12
342.298	89.12
342.526	78.12
342.754	94.12
342.981	87.12
343.209	90.12
343.437	93.12
343.665	80.12
343.893	77.12
344.12	85.12
344.348	86.12
344.576	102.12
344.804	81.12
345.031	94.12
345.259	81.12
345.487	90.12
345.714	87.12
345.942	81.12
346.17	81.12
346.397	74.12
346.625	90.12
346.853	97.12
347.08	98.12
347.308	89.12
347.535	76.12
347.763	91.12
347.99	82.12
348.218	83.12
348.445	90.12
348.673	83.12
348.9	85.12
349.128	79.12
349.355	91.12
349.583	83.12
349.81	71.12
350.037	78.12
350.265	96.12
350.492	84.12
350.72	98.12
350.947	90.12
351.174	102.12
351.402	86.12
351.629	94.12
351.856	80.12
352.083	68.12
352.311	98.12
352.538	68.12
352.765	95.12
352.992	94.12
353.22	86.12
353.447	77.12
353.674	79.12
353.901	95.12
354.128	85.12
354.355	89.12
354.583	82.12
354.81	95.12
355.037	89.12
355.264	81.12
355.491	79.12
355.718	87.12
355.945	95.12
356.172	99.12
356.399	93.12
356.626	74.12
356.853	80.12
357.08	91.12
357.307	77.12
357.534	86.12
357.761	93.12
357.988	79.12
358.215	93.12
358.441	84.12
358.668	86.12
358.895	92.12
359.122	98.12
359.349	92.12
359.576	85.12
359.802	88.12
360.029	85.12
360.256	78.12
360.483	81.12
360.709	78.12
360.936	82.12
361.163	99.12
361.39	72.12
361.616	83.12
361.843	70.12
362.07	79.12
362.296	86.12
362.523	79.12
362.749	75.12
362.976	95.12
363.203	87.12
363.429	85.12
363.656	93.12
363.882	90.12
364.109	92.12
364.335	90.12
364.562	85.12
364.788	86.12
365.015	77.12
365.241	93.12
365.468	90.12
365.694	80.12
365.92	84.12
366.147	86.12
366.373	94.12
366.599	87.12
366.826	71.12
367.052	91.12
367.278	94.12
367.505	83.12
367.731	92.12
367.957	92.12
368.184	68.12
368.41	75.12
368.636	97.12
368.862	69.12
369.089	94.12
369.315	85.12
369.541	93.12
369.767	91.12
369.993	95.12
370.219	84.12
370.445	77.12
370.672	85.12
370.898	89.12
371.124	79.12
371.35	94.12
371.576	78.12
371.802	84.12
372.028	86.12
372.254	86.12
372.48	85.12
372.706	81.12
372.932	82.12
373.158	87.12
373.384	86.12
373.61	78.12
373.835	80.12
374.061	81.12
374.287	79.12
374.513	92.12
374.739	70.12
374.965	61.12
375.191	84.12
375.416	83.12
375.642	83.12
375.868	84.12
376.094	88.12
376.319	77.12
376.545	101.12
376.771	81.12
376.997	79.12
377.222	92.12
377.448	92.12
377.674	85.12
377.899	81.12
378.125	84.12
378.35	77.12
378.576	77.12
378.802	92.12
379.027	90.12
379.253	83.12
379.478	95.12
379.704	89.12
379.929	86.12
380.155	94.12
380.38	91.12
380.606	71.12
380.831	96.12
381.057	84.12
381.282	69.12
381.507	78.12
381.733	73.12
381.958	78.12
382.184	72.12
382.409	90.12
382.634	82.12
382.86	71.12
383.085	77.12
383.31	70.12
383.535	83.12
383.761	64.12
383.986	79.12
384.211	79.12
384.436	85.12
384.662	94.12
384.887	73.12
385.112	85.12
385.337	79.12
385.562	82.12
385.787	94.12
386.013	100.12
386.238	89.12
386.463	90.12
386.688	113.12
386.913	77.12
387.138	87.12
387.363	84.12
387.588	82.12
387.813	86.12
388.038	95.12
388.263	79.12
388.488	79.12
388.713	89.12
388.938	62.12
389.163	86.12
389.387	94.12
389.612	99.12
389.837	87.12
390.062	81.12
390.287	72.12
390.512	90.12
390.736	81.12
390.961	85.12
391.186	75.12
391.411	92.12
391.636	92.12
391.86	77.12
392.085	81.12
392.31	82.12
392.534	69.12
392.759	83.12
392.984	83.12
393.208	79.12
393.433	91.12
393.658	88.12
393.882	88.12
394.107	82.12
394.331	73.12
394.556	85.12
394.78	70.12
395.005	86.12
395.229	92.12
395.454	107.12
395.678	91.12
395.903	95.12
396.127	100.12
396.352	75.12
396.576	95.12
396.801	79.12
397.025	76.12
397.249	88.12
397.474	99.12
397.698	82.12
397.922	78.12
398.147	90.12
398.371	81.12
398.595	83.12
398.82	92.12
399.044	83.12
399.268	89.12
399.492	72.12
399.717	83.12
399.941	97.12
400.165	96.12
400.389	84.12
400.613	71.12
400.837	88.12
401.062	75.12
401.286	72.12
401.51	78.12
401.734	78.12
401.958	83.12
402.182	87.12
402.406	82.12
402.63	84.12
402.854	74.12
403.078	85.12
403.302	81.12
403.526	87.12
403.75	85.12
403.974	81.12
404.198	78.12
404.422	87.12
404.645	87.12
404.869	87.12
405.093	80.12
405.317	80.12
405.541	68.12
405.765	71.12
405.988	77.12
406.212	80.12
406.436	68.12
406.66	77.12
406.883	84.12
407.107	67.12
407.331	73.12
407.555	93.12
407.778	69.12
408.002	71.12
408.226	94.12
408.449	80.12
408.673	90.12
408.896	89.12
409.12	84.12
409.344	75.12
409.567	83.12
409.791	82.12
410.014	91.12
410.238	93.12
410.461	71.12
410.685	72.12
410.908	77.12
411.132	84.12
411.355	91.12
411.578	97.12
411.802	77.12
412.025	73.12
412.249	90.12
412.472	89.12
412.695	77.12
412.919	77.12
413.142	84.12
413.365	92.12
413.589	73.12
413.812	81.12
414.035	82.12
414.258	90.12
414.482	67.12
414.705	73.12
414.928	83.12
415.151	95.12
415.374	74.12
415.597	80.12
415.821	70.12
416.044	80.12
416.267	90.12
416.49	71.12
416.713	73.12
416.936	84.12
417.159	90.12
417.382	80.12
417.605	84.12
417.828	85.12
418.051	81.12
418.274	78.12
418.497	80.12
418.72	81.12
418.943	78.12
419.166	77.12
419.389	94.12
419.611	79.12
419.834	64.12
420.057	85.12
420.28	103.12
420.503	89.12
420.726	84.12
420.948	85.12
421.171	76.12
421.394	77.12
421.617	70.12
421.839	77.12
422.062	85.12
422.285	81.12
422.507	89.12
422.73	93.12
422.953	92.12
423.175	82.12
423.398	72.12
423.621	78.12
423.843	76.12
424.066	69.12
424.288	81.12
424.511	84.12
424.733	78.12
424.956	81.12
425.178	69.12
425.401	76.12
425.623	79.12
425.846	99.12
426.068	81.12
426.291	88.12
426.513	89.12
426.735	78.12
426.958	88.12
427.18	71.12
427.402	83.12
427.625	89.12
427.847	63.12
428.069	74.12
428.292	76.12
428.514	79.12
428.736	76.12
428.958	86.12
429.181	88.12
429.403	76.12
429.625	73.12
429.847	84.12
430.069	81.12
430.292	90.12
430.514	83.12
430.736	73.12
430.958	74.12
431.18	80.12
431.402	84.12
431.624	73.12
431.846	84.12
432.068	87.12
432.29	84.12
432.512	84.12
432.734	74.12
432.956	73.12
433.178	84.12
433.4	83.12
433.622	81.12
433.844	66.12
434.066	73.12
434.287	83.12
434.509	73.12
434.731	71.12
434.953	81.12
435.175	79.12
435.397	78.12
435.618	72.12
435.84	89.12
436.062	74.12
436.284	80.12
436.505	81.12
436.727	72.12
436.949	87.12
437.17	75.12
437.392	70.12
437.614	70.12
437.835	71.12
438.057	86.12
438.278	95.12
438.5	76.12
438.721	89.12
438.943	89.12
439.165	80.12
439.386	84.12
439.608	74.12
439.829	89.12
440.05	82.12
440.272	80.12
440.493	91.12
440.715	67.12
440.936	85.12
441.158	97.12
441.379	86.12
441.6	77.12
441.822	93.12
442.043	86.12
442.264	78.12
442.486	83.12
442.707	79.12
442.928	86.12
443.149	81.12
443.371	92.12
443.592	81.12
443.813	67.12
444.034	86.12
444.255	88.12
444.476	83.12
444.698	85.12
444.919	81.12
445.14	151.12
445.361	133.12
445.582	85.12
445.803	80.12
446.024	91.12
446.245	90.12
446.466	76.12
446.687	77.12
446.908	82.12
447.129	80.12
447.35	72.12
447.571	78.12
447.792	86.12
448.013	74.12
448.234	79.12
448.455	77.12
448.675	69.12
448.896	90.12
449.117	88.12
449.338	76.12
449.559	88.12
449.779	91.12
450	82.12
450.221	81.12
450.442	78.12
450.662	84.12
450.883	83.12
451.104	86.12
451.324	81.12
451.545	77.12
451.766	77.12
451.986	76.12
452.207	77.12
452.428	82.12
452.648	86.12
452.869	86.12
453.089	90.12
453.31	75.12
453.53	102.12
453.751	83.12
453.971	72.12
454.192	75.12
454.412	79.12
454.633	87.12
454.853	89.12
455.073	75.12
455.294	82.12
455.514	82.12
455.734	87.12
455.955	93.12
456.175	79.12
456.395	74.12
456.616	83.12
456.836	78.12
457.056	80.12
457.276	71.12
457.497	92.12
457.717	83.12
457.937	80.12
458.157	70.12
458.377	78.12
458.598	74.12
458.818	85.12
459.038	81.12
459.258	78.12
459.478	75.12
459.698	91.12
459.918	86.12
460.138	81.12
460.358	84.12
460.578	82.12
460.798	77.12
461.018	81.12
461.238	71.12
461.458	77.12
461.678	83.12
461.898	94.12
462.118	83.12
462.338	78.12
462.558	83.12
462.777	71.12
462.997	81.12
463.217	72.12
463.437	81.12
463.657	78.12
463.876	77.12
464.096	74.12
464.316	78.12
464.536	82.12
464.755	79.12
464.975	86.12
465.195	90.12
465.414	95.12
465.634	77.12
465.854	90.12
466.073	82.12
466.293	90.12
466.512	67.12
466.732	80.12
466.951	79.12
467.171	82.12
467.391	73.12
467.61	72.12
467.829	78.12
468.049	84.12
468.268	94.12
468.488	80.12
468.707	82.12
468.927	76.12
469.146	77.12
469.365	78.12
469.585	91.12
469.804	75.12
470.023	76.12
470.243	79.12
470.462	84.12
470.681	91.12
470.901	79.12
471.12	82.12
471.339	89.12
471.558	78.12
471.777	88.12
471.997	86.12
472.216	90.12
472.435	84.12
472.654	80.12
472.873	91.12
473.092	95.12
473.311	93.12
473.53	94.12
473.749	93.12
473.968	82.12
474.187	87.12
474.406	79.12
474.625	76.12
474.844	87.12
475.063	92.12
475.282	78.12
475.501	71.12
475.72	86.12
475.939	97.12
476.158	76.12
476.377	82.12
476.596	75.12
476.814	75.12
477.033	92.12
477.252	89.12
477.471	74.12
477.69	82.12
477.908	88.12
478.127	89.12
478.346	83.12
478.564	82.12
478.783	63.12
479.002	95.12
479.22	85.12
479.439	88.12
479.658	80.12
479.876	89.12
480.095	71.12
480.313	89.12
480.532	85.12
480.751	78.12
480.969	89.12
481.188	91.12
481.406	84.12
481.624	81.12
481.843	85.12
482.061	75.12
482.28	73.12
482.498	74.12
482.717	85.12
482.935	83.12
483.153	82.12
483.372	91.12
483.59	74.12
483.808	86.12
484.027	77.12
484.245	75.12
484.463	86.12
484.681	78.12
484.9	70.12
485.118	80.12
485.336	77.12
485.554	89.12
485.772	91.12
485.99	87.12
486.209	91.12
486.427	86.12
486.645	85.12
486.863	77.12
487.081	75.12
487.299	88.12
487.517	79.12
487.735	77.12
487.953	85.12
488.171	84.12
488.389	91.12
488.607	86.12
488.825	61.12
489.043	81.12
489.261	86.12
489.479	90.12
489.696	81.12
489.914	84.12
490.132	76.12
490.35	94.12
490.568	85.12
490.786	86.12
491.003	86.12
491.221	85.12
491.439	75.12
491.657	94.12
491.874	91.12
492.092	76.12
492.31	78.12
492.527	87.12
492.745	66.12
492.963	79.12
493.18	80.12
493.398	79.12
493.615	91.12
493.833	75.12
494.05	74.12
494.268	89.12
494.485	86.12
494.703	83.12
494.92	77.12
495.138	82.12
495.355	79.12
495.573	97.12
495.79	92.12
496.008	89.12
496.225	80.12
496.442	89.12
496.66	88.12
496.877	93.12
497.094	100.12
497.312	86.12
497.529	69.12
497.746	78.12
497.963	96.12
498.181	73.12
498.398	86.12
498.615	100.12
498.832	79.12
499.049	79.12
499.267	91.12
499.484	104.12
499.701	97.12
499.918	98.12
500.135	76.12
500.352	90.12
500.569	75.12
500.786	90.12
501.003	94.12
501.22	70.12
501.437	72.12
501.654	86.12
501.871	86.12
502.088	71.12
502.305	93.12
502.522	95.12
502.739	81.12
502.956	73.12
503.172	76.12
503.389	91.12
503.606	90.12
503.823	80.12
504.04	81.12
504.256	101.12
504.473	79.12
504.69	78.12
504.907	84.12
505.123	81.12
505.34	73.12
505.557	99.12
505.773	77.12
505.99	76.12
506.207	84.12
506.423	83.12
506.64	84.12
506.856	89.12
507.073	86.12
507.289	79.12
507.506	86.12
507.722	72.12
507.939	86.12
508.155	85.12
508.372	78.12
508.588	94.12
508.805	71.12
509.021	82.12
509.238	91.12
509.454	95.12
509.67	82.12
509.887	74.12
510.103	89.12
510.319	82.12
510.536	66.12
510.752	76.12
510.968	82.12
511.184	83.12
511.401	101.12
511.617	84.12
511.833	89.12
512.049	79.12
512.265	71.12
512.481	82.12
512.698	84.12
512.914	75.12
513.13	81.12
513.346	68.12
513.562	81.12
513.778	69.12
513.994	76.12
514.21	69.12
514.426	92.12
514.642	75.12
514.858	79.12
515.074	83.12
515.29	77.12
515.506	91.12
515.721	82.12
515.937	85.12
516.153	77.12
516.369	76.12
516.585	74.12
516.801	86.12
517.016	90.12
517.232	83.12
517.448	91.12
517.664	60.12
517.879	87.12
518.095	95.12
518.311	68.12
518.527	77.12
518.742	75.12
518.958	88.12
519.173	76.12
519.389	93.12
519.605	81.12
519.82	74.12
