Data from Background_1_HRD10591_00067.txt Node
Date: Wed Nov 05 14:39:31 EST 2025
User: Yrep
Spectrometer: HR+D1059
Trigger mode: 1
Integration Time (sec): 1.000000E-1
Scans to average: 1
Electric dark correction enabled: true
Nonlinearity correction enabled: false
Boxcar width: 0
XAxis mode: Wavelengths
Number of Pixels in Spectrum: 2048
>>>>>Begin Spectral Data<<<<<
223.165	-19.69
223.4	-19.69
223.635	-19.69
223.869	-16.69
224.104	-17.69
224.338	-6.69
224.573	-8.69
224.808	-11.69
225.042	5.31
225.277	-9.69
225.511	-7.69
225.746	-0.69
225.98	9.31
226.215	16.31
226.449	14.31
226.683	10.31
226.918	19.31
227.152	24.31
227.387	28.31
227.621	35.31
227.856	41.31
228.09	37.31
228.324	41.31
228.559	50.31
228.793	60.31
229.027	75.31
229.262	56.31
229.496	67.31
229.73	71.31
229.964	58.31
230.199	55.31
230.433	69.31
230.667	81.31
230.901	80.31
231.136	86.31
231.37	67.31
231.604	70.31
231.838	76.31
232.072	70.31
232.306	83.31
232.541	73.31
232.775	68.31
233.009	85.31
233.243	76.31
233.477	88.31
233.711	92.31
233.945	74.31
234.179	81.31
234.413	68.31
234.647	68.31
234.881	90.31
235.115	90.31
235.349	71.31
235.583	57.31
235.817	78.31
236.051	86.31
236.285	71.31
236.519	78.31
236.753	82.31
236.987	69.31
237.221	90.31
237.455	82.31
237.689	61.31
237.922	78.31
238.156	85.31
238.39	74.31
238.624	83.31
238.858	78.31
239.091	85.31
239.325	82.31
239.559	69.31
239.793	80.31
240.027	85.31
240.26	72.31
240.494	75.31
240.728	56.31
240.961	68.31
241.195	78.31
241.429	81.31
241.662	72.31
241.896	79.31
242.13	84.31
242.363	74.31
242.597	74.31
242.83	78.31
243.064	83.31
243.298	80.31
243.531	82.31
243.765	70.31
243.998	73.31
244.232	78.31
244.465	72.31
244.699	67.31
244.932	73.31
245.166	76.31
245.399	86.31
245.633	79.31
245.866	58.31
246.099	84.31
246.333	83.31
246.566	58.31
246.8	74.31
247.033	62.31
247.266	89.31
247.5	74.31
247.733	73.31
247.966	77.31
248.2	69.31
248.433	75.31
248.666	74.31
248.899	80.31
249.133	78.31
249.366	84.31
249.599	72.31
249.832	75.31
250.066	76.31
250.299	80.31
250.532	82.31
250.765	83.31
250.998	81.31
251.231	66.31
251.465	71.31
251.698	80.31
251.931	73.31
252.164	97.31
252.397	74.31
252.63	82.31
252.863	69.31
253.096	74.31
253.329	90.31
253.562	83.31
253.795	77.31
254.028	89.31
254.261	69.31
254.494	92.31
254.727	95.31
254.96	85.31
255.193	89.31
255.426	80.31
255.659	68.31
255.892	83.31
256.124	77.31
256.357	82.31
256.59	88.31
256.823	92.31
257.056	69.31
257.289	65.31
257.521	74.31
257.754	84.31
257.987	81.31
258.22	88.31
258.452	69.31
258.685	70.31
258.918	78.31
259.151	70.31
259.383	73.31
259.616	65.31
259.849	65.31
260.081	75.31
260.314	75.31
260.547	87.31
260.779	81.31
261.012	87.31
261.244	65.31
261.477	93.31
261.71	77.31
261.942	81.31
262.175	88.31
262.407	90.31
262.64	91.31
262.872	82.31
263.105	72.31
263.337	82.31
263.57	76.31
263.802	83.31
264.035	79.31
264.267	83.31
264.499	86.31
264.732	76.31
264.964	73.31
265.197	74.31
265.429	100.31
265.661	84.31
265.894	79.31
266.126	76.31
266.358	77.31
266.591	83.31
266.823	77.31
267.055	76.31
267.287	85.31
267.52	78.31
267.752	73.31
267.984	82.31
268.216	77.31
268.448	71.31
268.681	90.31
268.913	80.31
269.145	64.31
269.377	86.31
269.609	88.31
269.841	72.31
270.073	82.31
270.306	75.31
270.538	78.31
270.77	90.31
271.002	78.31
271.234	70.31
271.466	74.31
271.698	93.31
271.93	68.31
272.162	74.31
272.394	84.31
272.626	82.31
272.858	81.31
273.09	90.31
273.322	84.31
273.553	71.31
273.785	71.31
274.017	87.31
274.249	84.31
274.481	68.31
274.713	71.31
274.945	95.31
275.176	83.31
275.408	88.31
275.64	90.31
275.872	92.31
276.104	83.31
276.335	66.31
276.567	78.31
276.799	82.31
277.031	88.31
277.262	81.31
277.494	86.31
277.726	66.31
277.957	75.31
278.189	89.31
278.421	87.31
278.652	88.31
278.884	73.31
279.115	75.31
279.347	84.31
279.579	87.31
279.81	87.31
280.042	78.31
280.273	74.31
280.505	69.31
280.736	85.31
280.968	92.31
281.199	79.31
281.431	86.31
281.662	80.31
281.894	84.31
282.125	95.31
282.356	82.31
282.588	87.31
282.819	79.31
283.051	80.31
283.282	82.31
283.513	87.31
283.745	84.31
283.976	72.31
284.207	88.31
284.439	97.31
284.67	78.31
284.901	62.31
285.132	87.31
285.364	81.31
285.595	80.31
285.826	84.31
286.057	86.31
286.288	81.31
286.52	78.31
286.751	88.31
286.982	81.31
287.213	77.31
287.444	89.31
287.675	87.31
287.906	83.31
288.138	82.31
288.369	87.31
288.6	79.31
288.831	79.31
289.062	87.31
289.293	86.31
289.524	75.31
289.755	86.31
289.986	88.31
290.217	83.31
290.448	76.31
290.679	79.31
290.91	81.31
291.141	84.31
291.371	96.31
291.602	91.31
291.833	79.31
292.064	72.31
292.295	81.31
292.526	90.31
292.757	84.31
292.987	80.31
293.218	80.31
293.449	74.31
293.68	77.31
293.91	80.31
294.141	83.31
294.372	84.31
294.603	90.31
294.833	78.31
295.064	98.31
295.295	78.31
295.525	77.31
295.756	88.31
295.987	78.31
296.217	80.31
296.448	83.31
296.679	75.31
296.909	79.31
297.14	85.31
297.37	88.31
297.601	73.31
297.831	78.31
298.062	87.31
298.292	77.31
298.523	87.31
298.753	77.31
298.984	88.31
299.214	83.31
299.445	86.31
299.675	77.31
299.905	84.31
300.136	84.31
300.366	90.31
300.597	87.31
300.827	73.31
301.057	86.31
301.288	75.31
301.518	76.31
301.748	93.31
301.979	83.31
302.209	78.31
302.439	78.31
302.669	96.31
302.9	86.31
303.13	83.31
303.36	97.31
303.59	86.31
303.82	80.31
304.051	88.31
304.281	84.31
304.511	79.31
304.741	93.31
304.971	84.31
305.201	74.31
305.431	77.31
305.661	86.31
305.891	96.31
306.121	92.31
306.352	86.31
306.582	72.31
306.812	63.31
307.042	83.31
307.272	76.31
307.502	91.31
307.731	80.31
307.961	85.31
308.191	80.31
308.421	94.31
308.651	75.31
308.881	92.31
309.111	72.31
309.341	87.31
309.571	76.31
309.8	77.31
310.03	83.31
310.26	74.31
310.49	77.31
310.72	75.31
310.949	83.31
311.179	86.31
311.409	82.31
311.639	80.31
311.868	89.31
312.098	72.31
312.328	86.31
312.557	84.31
312.787	82.31
313.017	80.31
313.246	73.31
313.476	78.31
313.706	70.31
313.935	87.31
314.165	87.31
314.394	75.31
314.624	88.31
314.853	94.31
315.083	72.31
315.312	82.31
315.542	69.31
315.771	82.31
316.001	91.31
316.23	92.31
316.46	102.31
316.689	83.31
316.919	86.31
317.148	92.31
317.377	75.31
317.607	83.31
317.836	74.31
318.065	94.31
318.295	84.31
318.524	88.31
318.753	79.31
318.983	73.31
319.212	81.31
319.441	79.31
319.67	93.31
319.9	67.31
320.129	98.31
320.358	92.31
320.587	90.31
320.816	76.31
321.046	78.31
321.275	98.31
321.504	88.31
321.733	88.31
321.962	72.31
322.191	82.31
322.42	80.31
322.649	83.31
322.878	99.31
323.108	67.31
323.337	72.31
323.566	88.31
323.795	83.31
324.024	81.31
324.253	81.31
324.482	86.31
324.71	79.31
324.939	79.31
325.168	93.31
325.397	93.31
325.626	99.31
325.855	80.31
326.084	82.31
326.313	83.31
326.542	90.31
326.77	94.31
326.999	75.31
327.228	72.31
327.457	82.31
327.686	84.31
327.914	77.31
328.143	74.31
328.372	71.31
328.6	93.31
328.829	86.31
329.058	76.31
329.287	82.31
329.515	86.31
329.744	76.31
329.972	77.31
330.201	73.31
330.43	81.31
330.658	87.31
330.887	83.31
331.115	91.31
331.344	81.31
331.572	84.31
331.801	92.31
332.03	78.31
332.258	90.31
332.486	75.31
332.715	80.31
332.943	75.31
333.172	74.31
333.4	70.31
333.629	82.31
333.857	82.31
334.085	73.31
334.314	90.31
334.542	73.31
334.771	75.31
334.999	83.31
335.227	83.31
335.455	100.31
335.684	90.31
335.912	97.31
336.14	79.31
336.369	91.31
336.597	85.31
336.825	89.31
337.053	67.31
337.281	80.31
337.51	90.31
337.738	80.31
337.966	82.31
338.194	82.31
338.422	76.31
338.65	79.31
338.878	94.31
339.106	80.31
339.334	90.31
339.562	94.31
339.79	97.31
340.018	93.31
340.246	87.31
340.474	79.31
340.702	69.31
340.93	96.31
341.158	84.31
341.386	78.31
341.614	95.31
341.842	83.31
342.07	76.31
342.298	91.31
342.526	77.31
342.754	79.31
342.981	87.31
343.209	82.31
343.437	90.31
343.665	82.31
343.893	83.31
344.12	75.31
344.348	83.31
344.576	81.31
344.804	87.31
345.031	85.31
345.259	82.31
345.487	85.31
345.714	68.31
345.942	72.31
346.17	83.31
346.397	80.31
346.625	82.31
346.853	81.31
347.08	71.31
347.308	62.31
347.535	76.31
347.763	83.31
347.99	79.31
348.218	82.31
348.445	69.31
348.673	63.31
348.9	76.31
349.128	78.31
349.355	66.31
349.583	76.31
349.81	80.31
350.037	86.31
350.265	95.31
350.492	75.31
350.72	81.31
350.947	86.31
351.174	96.31
351.402	81.31
351.629	75.31
351.856	73.31
352.083	83.31
352.311	82.31
352.538	80.31
352.765	66.31
352.992	76.31
353.22	78.31
353.447	86.31
353.674	68.31
353.901	76.31
354.128	76.31
354.355	75.31
354.583	79.31
354.81	79.31
355.037	90.31
355.264	79.31
355.491	82.31
355.718	87.31
355.945	80.31
356.172	98.31
356.399	86.31
356.626	75.31
356.853	76.31
357.08	74.31
357.307	73.31
357.534	86.31
357.761	89.31
357.988	90.31
358.215	96.31
358.441	78.31
358.668	83.31
358.895	88.31
359.122	81.31
359.349	82.31
359.576	87.31
359.802	64.31
360.029	69.31
360.256	84.31
360.483	71.31
360.709	69.31
360.936	79.31
361.163	65.31
361.39	86.31
361.616	94.31
361.843	71.31
362.07	90.31
362.296	90.31
362.523	82.31
362.749	76.31
362.976	100.31
363.203	80.31
363.429	78.31
363.656	79.31
363.882	90.31
364.109	84.31
364.335	83.31
364.562	80.31
364.788	75.31
365.015	75.31
365.241	66.31
365.468	90.31
365.694	93.31
365.92	89.31
366.147	90.31
366.373	86.31
366.599	69.31
366.826	66.31
367.052	88.31
367.278	78.31
367.505	74.31
367.731	78.31
367.957	89.31
368.184	85.31
368.41	82.31
368.636	68.31
368.862	95.31
369.089	83.31
369.315	72.31
369.541	76.31
369.767	87.31
369.993	91.31
370.219	84.31
370.445	92.31
370.672	86.31
370.898	67.31
371.124	75.31
371.35	74.31
371.576	77.31
371.802	87.31
372.028	81.31
372.254	85.31
372.48	80.31
372.706	82.31
372.932	78.31
373.158	84.31
373.384	91.31
373.61	78.31
373.835	88.31
374.061	90.31
374.287	90.31
374.513	83.31
374.739	82.31
374.965	82.31
375.191	72.31
375.416	84.31
375.642	79.31
375.868	80.31
376.094	84.31
376.319	80.31
376.545	72.31
376.771	77.31
376.997	88.31
377.222	83.31
377.448	96.31
377.674	80.31
377.899	90.31
378.125	75.31
378.35	69.31
378.576	68.31
378.802	86.31
379.027	70.31
379.253	79.31
379.478	78.31
379.704	60.31
379.929	87.31
380.155	94.31
380.38	64.31
380.606	83.31
380.831	87.31
381.057	82.31
381.282	82.31
381.507	83.31
381.733	78.31
381.958	88.31
382.184	78.31
382.409	78.31
382.634	88.31
382.86	71.31
383.085	68.31
383.31	76.31
383.535	92.31
383.761	82.31
383.986	75.31
384.211	86.31
384.436	76.31
384.662	85.31
384.887	74.31
385.112	69.31
385.337	65.31
385.562	74.31
385.787	72.31
386.013	91.31
386.238	87.31
386.463	93.31
386.688	96.31
386.913	66.31
387.138	73.31
387.363	86.31
387.588	74.31
387.813	78.31
388.038	63.31
388.263	73.31
388.488	81.31
388.713	76.31
388.938	67.31
389.163	85.31
389.387	88.31
389.612	74.31
389.837	65.31
390.062	99.31
390.287	89.31
390.512	76.31
390.736	69.31
390.961	69.31
391.186	64.31
391.411	74.31
391.636	86.31
391.86	78.31
392.085	72.31
392.31	80.31
392.534	73.31
392.759	80.31
392.984	95.31
393.208	78.31
393.433	81.31
393.658	87.31
393.882	93.31
394.107	84.31
394.331	86.31
394.556	82.31
394.78	89.31
395.005	90.31
395.229	77.31
395.454	84.31
395.678	76.31
395.903	81.31
396.127	77.31
396.352	83.31
396.576	74.31
396.801	84.31
397.025	76.31
397.249	79.31
397.474	75.31
397.698	74.31
397.922	80.31
398.147	93.31
398.371	68.31
398.595	82.31
398.82	84.31
399.044	68.31
399.268	77.31
399.492	88.31
399.717	76.31
399.941	82.31
400.165	79.31
400.389	88.31
400.613	74.31
400.837	75.31
401.062	77.31
401.286	80.31
401.51	79.31
401.734	83.31
401.958	80.31
402.182	79.31
402.406	73.31
402.63	69.31
402.854	84.31
403.078	72.31
403.302	62.31
403.526	74.31
403.75	77.31
403.974	77.31
404.198	68.31
404.422	76.31
404.645	72.31
404.869	83.31
405.093	83.31
405.317	83.31
405.541	82.31
405.765	78.31
405.988	72.31
406.212	80.31
406.436	84.31
406.66	76.31
406.883	83.31
407.107	73.31
407.331	59.31
407.555	80.31
407.778	84.31
408.002	75.31
408.226	74.31
408.449	74.31
408.673	83.31
408.896	93.31
409.12	84.31
409.344	74.31
409.567	79.31
409.791	83.31
410.014	82.31
410.238	78.31
410.461	82.31
410.685	82.31
410.908	60.31
411.132	73.31
411.355	64.31
411.578	90.31
411.802	78.31
412.025	74.31
412.249	73.31
412.472	87.31
412.695	80.31
412.919	68.31
413.142	90.31
413.365	86.31
413.589	77.31
413.812	87.31
414.035	86.31
414.258	75.31
414.482	68.31
414.705	79.31
414.928	75.31
415.151	76.31
415.374	75.31
415.597	74.31
415.821	82.31
416.044	85.31
416.267	74.31
416.49	94.31
416.713	82.31
416.936	84.31
417.159	87.31
417.382	80.31
417.605	83.31
417.828	71.31
418.051	77.31
418.274	78.31
418.497	76.31
418.72	71.31
418.943	78.31
419.166	74.31
419.389	78.31
419.611	87.31
419.834	70.31
420.057	84.31
420.28	96.31
420.503	69.31
420.726	80.31
420.948	73.31
421.171	73.31
421.394	75.31
421.617	63.31
421.839	76.31
422.062	81.31
422.285	69.31
422.507	94.31
422.73	67.31
422.953	86.31
423.175	82.31
423.398	77.31
423.621	85.31
423.843	79.31
424.066	80.31
424.288	79.31
424.511	76.31
424.733	81.31
424.956	84.31
425.178	77.31
425.401	78.31
425.623	78.31
425.846	81.31
426.068	74.31
426.291	74.31
426.513	71.31
426.735	90.31
426.958	88.31
427.18	82.31
427.402	74.31
427.625	79.31
427.847	70.31
428.069	89.31
428.292	78.31
428.514	77.31
428.736	80.31
428.958	80.31
429.181	81.31
429.403	71.31
429.625	77.31
429.847	78.31
430.069	81.31
430.292	97.31
430.514	78.31
430.736	91.31
430.958	81.31
431.18	72.31
431.402	60.31
431.624	71.31
431.846	66.31
432.068	84.31
432.29	82.31
432.512	86.31
432.734	68.31
432.956	78.31
433.178	96.31
433.4	78.31
433.622	77.31
433.844	88.31
434.066	93.31
434.287	68.31
434.509	80.31
434.731	75.31
434.953	86.31
435.175	74.31
435.397	91.31
435.618	79.31
435.84	80.31
436.062	79.31
436.284	91.31
436.505	75.31
436.727	75.31
436.949	70.31
437.17	73.31
437.392	87.31
437.614	78.31
437.835	88.31
438.057	67.31
438.278	95.31
438.5	68.31
438.721	76.31
438.943	81.31
439.165	71.31
439.386	70.31
439.608	79.31
439.829	70.31
440.05	89.31
440.272	89.31
440.493	78.31
440.715	68.31
440.936	83.31
441.158	79.31
441.379	75.31
441.6	81.31
441.822	77.31
442.043	67.31
442.264	82.31
442.486	85.31
442.707	86.31
442.928	72.31
443.149	71.31
443.371	79.31
443.592	71.31
443.813	74.31
444.034	83.31
444.255	79.31
444.476	81.31
444.698	87.31
444.919	86.31
445.14	159.31
445.361	110.31
445.582	91.31
445.803	76.31
446.024	78.31
446.245	86.31
446.466	76.31
446.687	83.31
446.908	87.31
447.129	86.31
447.35	74.31
447.571	81.31
447.792	76.31
448.013	72.31
448.234	72.31
448.455	77.31
448.675	79.31
448.896	81.31
449.117	86.31
449.338	81.31
449.559	76.31
449.779	81.31
450	82.31
450.221	82.31
450.442	73.31
450.662	76.31
450.883	83.31
451.104	82.31
451.324	64.31
451.545	74.31
451.766	80.31
451.986	83.31
452.207	74.31
452.428	90.31
452.648	81.31
452.869	86.31
453.089	80.31
453.31	79.31
453.53	83.31
453.751	74.31
453.971	74.31
454.192	83.31
454.412	87.31
454.633	78.31
454.853	63.31
455.073	76.31
455.294	72.31
455.514	77.31
455.734	74.31
455.955	70.31
456.175	77.31
456.395	90.31
456.616	78.31
456.836	84.31
457.056	77.31
457.276	68.31
457.497	79.31
457.717	82.31
457.937	76.31
458.157	89.31
458.377	76.31
458.598	77.31
458.818	87.31
459.038	74.31
459.258	68.31
459.478	82.31
459.698	82.31
459.918	67.31
460.138	74.31
460.358	75.31
460.578	94.31
460.798	69.31
461.018	71.31
461.238	96.31
461.458	88.31
461.678	81.31
461.898	87.31
462.118	88.31
462.338	88.31
462.558	79.31
462.777	83.31
462.997	75.31
463.217	90.31
463.437	87.31
463.657	86.31
463.876	82.31
464.096	80.31
464.316	82.31
464.536	71.31
464.755	82.31
464.975	87.31
465.195	77.31
465.414	69.31
465.634	84.31
465.854	83.31
466.073	83.31
466.293	79.31
466.512	81.31
466.732	72.31
466.951	66.31
467.171	77.31
467.391	83.31
467.61	83.31
467.829	79.31
468.049	85.31
468.268	70.31
468.488	67.31
468.707	75.31
468.927	81.31
469.146	70.31
469.365	68.31
469.585	69.31
469.804	82.31
470.023	92.31
470.243	82.31
470.462	75.31
470.681	81.31
470.901	76.31
471.12	71.31
471.339	74.31
471.558	89.31
471.777	80.31
471.997	84.31
472.216	83.31
472.435	75.31
472.654	78.31
472.873	84.31
473.092	82.31
473.311	74.31
473.53	78.31
473.749	70.31
473.968	75.31
474.187	75.31
474.406	73.31
474.625	84.31
474.844	92.31
475.063	68.31
475.282	81.31
475.501	71.31
475.72	102.31
475.939	82.31
476.158	90.31
476.377	87.31
476.596	70.31
476.814	60.31
477.033	89.31
477.252	80.31
477.471	65.31
477.69	78.31
477.908	89.31
478.127	76.31
478.346	76.31
478.564	87.31
478.783	70.31
479.002	64.31
479.22	80.31
479.439	66.31
479.658	90.31
479.876	91.31
480.095	86.31
480.313	77.31
480.532	81.31
480.751	67.31
480.969	80.31
481.188	82.31
481.406	83.31
481.624	71.31
481.843	74.31
482.061	88.31
482.28	78.31
482.498	70.31
482.717	73.31
482.935	79.31
483.153	75.31
483.372	78.31
483.59	83.31
483.808	76.31
484.027	77.31
484.245	76.31
484.463	90.31
484.681	76.31
484.9	82.31
485.118	88.31
485.336	77.31
485.554	90.31
485.772	91.31
485.99	82.31
486.209	91.31
486.427	77.31
486.645	82.31
486.863	73.31
487.081	68.31
487.299	93.31
487.517	80.31
487.735	73.31
487.953	69.31
488.171	78.31
488.389	79.31
488.607	88.31
488.825	82.31
489.043	76.31
489.261	89.31
489.479	72.31
489.696	81.31
489.914	84.31
490.132	75.31
490.35	68.31
490.568	88.31
490.786	66.31
491.003	74.31
491.221	86.31
491.439	81.31
491.657	94.31
491.874	89.31
492.092	78.31
492.31	73.31
492.527	87.31
492.745	76.31
492.963	84.31
493.18	84.31
493.398	83.31
493.615	78.31
493.833	76.31
494.05	81.31
494.268	74.31
494.485	82.31
494.703	75.31
494.92	81.31
495.138	79.31
495.355	85.31
495.573	81.31
495.79	70.31
496.008	81.31
496.225	67.31
496.442	81.31
496.66	78.31
496.877	70.31
497.094	90.31
497.312	69.31
497.529	78.31
497.746	91.31
497.963	78.31
498.181	83.31
498.398	78.31
498.615	78.31
498.832	69.31
499.049	84.31
499.267	84.31
499.484	82.31
499.701	90.31
499.918	71.31
500.135	81.31
500.352	84.31
500.569	84.31
500.786	74.31
501.003	76.31
501.22	77.31
501.437	79.31
501.654	73.31
501.871	84.31
502.088	85.31
502.305	84.31
502.522	71.31
502.739	76.31
502.956	76.31
503.172	79.31
503.389	67.31
503.606	65.31
503.823	72.31
504.04	87.31
504.256	89.31
504.473	79.31
504.69	74.31
504.907	83.31
505.123	76.31
505.34	81.31
505.557	77.31
505.773	92.31
505.99	84.31
506.207	74.31
506.423	60.31
506.64	78.31
506.856	83.31
507.073	82.31
507.289	74.31
507.506	83.31
507.722	87.31
507.939	75.31
508.155	65.31
508.372	67.31
508.588	68.31
508.805	76.31
509.021	90.31
509.238	90.31
509.454	73.31
509.67	75.31
509.887	77.31
510.103	86.31
510.319	65.31
510.536	83.31
510.752	83.31
510.968	66.31
511.184	78.31
511.401	78.31
511.617	68.31
511.833	86.31
512.049	80.31
512.265	97.31
512.481	81.31
512.698	77.31
512.914	80.31
513.13	77.31
513.346	81.31
513.562	83.31
513.778	76.31
513.994	82.31
514.21	76.31
514.426	87.31
514.642	79.31
514.858	84.31
515.074	82.31
515.29	80.31
515.506	88.31
515.721	80.31
515.937	74.31
516.153	89.31
516.369	77.31
516.585	78.31
516.801	71.31
517.016	76.31
517.232	76.31
517.448	80.31
517.664	74.31
517.879	90.31
518.095	79.31
518.311	76.31
518.527	86.31
518.742	68.31
518.958	74.31
519.173	93.31
519.389	79.31
519.605	96.31
519.82	76.31
520.036	80.31
520.251	88.31
