Data from Background_1_HRD10591_00059.txt Node
Date: Wed Nov 05 14:39:27 EST 2025
User: Yrep
Spectrometer: HR+D1059
Trigger mode: 1
Integration Time (sec): 1.000000E-1
Scans to average: 1
Electric dark correction enabled: true
Nonlinearity correction enabled: false
Boxcar width: 0
XAxis mode: Wavelengths
Number of Pixels in Spectrum: 2048
>>>>>Begin Spectral Data<<<<<
223.165	-18.56
223.4	-18.56
223.635	-18.56
223.869	-11.56
224.104	-14.56
224.338	-27.56
224.573	-18.56
224.808	-17.56
225.042	-1.56
225.277	0.44
225.511	-14.56
225.746	5.44
225.98	-2.56
226.215	6.44
226.449	13.44
226.683	23.44
226.918	33.44
227.152	44.44
227.387	35.44
227.621	36.44
227.856	49.44
228.09	49.44
228.324	49.44
228.559	52.44
228.793	58.44
229.027	61.44
229.262	73.44
229.496	64.44
229.73	78.44
229.964	55.44
230.199	67.44
230.433	76.44
230.667	77.44
230.901	69.44
231.136	82.44
231.37	82.44
231.604	86.44
231.838	84.44
232.072	68.44
232.306	95.44
232.541	73.44
232.775	80.44
233.009	83.44
233.243	72.44
233.477	85.44
233.711	79.44
233.945	83.44
234.179	89.44
234.413	82.44
234.647	79.44
234.881	70.44
235.115	69.44
235.349	81.44
235.583	82.44
235.817	91.44
236.051	79.44
236.285	73.44
236.519	79.44
236.753	77.44
236.987	72.44
237.221	66.44
237.455	79.44
237.689	88.44
237.922	75.44
238.156	65.44
238.39	67.44
238.624	60.44
238.858	74.44
239.091	82.44
239.325	82.44
239.559	82.44
239.793	57.44
240.027	75.44
240.26	73.44
240.494	81.44
240.728	76.44
240.961	72.44
241.195	90.44
241.429	79.44
241.662	77.44
241.896	65.44
242.13	68.44
242.363	86.44
242.597	66.44
242.83	80.44
243.064	70.44
243.298	69.44
243.531	76.44
243.765	57.44
243.998	83.44
244.232	75.44
244.465	65.44
244.699	77.44
244.932	65.44
245.166	89.44
245.399	73.44
245.633	70.44
245.866	80.44
246.099	69.44
246.333	76.44
246.566	83.44
246.8	63.44
247.033	85.44
247.266	76.44
247.5	65.44
247.733	75.44
247.966	91.44
248.2	84.44
248.433	65.44
248.666	65.44
248.899	71.44
249.133	90.44
249.366	81.44
249.599	80.44
249.832	66.44
250.066	81.44
250.299	82.44
250.532	92.44
250.765	80.44
250.998	89.44
251.231	82.44
251.465	97.44
251.698	89.44
251.931	80.44
252.164	81.44
252.397	76.44
252.63	80.44
252.863	78.44
253.096	76.44
253.329	66.44
253.562	77.44
253.795	77.44
254.028	80.44
254.261	85.44
254.494	79.44
254.727	85.44
254.96	79.44
255.193	69.44
255.426	89.44
255.659	75.44
255.892	84.44
256.124	76.44
256.357	72.44
256.59	89.44
256.823	68.44
257.056	76.44
257.289	92.44
257.521	99.44
257.754	81.44
257.987	84.44
258.22	83.44
258.452	76.44
258.685	78.44
258.918	66.44
259.151	70.44
259.383	77.44
259.616	82.44
259.849	82.44
260.081	88.44
260.314	83.44
260.547	80.44
260.779	89.44
261.012	80.44
261.244	76.44
261.477	93.44
261.71	73.44
261.942	81.44
262.175	84.44
262.407	74.44
262.64	67.44
262.872	69.44
263.105	91.44
263.337	83.44
263.57	67.44
263.802	79.44
264.035	87.44
264.267	80.44
264.499	89.44
264.732	87.44
264.964	79.44
265.197	69.44
265.429	74.44
265.661	78.44
265.894	80.44
266.126	67.44
266.358	88.44
266.591	88.44
266.823	79.44
267.055	87.44
267.287	88.44
267.52	74.44
267.752	73.44
267.984	71.44
268.216	61.44
268.448	79.44
268.681	77.44
268.913	75.44
269.145	76.44
269.377	84.44
269.609	80.44
269.841	88.44
270.073	68.44
270.306	68.44
270.538	72.44
270.77	95.44
271.002	77.44
271.234	73.44
271.466	75.44
271.698	80.44
271.93	76.44
272.162	76.44
272.394	79.44
272.626	85.44
272.858	95.44
273.09	91.44
273.322	76.44
273.553	83.44
273.785	71.44
274.017	58.44
274.249	74.44
274.481	75.44
274.713	88.44
274.945	80.44
275.176	75.44
275.408	89.44
275.64	79.44
275.872	82.44
276.104	91.44
276.335	83.44
276.567	73.44
276.799	75.44
277.031	77.44
277.262	74.44
277.494	77.44
277.726	82.44
277.957	81.44
278.189	79.44
278.421	70.44
278.652	80.44
278.884	82.44
279.115	99.44
279.347	77.44
279.579	80.44
279.81	82.44
280.042	78.44
280.273	80.44
280.505	89.44
280.736	100.44
280.968	77.44
281.199	75.44
281.431	81.44
281.662	86.44
281.894	85.44
282.125	73.44
282.356	74.44
282.588	85.44
282.819	80.44
283.051	83.44
283.282	87.44
283.513	75.44
283.745	73.44
283.976	87.44
284.207	88.44
284.439	80.44
284.67	85.44
284.901	81.44
285.132	64.44
285.364	93.44
285.595	97.44
285.826	87.44
286.057	93.44
286.288	72.44
286.52	77.44
286.751	79.44
286.982	84.44
287.213	82.44
287.444	73.44
287.675	78.44
287.906	90.44
288.138	107.44
288.369	83.44
288.6	79.44
288.831	90.44
289.062	89.44
289.293	94.44
289.524	87.44
289.755	87.44
289.986	99.44
290.217	90.44
290.448	75.44
290.679	77.44
290.91	95.44
291.141	80.44
291.371	81.44
291.602	88.44
291.833	86.44
292.064	84.44
292.295	70.44
292.526	87.44
292.757	90.44
292.987	67.44
293.218	80.44
293.449	75.44
293.68	86.44
293.91	75.44
294.141	88.44
294.372	82.44
294.603	83.44
294.833	88.44
295.064	78.44
295.295	88.44
295.525	79.44
295.756	91.44
295.987	81.44
296.217	82.44
296.448	76.44
296.679	85.44
296.909	94.44
297.14	90.44
297.37	91.44
297.601	83.44
297.831	81.44
298.062	89.44
298.292	88.44
298.523	80.44
298.753	87.44
298.984	83.44
299.214	83.44
299.445	80.44
299.675	85.44
299.905	91.44
300.136	67.44
300.366	91.44
300.597	89.44
300.827	95.44
301.057	64.44
301.288	82.44
301.518	82.44
301.748	89.44
301.979	96.44
302.209	91.44
302.439	79.44
302.669	67.44
302.9	89.44
303.13	86.44
303.36	82.44
303.59	88.44
303.82	83.44
304.051	92.44
304.281	80.44
304.511	85.44
304.741	82.44
304.971	83.44
305.201	90.44
305.431	94.44
305.661	95.44
305.891	93.44
306.121	84.44
306.352	87.44
306.582	93.44
306.812	90.44
307.042	93.44
307.272	89.44
307.502	89.44
307.731	97.44
307.961	94.44
308.191	83.44
308.421	92.44
308.651	97.44
308.881	82.44
309.111	79.44
309.341	92.44
309.571	83.44
309.8	84.44
310.03	89.44
310.26	87.44
310.49	78.44
310.72	98.44
310.949	80.44
311.179	105.44
311.409	77.44
311.639	82.44
311.868	88.44
312.098	90.44
312.328	97.44
312.557	82.44
312.787	73.44
313.017	74.44
313.246	81.44
313.476	89.44
313.706	72.44
313.935	77.44
314.165	83.44
314.394	89.44
314.624	94.44
314.853	88.44
315.083	91.44
315.312	83.44
315.542	82.44
315.771	89.44
316.001	75.44
316.23	80.44
316.46	91.44
316.689	76.44
316.919	88.44
317.148	84.44
317.377	82.44
317.607	97.44
317.836	85.44
318.065	84.44
318.295	93.44
318.524	84.44
318.753	91.44
318.983	94.44
319.212	91.44
319.441	87.44
319.67	83.44
319.9	81.44
320.129	99.44
320.358	77.44
320.587	77.44
320.816	82.44
321.046	75.44
321.275	77.44
321.504	80.44
321.733	91.44
321.962	75.44
322.191	81.44
322.42	73.44
322.649	90.44
322.878	82.44
323.108	81.44
323.337	79.44
323.566	83.44
323.795	89.44
324.024	76.44
324.253	85.44
324.482	87.44
324.71	83.44
324.939	88.44
325.168	69.44
325.397	90.44
325.626	94.44
325.855	72.44
326.084	80.44
326.313	81.44
326.542	85.44
326.77	88.44
326.999	91.44
327.228	73.44
327.457	89.44
327.686	81.44
327.914	92.44
328.143	77.44
328.372	82.44
328.6	77.44
328.829	79.44
329.058	73.44
329.287	90.44
329.515	89.44
329.744	79.44
329.972	73.44
330.201	77.44
330.43	85.44
330.658	100.44
330.887	84.44
331.115	94.44
331.344	98.44
331.572	76.44
331.801	82.44
332.03	81.44
332.258	70.44
332.486	77.44
332.715	80.44
332.943	71.44
333.172	67.44
333.4	85.44
333.629	83.44
333.857	78.44
334.085	78.44
334.314	91.44
334.542	70.44
334.771	82.44
334.999	87.44
335.227	85.44
335.455	96.44
335.684	82.44
335.912	69.44
336.14	76.44
336.369	88.44
336.597	94.44
336.825	91.44
337.053	81.44
337.281	82.44
337.51	83.44
337.738	73.44
337.966	71.44
338.194	70.44
338.422	90.44
338.65	88.44
338.878	91.44
339.106	84.44
339.334	91.44
339.562	88.44
339.79	82.44
340.018	73.44
340.246	73.44
340.474	78.44
340.702	83.44
340.93	89.44
341.158	77.44
341.386	82.44
341.614	80.44
341.842	78.44
342.07	77.44
342.298	79.44
342.526	76.44
342.754	75.44
342.981	80.44
343.209	94.44
343.437	91.44
343.665	80.44
343.893	80.44
344.12	87.44
344.348	75.44
344.576	81.44
344.804	93.44
345.031	88.44
345.259	90.44
345.487	83.44
345.714	89.44
345.942	86.44
346.17	89.44
346.397	77.44
346.625	76.44
346.853	88.44
347.08	94.44
347.308	87.44
347.535	100.44
347.763	91.44
347.99	95.44
348.218	82.44
348.445	89.44
348.673	65.44
348.9	75.44
349.128	82.44
349.355	90.44
349.583	85.44
349.81	67.44
350.037	76.44
350.265	89.44
350.492	91.44
350.72	93.44
350.947	99.44
351.174	87.44
351.402	75.44
351.629	78.44
351.856	88.44
352.083	75.44
352.311	77.44
352.538	73.44
352.765	89.44
352.992	95.44
353.22	94.44
353.447	93.44
353.674	84.44
353.901	72.44
354.128	74.44
354.355	88.44
354.583	89.44
354.81	88.44
355.037	79.44
355.264	73.44
355.491	75.44
355.718	60.44
355.945	86.44
356.172	69.44
356.399	79.44
356.626	70.44
356.853	79.44
357.08	107.44
357.307	98.44
357.534	85.44
357.761	92.44
357.988	92.44
358.215	85.44
358.441	89.44
358.668	74.44
358.895	80.44
359.122	86.44
359.349	73.44
359.576	75.44
359.802	84.44
360.029	90.44
360.256	70.44
360.483	78.44
360.709	88.44
360.936	87.44
361.163	96.44
361.39	79.44
361.616	83.44
361.843	85.44
362.07	84.44
362.296	81.44
362.523	72.44
362.749	72.44
362.976	86.44
363.203	79.44
363.429	92.44
363.656	80.44
363.882	78.44
364.109	85.44
364.335	77.44
364.562	73.44
364.788	76.44
365.015	80.44
365.241	90.44
365.468	91.44
365.694	84.44
365.92	91.44
366.147	91.44
366.373	87.44
366.599	83.44
366.826	83.44
367.052	82.44
367.278	88.44
367.505	87.44
367.731	88.44
367.957	69.44
368.184	98.44
368.41	87.44
368.636	87.44
368.862	99.44
369.089	81.44
369.315	75.44
369.541	91.44
369.767	84.44
369.993	68.44
370.219	78.44
370.445	70.44
370.672	77.44
370.898	80.44
371.124	88.44
371.35	73.44
371.576	78.44
371.802	87.44
372.028	84.44
372.254	78.44
372.48	84.44
372.706	88.44
372.932	79.44
373.158	79.44
373.384	80.44
373.61	88.44
373.835	85.44
374.061	89.44
374.287	87.44
374.513	92.44
374.739	88.44
374.965	71.44
375.191	74.44
375.416	72.44
375.642	77.44
375.868	83.44
376.094	82.44
376.319	78.44
376.545	75.44
376.771	67.44
376.997	81.44
377.222	81.44
377.448	73.44
377.674	82.44
377.899	85.44
378.125	87.44
378.35	73.44
378.576	87.44
378.802	83.44
379.027	87.44
379.253	76.44
379.478	66.44
379.704	84.44
379.929	79.44
380.155	94.44
380.38	85.44
380.606	83.44
380.831	78.44
381.057	93.44
381.282	93.44
381.507	74.44
381.733	96.44
381.958	68.44
382.184	83.44
382.409	72.44
382.634	93.44
382.86	71.44
383.085	80.44
383.31	83.44
383.535	79.44
383.761	93.44
383.986	93.44
384.211	79.44
384.436	78.44
384.662	74.44
384.887	69.44
385.112	85.44
385.337	72.44
385.562	75.44
385.787	67.44
386.013	78.44
386.238	73.44
386.463	82.44
386.688	99.44
386.913	81.44
387.138	84.44
387.363	69.44
387.588	71.44
387.813	82.44
388.038	77.44
388.263	81.44
388.488	79.44
388.713	97.44
388.938	82.44
389.163	79.44
389.387	71.44
389.612	79.44
389.837	67.44
390.062	94.44
390.287	76.44
390.512	82.44
390.736	77.44
390.961	82.44
391.186	85.44
391.411	80.44
391.636	88.44
391.86	74.44
392.085	91.44
392.31	89.44
392.534	81.44
392.759	80.44
392.984	80.44
393.208	63.44
393.433	69.44
393.658	87.44
393.882	72.44
394.107	79.44
394.331	92.44
394.556	82.44
394.78	93.44
395.005	74.44
395.229	74.44
395.454	77.44
395.678	79.44
395.903	73.44
396.127	76.44
396.352	102.44
396.576	88.44
396.801	78.44
397.025	73.44
397.249	99.44
397.474	94.44
397.698	87.44
397.922	80.44
398.147	77.44
398.371	82.44
398.595	75.44
398.82	87.44
399.044	90.44
399.268	60.44
399.492	78.44
399.717	69.44
399.941	77.44
400.165	75.44
400.389	76.44
400.613	84.44
400.837	68.44
401.062	96.44
401.286	82.44
401.51	78.44
401.734	77.44
401.958	91.44
402.182	79.44
402.406	74.44
402.63	78.44
402.854	65.44
403.078	78.44
403.302	97.44
403.526	69.44
403.75	87.44
403.974	81.44
404.198	80.44
404.422	100.44
404.645	79.44
404.869	81.44
405.093	71.44
405.317	78.44
405.541	87.44
405.765	84.44
405.988	73.44
406.212	79.44
406.436	91.44
406.66	85.44
406.883	78.44
407.107	89.44
407.331	78.44
407.555	74.44
407.778	73.44
408.002	81.44
408.226	92.44
408.449	81.44
408.673	81.44
408.896	66.44
409.12	75.44
409.344	85.44
409.567	74.44
409.791	77.44
410.014	86.44
410.238	85.44
410.461	71.44
410.685	91.44
410.908	90.44
411.132	79.44
411.355	73.44
411.578	72.44
411.802	84.44
412.025	80.44
412.249	76.44
412.472	78.44
412.695	94.44
412.919	91.44
413.142	74.44
413.365	91.44
413.589	83.44
413.812	75.44
414.035	81.44
414.258	82.44
414.482	80.44
414.705	91.44
414.928	92.44
415.151	72.44
415.374	76.44
415.597	81.44
415.821	73.44
416.044	93.44
416.267	76.44
416.49	79.44
416.713	93.44
416.936	66.44
417.159	87.44
417.382	68.44
417.605	77.44
417.828	94.44
418.051	77.44
418.274	81.44
418.497	67.44
418.72	89.44
418.943	83.44
419.166	79.44
419.389	79.44
419.611	94.44
419.834	80.44
420.057	85.44
420.28	80.44
420.503	85.44
420.726	73.44
420.948	75.44
421.171	87.44
421.394	94.44
421.617	82.44
421.839	79.44
422.062	77.44
422.285	94.44
422.507	73.44
422.73	90.44
422.953	83.44
423.175	81.44
423.398	84.44
423.621	73.44
423.843	85.44
424.066	84.44
424.288	75.44
424.511	96.44
424.733	91.44
424.956	76.44
425.178	84.44
425.401	82.44
425.623	73.44
425.846	70.44
426.068	77.44
426.291	90.44
426.513	66.44
426.735	84.44
426.958	90.44
427.18	81.44
427.402	89.44
427.625	86.44
427.847	80.44
428.069	91.44
428.292	87.44
428.514	91.44
428.736	83.44
428.958	84.44
429.181	82.44
429.403	81.44
429.625	67.44
429.847	77.44
430.069	81.44
430.292	89.44
430.514	82.44
430.736	77.44
430.958	52.44
431.18	80.44
431.402	81.44
431.624	79.44
431.846	76.44
432.068	92.44
432.29	82.44
432.512	84.44
432.734	86.44
432.956	78.44
433.178	94.44
433.4	76.44
433.622	82.44
433.844	75.44
434.066	84.44
434.287	81.44
434.509	85.44
434.731	72.44
434.953	75.44
435.175	79.44
435.397	91.44
435.618	75.44
435.84	89.44
436.062	75.44
436.284	70.44
436.505	92.44
436.727	88.44
436.949	84.44
437.17	76.44
437.392	77.44
437.614	80.44
437.835	94.44
438.057	71.44
438.278	83.44
438.5	74.44
438.721	79.44
438.943	79.44
439.165	89.44
439.386	82.44
439.608	86.44
439.829	69.44
440.05	80.44
440.272	79.44
440.493	80.44
440.715	92.44
440.936	75.44
441.158	73.44
441.379	83.44
441.6	82.44
441.822	67.44
442.043	79.44
442.264	75.44
442.486	65.44
442.707	86.44
442.928	75.44
443.149	88.44
443.371	56.44
443.592	73.44
443.813	78.44
444.034	87.44
444.255	71.44
444.476	75.44
444.698	83.44
444.919	73.44
445.14	171.44
445.361	115.44
445.582	83.44
445.803	78.44
446.024	73.44
446.245	87.44
446.466	78.44
446.687	85.44
446.908	82.44
447.129	87.44
447.35	79.44
447.571	81.44
447.792	79.44
448.013	79.44
448.234	87.44
448.455	83.44
448.675	75.44
448.896	72.44
449.117	80.44
449.338	84.44
449.559	63.44
449.779	86.44
450	66.44
450.221	68.44
450.442	74.44
450.662	88.44
450.883	83.44
451.104	76.44
451.324	89.44
451.545	75.44
451.766	79.44
451.986	76.44
452.207	90.44
452.428	88.44
452.648	89.44
452.869	84.44
453.089	83.44
453.31	78.44
453.53	89.44
453.751	77.44
453.971	83.44
454.192	80.44
454.412	71.44
454.633	82.44
454.853	87.44
455.073	82.44
455.294	89.44
455.514	93.44
455.734	86.44
455.955	81.44
456.175	76.44
456.395	91.44
456.616	81.44
456.836	87.44
457.056	82.44
457.276	80.44
457.497	68.44
457.717	71.44
457.937	77.44
458.157	72.44
458.377	83.44
458.598	95.44
458.818	66.44
459.038	82.44
459.258	74.44
459.478	71.44
459.698	73.44
459.918	82.44
460.138	51.44
460.358	69.44
460.578	92.44
460.798	83.44
461.018	73.44
461.238	93.44
461.458	85.44
461.678	90.44
461.898	72.44
462.118	73.44
462.338	82.44
462.558	74.44
462.777	73.44
462.997	71.44
463.217	75.44
463.437	73.44
463.657	96.44
463.876	81.44
464.096	81.44
464.316	91.44
464.536	65.44
464.755	80.44
464.975	82.44
465.195	86.44
465.414	93.44
465.634	81.44
465.854	68.44
466.073	76.44
466.293	76.44
466.512	79.44
466.732	91.44
466.951	73.44
467.171	90.44
467.391	75.44
467.61	90.44
467.829	77.44
468.049	75.44
468.268	91.44
468.488	84.44
468.707	81.44
468.927	75.44
469.146	84.44
469.365	92.44
469.585	77.44
469.804	75.44
470.023	64.44
470.243	86.44
470.462	88.44
470.681	87.44
470.901	98.44
471.12	81.44
471.339	63.44
471.558	87.44
471.777	83.44
471.997	80.44
472.216	90.44
472.435	78.44
472.654	80.44
472.873	81.44
473.092	81.44
473.311	89.44
473.53	82.44
473.749	73.44
473.968	89.44
474.187	98.44
474.406	81.44
474.625	82.44
474.844	80.44
475.063	80.44
475.282	74.44
475.501	84.44
475.72	81.44
475.939	96.44
476.158	82.44
476.377	107.44
476.596	93.44
476.814	74.44
477.033	88.44
477.252	85.44
477.471	73.44
477.69	82.44
477.908	81.44
478.127	79.44
478.346	93.44
478.564	87.44
478.783	84.44
479.002	82.44
479.22	76.44
479.439	74.44
479.658	85.44
479.876	72.44
480.095	86.44
480.313	85.44
480.532	83.44
480.751	81.44
480.969	85.44
481.188	77.44
481.406	70.44
481.624	70.44
481.843	87.44
482.061	81.44
482.28	63.44
482.498	88.44
482.717	67.44
482.935	87.44
483.153	87.44
483.372	75.44
483.59	82.44
483.808	88.44
484.027	77.44
484.245	91.44
484.463	82.44
484.681	67.44
484.9	74.44
485.118	83.44
485.336	84.44
485.554	83.44
485.772	88.44
485.99	90.44
486.209	70.44
486.427	70.44
486.645	83.44
486.863	90.44
487.081	87.44
487.299	80.44
487.517	86.44
487.735	86.44
487.953	88.44
488.171	76.44
488.389	72.44
488.607	74.44
488.825	82.44
489.043	67.44
489.261	80.44
489.479	81.44
489.696	82.44
489.914	80.44
490.132	92.44
490.35	79.44
490.568	85.44
490.786	90.44
491.003	75.44
491.221	72.44
491.439	87.44
491.657	79.44
491.874	83.44
492.092	83.44
492.31	77.44
492.527	80.44
492.745	83.44
492.963	89.44
493.18	91.44
493.398	78.44
493.615	73.44
493.833	76.44
494.05	84.44
494.268	80.44
494.485	74.44
494.703	67.44
494.92	91.44
495.138	62.44
495.355	87.44
495.573	85.44
495.79	92.44
496.008	95.44
496.225	84.44
496.442	79.44
496.66	85.44
496.877	77.44
497.094	73.44
497.312	78.44
497.529	87.44
497.746	85.44
497.963	69.44
498.181	84.44
498.398	72.44
498.615	81.44
498.832	83.44
499.049	78.44
499.267	84.44
499.484	67.44
499.701	83.44
499.918	96.44
500.135	79.44
500.352	88.44
500.569	86.44
500.786	76.44
501.003	96.44
501.22	94.44
501.437	80.44
501.654	89.44
501.871	85.44
502.088	89.44
502.305	78.44
502.522	81.44
502.739	82.44
502.956	79.44
503.172	83.44
503.389	74.44
503.606	87.44
503.823	92.44
504.04	85.44
504.256	100.44
504.473	85.44
504.69	80.44
504.907	72.44
505.123	81.44
505.34	86.44
505.557	81.44
505.773	90.44
505.99	77.44
506.207	70.44
506.423	68.44
506.64	98.44
506.856	91.44
507.073	91.44
507.289	79.44
507.506	78.44
507.722	75.44
507.939	90.44
508.155	75.44
508.372	75.44
508.588	78.44
508.805	79.44
509.021	100.44
509.238	84.44
509.454	81.44
509.67	95.44
509.887	81.44
510.103	85.44
510.319	86.44
510.536	78.44
510.752	82.44
510.968	91.44
511.184	83.44
511.401	91.44
511.617	80.44
511.833	91.44
512.049	80.44
512.265	77.44
512.481	89.44
512.698	88.44
512.914	94.44
513.13	80.44
513.346	88.44
513.562	91.44
513.778	79.44
513.994	79.44
514.21	71.44
514.426	92.44
514.642	90.44
514.858	89.44
515.074	76.44
515.29	79.44
515.506	95.44
515.721	92.44
515.937	87.44
516.153	88.44
516.369	72.44
516.585	80.44
516.801	75.44
517.016	75.44
517.232	70.44
517.448	69.44
517.664	81.44
517.879	68.44
518.095	73.44
518.311	87.44
518.527	68.44
518.742	84.44
518.958	83.44
519.173	85.44
519.389	77.44
519.605	71.44
519.82	59.44
520.036	84.44
