Data from Background_1_HRD10591_00051.txt Node
Date: Wed Nov 05 14:39:23 EST 2025
User: Yrep
Spectrometer: HR+D1059
Trigger mode: 1
Integration Time (sec): 1.000000E-1
Scans to average: 1
Electric dark correction enabled: true
Nonlinearity correction enabled: false
Boxcar width: 0
XAxis mode: Wavelengths
Number of Pixels in Spectrum: 2048
>>>>>Begin Spectral Data<<<<<
223.165	-31.75
223.4	-31.75
223.635	-31.75
223.869	-21.75
224.104	-10.75
224.338	-14.75
224.573	-3.75
224.808	-21.75
225.042	-10.75
225.277	-4.75
225.511	-2.75
225.746	13.25
225.98	2.25
226.215	15.25
226.449	12.25
226.683	15.25
226.918	26.25
227.152	38.25
227.387	40.25
227.621	29.25
227.856	29.25
228.09	49.25
228.324	43.25
228.559	53.25
228.793	46.25
229.027	59.25
229.262	82.25
229.496	62.25
229.73	74.25
229.964	82.25
230.199	70.25
230.433	65.25
230.667	77.25
230.901	75.25
231.136	73.25
231.37	80.25
231.604	77.25
231.838	83.25
232.072	77.25
232.306	93.25
232.541	75.25
232.775	80.25
233.009	62.25
233.243	75.25
233.477	70.25
233.711	81.25
233.945	85.25
234.179	76.25
234.413	79.25
234.647	77.25
234.881	67.25
235.115	69.25
235.349	81.25
235.583	81.25
235.817	77.25
236.051	77.25
236.285	64.25
236.519	77.25
236.753	59.25
236.987	85.25
237.221	88.25
237.455	83.25
237.689	67.25
237.922	61.25
238.156	63.25
238.39	90.25
238.624	73.25
238.858	65.25
239.091	83.25
239.325	68.25
239.559	65.25
239.793	55.25
240.027	75.25
240.26	75.25
240.494	76.25
240.728	81.25
240.961	73.25
241.195	65.25
241.429	80.25
241.662	67.25
241.896	71.25
242.13	74.25
242.363	75.25
242.597	74.25
242.83	83.25
243.064	83.25
243.298	68.25
243.531	69.25
243.765	85.25
243.998	69.25
244.232	66.25
244.465	71.25
244.699	83.25
244.932	70.25
245.166	90.25
245.399	75.25
245.633	69.25
245.866	68.25
246.099	69.25
246.333	81.25
246.566	73.25
246.8	77.25
247.033	83.25
247.266	74.25
247.5	63.25
247.733	81.25
247.966	66.25
248.2	79.25
248.433	70.25
248.666	74.25
248.899	82.25
249.133	79.25
249.366	94.25
249.599	79.25
249.832	88.25
250.066	77.25
250.299	84.25
250.532	87.25
250.765	72.25
250.998	73.25
251.231	78.25
251.465	73.25
251.698	77.25
251.931	74.25
252.164	82.25
252.397	68.25
252.63	80.25
252.863	75.25
253.096	80.25
253.329	88.25
253.562	75.25
253.795	78.25
254.028	64.25
254.261	79.25
254.494	88.25
254.727	83.25
254.96	77.25
255.193	85.25
255.426	74.25
255.659	73.25
255.892	75.25
256.124	81.25
256.357	88.25
256.59	80.25
256.823	68.25
257.056	79.25
257.289	82.25
257.521	73.25
257.754	70.25
257.987	67.25
258.22	73.25
258.452	77.25
258.685	76.25
258.918	82.25
259.151	76.25
259.383	78.25
259.616	86.25
259.849	75.25
260.081	69.25
260.314	90.25
260.547	86.25
260.779	71.25
261.012	87.25
261.244	84.25
261.477	64.25
261.71	84.25
261.942	77.25
262.175	71.25
262.407	78.25
262.64	73.25
262.872	81.25
263.105	79.25
263.337	93.25
263.57	73.25
263.802	72.25
264.035	66.25
264.267	90.25
264.499	78.25
264.732	76.25
264.964	86.25
265.197	77.25
265.429	86.25
265.661	78.25
265.894	87.25
266.126	86.25
266.358	89.25
266.591	76.25
266.823	74.25
267.055	88.25
267.287	93.25
267.52	81.25
267.752	85.25
267.984	81.25
268.216	84.25
268.448	81.25
268.681	83.25
268.913	80.25
269.145	80.25
269.377	81.25
269.609	92.25
269.841	78.25
270.073	68.25
270.306	88.25
270.538	88.25
270.77	78.25
271.002	74.25
271.234	73.25
271.466	77.25
271.698	79.25
271.93	90.25
272.162	75.25
272.394	103.25
272.626	80.25
272.858	84.25
273.09	89.25
273.322	81.25
273.553	81.25
273.785	73.25
274.017	75.25
274.249	80.25
274.481	77.25
274.713	88.25
274.945	77.25
275.176	69.25
275.408	89.25
275.64	93.25
275.872	73.25
276.104	93.25
276.335	85.25
276.567	89.25
276.799	71.25
277.031	81.25
277.262	81.25
277.494	77.25
277.726	88.25
277.957	90.25
278.189	87.25
278.421	95.25
278.652	76.25
278.884	67.25
279.115	72.25
279.347	88.25
279.579	85.25
279.81	79.25
280.042	79.25
280.273	81.25
280.505	85.25
280.736	84.25
280.968	76.25
281.199	90.25
281.431	81.25
281.662	75.25
281.894	88.25
282.125	85.25
282.356	90.25
282.588	75.25
282.819	79.25
283.051	80.25
283.282	83.25
283.513	95.25
283.745	81.25
283.976	97.25
284.207	73.25
284.439	86.25
284.67	69.25
284.901	67.25
285.132	55.25
285.364	75.25
285.595	83.25
285.826	103.25
286.057	91.25
286.288	89.25
286.52	89.25
286.751	78.25
286.982	88.25
287.213	98.25
287.444	77.25
287.675	73.25
287.906	82.25
288.138	92.25
288.369	80.25
288.6	85.25
288.831	79.25
289.062	92.25
289.293	76.25
289.524	83.25
289.755	73.25
289.986	82.25
290.217	87.25
290.448	65.25
290.679	85.25
290.91	93.25
291.141	78.25
291.371	92.25
291.602	83.25
291.833	81.25
292.064	81.25
292.295	73.25
292.526	85.25
292.757	83.25
292.987	87.25
293.218	95.25
293.449	72.25
293.68	75.25
293.91	84.25
294.141	85.25
294.372	83.25
294.603	85.25
294.833	97.25
295.064	83.25
295.295	103.25
295.525	90.25
295.756	85.25
295.987	75.25
296.217	70.25
296.448	78.25
296.679	77.25
296.909	81.25
297.14	93.25
297.37	81.25
297.601	78.25
297.831	90.25
298.062	84.25
298.292	85.25
298.523	93.25
298.753	86.25
298.984	78.25
299.214	73.25
299.445	83.25
299.675	91.25
299.905	84.25
300.136	85.25
300.366	77.25
300.597	79.25
300.827	83.25
301.057	87.25
301.288	66.25
301.518	83.25
301.748	78.25
301.979	91.25
302.209	84.25
302.439	87.25
302.669	98.25
302.9	83.25
303.13	78.25
303.36	95.25
303.59	92.25
303.82	67.25
304.051	81.25
304.281	73.25
304.511	88.25
304.741	91.25
304.971	83.25
305.201	76.25
305.431	83.25
305.661	89.25
305.891	82.25
306.121	90.25
306.352	76.25
306.582	85.25
306.812	88.25
307.042	89.25
307.272	82.25
307.502	71.25
307.731	80.25
307.961	101.25
308.191	86.25
308.421	83.25
308.651	74.25
308.881	85.25
309.111	91.25
309.341	84.25
309.571	80.25
309.8	86.25
310.03	92.25
310.26	86.25
310.49	70.25
310.72	94.25
310.949	73.25
311.179	82.25
311.409	89.25
311.639	82.25
311.868	91.25
312.098	92.25
312.328	82.25
312.557	89.25
312.787	89.25
313.017	102.25
313.246	90.25
313.476	75.25
313.706	97.25
313.935	78.25
314.165	93.25
314.394	79.25
314.624	81.25
314.853	82.25
315.083	93.25
315.312	94.25
315.542	69.25
315.771	97.25
316.001	82.25
316.23	87.25
316.46	77.25
316.689	68.25
316.919	86.25
317.148	87.25
317.377	97.25
317.607	75.25
317.836	87.25
318.065	83.25
318.295	76.25
318.524	65.25
318.753	79.25
318.983	80.25
319.212	93.25
319.441	95.25
319.67	77.25
319.9	86.25
320.129	94.25
320.358	83.25
320.587	80.25
320.816	74.25
321.046	77.25
321.275	71.25
321.504	78.25
321.733	97.25
321.962	82.25
322.191	87.25
322.42	79.25
322.649	74.25
322.878	75.25
323.108	82.25
323.337	92.25
323.566	82.25
323.795	77.25
324.024	83.25
324.253	83.25
324.482	76.25
324.71	83.25
324.939	88.25
325.168	83.25
325.397	79.25
325.626	91.25
325.855	96.25
326.084	78.25
326.313	93.25
326.542	89.25
326.77	86.25
326.999	87.25
327.228	90.25
327.457	94.25
327.686	89.25
327.914	96.25
328.143	85.25
328.372	73.25
328.6	86.25
328.829	82.25
329.058	85.25
329.287	82.25
329.515	81.25
329.744	88.25
329.972	75.25
330.201	73.25
330.43	88.25
330.658	93.25
330.887	86.25
331.115	88.25
331.344	76.25
331.572	96.25
331.801	73.25
332.03	87.25
332.258	82.25
332.486	84.25
332.715	71.25
332.943	85.25
333.172	78.25
333.4	79.25
333.629	81.25
333.857	81.25
334.085	73.25
334.314	74.25
334.542	90.25
334.771	85.25
334.999	81.25
335.227	72.25
335.455	74.25
335.684	96.25
335.912	81.25
336.14	83.25
336.369	84.25
336.597	91.25
336.825	83.25
337.053	88.25
337.281	101.25
337.51	73.25
337.738	91.25
337.966	72.25
338.194	82.25
338.422	86.25
338.65	88.25
338.878	84.25
339.106	85.25
339.334	85.25
339.562	92.25
339.79	88.25
340.018	94.25
340.246	92.25
340.474	83.25
340.702	73.25
340.93	89.25
341.158	95.25
341.386	77.25
341.614	70.25
341.842	85.25
342.07	82.25
342.298	86.25
342.526	78.25
342.754	73.25
342.981	88.25
343.209	89.25
343.437	91.25
343.665	73.25
343.893	80.25
344.12	84.25
344.348	82.25
344.576	86.25
344.804	79.25
345.031	68.25
345.259	87.25
345.487	75.25
345.714	74.25
345.942	86.25
346.17	90.25
346.397	90.25
346.625	89.25
346.853	92.25
347.08	76.25
347.308	81.25
347.535	77.25
347.763	79.25
347.99	82.25
348.218	90.25
348.445	80.25
348.673	83.25
348.9	49.25
349.128	91.25
349.355	85.25
349.583	81.25
349.81	78.25
350.037	72.25
350.265	77.25
350.492	73.25
350.72	82.25
350.947	75.25
351.174	71.25
351.402	72.25
351.629	91.25
351.856	91.25
352.083	85.25
352.311	74.25
352.538	81.25
352.765	85.25
352.992	80.25
353.22	75.25
353.447	79.25
353.674	112.25
353.901	77.25
354.128	79.25
354.355	77.25
354.583	88.25
354.81	83.25
355.037	75.25
355.264	81.25
355.491	81.25
355.718	91.25
355.945	81.25
356.172	64.25
356.399	86.25
356.626	91.25
356.853	81.25
357.08	92.25
357.307	81.25
357.534	83.25
357.761	67.25
357.988	92.25
358.215	93.25
358.441	105.25
358.668	80.25
358.895	79.25
359.122	89.25
359.349	75.25
359.576	96.25
359.802	75.25
360.029	77.25
360.256	89.25
360.483	80.25
360.709	81.25
360.936	80.25
361.163	92.25
361.39	83.25
361.616	88.25
361.843	79.25
362.07	94.25
362.296	90.25
362.523	68.25
362.749	80.25
362.976	69.25
363.203	82.25
363.429	94.25
363.656	84.25
363.882	93.25
364.109	79.25
364.335	75.25
364.562	80.25
364.788	62.25
365.015	72.25
365.241	77.25
365.468	80.25
365.694	79.25
365.92	79.25
366.147	92.25
366.373	64.25
366.599	66.25
366.826	94.25
367.052	85.25
367.278	82.25
367.505	79.25
367.731	88.25
367.957	80.25
368.184	87.25
368.41	89.25
368.636	80.25
368.862	79.25
369.089	89.25
369.315	93.25
369.541	80.25
369.767	85.25
369.993	79.25
370.219	79.25
370.445	78.25
370.672	81.25
370.898	85.25
371.124	78.25
371.35	75.25
371.576	68.25
371.802	85.25
372.028	90.25
372.254	71.25
372.48	78.25
372.706	83.25
372.932	82.25
373.158	63.25
373.384	76.25
373.61	78.25
373.835	76.25
374.061	77.25
374.287	74.25
374.513	79.25
374.739	80.25
374.965	85.25
375.191	87.25
375.416	75.25
375.642	78.25
375.868	88.25
376.094	83.25
376.319	83.25
376.545	82.25
376.771	78.25
376.997	73.25
377.222	67.25
377.448	71.25
377.674	74.25
377.899	88.25
378.125	82.25
378.35	86.25
378.576	86.25
378.802	78.25
379.027	82.25
379.253	87.25
379.478	90.25
379.704	80.25
379.929	81.25
380.155	77.25
380.38	77.25
380.606	82.25
380.831	91.25
381.057	90.25
381.282	81.25
381.507	77.25
381.733	87.25
381.958	75.25
382.184	91.25
382.409	92.25
382.634	83.25
382.86	73.25
383.085	87.25
383.31	76.25
383.535	67.25
383.761	72.25
383.986	81.25
384.211	69.25
384.436	76.25
384.662	78.25
384.887	83.25
385.112	73.25
385.337	85.25
385.562	78.25
385.787	87.25
386.013	90.25
386.238	73.25
386.463	81.25
386.688	85.25
386.913	73.25
387.138	74.25
387.363	73.25
387.588	83.25
387.813	95.25
388.038	85.25
388.263	83.25
388.488	75.25
388.713	68.25
388.938	79.25
389.163	77.25
389.387	77.25
389.612	74.25
389.837	88.25
390.062	64.25
390.287	76.25
390.512	79.25
390.736	81.25
390.961	79.25
391.186	91.25
391.411	82.25
391.636	78.25
391.86	86.25
392.085	84.25
392.31	81.25
392.534	81.25
392.759	82.25
392.984	90.25
393.208	74.25
393.433	70.25
393.658	80.25
393.882	85.25
394.107	80.25
394.331	81.25
394.556	82.25
394.78	90.25
395.005	78.25
395.229	84.25
395.454	73.25
395.678	80.25
395.903	89.25
396.127	80.25
396.352	86.25
396.576	84.25
396.801	69.25
397.025	71.25
397.249	70.25
397.474	71.25
397.698	67.25
397.922	67.25
398.147	75.25
398.371	77.25
398.595	72.25
398.82	72.25
399.044	76.25
399.268	83.25
399.492	89.25
399.717	74.25
399.941	78.25
400.165	85.25
400.389	71.25
400.613	77.25
400.837	77.25
401.062	86.25
401.286	85.25
401.51	79.25
401.734	92.25
401.958	80.25
402.182	75.25
402.406	72.25
402.63	87.25
402.854	82.25
403.078	93.25
403.302	72.25
403.526	58.25
403.75	59.25
403.974	74.25
404.198	77.25
404.422	85.25
404.645	81.25
404.869	65.25
405.093	76.25
405.317	64.25
405.541	85.25
405.765	74.25
405.988	80.25
406.212	84.25
406.436	68.25
406.66	82.25
406.883	83.25
407.107	81.25
407.331	85.25
407.555	84.25
407.778	81.25
408.002	79.25
408.226	74.25
408.449	66.25
408.673	71.25
408.896	81.25
409.12	82.25
409.344	70.25
409.567	73.25
409.791	77.25
410.014	78.25
410.238	82.25
410.461	81.25
410.685	73.25
410.908	79.25
411.132	95.25
411.355	85.25
411.578	82.25
411.802	81.25
412.025	81.25
412.249	64.25
412.472	74.25
412.695	82.25
412.919	81.25
413.142	73.25
413.365	80.25
413.589	85.25
413.812	77.25
414.035	73.25
414.258	69.25
414.482	76.25
414.705	85.25
414.928	91.25
415.151	76.25
415.374	77.25
415.597	85.25
415.821	65.25
416.044	78.25
416.267	67.25
416.49	80.25
416.713	75.25
416.936	63.25
417.159	74.25
417.382	75.25
417.605	82.25
417.828	73.25
418.051	71.25
418.274	86.25
418.497	83.25
418.72	65.25
418.943	72.25
419.166	81.25
419.389	76.25
419.611	91.25
419.834	90.25
420.057	72.25
420.28	81.25
420.503	78.25
420.726	85.25
420.948	82.25
421.171	90.25
421.394	87.25
421.617	75.25
421.839	80.25
422.062	77.25
422.285	65.25
422.507	80.25
422.73	73.25
422.953	87.25
423.175	69.25
423.398	70.25
423.621	82.25
423.843	81.25
424.066	71.25
424.288	82.25
424.511	89.25
424.733	88.25
424.956	71.25
425.178	71.25
425.401	80.25
425.623	57.25
425.846	66.25
426.068	65.25
426.291	85.25
426.513	77.25
426.735	96.25
426.958	92.25
427.18	87.25
427.402	76.25
427.625	81.25
427.847	79.25
428.069	75.25
428.292	77.25
428.514	88.25
428.736	80.25
428.958	80.25
429.181	58.25
429.403	87.25
429.625	73.25
429.847	74.25
430.069	67.25
430.292	83.25
430.514	81.25
430.736	78.25
430.958	87.25
431.18	90.25
431.402	77.25
431.624	71.25
431.846	76.25
432.068	90.25
432.29	81.25
432.512	86.25
432.734	66.25
432.956	80.25
433.178	91.25
433.4	71.25
433.622	83.25
433.844	95.25
434.066	74.25
434.287	66.25
434.509	75.25
434.731	68.25
434.953	85.25
435.175	88.25
435.397	86.25
435.618	87.25
435.84	94.25
436.062	76.25
436.284	66.25
436.505	85.25
436.727	75.25
436.949	71.25
437.17	81.25
437.392	72.25
437.614	78.25
437.835	76.25
438.057	73.25
438.278	80.25
438.5	86.25
438.721	78.25
438.943	81.25
439.165	87.25
439.386	87.25
439.608	86.25
439.829	78.25
440.05	71.25
440.272	74.25
440.493	74.25
440.715	79.25
440.936	65.25
441.158	83.25
441.379	85.25
441.6	69.25
441.822	69.25
442.043	77.25
442.264	74.25
442.486	77.25
442.707	73.25
442.928	74.25
443.149	79.25
443.371	79.25
443.592	90.25
443.813	82.25
444.034	77.25
444.255	69.25
444.476	86.25
444.698	91.25
444.919	85.25
445.14	167.25
445.361	106.25
445.582	74.25
445.803	71.25
446.024	72.25
446.245	89.25
446.466	76.25
446.687	79.25
446.908	73.25
447.129	71.25
447.35	70.25
447.571	97.25
447.792	97.25
448.013	84.25
448.234	65.25
448.455	74.25
448.675	93.25
448.896	87.25
449.117	80.25
449.338	84.25
449.559	77.25
449.779	72.25
450	64.25
450.221	70.25
450.442	75.25
450.662	88.25
450.883	62.25
451.104	73.25
451.324	78.25
451.545	74.25
451.766	81.25
451.986	83.25
452.207	82.25
452.428	87.25
452.648	83.25
452.869	68.25
453.089	79.25
453.31	73.25
453.53	67.25
453.751	69.25
453.971	65.25
454.192	86.25
454.412	77.25
454.633	82.25
454.853	86.25
455.073	66.25
455.294	71.25
455.514	77.25
455.734	75.25
455.955	84.25
456.175	79.25
456.395	84.25
456.616	91.25
456.836	81.25
457.056	85.25
457.276	77.25
457.497	74.25
457.717	84.25
457.937	77.25
458.157	75.25
458.377	74.25
458.598	86.25
458.818	84.25
459.038	80.25
459.258	82.25
459.478	90.25
459.698	82.25
459.918	72.25
460.138	71.25
460.358	66.25
460.578	71.25
460.798	74.25
461.018	92.25
461.238	87.25
461.458	73.25
461.678	79.25
461.898	86.25
462.118	76.25
462.338	78.25
462.558	75.25
462.777	74.25
462.997	83.25
463.217	85.25
463.437	79.25
463.657	95.25
463.876	82.25
464.096	80.25
464.316	71.25
464.536	74.25
464.755	90.25
464.975	67.25
465.195	82.25
465.414	77.25
465.634	89.25
465.854	75.25
466.073	76.25
466.293	77.25
466.512	76.25
466.732	66.25
466.951	70.25
467.171	72.25
467.391	77.25
467.61	72.25
467.829	81.25
468.049	89.25
468.268	65.25
468.488	69.25
468.707	79.25
468.927	79.25
469.146	82.25
469.365	81.25
469.585	67.25
469.804	83.25
470.023	63.25
470.243	74.25
470.462	75.25
470.681	75.25
470.901	87.25
471.12	65.25
471.339	81.25
471.558	76.25
471.777	77.25
471.997	65.25
472.216	73.25
472.435	58.25
472.654	74.25
472.873	86.25
473.092	71.25
473.311	84.25
473.53	82.25
473.749	73.25
473.968	81.25
474.187	76.25
474.406	88.25
474.625	87.25
474.844	79.25
475.063	83.25
475.282	78.25
475.501	91.25
475.72	82.25
475.939	79.25
476.158	72.25
476.377	79.25
476.596	87.25
476.814	77.25
477.033	82.25
477.252	81.25
477.471	69.25
477.69	73.25
477.908	90.25
478.127	87.25
478.346	76.25
478.564	86.25
478.783	84.25
479.002	76.25
479.22	85.25
479.439	86.25
479.658	71.25
479.876	71.25
480.095	94.25
480.313	101.25
480.532	89.25
480.751	78.25
480.969	64.25
481.188	89.25
481.406	78.25
481.624	69.25
481.843	77.25
482.061	73.25
482.28	73.25
482.498	76.25
482.717	77.25
482.935	64.25
483.153	67.25
483.372	83.25
483.59	68.25
483.808	73.25
484.027	88.25
484.245	81.25
484.463	71.25
484.681	78.25
484.9	82.25
485.118	78.25
485.336	79.25
485.554	77.25
485.772	80.25
485.99	101.25
486.209	72.25
486.427	77.25
486.645	83.25
486.863	79.25
487.081	84.25
487.299	91.25
487.517	81.25
487.735	87.25
487.953	83.25
488.171	85.25
488.389	78.25
488.607	77.25
488.825	73.25
489.043	85.25
489.261	86.25
489.479	61.25
489.696	85.25
489.914	87.25
490.132	75.25
490.35	78.25
490.568	67.25
490.786	70.25
491.003	63.25
491.221	88.25
491.439	79.25
491.657	82.25
491.874	80.25
492.092	75.25
492.31	70.25
492.527	76.25
492.745	89.25
492.963	76.25
493.18	85.25
493.398	77.25
493.615	73.25
493.833	86.25
494.05	73.25
494.268	103.25
494.485	70.25
494.703	89.25
494.92	75.25
495.138	92.25
495.355	87.25
495.573	79.25
495.79	72.25
496.008	75.25
496.225	98.25
496.442	79.25
496.66	93.25
496.877	62.25
497.094	75.25
497.312	80.25
497.529	77.25
497.746	87.25
497.963	86.25
498.181	77.25
498.398	95.25
498.615	82.25
498.832	74.25
499.049	81.25
499.267	73.25
499.484	87.25
499.701	88.25
499.918	85.25
500.135	76.25
500.352	72.25
500.569	63.25
500.786	77.25
501.003	85.25
501.22	80.25
501.437	75.25
501.654	93.25
501.871	83.25
502.088	74.25
502.305	88.25
502.522	86.25
502.739	81.25
502.956	67.25
503.172	83.25
503.389	89.25
503.606	78.25
503.823	72.25
504.04	95.25
504.256	91.25
504.473	62.25
504.69	89.25
504.907	69.25
505.123	97.25
505.34	88.25
505.557	79.25
505.773	80.25
505.99	91.25
506.207	74.25
506.423	76.25
506.64	93.25
506.856	83.25
507.073	90.25
507.289	78.25
507.506	97.25
507.722	85.25
507.939	78.25
508.155	80.25
508.372	78.25
508.588	75.25
508.805	94.25
509.021	74.25
509.238	86.25
509.454	81.25
509.67	80.25
509.887	79.25
510.103	85.25
510.319	87.25
510.536	78.25
510.752	82.25
510.968	70.25
511.184	79.25
511.401	78.25
511.617	71.25
511.833	77.25
512.049	68.25
512.265	67.25
512.481	84.25
512.698	92.25
512.914	88.25
513.13	86.25
513.346	81.25
513.562	82.25
513.778	83.25
513.994	82.25
514.21	64.25
514.426	78.25
514.642	81.25
514.858	73.25
515.074	75.25
515.29	85.25
515.506	75.25
515.721	75.25
515.937	64.25
516.153	79.25
516.369	85.25
516.585	74.25
516.801	84.25
517.016	75.25
517.232	80.25
517.448	83.25
517.664	85.25
517.879	94.25
518.095	87.25
518.311	82.25
518.527	88.25
518.742	89.25
518.958	77.25
519.173	80.25
519.389	103.25
519.605	85.25
519.82	74.25
520.036	80.25
