Data from Background_1_HRD10591_00087.txt Node
Date: Wed Nov 05 14:39:41 EST 2025
User: Yrep
Spectrometer: HR+D1059
Trigger mode: 1
Integration Time (sec): 1.000000E-1
Scans to average: 1
Electric dark correction enabled: true
Nonlinearity correction enabled: false
Boxcar width: 0
XAxis mode: Wavelengths
Number of Pixels in Spectrum: 2048
>>>>>Begin Spectral Data<<<<<
223.165	-18.38
223.4	-18.38
223.635	-18.38
223.869	-22.38
224.104	-26.38
224.338	-13.38
224.573	-9.38
224.808	-14.38
225.042	-3.38
225.277	-3.38
225.511	5.62
225.746	-9.38
225.98	6.62
226.215	19.62
226.449	6.62
226.683	21.62
226.918	38.62
227.152	21.62
227.387	48.62
227.621	29.62
227.856	47.62
228.09	38.62
228.324	51.62
228.559	61.62
228.793	62.62
229.027	66.62
229.262	66.62
229.496	71.62
229.73	86.62
229.964	58.62
230.199	78.62
230.433	84.62
230.667	74.62
230.901	72.62
231.136	73.62
231.37	75.62
231.604	83.62
231.838	66.62
232.072	62.62
232.306	68.62
232.541	88.62
232.775	75.62
233.009	72.62
233.243	84.62
233.477	83.62
233.711	80.62
233.945	69.62
234.179	70.62
234.413	71.62
234.647	72.62
234.881	81.62
235.115	76.62
235.349	92.62
235.583	77.62
235.817	80.62
236.051	74.62
236.285	78.62
236.519	67.62
236.753	72.62
236.987	76.62
237.221	84.62
237.455	78.62
237.689	73.62
237.922	74.62
238.156	85.62
238.39	78.62
238.624	65.62
238.858	76.62
239.091	76.62
239.325	82.62
239.559	82.62
239.793	70.62
240.027	80.62
240.26	66.62
240.494	72.62
240.728	89.62
240.961	80.62
241.195	69.62
241.429	88.62
241.662	67.62
241.896	72.62
242.13	92.62
242.363	79.62
242.597	66.62
242.83	79.62
243.064	72.62
243.298	77.62
243.531	81.62
243.765	76.62
243.998	77.62
244.232	85.62
244.465	93.62
244.699	65.62
244.932	62.62
245.166	78.62
245.399	71.62
245.633	78.62
245.866	72.62
246.099	72.62
246.333	55.62
246.566	72.62
246.8	60.62
247.033	81.62
247.266	85.62
247.5	60.62
247.733	75.62
247.966	86.62
248.2	64.62
248.433	78.62
248.666	66.62
248.899	76.62
249.133	80.62
249.366	84.62
249.599	78.62
249.832	75.62
250.066	80.62
250.299	75.62
250.532	85.62
250.765	75.62
250.998	67.62
251.231	85.62
251.465	68.62
251.698	76.62
251.931	70.62
252.164	84.62
252.397	78.62
252.63	85.62
252.863	71.62
253.096	89.62
253.329	70.62
253.562	71.62
253.795	74.62
254.028	81.62
254.261	82.62
254.494	69.62
254.727	76.62
254.96	74.62
255.193	67.62
255.426	69.62
255.659	76.62
255.892	66.62
256.124	76.62
256.357	67.62
256.59	94.62
256.823	70.62
257.056	75.62
257.289	78.62
257.521	87.62
257.754	77.62
257.987	68.62
258.22	84.62
258.452	82.62
258.685	79.62
258.918	66.62
259.151	74.62
259.383	76.62
259.616	76.62
259.849	80.62
260.081	70.62
260.314	86.62
260.547	71.62
260.779	82.62
261.012	86.62
261.244	77.62
261.477	74.62
261.71	94.62
261.942	83.62
262.175	76.62
262.407	81.62
262.64	69.62
262.872	69.62
263.105	77.62
263.337	75.62
263.57	84.62
263.802	66.62
264.035	72.62
264.267	83.62
264.499	78.62
264.732	80.62
264.964	64.62
265.197	70.62
265.429	64.62
265.661	74.62
265.894	81.62
266.126	72.62
266.358	82.62
266.591	71.62
266.823	82.62
267.055	77.62
267.287	71.62
267.52	79.62
267.752	77.62
267.984	77.62
268.216	70.62
268.448	74.62
268.681	80.62
268.913	85.62
269.145	82.62
269.377	88.62
269.609	79.62
269.841	68.62
270.073	83.62
270.306	81.62
270.538	69.62
270.77	75.62
271.002	85.62
271.234	82.62
271.466	78.62
271.698	70.62
271.93	73.62
272.162	81.62
272.394	81.62
272.626	77.62
272.858	82.62
273.09	92.62
273.322	84.62
273.553	90.62
273.785	86.62
274.017	78.62
274.249	77.62
274.481	87.62
274.713	84.62
274.945	82.62
275.176	77.62
275.408	77.62
275.64	81.62
275.872	77.62
276.104	84.62
276.335	77.62
276.567	76.62
276.799	79.62
277.031	70.62
277.262	82.62
277.494	89.62
277.726	97.62
277.957	84.62
278.189	65.62
278.421	82.62
278.652	86.62
278.884	90.62
279.115	82.62
279.347	79.62
279.579	72.62
279.81	68.62
280.042	80.62
280.273	86.62
280.505	88.62
280.736	95.62
280.968	82.62
281.199	86.62
281.431	80.62
281.662	82.62
281.894	80.62
282.125	80.62
282.356	77.62
282.588	74.62
282.819	88.62
283.051	86.62
283.282	66.62
283.513	72.62
283.745	74.62
283.976	95.62
284.207	80.62
284.439	80.62
284.67	86.62
284.901	78.62
285.132	85.62
285.364	76.62
285.595	79.62
285.826	88.62
286.057	87.62
286.288	82.62
286.52	90.62
286.751	71.62
286.982	78.62
287.213	70.62
287.444	77.62
287.675	71.62
287.906	88.62
288.138	87.62
288.369	76.62
288.6	82.62
288.831	74.62
289.062	75.62
289.293	77.62
289.524	82.62
289.755	85.62
289.986	76.62
290.217	80.62
290.448	79.62
290.679	77.62
290.91	89.62
291.141	82.62
291.371	78.62
291.602	95.62
291.833	72.62
292.064	73.62
292.295	97.62
292.526	87.62
292.757	93.62
292.987	79.62
293.218	84.62
293.449	79.62
293.68	75.62
293.91	97.62
294.141	83.62
294.372	76.62
294.603	82.62
294.833	88.62
295.064	89.62
295.295	84.62
295.525	80.62
295.756	84.62
295.987	78.62
296.217	64.62
296.448	79.62
296.679	77.62
296.909	80.62
297.14	77.62
297.37	93.62
297.601	61.62
297.831	81.62
298.062	97.62
298.292	81.62
298.523	78.62
298.753	87.62
298.984	90.62
299.214	78.62
299.445	80.62
299.675	75.62
299.905	84.62
300.136	73.62
300.366	63.62
300.597	80.62
300.827	84.62
301.057	70.62
301.288	86.62
301.518	84.62
301.748	87.62
301.979	100.62
302.209	83.62
302.439	80.62
302.669	73.62
302.9	69.62
303.13	78.62
303.36	94.62
303.59	64.62
303.82	68.62
304.051	86.62
304.281	84.62
304.511	86.62
304.741	73.62
304.971	73.62
305.201	86.62
305.431	97.62
305.661	72.62
305.891	67.62
306.121	91.62
306.352	86.62
306.582	84.62
306.812	80.62
307.042	68.62
307.272	84.62
307.502	75.62
307.731	68.62
307.961	83.62
308.191	83.62
308.421	79.62
308.651	83.62
308.881	76.62
309.111	81.62
309.341	80.62
309.571	108.62
309.8	93.62
310.03	92.62
310.26	81.62
310.49	81.62
310.72	84.62
310.949	79.62
311.179	72.62
311.409	74.62
311.639	82.62
311.868	80.62
312.098	87.62
312.328	76.62
312.557	92.62
312.787	86.62
313.017	87.62
313.246	78.62
313.476	88.62
313.706	77.62
313.935	86.62
314.165	84.62
314.394	82.62
314.624	82.62
314.853	69.62
315.083	89.62
315.312	68.62
315.542	86.62
315.771	79.62
316.001	63.62
316.23	76.62
316.46	75.62
316.689	84.62
316.919	84.62
317.148	99.62
317.377	96.62
317.607	79.62
317.836	86.62
318.065	77.62
318.295	81.62
318.524	84.62
318.753	76.62
318.983	80.62
319.212	92.62
319.441	72.62
319.67	79.62
319.9	85.62
320.129	86.62
320.358	80.62
320.587	80.62
320.816	83.62
321.046	82.62
321.275	95.62
321.504	72.62
321.733	75.62
321.962	77.62
322.191	92.62
322.42	78.62
322.649	97.62
322.878	88.62
323.108	82.62
323.337	72.62
323.566	82.62
323.795	87.62
324.024	91.62
324.253	96.62
324.482	71.62
324.71	95.62
324.939	92.62
325.168	69.62
325.397	87.62
325.626	85.62
325.855	85.62
326.084	82.62
326.313	80.62
326.542	76.62
326.77	93.62
326.999	81.62
327.228	89.62
327.457	77.62
327.686	64.62
327.914	77.62
328.143	76.62
328.372	90.62
328.6	81.62
328.829	93.62
329.058	80.62
329.287	89.62
329.515	86.62
329.744	67.62
329.972	73.62
330.201	81.62
330.43	79.62
330.658	88.62
330.887	72.62
331.115	77.62
331.344	80.62
331.572	84.62
331.801	79.62
332.03	86.62
332.258	83.62
332.486	85.62
332.715	88.62
332.943	70.62
333.172	74.62
333.4	81.62
333.629	78.62
333.857	81.62
334.085	72.62
334.314	79.62
334.542	86.62
334.771	81.62
334.999	77.62
335.227	78.62
335.455	87.62
335.684	80.62
335.912	76.62
336.14	84.62
336.369	82.62
336.597	79.62
336.825	91.62
337.053	80.62
337.281	92.62
337.51	87.62
337.738	87.62
337.966	84.62
338.194	76.62
338.422	69.62
338.65	92.62
338.878	91.62
339.106	85.62
339.334	82.62
339.562	66.62
339.79	72.62
340.018	72.62
340.246	63.62
340.474	83.62
340.702	71.62
340.93	90.62
341.158	86.62
341.386	83.62
341.614	75.62
341.842	89.62
342.07	72.62
342.298	77.62
342.526	74.62
342.754	89.62
342.981	79.62
343.209	92.62
343.437	90.62
343.665	81.62
343.893	67.62
344.12	88.62
344.348	77.62
344.576	81.62
344.804	79.62
345.031	87.62
345.259	74.62
345.487	94.62
345.714	92.62
345.942	88.62
346.17	73.62
346.397	84.62
346.625	80.62
346.853	84.62
347.08	72.62
347.308	84.62
347.535	78.62
347.763	73.62
347.99	72.62
348.218	87.62
348.445	89.62
348.673	86.62
348.9	89.62
349.128	75.62
349.355	88.62
349.583	80.62
349.81	86.62
350.037	86.62
350.265	86.62
350.492	82.62
350.72	78.62
350.947	78.62
351.174	83.62
351.402	82.62
351.629	89.62
351.856	80.62
352.083	83.62
352.311	78.62
352.538	81.62
352.765	75.62
352.992	79.62
353.22	83.62
353.447	93.62
353.674	88.62
353.901	80.62
354.128	67.62
354.355	85.62
354.583	68.62
354.81	88.62
355.037	88.62
355.264	80.62
355.491	91.62
355.718	85.62
355.945	73.62
356.172	87.62
356.399	75.62
356.626	73.62
356.853	84.62
357.08	84.62
357.307	88.62
357.534	89.62
357.761	73.62
357.988	74.62
358.215	80.62
358.441	78.62
358.668	76.62
358.895	93.62
359.122	79.62
359.349	71.62
359.576	90.62
359.802	70.62
360.029	77.62
360.256	74.62
360.483	67.62
360.709	72.62
360.936	93.62
361.163	84.62
361.39	90.62
361.616	95.62
361.843	82.62
362.07	77.62
362.296	72.62
362.523	84.62
362.749	72.62
362.976	81.62
363.203	91.62
363.429	78.62
363.656	82.62
363.882	77.62
364.109	74.62
364.335	84.62
364.562	83.62
364.788	72.62
365.015	71.62
365.241	82.62
365.468	82.62
365.694	73.62
365.92	85.62
366.147	84.62
366.373	90.62
366.599	86.62
366.826	79.62
367.052	90.62
367.278	90.62
367.505	83.62
367.731	88.62
367.957	66.62
368.184	89.62
368.41	75.62
368.636	80.62
368.862	86.62
369.089	87.62
369.315	80.62
369.541	78.62
369.767	79.62
369.993	80.62
370.219	83.62
370.445	81.62
370.672	76.62
370.898	87.62
371.124	70.62
371.35	80.62
371.576	70.62
371.802	80.62
372.028	84.62
372.254	88.62
372.48	96.62
372.706	84.62
372.932	80.62
373.158	79.62
373.384	80.62
373.61	76.62
373.835	91.62
374.061	84.62
374.287	89.62
374.513	79.62
374.739	85.62
374.965	80.62
375.191	74.62
375.416	67.62
375.642	66.62
375.868	83.62
376.094	71.62
376.319	74.62
376.545	81.62
376.771	86.62
376.997	70.62
377.222	74.62
377.448	79.62
377.674	74.62
377.899	72.62
378.125	77.62
378.35	74.62
378.576	86.62
378.802	92.62
379.027	82.62
379.253	71.62
379.478	85.62
379.704	77.62
379.929	81.62
380.155	88.62
380.38	86.62
380.606	80.62
380.831	75.62
381.057	81.62
381.282	72.62
381.507	85.62
381.733	86.62
381.958	86.62
382.184	82.62
382.409	89.62
382.634	84.62
382.86	91.62
383.085	96.62
383.31	82.62
383.535	82.62
383.761	85.62
383.986	66.62
384.211	89.62
384.436	69.62
384.662	86.62
384.887	76.62
385.112	84.62
385.337	73.62
385.562	89.62
385.787	85.62
386.013	73.62
386.238	78.62
386.463	74.62
386.688	90.62
386.913	85.62
387.138	81.62
387.363	81.62
387.588	67.62
387.813	70.62
388.038	84.62
388.263	82.62
388.488	87.62
388.713	93.62
388.938	80.62
389.163	74.62
389.387	65.62
389.612	84.62
389.837	74.62
390.062	88.62
390.287	70.62
390.512	69.62
390.736	67.62
390.961	82.62
391.186	61.62
391.411	81.62
391.636	72.62
391.86	72.62
392.085	89.62
392.31	80.62
392.534	88.62
392.759	79.62
392.984	84.62
393.208	84.62
393.433	72.62
393.658	74.62
393.882	89.62
394.107	80.62
394.331	88.62
394.556	71.62
394.78	92.62
395.005	85.62
395.229	76.62
395.454	79.62
395.678	83.62
395.903	76.62
396.127	102.62
396.352	75.62
396.576	71.62
396.801	84.62
397.025	70.62
397.249	87.62
397.474	77.62
397.698	76.62
397.922	69.62
398.147	70.62
398.371	78.62
398.595	85.62
398.82	73.62
399.044	77.62
399.268	70.62
399.492	74.62
399.717	77.62
399.941	60.62
400.165	62.62
400.389	80.62
400.613	77.62
400.837	92.62
401.062	77.62
401.286	74.62
401.51	89.62
401.734	80.62
401.958	81.62
402.182	86.62
402.406	88.62
402.63	73.62
402.854	78.62
403.078	84.62
403.302	77.62
403.526	86.62
403.75	82.62
403.974	86.62
404.198	72.62
404.422	80.62
404.645	76.62
404.869	80.62
405.093	82.62
405.317	77.62
405.541	73.62
405.765	77.62
405.988	65.62
406.212	67.62
406.436	82.62
406.66	77.62
406.883	76.62
407.107	89.62
407.331	92.62
407.555	64.62
407.778	73.62
408.002	91.62
408.226	85.62
408.449	67.62
408.673	65.62
408.896	87.62
409.12	70.62
409.344	86.62
409.567	78.62
409.791	66.62
410.014	70.62
410.238	88.62
410.461	86.62
410.685	72.62
410.908	85.62
411.132	79.62
411.355	90.62
411.578	87.62
411.802	96.62
412.025	74.62
412.249	82.62
412.472	78.62
412.695	97.62
412.919	81.62
413.142	68.62
413.365	69.62
413.589	86.62
413.812	75.62
414.035	86.62
414.258	86.62
414.482	79.62
414.705	76.62
414.928	76.62
415.151	76.62
415.374	71.62
415.597	89.62
415.821	81.62
416.044	86.62
416.267	76.62
416.49	76.62
416.713	82.62
416.936	97.62
417.159	87.62
417.382	90.62
417.605	78.62
417.828	72.62
418.051	96.62
418.274	82.62
418.497	92.62
418.72	75.62
418.943	70.62
419.166	68.62
419.389	76.62
419.611	89.62
419.834	80.62
420.057	82.62
420.28	64.62
420.503	82.62
420.726	73.62
420.948	90.62
421.171	73.62
421.394	63.62
421.617	85.62
421.839	66.62
422.062	89.62
422.285	91.62
422.507	74.62
422.73	80.62
422.953	78.62
423.175	79.62
423.398	82.62
423.621	78.62
423.843	65.62
424.066	84.62
424.288	80.62
424.511	83.62
424.733	79.62
424.956	83.62
425.178	81.62
425.401	82.62
425.623	82.62
425.846	69.62
426.068	72.62
426.291	90.62
426.513	79.62
426.735	76.62
426.958	77.62
427.18	71.62
427.402	86.62
427.625	72.62
427.847	76.62
428.069	73.62
428.292	70.62
428.514	81.62
428.736	98.62
428.958	78.62
429.181	91.62
429.403	74.62
429.625	75.62
429.847	84.62
430.069	74.62
430.292	76.62
430.514	76.62
430.736	66.62
430.958	74.62
431.18	75.62
431.402	72.62
431.624	84.62
431.846	86.62
432.068	91.62
432.29	76.62
432.512	88.62
432.734	65.62
432.956	84.62
433.178	76.62
433.4	90.62
433.622	78.62
433.844	78.62
434.066	71.62
434.287	89.62
434.509	86.62
434.731	81.62
434.953	70.62
435.175	82.62
435.397	88.62
435.618	71.62
435.84	75.62
436.062	65.62
436.284	90.62
436.505	90.62
436.727	72.62
436.949	79.62
437.17	90.62
437.392	66.62
437.614	74.62
437.835	78.62
438.057	67.62
438.278	71.62
438.5	84.62
438.721	84.62
438.943	83.62
439.165	68.62
439.386	76.62
439.608	78.62
439.829	87.62
440.05	81.62
440.272	68.62
440.493	72.62
440.715	92.62
440.936	63.62
441.158	76.62
441.379	80.62
441.6	82.62
441.822	85.62
442.043	78.62
442.264	70.62
442.486	76.62
442.707	82.62
442.928	76.62
443.149	82.62
443.371	73.62
443.592	83.62
443.813	87.62
444.034	77.62
444.255	76.62
444.476	98.62
444.698	77.62
444.919	78.62
445.14	152.62
445.361	111.62
445.582	91.62
445.803	74.62
446.024	89.62
446.245	95.62
446.466	90.62
446.687	75.62
446.908	90.62
447.129	78.62
447.35	65.62
447.571	79.62
447.792	88.62
448.013	74.62
448.234	85.62
448.455	92.62
448.675	74.62
448.896	77.62
449.117	73.62
449.338	73.62
449.559	89.62
449.779	89.62
450	73.62
450.221	73.62
450.442	64.62
450.662	81.62
450.883	76.62
451.104	81.62
451.324	94.62
451.545	73.62
451.766	82.62
451.986	78.62
452.207	78.62
452.428	94.62
452.648	79.62
452.869	81.62
453.089	86.62
453.31	90.62
453.53	79.62
453.751	70.62
453.971	75.62
454.192	81.62
454.412	76.62
454.633	74.62
454.853	87.62
455.073	76.62
455.294	78.62
455.514	81.62
455.734	70.62
455.955	77.62
456.175	73.62
456.395	68.62
456.616	81.62
456.836	71.62
457.056	81.62
457.276	73.62
457.497	91.62
457.717	84.62
457.937	81.62
458.157	74.62
458.377	61.62
458.598	78.62
458.818	78.62
459.038	78.62
459.258	78.62
459.478	86.62
459.698	68.62
459.918	73.62
460.138	81.62
460.358	71.62
460.578	81.62
460.798	91.62
461.018	64.62
461.238	79.62
461.458	86.62
461.678	72.62
461.898	73.62
462.118	94.62
462.338	64.62
462.558	81.62
462.777	63.62
462.997	70.62
463.217	76.62
463.437	81.62
463.657	72.62
463.876	67.62
464.096	75.62
464.316	76.62
464.536	76.62
464.755	89.62
464.975	81.62
465.195	74.62
465.414	81.62
465.634	96.62
465.854	71.62
466.073	77.62
466.293	69.62
466.512	73.62
466.732	79.62
466.951	81.62
467.171	87.62
467.391	80.62
467.61	76.62
467.829	76.62
468.049	65.62
468.268	69.62
468.488	80.62
468.707	82.62
468.927	75.62
469.146	83.62
469.365	73.62
469.585	67.62
469.804	74.62
470.023	75.62
470.243	77.62
470.462	84.62
470.681	83.62
470.901	81.62
471.12	84.62
471.339	73.62
471.558	90.62
471.777	80.62
471.997	80.62
472.216	70.62
472.435	86.62
472.654	80.62
472.873	85.62
473.092	80.62
473.311	81.62
473.53	81.62
473.749	82.62
473.968	78.62
474.187	90.62
474.406	84.62
474.625	76.62
474.844	73.62
475.063	78.62
475.282	86.62
475.501	81.62
475.72	87.62
475.939	71.62
476.158	76.62
476.377	76.62
476.596	72.62
476.814	80.62
477.033	76.62
477.252	82.62
477.471	86.62
477.69	90.62
477.908	106.62
478.127	88.62
478.346	73.62
478.564	73.62
478.783	77.62
479.002	85.62
479.22	78.62
479.439	64.62
479.658	68.62
479.876	74.62
480.095	80.62
480.313	73.62
480.532	84.62
480.751	74.62
480.969	68.62
481.188	81.62
481.406	81.62
481.624	84.62
481.843	72.62
482.061	74.62
482.28	84.62
482.498	93.62
482.717	84.62
482.935	74.62
483.153	81.62
483.372	78.62
483.59	68.62
483.808	89.62
484.027	82.62
484.245	81.62
484.463	88.62
484.681	75.62
484.9	87.62
485.118	65.62
485.336	78.62
485.554	79.62
485.772	84.62
485.99	88.62
486.209	70.62
486.427	91.62
486.645	84.62
486.863	78.62
487.081	88.62
487.299	81.62
487.517	81.62
487.735	72.62
487.953	78.62
488.171	97.62
488.389	92.62
488.607	81.62
488.825	74.62
489.043	84.62
489.261	81.62
489.479	82.62
489.696	92.62
489.914	80.62
490.132	83.62
490.35	83.62
490.568	79.62
490.786	73.62
491.003	76.62
491.221	81.62
491.439	95.62
491.657	77.62
491.874	80.62
492.092	60.62
492.31	81.62
492.527	81.62
492.745	77.62
492.963	69.62
493.18	82.62
493.398	84.62
493.615	100.62
493.833	83.62
494.05	76.62
494.268	88.62
494.485	86.62
494.703	89.62
494.92	92.62
495.138	84.62
495.355	82.62
495.573	78.62
495.79	68.62
496.008	72.62
496.225	82.62
496.442	78.62
496.66	81.62
496.877	71.62
497.094	88.62
497.312	74.62
497.529	80.62
497.746	84.62
497.963	71.62
498.181	81.62
498.398	79.62
498.615	72.62
498.832	83.62
499.049	89.62
499.267	97.62
499.484	82.62
499.701	85.62
499.918	67.62
500.135	74.62
500.352	84.62
500.569	83.62
500.786	86.62
501.003	76.62
501.22	81.62
501.437	87.62
501.654	76.62
501.871	66.62
502.088	78.62
502.305	75.62
502.522	87.62
502.739	68.62
502.956	92.62
503.172	72.62
503.389	74.62
503.606	80.62
503.823	87.62
504.04	79.62
504.256	72.62
504.473	86.62
504.69	72.62
504.907	83.62
505.123	88.62
505.34	81.62
505.557	70.62
505.773	70.62
505.99	73.62
506.207	73.62
506.423	72.62
506.64	89.62
506.856	88.62
507.073	78.62
507.289	87.62
507.506	98.62
507.722	85.62
507.939	83.62
508.155	64.62
508.372	81.62
508.588	75.62
508.805	81.62
509.021	74.62
509.238	84.62
509.454	72.62
509.67	72.62
509.887	81.62
510.103	67.62
510.319	78.62
510.536	80.62
510.752	74.62
510.968	78.62
511.184	88.62
511.401	78.62
511.617	76.62
511.833	77.62
512.049	80.62
512.265	85.62
512.481	87.62
512.698	82.62
512.914	82.62
513.13	72.62
513.346	75.62
513.562	81.62
513.778	80.62
513.994	87.62
514.21	84.62
514.426	89.62
514.642	81.62
514.858	78.62
515.074	73.62
515.29	73.62
515.506	79.62
515.721	94.62
515.937	93.62
516.153	91.62
516.369	80.62
516.585	85.62
516.801	76.62
517.016	84.62
517.232	78.62
517.448	83.62
517.664	76.62
517.879	84.62
518.095	74.62
518.311	86.62
518.527	95.62
518.742	81.62
518.958	80.62
519.173	92.62
519.389	89.62
519.605	73.62
519.82	87.62
520.036	83.62
520.251	77.62
