Data from Circ_2003_H10_HRD10591_00088.txt Node
Date: Wed Jan 03 10:37:20 EST 2024
User: Yrep
Spectrometer: HR+D1059
Trigger mode: 1
Integration Time (sec): 1.000000E-1
Scans to average: 1
Electric dark correction enabled: true
Nonlinearity correction enabled: false
Boxcar width: 0
XAxis mode: Wavelengths
Number of Pixels in Spectrum: 2048
>>>>>Begin Spectral Data<<<<<
223.165	-21.5
223.4	-21.5
223.635	-21.5
223.869	-20.5
224.104	-17.5
224.338	-33.5
224.573	-30.5
224.808	-15.5
225.042	-2.5
225.277	1.5
225.511	5.5
225.746	5.5
225.98	13.5
226.215	6.5
226.449	24.5
226.683	21.5
226.918	21.5
227.152	41.5
227.387	18.5
227.621	36.5
227.856	29.5
228.09	36.5
228.324	56.5
228.559	58.5
228.793	57.5
229.027	67.5
229.262	54.5
229.496	59.5
229.73	73.5
229.964	81.5
230.199	66.5
230.433	83.5
230.667	85.5
230.901	79.5
231.136	74.5
231.37	81.5
231.604	85.5
231.838	94.5
232.072	97.5
232.306	78.5
232.541	63.5
232.775	79.5
233.009	85.5
233.243	85.5
233.477	74.5
233.711	67.5
233.945	92.5
234.179	79.5
234.413	65.5
234.647	75.5
234.881	81.5
235.115	80.5
235.349	67.5
235.583	78.5
235.817	76.5
236.051	80.5
236.285	77.5
236.519	89.5
236.753	74.5
236.987	80.5
237.221	82.5
237.455	78.5
237.689	89.5
237.922	71.5
238.156	83.5
238.39	79.5
238.624	73.5
238.858	62.5
239.091	79.5
239.325	87.5
239.559	89.5
239.793	77.5
240.027	80.5
240.26	74.5
240.494	70.5
240.728	81.5
240.961	80.5
241.195	69.5
241.429	85.5
241.662	74.5
241.896	74.5
242.13	67.5
242.363	84.5
242.597	70.5
242.83	84.5
243.064	79.5
243.298	77.5
243.531	80.5
243.765	84.5
243.998	78.5
244.232	81.5
244.465	74.5
244.699	95.5
244.932	82.5
245.166	77.5
245.399	73.5
245.633	82.5
245.866	57.5
246.099	88.5
246.333	79.5
246.566	82.5
246.8	76.5
247.033	76.5
247.266	74.5
247.5	85.5
247.733	77.5
247.966	97.5
248.2	87.5
248.433	74.5
248.666	56.5
248.899	77.5
249.133	89.5
249.366	90.5
249.599	90.5
249.832	90.5
250.066	80.5
250.299	89.5
250.532	66.5
250.765	72.5
250.998	79.5
251.231	82.5
251.465	81.5
251.698	73.5
251.931	76.5
252.164	77.5
252.397	78.5
252.63	83.5
252.863	74.5
253.096	62.5
253.329	78.5
253.562	88.5
253.795	96.5
254.028	69.5
254.261	73.5
254.494	72.5
254.727	75.5
254.96	78.5
255.193	78.5
255.426	81.5
255.659	75.5
255.892	68.5
256.124	75.5
256.357	75.5
256.59	75.5
256.823	93.5
257.056	79.5
257.289	85.5
257.521	85.5
257.754	78.5
257.987	72.5
258.22	95.5
258.452	83.5
258.685	90.5
258.918	79.5
259.151	67.5
259.383	82.5
259.616	88.5
259.849	83.5
260.081	85.5
260.314	81.5
260.547	94.5
260.779	75.5
261.012	100.5
261.244	90.5
261.477	87.5
261.71	103.5
261.942	115.5
262.175	102.5
262.407	81.5
262.64	83.5
262.872	80.5
263.105	85.5
263.337	82.5
263.57	80.5
263.802	79.5
264.035	86.5
264.267	84.5
264.499	82.5
264.732	78.5
264.964	91.5
265.197	81.5
265.429	73.5
265.661	74.5
265.894	81.5
266.126	82.5
266.358	86.5
266.591	70.5
266.823	82.5
267.055	71.5
267.287	71.5
267.52	83.5
267.752	77.5
267.984	80.5
268.216	73.5
268.448	79.5
268.681	91.5
268.913	106.5
269.145	80.5
269.377	82.5
269.609	82.5
269.841	83.5
270.073	84.5
270.306	89.5
270.538	83.5
270.77	86.5
271.002	80.5
271.234	85.5
271.466	87.5
271.698	87.5
271.93	92.5
272.162	79.5
272.394	72.5
272.626	86.5
272.858	75.5
273.09	87.5
273.322	90.5
273.553	76.5
273.785	73.5
274.017	77.5
274.249	81.5
274.481	80.5
274.713	86.5
274.945	89.5
275.176	88.5
275.408	96.5
275.64	90.5
275.872	79.5
276.104	90.5
276.335	83.5
276.567	90.5
276.799	104.5
277.031	103.5
277.262	82.5
277.494	95.5
277.726	93.5
277.957	87.5
278.189	90.5
278.421	91.5
278.652	77.5
278.884	77.5
279.115	80.5
279.347	90.5
279.579	96.5
279.81	88.5
280.042	73.5
280.273	97.5
280.505	96.5
280.736	84.5
280.968	86.5
281.199	98.5
281.431	94.5
281.662	88.5
281.894	84.5
282.125	110.5
282.356	120.5
282.588	139.5
282.819	120.5
283.051	98.5
283.282	88.5
283.513	87.5
283.745	80.5
283.976	91.5
284.207	81.5
284.439	83.5
284.67	90.5
284.901	71.5
285.132	89.5
285.364	83.5
285.595	83.5
285.826	89.5
286.057	96.5
286.288	89.5
286.52	85.5
286.751	92.5
286.982	67.5
287.213	73.5
287.444	89.5
287.675	90.5
287.906	87.5
288.138	73.5
288.369	83.5
288.6	85.5
288.831	96.5
289.062	90.5
289.293	88.5
289.524	84.5
289.755	91.5
289.986	93.5
290.217	85.5
290.448	91.5
290.679	85.5
290.91	85.5
291.141	82.5
291.371	94.5
291.602	85.5
291.833	76.5
292.064	94.5
292.295	87.5
292.526	99.5
292.757	86.5
292.987	86.5
293.218	86.5
293.449	85.5
293.68	96.5
293.91	82.5
294.141	89.5
294.372	80.5
294.603	80.5
294.833	89.5
295.064	94.5
295.295	95.5
295.525	83.5
295.756	101.5
295.987	112.5
296.217	136.5
296.448	114.5
296.679	91.5
296.909	87.5
297.14	97.5
297.37	79.5
297.601	88.5
297.831	94.5
298.062	90.5
298.292	87.5
298.523	84.5
298.753	90.5
298.984	84.5
299.214	81.5
299.445	102.5
299.675	85.5
299.905	88.5
300.136	90.5
300.366	96.5
300.597	94.5
300.827	83.5
301.057	80.5
301.288	101.5
301.518	88.5
301.748	79.5
301.979	95.5
302.209	89.5
302.439	82.5
302.669	83.5
302.9	87.5
303.13	94.5
303.36	92.5
303.59	85.5
303.82	101.5
304.051	94.5
304.281	83.5
304.511	87.5
304.741	93.5
304.971	74.5
305.201	83.5
305.431	73.5
305.661	94.5
305.891	85.5
306.121	99.5
306.352	97.5
306.582	99.5
306.812	103.5
307.042	99.5
307.272	87.5
307.502	90.5
307.731	100.5
307.961	88.5
308.191	100.5
308.421	95.5
308.651	74.5
308.881	82.5
309.111	85.5
309.341	91.5
309.571	106.5
309.8	91.5
310.03	96.5
310.26	95.5
310.49	86.5
310.72	101.5
310.949	85.5
311.179	91.5
311.409	97.5
311.639	87.5
311.868	99.5
312.098	92.5
312.328	88.5
312.557	99.5
312.787	92.5
313.017	90.5
313.246	83.5
313.476	87.5
313.706	83.5
313.935	92.5
314.165	102.5
314.394	91.5
314.624	103.5
314.853	98.5
315.083	92.5
315.312	89.5
315.542	95.5
315.771	92.5
316.001	87.5
316.23	89.5
316.46	78.5
316.689	93.5
316.919	78.5
317.148	83.5
317.377	89.5
317.607	96.5
317.836	84.5
318.065	95.5
318.295	93.5
318.524	74.5
318.753	98.5
318.983	88.5
319.212	105.5
319.441	100.5
319.67	116.5
319.9	102.5
320.129	100.5
320.358	97.5
320.587	97.5
320.816	84.5
321.046	93.5
321.275	85.5
321.504	89.5
321.733	85.5
321.962	99.5
322.191	96.5
322.42	99.5
322.649	119.5
322.878	99.5
323.108	108.5
323.337	111.5
323.566	136.5
323.795	150.5
324.024	201.5
324.253	390.5
324.482	780.5
324.71	1628.5
324.939	2111.5
325.168	779.5
325.397	218.5
325.626	133.5
325.855	127.5
326.084	111.5
326.313	131.5
326.542	149.5
326.77	221.5
326.999	465.5
327.228	915.5
327.457	1640.5
327.686	1322.5
327.914	360.5
328.143	202.5
328.372	169.5
328.6	121.5
328.829	131.5
329.058	108.5
329.287	114.5
329.515	97.5
329.744	89.5
329.972	128.5
330.201	171.5
330.43	191.5
330.658	143.5
330.887	144.5
331.115	108.5
331.344	89.5
331.572	103.5
331.801	107.5
332.03	94.5
332.258	101.5
332.486	88.5
332.715	94.5
332.943	93.5
333.172	94.5
333.4	104.5
333.629	97.5
333.857	110.5
334.085	122.5
334.314	154.5
334.542	215.5
334.771	174.5
334.999	116.5
335.227	90.5
335.455	91.5
335.684	99.5
335.912	103.5
336.14	116.5
336.369	91.5
336.597	100.5
336.825	98.5
337.053	88.5
337.281	92.5
337.51	96.5
337.738	99.5
337.966	98.5
338.194	92.5
338.422	86.5
338.65	71.5
338.878	87.5
339.106	93.5
339.334	89.5
339.562	85.5
339.79	94.5
340.018	102.5
340.246	102.5
340.474	89.5
340.702	84.5
340.93	82.5
341.158	93.5
341.386	115.5
341.614	102.5
341.842	77.5
342.07	94.5
342.298	91.5
342.526	98.5
342.754	68.5
342.981	82.5
343.209	91.5
343.437	107.5
343.665	98.5
343.893	85.5
344.12	87.5
344.348	88.5
344.576	79.5
344.804	73.5
345.031	102.5
345.259	99.5
345.487	87.5
345.714	85.5
345.942	101.5
346.17	94.5
346.397	85.5
346.625	92.5
346.853	79.5
347.08	80.5
347.308	89.5
347.535	90.5
347.763	105.5
347.99	102.5
348.218	98.5
348.445	108.5
348.673	101.5
348.9	89.5
349.128	94.5
349.355	101.5
349.583	91.5
349.81	78.5
350.037	77.5
350.265	86.5
350.492	91.5
350.72	94.5
350.947	98.5
351.174	105.5
351.402	97.5
351.629	91.5
351.856	99.5
352.083	95.5
352.311	103.5
352.538	92.5
352.765	105.5
352.992	110.5
353.22	114.5
353.447	96.5
353.674	110.5
353.901	97.5
354.128	88.5
354.355	91.5
354.583	98.5
354.81	98.5
355.037	88.5
355.264	84.5
355.491	101.5
355.718	98.5
355.945	90.5
356.172	84.5
356.399	91.5
356.626	93.5
356.853	88.5
357.08	91.5
357.307	85.5
357.534	91.5
357.761	96.5
357.988	102.5
358.215	106.5
358.441	76.5
358.668	101.5
358.895	87.5
359.122	92.5
359.349	89.5
359.576	82.5
359.802	82.5
360.029	102.5
360.256	111.5
360.483	90.5
360.709	83.5
360.936	81.5
361.163	87.5
361.39	92.5
361.616	97.5
361.843	91.5
362.07	92.5
362.296	78.5
362.523	104.5
362.749	93.5
362.976	73.5
363.203	90.5
363.429	102.5
363.656	103.5
363.882	90.5
364.109	75.5
364.335	83.5
364.562	98.5
364.788	90.5
365.015	94.5
365.241	79.5
365.468	109.5
365.694	96.5
365.92	101.5
366.147	97.5
366.373	74.5
366.599	96.5
366.826	90.5
367.052	92.5
367.278	88.5
367.505	104.5
367.731	92.5
367.957	98.5
368.184	91.5
368.41	91.5
368.636	105.5
368.862	106.5
369.089	109.5
369.315	91.5
369.541	90.5
369.767	80.5
369.993	77.5
370.219	95.5
370.445	84.5
370.672	88.5
370.898	73.5
371.124	88.5
371.35	93.5
371.576	96.5
371.802	79.5
372.028	88.5
372.254	79.5
372.48	101.5
372.706	87.5
372.932	95.5
373.158	68.5
373.384	108.5
373.61	83.5
373.835	90.5
374.061	88.5
374.287	86.5
374.513	89.5
374.739	97.5
374.965	92.5
375.191	86.5
375.416	93.5
375.642	90.5
375.868	85.5
376.094	82.5
376.319	71.5
376.545	81.5
376.771	78.5
376.997	79.5
377.222	93.5
377.448	99.5
377.674	89.5
377.899	99.5
378.125	84.5
378.35	87.5
378.576	73.5
378.802	100.5
379.027	91.5
379.253	101.5
379.478	100.5
379.704	98.5
379.929	96.5
380.155	88.5
380.38	100.5
380.606	99.5
380.831	95.5
381.057	116.5
381.282	90.5
381.507	88.5
381.733	91.5
381.958	99.5
382.184	90.5
382.409	85.5
382.634	115.5
382.86	104.5
383.085	99.5
383.31	97.5
383.535	102.5
383.761	111.5
383.986	97.5
384.211	98.5
384.436	88.5
384.662	100.5
384.887	101.5
385.112	107.5
385.337	104.5
385.562	102.5
385.787	105.5
386.013	113.5
386.238	112.5
386.463	95.5
386.688	108.5
386.913	116.5
387.138	107.5
387.363	105.5
387.588	93.5
387.813	107.5
388.038	90.5
388.263	118.5
388.488	127.5
388.713	88.5
388.938	82.5
389.163	98.5
389.387	95.5
389.612	93.5
389.837	80.5
390.062	90.5
390.287	82.5
390.512	77.5
390.736	78.5
390.961	94.5
391.186	104.5
391.411	98.5
391.636	86.5
391.86	83.5
392.085	78.5
392.31	80.5
392.534	89.5
392.759	88.5
392.984	93.5
393.208	84.5
393.433	96.5
393.658	106.5
393.882	75.5
394.107	81.5
394.331	101.5
394.556	87.5
394.78	95.5
395.005	90.5
395.229	85.5
395.454	83.5
395.678	75.5
395.903	87.5
396.127	85.5
396.352	87.5
396.576	94.5
396.801	84.5
397.025	81.5
397.249	81.5
397.474	98.5
397.698	94.5
397.922	86.5
398.147	86.5
398.371	74.5
398.595	93.5
398.82	83.5
399.044	93.5
399.268	79.5
399.492	85.5
399.717	82.5
399.941	87.5
400.165	101.5
400.389	97.5
400.613	97.5
400.837	79.5
401.062	77.5
401.286	85.5
401.51	73.5
401.734	80.5
401.958	82.5
402.182	107.5
402.406	133.5
402.63	101.5
402.854	96.5
403.078	94.5
403.302	89.5
403.526	75.5
403.75	87.5
403.974	93.5
404.198	84.5
404.422	98.5
404.645	80.5
404.869	99.5
405.093	101.5
405.317	92.5
405.541	98.5
405.765	93.5
405.988	113.5
406.212	163.5
406.436	187.5
406.66	133.5
406.883	96.5
407.107	88.5
407.331	78.5
407.555	96.5
407.778	81.5
408.002	83.5
408.226	85.5
408.449	88.5
408.673	85.5
408.896	96.5
409.12	79.5
409.344	81.5
409.567	81.5
409.791	88.5
410.014	101.5
410.238	93.5
410.461	88.5
410.685	81.5
410.908	96.5
411.132	104.5
411.355	84.5
411.578	93.5
411.802	85.5
412.025	87.5
412.249	74.5
412.472	94.5
412.695	101.5
412.919	82.5
413.142	94.5
413.365	82.5
413.589	100.5
413.812	87.5
414.035	90.5
414.258	81.5
414.482	76.5
414.705	89.5
414.928	96.5
415.151	92.5
415.374	79.5
415.597	81.5
415.821	94.5
416.044	84.5
416.267	91.5
416.49	106.5
416.713	95.5
416.936	95.5
417.159	83.5
417.382	77.5
417.605	89.5
417.828	98.5
418.051	85.5
418.274	89.5
418.497	94.5
418.72	84.5
418.943	81.5
419.166	91.5
419.389	95.5
419.611	82.5
419.834	96.5
420.057	86.5
420.28	77.5
420.503	81.5
420.726	98.5
420.948	95.5
421.171	74.5
421.394	77.5
421.617	95.5
421.839	90.5
422.062	88.5
422.285	94.5
422.507	75.5
422.73	95.5
422.953	100.5
423.175	99.5
423.398	83.5
423.621	95.5
423.843	95.5
424.066	88.5
424.288	94.5
424.511	70.5
424.733	86.5
424.956	94.5
425.178	105.5
425.401	88.5
425.623	99.5
425.846	75.5
426.068	84.5
426.291	82.5
426.513	86.5
426.735	83.5
426.958	108.5
427.18	88.5
427.402	120.5
427.625	155.5
427.847	141.5
428.069	113.5
428.292	92.5
428.514	95.5
428.736	76.5
428.958	71.5
429.181	79.5
429.403	91.5
429.625	84.5
429.847	86.5
430.069	93.5
430.292	87.5
430.514	88.5
430.736	88.5
430.958	85.5
431.18	91.5
431.402	94.5
431.624	89.5
431.846	86.5
432.068	97.5
432.29	78.5
432.512	81.5
432.734	86.5
432.956	95.5
433.178	109.5
433.4	91.5
433.622	97.5
433.844	101.5
434.066	98.5
434.287	90.5
434.509	77.5
434.731	92.5
434.953	94.5
435.175	89.5
435.397	79.5
435.618	96.5
435.84	104.5
436.062	117.5
436.284	107.5
436.505	89.5
436.727	92.5
436.949	84.5
437.17	74.5
437.392	88.5
437.614	89.5
437.835	102.5
438.057	97.5
438.278	103.5
438.5	93.5
438.721	98.5
438.943	98.5
439.165	91.5
439.386	81.5
439.608	88.5
439.829	108.5
440.05	106.5
440.272	127.5
440.493	112.5
440.715	72.5
440.936	95.5
441.158	84.5
441.379	96.5
441.6	94.5
441.822	89.5
442.043	99.5
442.264	96.5
442.486	84.5
442.707	92.5
442.928	93.5
443.149	129.5
443.371	127.5
443.592	111.5
443.813	105.5
444.034	98.5
444.255	90.5
444.476	90.5
444.698	84.5
444.919	92.5
445.14	131.5
445.361	119.5
445.582	114.5
445.803	121.5
446.024	107.5
446.245	117.5
446.466	106.5
446.687	91.5
446.908	85.5
447.129	85.5
447.35	87.5
447.571	90.5
447.792	76.5
448.013	94.5
448.234	93.5
448.455	99.5
448.675	108.5
448.896	100.5
449.117	100.5
449.338	92.5
449.559	95.5
449.779	109.5
450	96.5
450.221	79.5
450.442	80.5
450.662	94.5
450.883	109.5
451.104	106.5
451.324	89.5
451.545	72.5
451.766	89.5
451.986	87.5
452.207	86.5
452.428	96.5
452.648	105.5
452.869	110.5
453.089	113.5
453.31	100.5
453.53	79.5
453.751	95.5
453.971	101.5
454.192	98.5
454.412	81.5
454.633	90.5
454.853	86.5
455.073	77.5
455.294	82.5
455.514	89.5
455.734	84.5
455.955	63.5
456.175	97.5
456.395	96.5
456.616	94.5
456.836	84.5
457.056	95.5
457.276	83.5
457.497	95.5
457.717	79.5
457.937	89.5
458.157	87.5
458.377	90.5
458.598	100.5
458.818	151.5
459.038	145.5
459.258	121.5
459.478	75.5
459.698	96.5
459.918	100.5
460.138	86.5
460.358	101.5
460.578	94.5
460.798	88.5
461.018	83.5
461.238	84.5
461.458	81.5
461.678	91.5
461.898	94.5
462.118	80.5
462.338	87.5
462.558	86.5
462.777	80.5
462.997	86.5
463.217	75.5
463.437	90.5
463.657	71.5
463.876	90.5
464.096	93.5
464.316	108.5
464.536	86.5
464.755	124.5
464.975	87.5
465.195	151.5
465.414	137.5
465.634	91.5
465.854	94.5
466.073	92.5
466.293	90.5
466.512	69.5
466.732	81.5
466.951	98.5
467.171	90.5
467.391	97.5
467.61	113.5
467.829	103.5
468.049	147.5
468.268	130.5
468.488	83.5
468.707	85.5
468.927	84.5
469.146	77.5
469.365	83.5
469.585	106.5
469.804	98.5
470.023	96.5
470.243	106.5
470.462	96.5
470.681	91.5
470.901	91.5
471.12	81.5
471.339	94.5
471.558	91.5
471.777	94.5
471.997	110.5
472.216	162.5
472.435	278.5
472.654	125.5
472.873	85.5
473.092	89.5
473.311	93.5
473.53	85.5
473.749	89.5
473.968	94.5
474.187	103.5
474.406	83.5
474.625	90.5
474.844	82.5
475.063	85.5
475.282	86.5
475.501	85.5
475.72	91.5
475.939	89.5
476.158	81.5
476.377	82.5
476.596	69.5
476.814	109.5
477.033	97.5
477.252	99.5
477.471	97.5
477.69	84.5
477.908	95.5
478.127	86.5
478.346	87.5
478.564	81.5
478.783	85.5
479.002	85.5
479.22	95.5
479.439	90.5
479.658	101.5
479.876	93.5
480.095	94.5
480.313	93.5
480.532	97.5
480.751	121.5
480.969	162.5
481.188	432.5
481.406	265.5
481.624	113.5
481.843	95.5
482.061	91.5
482.28	85.5
482.498	87.5
482.717	86.5
482.935	97.5
483.153	89.5
483.372	83.5
483.59	88.5
483.808	85.5
484.027	89.5
484.245	81.5
484.463	89.5
484.681	80.5
484.9	95.5
485.118	114.5
485.336	82.5
485.554	84.5
485.772	94.5
485.99	99.5
486.209	99.5
486.427	110.5
486.645	127.5
486.863	110.5
487.081	88.5
487.299	107.5
487.517	98.5
487.735	76.5
487.953	107.5
488.171	108.5
488.389	91.5
488.607	108.5
488.825	95.5
489.043	91.5
489.261	93.5
489.479	89.5
489.696	82.5
489.914	85.5
490.132	91.5
490.35	86.5
490.568	76.5
490.786	100.5
491.003	89.5
491.221	96.5
491.439	79.5
491.657	89.5
491.874	94.5
492.092	82.5
492.31	89.5
492.527	86.5
492.745	85.5
492.963	77.5
493.18	86.5
493.398	95.5
493.615	90.5
493.833	82.5
494.05	87.5
494.268	83.5
494.485	87.5
494.703	88.5
494.92	84.5
495.138	88.5
495.355	99.5
495.573	86.5
495.79	73.5
496.008	95.5
496.225	90.5
496.442	93.5
496.66	102.5
496.877	67.5
497.094	96.5
497.312	93.5
497.529	82.5
497.746	75.5
497.963	87.5
498.181	91.5
498.398	94.5
498.615	111.5
498.832	98.5
499.049	95.5
499.267	95.5
499.484	89.5
499.701	72.5
499.918	94.5
500.135	90.5
500.352	91.5
500.569	86.5
500.786	96.5
501.003	95.5
501.22	74.5
501.437	91.5
501.654	106.5
501.871	89.5
502.088	86.5
502.305	69.5
502.522	98.5
502.739	81.5
502.956	80.5
503.172	85.5
503.389	100.5
503.606	95.5
503.823	95.5
504.04	83.5
504.256	79.5
504.473	90.5
504.69	90.5
504.907	93.5
505.123	90.5
505.34	96.5
505.557	94.5
505.773	86.5
505.99	75.5
506.207	89.5
506.423	86.5
506.64	85.5
506.856	95.5
507.073	93.5
507.289	93.5
507.506	91.5
507.722	89.5
507.939	106.5
508.155	90.5
508.372	97.5
508.588	88.5
508.805	103.5
509.021	97.5
509.238	99.5
509.454	110.5
509.67	100.5
509.887	116.5
510.103	131.5
510.319	204.5
510.536	733.5
510.752	2391.5
510.968	663.5
511.184	162.5
511.401	95.5
511.617	89.5
511.833	100.5
512.049	87.5
512.265	93.5
512.481	95.5
512.698	81.5
512.914	90.5
513.13	104.5
513.346	94.5
513.562	100.5
513.778	97.5
513.994	98.5
514.21	89.5
514.426	104.5
514.642	111.5
514.858	114.5
515.074	151.5
515.29	428.5
515.506	1313.5
515.721	493.5
515.937	149.5
516.153	98.5
516.369	105.5
516.585	97.5
516.801	94.5
517.016	83.5
517.232	83.5
517.448	88.5
517.664	91.5
517.879	92.5
518.095	96.5
518.311	95.5
518.527	87.5
518.742	103.5
518.958	98.5
519.173	109.5
519.389	100.5
519.605	101.5
519.82	97.5
520.036	109.5
520.251	112.5
520.467	98.5
520.682	82.5
520.898	103.5
521.113	92.5
521.329	117.5
521.544	183.5
521.76	498.5
521.975	2145.5
522.19	1357.5
522.406	305.5
522.621	117.5
522.836	96.5
523.052	84.5
523.267	104.5
523.482	68.5
523.698	95.5
523.913	97.5
524.128	99.5
524.343	90.5
524.559	102.5
524.774	96.5
524.989	90.5
525.204	107.5
525.419	93.5
525.634	101.5
525.849	81.5
526.064	97.5
526.28	81.5
526.495	86.5
526.71	91.5
526.925	94.5
527.14	78.5
527.355	83.5
527.57	80.5
527.785	81.5
527.999	86.5
528.214	88.5
528.429	103.5
528.644	84.5
528.859	88.5
529.074	95.5
529.289	128.5
529.503	171.5
529.718	109.5
529.933	85.5
530.148	69.5
530.363	99.5
530.577	87.5
530.792	84.5
531.007	97.5
531.221	100.5
531.436	91.5
531.651	105.5
531.865	93.5
532.08	90.5
532.295	92.5
532.509	81.5
532.724	82.5
532.938	99.5
533.153	87.5
533.367	110.5
533.582	102.5
533.796	87.5
534.011	88.5
534.225	101.5
534.44	100.5
534.654	97.5
534.868	99.5
535.083	99.5
535.297	83.5
535.511	99.5
535.726	96.5
535.94	96.5
536.154	98.5
