Data from Circ_2003_H10_HRD10591_00016.txt Node
Date: Wed Jan 03 10:37:05 EST 2024
User: Yrep
Spectrometer: HR+D1059
Trigger mode: 1
Integration Time (sec): 1.000000E-1
Scans to average: 1
Electric dark correction enabled: true
Nonlinearity correction enabled: false
Boxcar width: 0
XAxis mode: Wavelengths
Number of Pixels in Spectrum: 2048
>>>>>Begin Spectral Data<<<<<
223.165	-13.12
223.4	-13.12
223.635	-13.12
223.869	-23.12
224.104	-25.12
224.338	-18.12
224.573	-16.12
224.808	-19.12
225.042	-18.12
225.277	2.88
225.511	5.88
225.746	4.88
225.98	2.88
226.215	12.88
226.449	9.88
226.683	30.88
226.918	25.88
227.152	36.88
227.387	20.88
227.621	42.88
227.856	51.88
228.09	46.88
228.324	47.88
228.559	50.88
228.793	167.88
229.027	416.88
229.262	479.88
229.496	550.88
229.73	717.88
229.964	711.88
230.199	498.88
230.433	449.88
230.667	426.88
230.901	421.88
231.136	411.88
231.37	430.88
231.604	420.88
231.838	429.88
232.072	419.88
232.306	427.88
232.541	447.88
232.775	455.88
233.009	445.88
233.243	435.88
233.477	455.88
233.711	453.88
233.945	482.88
234.179	475.88
234.413	482.88
234.647	467.88
234.881	503.88
235.115	500.88
235.349	519.88
235.583	537.88
235.817	535.88
236.051	592.88
236.285	562.88
236.519	607.88
236.753	651.88
236.987	865.88
237.221	1268.88
237.455	1361.88
237.689	826.88
237.922	675.88
238.156	660.88
238.39	646.88
238.624	612.88
238.858	625.88
239.091	602.88
239.325	649.88
239.559	661.88
239.793	681.88
240.027	713.88
240.26	847.88
240.494	863.88
240.728	897.88
240.961	837.88
241.195	785.88
241.429	771.88
241.662	733.88
241.896	730.88
242.13	731.88
242.363	740.88
242.597	764.88
242.83	775.88
243.064	771.88
243.298	736.88
243.531	764.88
243.765	799.88
243.998	799.88
244.232	827.88
244.465	838.88
244.699	864.88
244.932	835.88
245.166	872.88
245.399	877.88
245.633	870.88
245.866	869.88
246.099	875.88
246.333	885.88
246.566	914.88
246.8	891.88
247.033	975.88
247.266	1001.88
247.5	1055.88
247.733	1085.88
247.966	1095.88
248.2	1079.88
248.433	1069.88
248.666	1123.88
248.899	1247.88
249.133	1315.88
249.366	1315.88
249.599	1243.88
249.832	1121.88
250.066	1135.88
250.299	1192.88
250.532	1268.88
250.765	1400.88
250.998	1567.88
251.231	1563.88
251.465	1390.88
251.698	1359.88
251.931	1329.88
252.164	1324.88
252.397	1319.88
252.63	1359.88
252.863	1451.88
253.096	1574.88
253.329	1621.88
253.562	1555.88
253.795	1498.88
254.028	1475.88
254.261	1551.88
254.494	1685.88
254.727	2001.88
254.96	2030.88
255.193	1841.88
255.426	1644.88
255.659	1531.88
255.892	1512.88
256.124	1444.88
256.357	1457.88
256.59	1476.88
256.823	1463.88
257.056	1399.88
257.289	1468.88
257.521	1455.88
257.754	1463.88
257.987	1442.88
258.22	1437.88
258.452	1454.88
258.685	1450.88
258.918	1506.88
259.151	1530.88
259.383	1579.88
259.616	1597.88
259.849	1670.88
260.081	1803.88
260.314	1991.88
260.547	1885.88
260.779	1757.88
261.012	1656.88
261.244	1616.88
261.477	1617.88
261.71	1577.88
261.942	1641.88
262.175	1663.88
262.407	1586.88
262.64	1585.88
262.872	1585.88
263.105	1555.88
263.337	1606.88
263.57	1554.88
263.802	1610.88
264.035	1588.88
264.267	1592.88
264.499	1600.88
264.732	1583.88
264.964	1634.88
265.197	1632.88
265.429	1606.88
265.661	1663.88
265.894	1637.88
266.126	1666.88
266.358	1688.88
266.591	1715.88
266.823	1765.88
267.055	1724.88
267.287	1793.88
267.52	1721.88
267.752	1767.88
267.984	1768.88
268.216	1839.88
268.448	1883.88
268.681	1883.88
268.913	2011.88
269.145	2229.88
269.377	2268.88
269.609	2192.88
269.841	2139.88
270.073	2268.88
270.306	2503.88
270.538	2631.88
270.77	2470.88
271.002	2374.88
271.234	2372.88
271.466	2450.88
271.698	2531.88
271.93	2573.88
272.162	2587.88
272.394	2546.88
272.626	2405.88
272.858	2282.88
273.09	2197.88
273.322	2175.88
273.553	2112.88
273.785	2153.88
274.017	2144.88
274.249	2144.88
274.481	2156.88
274.713	2167.88
274.945	2252.88
275.176	2215.88
275.408	2165.88
275.64	2174.88
275.872	2178.88
276.104	2213.88
276.335	2244.88
276.567	2326.88
276.799	2449.88
277.031	2656.88
277.262	2774.88
277.494	2663.88
277.726	2488.88
277.957	2393.88
278.189	2321.88
278.421	2331.88
278.652	2269.88
278.884	2253.88
279.115	2318.88
279.347	2269.88
279.579	2287.88
279.81	2276.88
280.042	2325.88
280.273	2324.88
280.505	2346.88
280.736	2311.88
280.968	2350.88
281.199	2352.88
281.431	2391.88
281.662	2375.88
281.894	2411.88
282.125	2417.88
282.356	2573.88
282.588	2671.88
282.819	2561.88
283.051	2501.88
283.282	2473.88
283.513	2504.88
283.745	2522.88
283.976	2532.88
284.207	2587.88
284.439	2525.88
284.67	2562.88
284.901	2557.88
285.132	2537.88
285.364	2561.88
285.595	2537.88
285.826	2599.88
286.057	2645.88
286.288	2586.88
286.52	2621.88
286.751	2595.88
286.982	2627.88
287.213	2604.88
287.444	2677.88
287.675	2705.88
287.906	2780.88
288.138	2868.88
288.369	2816.88
288.6	2797.88
288.831	2764.88
289.062	2771.88
289.293	2762.88
289.524	2744.88
289.755	2755.88
289.986	2720.88
290.217	2720.88
290.448	2750.88
290.679	2779.88
290.91	2733.88
291.141	2724.88
291.371	2738.88
291.602	2771.88
291.833	2710.88
292.064	2769.88
292.295	2735.88
292.526	2777.88
292.757	2741.88
292.987	2773.88
293.218	2783.88
293.449	2797.88
293.68	2760.88
293.91	2808.88
294.141	2764.88
294.372	2730.88
294.603	2751.88
294.833	2820.88
295.064	2819.88
295.295	2797.88
295.525	2856.88
295.756	2879.88
295.987	2997.88
296.217	3060.88
296.448	3000.88
296.679	2878.88
296.909	2923.88
297.14	2908.88
297.37	2906.88
297.601	3009.88
297.831	2963.88
298.062	2959.88
298.292	3019.88
298.523	3023.88
298.753	3034.88
298.984	3035.88
299.214	3036.88
299.445	2991.88
299.675	3017.88
299.905	3074.88
300.136	3073.88
300.366	3100.88
300.597	3104.88
300.827	3209.88
301.057	3338.88
301.288	3284.88
301.518	3249.88
301.748	3225.88
301.979	3346.88
302.209	3333.88
302.439	3328.88
302.669	3264.88
302.9	3251.88
303.13	3210.88
303.36	3264.88
303.59	3359.88
303.82	3326.88
304.051	3298.88
304.281	3263.88
304.511	3177.88
304.741	3199.88
304.971	3179.88
305.201	3170.88
305.431	3214.88
305.661	3207.88
305.891	3229.88
306.121	3253.88
306.352	3237.88
306.582	3253.88
306.812	3167.88
307.042	3227.88
307.272	3245.88
307.502	3228.88
307.731	3240.88
307.961	3225.88
308.191	3217.88
308.421	3201.88
308.651	3202.88
308.881	3201.88
309.111	3285.88
309.341	3340.88
309.571	3459.88
309.8	3408.88
310.03	3397.88
310.26	3452.88
310.49	3489.88
310.72	3553.88
310.949	3663.88
311.179	3617.88
311.409	3548.88
311.639	3495.88
311.868	3581.88
312.098	3563.88
312.328	3665.88
312.557	3821.88
312.787	3806.88
313.017	3748.88
313.246	3727.88
313.476	3621.88
313.706	3699.88
313.935	3783.88
314.165	3830.88
314.394	3790.88
314.624	3823.88
314.853	3697.88
315.083	3693.88
315.312	3695.88
315.542	3623.88
315.771	3613.88
316.001	3517.88
316.23	3621.88
316.46	3593.88
316.689	3614.88
316.919	3688.88
317.148	3740.88
317.377	3697.88
317.607	3634.88
317.836	3653.88
318.065	3633.88
318.295	3625.88
318.524	3632.88
318.753	3560.88
318.983	3608.88
319.212	3655.88
319.441	3668.88
319.67	3716.88
319.9	3580.88
320.129	3694.88
320.358	3683.88
320.587	3632.88
320.816	3682.88
321.046	3761.88
321.275	3727.88
321.504	3731.88
321.733	3727.88
321.962	3855.88
322.191	3931.88
322.42	4004.88
322.649	4051.88
322.878	4093.88
323.108	4177.88
323.337	4380.88
323.566	4558.88
323.795	4827.88
324.024	5247.88
324.253	6871.88
324.482	10213.88
324.71	14598.88
324.939	15605.88
325.168	11293.88
325.397	6319.88
325.626	5075.88
325.855	4708.88
326.084	4623.88
326.313	4704.88
326.542	4738.88
326.77	5321.88
326.999	6673.88
327.228	9584.88
327.457	13527.88
327.686	12522.88
327.914	6839.88
328.143	5488.88
328.372	5180.88
328.6	5016.88
328.829	5029.88
329.058	5091.88
329.287	5048.88
329.515	4748.88
329.744	4602.88
329.972	4665.88
330.201	4740.88
330.43	4913.88
330.658	5202.88
330.887	5423.88
331.115	5104.88
331.344	4842.88
331.572	4724.88
331.801	4860.88
332.03	4866.88
332.258	4782.88
332.486	4828.88
332.715	4932.88
332.943	5039.88
333.172	5218.88
333.4	5325.88
333.629	5416.88
333.857	5507.88
334.085	5411.88
334.314	5338.88
334.542	5240.88
334.771	5237.88
334.999	5221.88
335.227	5079.88
335.455	5084.88
335.684	4913.88
335.912	4905.88
336.14	4870.88
336.369	4856.88
336.597	4859.88
336.825	4783.88
337.053	4808.88
337.281	4686.88
337.51	4607.88
337.738	4554.88
337.966	4606.88
338.194	4519.88
338.422	4552.88
338.65	4387.88
338.878	4475.88
339.106	4442.88
339.334	4540.88
339.562	4401.88
339.79	4365.88
340.018	4288.88
340.246	4347.88
340.474	4353.88
340.702	4349.88
340.93	4298.88
341.158	4300.88
341.386	4298.88
341.614	4336.88
341.842	4293.88
342.07	4294.88
342.298	4284.88
342.526	4329.88
342.754	4211.88
342.981	4232.88
343.209	4391.88
343.437	4612.88
343.665	4844.88
343.893	5093.88
344.12	5104.88
344.348	4926.88
344.576	4699.88
344.804	4624.88
345.031	4601.88
345.259	4517.88
345.487	4361.88
345.714	4266.88
345.942	4188.88
346.17	4153.88
346.397	4124.88
346.625	4186.88
346.853	4078.88
347.08	4084.88
347.308	4170.88
347.535	4207.88
347.763	4243.88
347.99	4136.88
348.218	4225.88
348.445	4224.88
348.673	4125.88
348.9	4151.88
349.128	4043.88
349.355	4033.88
349.583	4045.88
349.81	4005.88
350.037	3954.88
350.265	4036.88
350.492	3959.88
350.72	3985.88
350.947	4064.88
351.174	4117.88
351.402	4138.88
351.629	4103.88
351.856	4074.88
352.083	4163.88
352.311	4128.88
352.538	4136.88
352.765	4059.88
352.992	4076.88
353.22	4007.88
353.447	3946.88
353.674	4039.88
353.901	3900.88
354.128	3906.88
354.355	3859.88
354.583	3967.88
354.81	3925.88
355.037	3920.88
355.264	3949.88
355.491	3912.88
355.718	3916.88
355.945	3917.88
356.172	3890.88
356.399	3936.88
356.626	3920.88
356.853	3889.88
357.08	3899.88
357.307	3921.88
357.534	3938.88
357.761	3934.88
357.988	3968.88
358.215	3946.88
358.441	3967.88
358.668	3977.88
358.895	4037.88
359.122	3955.88
359.349	4044.88
359.576	4170.88
359.802	4334.88
360.029	4415.88
360.256	4454.88
360.483	4339.88
360.709	4144.88
360.936	4151.88
361.163	4114.88
361.39	4125.88
361.616	4161.88
361.843	4100.88
362.07	4145.88
362.296	4098.88
362.523	4082.88
362.749	4099.88
362.976	4067.88
363.203	4035.88
363.429	3951.88
363.656	3971.88
363.882	3987.88
364.109	3994.88
364.335	3996.88
364.562	3954.88
364.788	3955.88
365.015	3940.88
365.241	3948.88
365.468	3997.88
365.694	3988.88
365.92	4025.88
366.147	3981.88
366.373	3930.88
366.599	3985.88
366.826	3938.88
367.052	3974.88
367.278	3984.88
367.505	3963.88
367.731	3983.88
367.957	3993.88
368.184	4045.88
368.41	4083.88
368.636	4173.88
368.862	4180.88
369.089	4156.88
369.315	4103.88
369.541	4089.88
369.767	4114.88
369.993	4102.88
370.219	4117.88
370.445	4155.88
370.672	4159.88
370.898	4180.88
371.124	4218.88
371.35	4210.88
371.576	4188.88
371.802	4282.88
372.028	4223.88
372.254	4197.88
372.48	4296.88
372.706	4424.88
372.932	4473.88
373.158	4392.88
373.384	4338.88
373.61	4297.88
373.835	4347.88
374.061	4333.88
374.287	4375.88
374.513	4451.88
374.739	4644.88
374.965	4674.88
375.191	4718.88
375.416	4660.88
375.642	4458.88
375.868	4519.88
376.094	4375.88
376.319	4399.88
376.545	4333.88
376.771	4313.88
376.997	4288.88
377.222	4301.88
377.448	4325.88
377.674	4259.88
377.899	4243.88
378.125	4225.88
378.35	4283.88
378.576	4243.88
378.802	4243.88
379.027	4291.88
379.253	4306.88
379.478	4177.88
379.704	4252.88
379.929	4266.88
380.155	4195.88
380.38	4250.88
380.606	4291.88
380.831	4279.88
381.057	4307.88
381.282	4330.88
381.507	4228.88
381.733	4371.88
381.958	4377.88
382.184	4463.88
382.409	4508.88
382.634	4538.88
382.86	4507.88
383.085	4543.88
383.31	4671.88
383.535	4739.88
383.761	4761.88
383.986	4848.88
384.211	4955.88
384.436	5012.88
384.662	5038.88
384.887	5156.88
385.112	5193.88
385.337	5257.88
385.562	5304.88
385.787	5242.88
386.013	5334.88
386.238	5322.88
386.463	5260.88
386.688	5332.88
386.913	5132.88
387.138	5175.88
387.363	5083.88
387.588	5117.88
387.813	5127.88
388.038	5158.88
388.263	5178.88
388.488	5181.88
388.713	5178.88
388.938	5084.88
389.163	5165.88
389.387	5128.88
389.612	4986.88
389.837	5009.88
390.062	4985.88
390.287	5065.88
390.512	5027.88
390.736	5167.88
390.961	5184.88
391.186	5223.88
391.411	5423.88
391.636	5587.88
391.86	5678.88
392.085	5755.88
392.31	5659.88
392.534	5576.88
392.759	5454.88
392.984	5370.88
393.208	5300.88
393.433	5303.88
393.658	5369.88
393.882	5274.88
394.107	5355.88
394.331	5432.88
394.556	5353.88
394.78	5462.88
395.005	5392.88
395.229	5561.88
395.454	5663.88
395.678	5830.88
395.903	5821.88
396.127	5836.88
396.352	5579.88
396.576	5422.88
396.801	5437.88
397.025	5534.88
397.249	5600.88
397.474	5722.88
397.698	5809.88
397.922	5893.88
398.147	6002.88
398.371	6085.88
398.595	6358.88
398.82	6507.88
399.044	7060.88
399.268	7873.88
399.492	8938.88
399.717	9617.88
399.941	9303.88
400.165	8611.88
400.389	7958.88
400.613	7226.88
400.837	6782.88
401.062	6627.88
401.286	6566.88
401.51	6546.88
401.734	6525.88
401.958	6623.88
402.182	6648.88
402.406	6708.88
402.63	6813.88
402.854	6911.88
403.078	7015.88
403.302	7144.88
403.526	7316.88
403.75	7330.88
403.974	7374.88
404.198	7362.88
404.422	7410.88
404.645	7275.88
404.869	7235.88
405.093	7429.88
405.317	7385.88
405.541	7430.88
405.765	7156.88
405.988	7090.88
406.212	7303.88
406.436	7418.88
406.66	7627.88
406.883	7613.88
407.107	8188.88
407.331	8846.88
407.555	9232.88
407.778	8843.88
408.002	8151.88
408.226	7881.88
408.449	7712.88
408.673	7595.88
408.896	7699.88
409.12	7788.88
409.344	7423.88
409.567	7056.88
409.791	7076.88
410.014	6935.88
410.238	6955.88
410.461	7007.88
410.685	7066.88
410.908	6997.88
411.132	7341.88
411.355	7263.88
411.578	6955.88
411.802	6750.88
412.025	6784.88
412.249	6718.88
412.472	6679.88
412.695	6593.88
412.919	6441.88
413.142	6366.88
413.365	6374.88
413.589	6384.88
413.812	6364.88
414.035	6171.88
414.258	6317.88
414.482	6358.88
414.705	6377.88
414.928	6360.88
415.151	6392.88
415.374	6308.88
415.597	6271.88
415.821	6234.88
416.044	6140.88
416.267	6185.88
416.49	6092.88
416.713	6197.88
416.936	6403.88
417.159	6168.88
417.382	6237.88
417.605	6301.88
417.828	6481.88
418.051	6480.88
418.274	6502.88
418.497	6391.88
418.72	6445.88
418.943	6458.88
419.166	6828.88
419.389	7207.88
419.611	7056.88
419.834	6859.88
420.057	6726.88
420.28	6483.88
420.503	6314.88
420.726	6414.88
420.948	6571.88
421.171	6930.88
421.394	6889.88
421.617	6481.88
421.839	6436.88
422.062	6586.88
422.285	6760.88
422.507	7338.88
422.73	7823.88
422.953	7303.88
423.175	6967.88
423.398	6914.88
423.621	6841.88
423.843	7188.88
424.066	7212.88
424.288	7041.88
424.511	7203.88
424.733	7639.88
424.956	8092.88
425.178	7623.88
425.401	7766.88
425.623	7592.88
425.846	6747.88
426.068	6603.88
426.291	6485.88
426.513	6443.88
426.735	6567.88
426.958	7050.88
427.18	7693.88
427.402	8689.88
427.625	8724.88
427.847	7311.88
428.069	6572.88
428.292	6309.88
428.514	5973.88
428.736	5805.88
428.958	5887.88
429.181	5639.88
429.403	5728.88
429.625	5904.88
429.847	6082.88
430.069	6642.88
430.292	6290.88
430.514	5788.88
430.736	5775.88
430.958	5663.88
431.18	5594.88
431.402	5527.88
431.624	5570.88
431.846	5668.88
432.068	5698.88
432.29	5777.88
432.512	5668.88
432.734	5775.88
432.956	5659.88
433.178	5727.88
433.4	5732.88
433.622	5718.88
433.844	5720.88
434.066	5736.88
434.287	5841.88
434.509	5990.88
434.731	6302.88
434.953	6446.88
435.175	6467.88
435.397	6645.88
435.618	6523.88
435.84	6882.88
436.062	7637.88
436.284	7569.88
436.505	6385.88
436.727	6205.88
436.949	5859.88
437.17	5763.88
437.392	5805.88
437.614	5882.88
437.835	6243.88
438.057	7099.88
438.278	7721.88
438.5	7724.88
438.721	8377.88
438.943	7346.88
439.165	6203.88
439.386	6146.88
439.608	6139.88
439.829	6188.88
440.05	6489.88
440.272	6824.88
440.493	6240.88
440.715	6053.88
440.936	6063.88
441.158	6026.88
441.379	6145.88
441.6	6468.88
441.822	6719.88
442.043	7152.88
442.264	7854.88
442.486	7592.88
442.707	6741.88
442.928	6550.88
443.149	6754.88
443.371	6961.88
443.592	7551.88
443.813	8457.88
444.034	8459.88
444.255	7377.88
444.476	7277.88
444.698	7540.88
444.919	7557.88
445.14	7377.88
445.361	7163.88
445.582	7162.88
445.803	7683.88
446.024	8245.88
446.245	7894.88
446.466	7209.88
446.687	6307.88
446.908	5953.88
447.129	5659.88
447.35	5659.88
447.571	5636.88
447.792	5446.88
448.013	5555.88
448.234	5767.88
448.455	6467.88
448.675	7504.88
448.896	7888.88
449.117	6544.88
449.338	6762.88
449.559	7975.88
449.779	8011.88
450	6239.88
450.221	5694.88
450.442	5423.88
450.662	5301.88
450.883	5455.88
451.104	5495.88
451.324	5415.88
451.545	5283.88
451.766	5131.88
451.986	5037.88
452.207	4990.88
452.428	4982.88
452.648	5095.88
452.869	5012.88
453.089	5099.88
453.31	5219.88
453.53	4958.88
453.751	4860.88
453.971	4988.88
454.192	5039.88
454.412	4836.88
454.633	4914.88
454.853	4844.88
455.073	4908.88
455.294	5260.88
455.514	5684.88
455.734	5215.88
455.955	4751.88
456.175	4712.88
456.395	4641.88
456.616	4562.88
456.836	4625.88
457.056	4579.88
457.276	4528.88
457.497	4746.88
457.717	4699.88
457.937	4741.88
458.157	4820.88
458.377	4906.88
458.598	5185.88
458.818	5826.88
459.038	6507.88
459.258	6463.88
459.478	5827.88
459.698	5738.88
459.918	5862.88
460.138	5998.88
460.358	6348.88
460.578	6269.88
460.798	6345.88
461.018	6332.88
461.238	6183.88
461.458	6193.88
461.678	6194.88
461.898	6307.88
462.118	6387.88
462.338	6677.88
462.558	6883.88
462.777	7119.88
462.997	7656.88
463.217	8156.88
463.437	7891.88
463.657	7359.88
463.876	7104.88
464.096	7229.88
464.316	7206.88
464.536	7250.88
464.755	6931.88
464.975	6822.88
465.195	6832.88
465.414	6851.88
465.634	6074.88
465.854	5869.88
466.073	5524.88
466.293	5456.88
466.512	5284.88
466.732	5195.88
466.951	5187.88
467.171	5218.88
467.391	5282.88
467.61	5251.88
467.829	5210.88
468.049	5148.88
468.268	5004.88
468.488	4972.88
468.707	4932.88
468.927	4977.88
469.146	4922.88
469.365	5004.88
469.585	5052.88
469.804	5235.88
470.023	5371.88
470.243	5319.88
470.462	5475.88
470.681	5551.88
470.901	5436.88
471.12	5297.88
471.339	5254.88
471.558	5163.88
471.777	5139.88
471.997	5019.88
472.216	4997.88
472.435	4972.88
472.654	4887.88
472.873	4905.88
473.092	4870.88
473.311	4955.88
473.53	4955.88
473.749	5135.88
473.968	5547.88
474.187	6379.88
474.406	6066.88
474.625	5301.88
474.844	4979.88
475.063	4953.88
475.282	4954.88
475.501	4980.88
475.72	5077.88
475.939	5113.88
476.158	5190.88
476.377	5190.88
476.596	5146.88
476.814	5263.88
477.033	5251.88
477.252	5451.88
477.471	5513.88
477.69	5611.88
477.908	5751.88
478.127	5876.88
478.346	5939.88
478.564	6039.88
478.783	6100.88
479.002	6293.88
479.22	6287.88
479.439	6357.88
479.658	6415.88
479.876	6477.88
480.095	6702.88
480.313	7107.88
480.532	7007.88
480.751	6814.88
480.969	6776.88
481.188	6618.88
481.406	6355.88
481.624	6216.88
481.843	6058.88
482.061	6004.88
482.28	5904.88
482.498	5870.88
482.717	5838.88
482.935	5832.88
483.153	5801.88
483.372	5753.88
483.59	5807.88
483.808	5807.88
484.027	5865.88
484.245	5901.88
484.463	5968.88
484.681	5973.88
484.9	6034.88
485.118	6124.88
485.336	6109.88
485.554	6162.88
485.772	6255.88
485.99	6233.88
486.209	6348.88
486.427	6317.88
486.645	6266.88
486.863	6412.88
487.081	6376.88
487.299	6437.88
487.517	6340.88
487.735	6272.88
487.953	6288.88
