Data from Circ_2003_H10_HRD10591_00026.txt Node
Date: Wed Jan 03 10:37:07 EST 2024
User: Yrep
Spectrometer: HR+D1059
Trigger mode: 1
Integration Time (sec): 1.000000E-1
Scans to average: 1
Electric dark correction enabled: true
Nonlinearity correction enabled: false
Boxcar width: 0
XAxis mode: Wavelengths
Number of Pixels in Spectrum: 2048
>>>>>Begin Spectral Data<<<<<
223.165	-2.38
223.4	-2.38
223.635	-2.38
223.869	-23.38
224.104	-25.38
224.338	-7.38
224.573	-15.38
224.808	-27.38
225.042	2.62
225.277	6.62
225.511	-3.38
225.746	4.62
225.98	11.62
226.215	12.62
226.449	7.62
226.683	22.62
226.918	15.62
227.152	20.62
227.387	38.62
227.621	47.62
227.856	36.62
228.09	55.62
228.324	49.62
228.559	64.62
228.793	71.62
229.027	49.62
229.262	67.62
229.496	61.62
229.73	77.62
229.964	77.62
230.199	80.62
230.433	67.62
230.667	73.62
230.901	96.62
231.136	84.62
231.37	60.62
231.604	90.62
231.838	86.62
232.072	78.62
232.306	75.62
232.541	83.62
232.775	78.62
233.009	89.62
233.243	75.62
233.477	84.62
233.711	91.62
233.945	71.62
234.179	83.62
234.413	77.62
234.647	80.62
234.881	82.62
235.115	83.62
235.349	93.62
235.583	79.62
235.817	83.62
236.051	77.62
236.285	76.62
236.519	80.62
236.753	70.62
236.987	78.62
237.221	77.62
237.455	83.62
237.689	77.62
237.922	66.62
238.156	77.62
238.39	73.62
238.624	80.62
238.858	70.62
239.091	75.62
239.325	92.62
239.559	85.62
239.793	84.62
240.027	84.62
240.26	89.62
240.494	85.62
240.728	89.62
240.961	85.62
241.195	79.62
241.429	80.62
241.662	73.62
241.896	75.62
242.13	80.62
242.363	83.62
242.597	85.62
242.83	78.62
243.064	85.62
243.298	90.62
243.531	85.62
243.765	70.62
243.998	92.62
244.232	81.62
244.465	83.62
244.699	83.62
244.932	88.62
245.166	83.62
245.399	77.62
245.633	85.62
245.866	76.62
246.099	85.62
246.333	82.62
246.566	92.62
246.8	78.62
247.033	78.62
247.266	73.62
247.5	80.62
247.733	71.62
247.966	92.62
248.2	56.62
248.433	77.62
248.666	77.62
248.899	90.62
249.133	81.62
249.366	101.62
249.599	92.62
249.832	87.62
250.066	73.62
250.299	77.62
250.532	77.62
250.765	76.62
250.998	88.62
251.231	89.62
251.465	73.62
251.698	77.62
251.931	77.62
252.164	72.62
252.397	68.62
252.63	86.62
252.863	81.62
253.096	76.62
253.329	82.62
253.562	78.62
253.795	83.62
254.028	81.62
254.261	83.62
254.494	75.62
254.727	76.62
254.96	88.62
255.193	88.62
255.426	88.62
255.659	89.62
255.892	84.62
256.124	80.62
256.357	88.62
256.59	64.62
256.823	84.62
257.056	92.62
257.289	89.62
257.521	96.62
257.754	87.62
257.987	72.62
258.22	81.62
258.452	83.62
258.685	84.62
258.918	90.62
259.151	84.62
259.383	71.62
259.616	99.62
259.849	88.62
260.081	84.62
260.314	79.62
260.547	87.62
260.779	92.62
261.012	89.62
261.244	81.62
261.477	102.62
261.71	99.62
261.942	117.62
262.175	105.62
262.407	92.62
262.64	96.62
262.872	101.62
263.105	92.62
263.337	81.62
263.57	70.62
263.802	94.62
264.035	91.62
264.267	77.62
264.499	73.62
264.732	79.62
264.964	75.62
265.197	87.62
265.429	74.62
265.661	87.62
265.894	88.62
266.126	91.62
266.358	103.62
266.591	83.62
266.823	76.62
267.055	92.62
267.287	96.62
267.52	95.62
267.752	76.62
267.984	90.62
268.216	88.62
268.448	81.62
268.681	92.62
268.913	89.62
269.145	85.62
269.377	87.62
269.609	99.62
269.841	86.62
270.073	85.62
270.306	68.62
270.538	88.62
270.77	84.62
271.002	82.62
271.234	74.62
271.466	73.62
271.698	92.62
271.93	79.62
272.162	87.62
272.394	84.62
272.626	88.62
272.858	83.62
273.09	95.62
273.322	91.62
273.553	100.62
273.785	77.62
274.017	94.62
274.249	82.62
274.481	80.62
274.713	75.62
274.945	84.62
275.176	79.62
275.408	93.62
275.64	92.62
275.872	89.62
276.104	83.62
276.335	87.62
276.567	82.62
276.799	98.62
277.031	105.62
277.262	87.62
277.494	92.62
277.726	79.62
277.957	90.62
278.189	75.62
278.421	84.62
278.652	81.62
278.884	87.62
279.115	88.62
279.347	88.62
279.579	98.62
279.81	93.62
280.042	82.62
280.273	89.62
280.505	87.62
280.736	92.62
280.968	91.62
281.199	82.62
281.431	95.62
281.662	80.62
281.894	82.62
282.125	91.62
282.356	102.62
282.588	119.62
282.819	102.62
283.051	89.62
283.282	72.62
283.513	85.62
283.745	97.62
283.976	87.62
284.207	99.62
284.439	92.62
284.67	93.62
284.901	84.62
285.132	82.62
285.364	89.62
285.595	97.62
285.826	97.62
286.057	87.62
286.288	91.62
286.52	77.62
286.751	94.62
286.982	82.62
287.213	89.62
287.444	84.62
287.675	91.62
287.906	90.62
288.138	103.62
288.369	89.62
288.6	103.62
288.831	88.62
289.062	89.62
289.293	85.62
289.524	82.62
289.755	83.62
289.986	86.62
290.217	83.62
290.448	89.62
290.679	97.62
290.91	94.62
291.141	95.62
291.371	87.62
291.602	90.62
291.833	90.62
292.064	72.62
292.295	82.62
292.526	82.62
292.757	64.62
292.987	97.62
293.218	82.62
293.449	87.62
293.68	83.62
293.91	93.62
294.141	87.62
294.372	79.62
294.603	83.62
294.833	94.62
295.064	83.62
295.295	99.62
295.525	96.62
295.756	105.62
295.987	133.62
296.217	135.62
296.448	101.62
296.679	89.62
296.909	92.62
297.14	91.62
297.37	91.62
297.601	85.62
297.831	82.62
298.062	83.62
298.292	98.62
298.523	92.62
298.753	89.62
298.984	87.62
299.214	97.62
299.445	93.62
299.675	103.62
299.905	101.62
300.136	90.62
300.366	89.62
300.597	96.62
300.827	91.62
301.057	101.62
301.288	106.62
301.518	83.62
301.748	92.62
301.979	95.62
302.209	84.62
302.439	94.62
302.669	83.62
302.9	98.62
303.13	89.62
303.36	102.62
303.59	86.62
303.82	102.62
304.051	93.62
304.281	87.62
304.511	96.62
304.741	76.62
304.971	81.62
305.201	88.62
305.431	92.62
305.661	97.62
305.891	91.62
306.121	84.62
306.352	101.62
306.582	124.62
306.812	98.62
307.042	87.62
307.272	91.62
307.502	98.62
307.731	102.62
307.961	93.62
308.191	93.62
308.421	93.62
308.651	93.62
308.881	97.62
309.111	92.62
309.341	83.62
309.571	89.62
309.8	92.62
310.03	103.62
310.26	106.62
310.49	89.62
310.72	100.62
310.949	91.62
311.179	105.62
311.409	107.62
311.639	95.62
311.868	90.62
312.098	81.62
312.328	100.62
312.557	104.62
312.787	100.62
313.017	99.62
313.246	103.62
313.476	94.62
313.706	81.62
313.935	88.62
314.165	85.62
314.394	87.62
314.624	82.62
314.853	97.62
315.083	93.62
315.312	92.62
315.542	83.62
315.771	84.62
316.001	92.62
316.23	86.62
316.46	85.62
316.689	90.62
316.919	93.62
317.148	100.62
317.377	96.62
317.607	97.62
317.836	89.62
318.065	105.62
318.295	91.62
318.524	92.62
318.753	90.62
318.983	93.62
319.212	93.62
319.441	100.62
319.67	103.62
319.9	84.62
320.129	88.62
320.358	88.62
320.587	96.62
320.816	92.62
321.046	93.62
321.275	99.62
321.504	95.62
321.733	99.62
321.962	97.62
322.191	103.62
322.42	103.62
322.649	109.62
322.878	103.62
323.108	120.62
323.337	120.62
323.566	125.62
323.795	145.62
324.024	196.62
324.253	376.62
324.482	779.62
324.71	1607.62
324.939	2083.62
325.168	779.62
325.397	248.62
325.626	152.62
325.855	117.62
326.084	140.62
326.313	142.62
326.542	167.62
326.77	236.62
326.999	472.62
327.228	938.62
327.457	1632.62
327.686	1315.62
327.914	362.62
328.143	193.62
328.372	138.62
328.6	104.62
328.829	100.62
329.058	129.62
329.287	124.62
329.515	105.62
329.744	111.62
329.972	87.62
330.201	93.62
330.43	114.62
330.658	105.62
330.887	132.62
331.115	116.62
331.344	95.62
331.572	103.62
331.801	100.62
332.03	106.62
332.258	98.62
332.486	99.62
332.715	90.62
332.943	79.62
333.172	107.62
333.4	109.62
333.629	97.62
333.857	118.62
334.085	100.62
334.314	83.62
334.542	115.62
334.771	107.62
334.999	97.62
335.227	112.62
335.455	108.62
335.684	98.62
335.912	95.62
336.14	111.62
336.369	93.62
336.597	96.62
336.825	92.62
337.053	94.62
337.281	80.62
337.51	93.62
337.738	96.62
337.966	92.62
338.194	106.62
338.422	95.62
338.65	92.62
338.878	93.62
339.106	99.62
339.334	84.62
339.562	86.62
339.79	87.62
340.018	93.62
340.246	103.62
340.474	90.62
340.702	112.62
340.93	77.62
341.158	84.62
341.386	98.62
341.614	95.62
341.842	89.62
342.07	95.62
342.298	88.62
342.526	92.62
342.754	85.62
342.981	112.62
343.209	97.62
343.437	101.62
343.665	96.62
343.893	96.62
344.12	93.62
344.348	104.62
344.576	76.62
344.804	93.62
345.031	98.62
345.259	101.62
345.487	90.62
345.714	94.62
345.942	87.62
346.17	82.62
346.397	103.62
346.625	99.62
346.853	102.62
347.08	77.62
347.308	104.62
347.535	105.62
347.763	103.62
347.99	99.62
348.218	97.62
348.445	94.62
348.673	98.62
348.9	93.62
349.128	92.62
349.355	96.62
349.583	90.62
349.81	103.62
350.037	96.62
350.265	93.62
350.492	83.62
350.72	99.62
350.947	96.62
351.174	111.62
351.402	112.62
351.629	104.62
351.856	91.62
352.083	100.62
352.311	106.62
352.538	105.62
352.765	104.62
352.992	106.62
353.22	116.62
353.447	101.62
353.674	97.62
353.901	99.62
354.128	103.62
354.355	94.62
354.583	96.62
354.81	97.62
355.037	92.62
355.264	109.62
355.491	79.62
355.718	89.62
355.945	106.62
356.172	97.62
356.399	99.62
356.626	105.62
356.853	100.62
357.08	107.62
357.307	94.62
357.534	84.62
357.761	85.62
357.988	91.62
358.215	99.62
358.441	93.62
358.668	89.62
358.895	96.62
359.122	93.62
359.349	84.62
359.576	106.62
359.802	109.62
360.029	99.62
360.256	112.62
360.483	107.62
360.709	92.62
360.936	88.62
361.163	104.62
361.39	100.62
361.616	95.62
361.843	94.62
362.07	92.62
362.296	96.62
362.523	92.62
362.749	87.62
362.976	83.62
363.203	92.62
363.429	92.62
363.656	89.62
363.882	90.62
364.109	76.62
364.335	95.62
364.562	85.62
364.788	92.62
365.015	92.62
365.241	103.62
365.468	89.62
365.694	88.62
365.92	81.62
366.147	83.62
366.373	97.62
366.599	106.62
366.826	78.62
367.052	91.62
367.278	92.62
367.505	96.62
367.731	90.62
367.957	94.62
368.184	91.62
368.41	105.62
368.636	111.62
368.862	117.62
369.089	99.62
369.315	88.62
369.541	98.62
369.767	83.62
369.993	93.62
370.219	93.62
370.445	80.62
370.672	90.62
370.898	92.62
371.124	85.62
371.35	97.62
371.576	90.62
371.802	79.62
372.028	103.62
372.254	90.62
372.48	73.62
372.706	77.62
372.932	92.62
373.158	94.62
373.384	96.62
373.61	96.62
373.835	87.62
374.061	84.62
374.287	102.62
374.513	96.62
374.739	93.62
374.965	93.62
375.191	88.62
375.416	97.62
375.642	101.62
375.868	107.62
376.094	102.62
376.319	86.62
376.545	111.62
376.771	101.62
376.997	92.62
377.222	92.62
377.448	92.62
377.674	98.62
377.899	87.62
378.125	88.62
378.35	92.62
378.576	92.62
378.802	100.62
379.027	91.62
379.253	93.62
379.478	88.62
379.704	89.62
379.929	88.62
380.155	99.62
380.38	106.62
380.606	94.62
380.831	85.62
381.057	103.62
381.282	105.62
381.507	87.62
381.733	105.62
381.958	88.62
382.184	90.62
382.409	105.62
382.634	112.62
382.86	97.62
383.085	124.62
383.31	120.62
383.535	108.62
383.761	107.62
383.986	107.62
384.211	103.62
384.436	104.62
384.662	116.62
384.887	122.62
385.112	104.62
385.337	129.62
385.562	118.62
385.787	108.62
386.013	127.62
386.238	127.62
386.463	124.62
386.688	120.62
386.913	121.62
387.138	119.62
387.363	114.62
387.588	104.62
387.813	110.62
388.038	129.62
388.263	135.62
388.488	115.62
388.713	106.62
388.938	91.62
389.163	102.62
389.387	89.62
389.612	91.62
389.837	82.62
390.062	100.62
390.287	95.62
390.512	98.62
390.736	73.62
390.961	89.62
391.186	84.62
391.411	91.62
391.636	91.62
391.86	76.62
392.085	94.62
392.31	89.62
392.534	89.62
392.759	92.62
392.984	101.62
393.208	98.62
393.433	96.62
393.658	84.62
393.882	80.62
394.107	87.62
394.331	83.62
394.556	95.62
394.78	83.62
395.005	95.62
395.229	75.62
395.454	93.62
395.678	91.62
395.903	98.62
396.127	77.62
396.352	90.62
396.576	91.62
396.801	83.62
397.025	94.62
397.249	90.62
397.474	87.62
397.698	97.62
397.922	86.62
398.147	91.62
398.371	91.62
398.595	84.62
398.82	84.62
399.044	84.62
399.268	89.62
399.492	91.62
399.717	85.62
399.941	104.62
400.165	91.62
400.389	106.62
400.613	88.62
400.837	85.62
401.062	80.62
401.286	80.62
401.51	98.62
401.734	106.62
401.958	97.62
402.182	116.62
402.406	147.62
402.63	106.62
402.854	92.62
403.078	107.62
403.302	88.62
403.526	89.62
403.75	84.62
403.974	81.62
404.198	78.62
404.422	98.62
404.645	82.62
404.869	91.62
405.093	93.62
405.317	103.62
405.541	104.62
405.765	93.62
405.988	118.62
406.212	160.62
406.436	204.62
406.66	152.62
406.883	94.62
407.107	91.62
407.331	97.62
407.555	91.62
407.778	89.62
408.002	86.62
408.226	93.62
408.449	91.62
408.673	82.62
408.896	104.62
409.12	89.62
409.344	98.62
409.567	90.62
409.791	103.62
410.014	104.62
410.238	79.62
410.461	85.62
410.685	97.62
410.908	103.62
411.132	105.62
411.355	86.62
411.578	97.62
411.802	96.62
412.025	91.62
412.249	76.62
412.472	94.62
412.695	90.62
412.919	86.62
413.142	85.62
413.365	104.62
413.589	86.62
413.812	112.62
414.035	85.62
414.258	86.62
414.482	72.62
414.705	83.62
414.928	96.62
415.151	107.62
415.374	101.62
415.597	97.62
415.821	85.62
416.044	89.62
416.267	88.62
416.49	93.62
416.713	95.62
416.936	94.62
417.159	96.62
417.382	92.62
417.605	106.62
417.828	103.62
418.051	104.62
418.274	92.62
418.497	91.62
418.72	92.62
418.943	87.62
419.166	79.62
419.389	91.62
419.611	95.62
419.834	82.62
420.057	97.62
420.28	96.62
420.503	85.62
420.726	88.62
420.948	91.62
421.171	92.62
421.394	112.62
421.617	91.62
421.839	84.62
422.062	90.62
422.285	95.62
422.507	85.62
422.73	95.62
422.953	97.62
423.175	89.62
423.398	97.62
423.621	87.62
423.843	84.62
424.066	97.62
424.288	102.62
424.511	97.62
424.733	95.62
424.956	130.62
425.178	102.62
425.401	96.62
425.623	107.62
425.846	95.62
426.068	105.62
426.291	98.62
426.513	88.62
426.735	94.62
426.958	107.62
427.18	122.62
427.402	136.62
427.625	157.62
427.847	135.62
428.069	103.62
428.292	94.62
428.514	77.62
428.736	99.62
428.958	84.62
429.181	97.62
429.403	93.62
429.625	88.62
429.847	92.62
430.069	92.62
430.292	90.62
430.514	83.62
430.736	86.62
430.958	100.62
431.18	96.62
431.402	94.62
431.624	83.62
431.846	91.62
432.068	77.62
432.29	87.62
432.512	78.62
432.734	82.62
432.956	88.62
433.178	101.62
433.4	91.62
433.622	97.62
433.844	91.62
434.066	107.62
434.287	91.62
434.509	99.62
434.731	83.62
434.953	97.62
435.175	96.62
435.397	97.62
435.618	92.62
435.84	107.62
436.062	121.62
436.284	112.62
436.505	101.62
436.727	92.62
436.949	84.62
437.17	83.62
437.392	80.62
437.614	85.62
437.835	103.62
438.057	109.62
438.278	100.62
438.5	97.62
438.721	109.62
438.943	91.62
439.165	87.62
439.386	89.62
439.608	79.62
439.829	90.62
440.05	109.62
440.272	141.62
440.493	92.62
440.715	82.62
440.936	94.62
441.158	93.62
441.379	92.62
441.6	88.62
441.822	93.62
442.043	101.62
442.264	103.62
442.486	102.62
442.707	99.62
442.928	96.62
443.149	115.62
443.371	122.62
443.592	97.62
443.813	113.62
444.034	110.62
444.255	90.62
444.476	87.62
444.698	94.62
444.919	89.62
445.14	138.62
445.361	128.62
445.582	118.62
445.803	125.62
446.024	123.62
446.245	133.62
446.466	113.62
446.687	100.62
446.908	84.62
447.129	87.62
447.35	86.62
447.571	89.62
447.792	83.62
448.013	101.62
448.234	112.62
448.455	82.62
448.675	103.62
448.896	107.62
449.117	104.62
449.338	108.62
449.559	131.62
449.779	124.62
450	90.62
450.221	98.62
450.442	87.62
450.662	97.62
450.883	103.62
451.104	106.62
451.324	111.62
451.545	90.62
451.766	90.62
451.986	81.62
452.207	106.62
452.428	83.62
452.648	93.62
452.869	121.62
453.089	104.62
453.31	110.62
453.53	85.62
453.751	86.62
453.971	106.62
454.192	101.62
454.412	108.62
454.633	83.62
454.853	88.62
455.073	89.62
455.294	99.62
455.514	88.62
455.734	107.62
455.955	91.62
456.175	81.62
456.395	91.62
456.616	76.62
456.836	103.62
457.056	85.62
457.276	92.62
457.497	93.62
457.717	94.62
457.937	97.62
458.157	99.62
458.377	86.62
458.598	92.62
458.818	124.62
459.038	145.62
459.258	115.62
459.478	102.62
459.698	96.62
459.918	94.62
460.138	104.62
460.358	93.62
460.578	77.62
460.798	87.62
461.018	89.62
461.238	91.62
461.458	103.62
461.678	90.62
461.898	82.62
462.118	77.62
462.338	93.62
462.558	83.62
462.777	84.62
462.997	96.62
463.217	101.62
463.437	99.62
463.657	82.62
463.876	88.62
464.096	97.62
464.316	86.62
464.536	93.62
464.755	99.62
464.975	101.62
465.195	148.62
465.414	135.62
465.634	100.62
465.854	100.62
466.073	100.62
466.293	79.62
466.512	84.62
466.732	93.62
466.951	83.62
467.171	100.62
467.391	97.62
467.61	100.62
467.829	96.62
468.049	94.62
468.268	89.62
468.488	80.62
468.707	100.62
468.927	87.62
469.146	79.62
469.365	90.62
469.585	90.62
469.804	100.62
470.023	99.62
470.243	93.62
470.462	96.62
470.681	91.62
470.901	98.62
471.12	95.62
471.339	75.62
471.558	98.62
471.777	78.62
471.997	80.62
472.216	118.62
472.435	121.62
472.654	95.62
472.873	86.62
473.092	104.62
473.311	114.62
473.53	103.62
473.749	90.62
473.968	81.62
474.187	103.62
474.406	102.62
474.625	79.62
474.844	98.62
475.063	89.62
475.282	90.62
475.501	99.62
475.72	100.62
475.939	86.62
476.158	88.62
476.377	98.62
476.596	92.62
476.814	83.62
477.033	93.62
477.252	93.62
477.471	98.62
477.69	82.62
477.908	88.62
478.127	87.62
478.346	89.62
478.564	80.62
478.783	90.62
479.002	88.62
479.22	87.62
479.439	96.62
479.658	97.62
479.876	82.62
480.095	84.62
480.313	89.62
480.532	81.62
480.751	96.62
480.969	101.62
481.188	124.62
481.406	119.62
481.624	92.62
481.843	85.62
482.061	93.62
482.28	102.62
482.498	104.62
482.717	86.62
482.935	100.62
483.153	89.62
483.372	84.62
483.59	105.62
483.808	98.62
484.027	85.62
484.245	94.62
484.463	92.62
484.681	95.62
484.9	107.62
485.118	98.62
485.336	97.62
485.554	107.62
485.772	101.62
485.99	109.62
486.209	102.62
486.427	111.62
486.645	102.62
486.863	107.62
487.081	93.62
487.299	96.62
487.517	107.62
487.735	97.62
487.953	89.62
488.171	92.62
488.389	99.62
488.607	105.62
488.825	104.62
489.043	100.62
489.261	102.62
489.479	91.62
489.696	91.62
489.914	78.62
490.132	91.62
490.35	105.62
490.568	97.62
490.786	84.62
491.003	84.62
491.221	100.62
491.439	100.62
491.657	106.62
491.874	88.62
492.092	85.62
492.31	104.62
492.527	95.62
492.745	89.62
492.963	91.62
493.18	90.62
493.398	85.62
493.615	97.62
493.833	96.62
494.05	82.62
494.268	88.62
494.485	86.62
494.703	89.62
494.92	103.62
495.138	82.62
495.355	75.62
495.573	90.62
495.79	101.62
496.008	96.62
496.225	103.62
496.442	84.62
496.66	87.62
496.877	99.62
497.094	88.62
497.312	80.62
497.529	88.62
497.746	99.62
497.963	97.62
498.181	96.62
498.398	98.62
498.615	100.62
498.832	98.62
499.049	83.62
499.267	85.62
499.484	82.62
499.701	88.62
499.918	83.62
500.135	84.62
500.352	85.62
500.569	93.62
500.786	107.62
501.003	78.62
501.22	95.62
501.437	87.62
501.654	106.62
501.871	100.62
502.088	97.62
502.305	95.62
502.522	99.62
502.739	89.62
502.956	86.62
503.172	86.62
503.389	93.62
503.606	99.62
503.823	98.62
504.04	77.62
504.256	99.62
504.473	86.62
504.69	91.62
504.907	100.62
505.123	89.62
505.34	97.62
505.557	97.62
505.773	80.62
505.99	83.62
506.207	91.62
506.423	90.62
506.64	92.62
506.856	87.62
507.073	88.62
507.289	98.62
507.506	95.62
507.722	109.62
507.939	115.62
508.155	102.62
508.372	84.62
508.588	91.62
508.805	77.62
509.021	100.62
509.238	85.62
509.454	111.62
509.67	99.62
509.887	96.62
510.103	120.62
510.319	205.62
510.536	723.62
510.752	2288.62
510.968	623.62
511.184	155.62
511.401	113.62
511.617	97.62
511.833	90.62
512.049	76.62
512.265	97.62
512.481	94.62
512.698	87.62
512.914	104.62
513.13	100.62
513.346	85.62
513.562	95.62
513.778	89.62
513.994	103.62
514.21	101.62
514.426	109.62
514.642	118.62
514.858	121.62
515.074	157.62
515.29	400.62
