Data from Circ_2003_H10_HRD10591_00055.txt Node
Date: Wed Jan 03 10:37:13 EST 2024
User: Yrep
Spectrometer: HR+D1059
Trigger mode: 1
Integration Time (sec): 1.000000E-1
Scans to average: 1
Electric dark correction enabled: true
Nonlinearity correction enabled: false
Boxcar width: 0
XAxis mode: Wavelengths
Number of Pixels in Spectrum: 2048
>>>>>Begin Spectral Data<<<<<
223.165	-13.62
223.4	-13.62
223.635	-13.62
223.869	-10.62
224.104	-20.62
224.338	-17.62
224.573	-14.62
224.808	-1.62
225.042	-13.62
225.277	2.38
225.511	-5.62
225.746	2.38
225.98	5.38
226.215	-0.62
226.449	16.38
226.683	29.38
226.918	20.38
227.152	22.38
227.387	34.38
227.621	44.38
227.856	41.38
228.09	32.38
228.324	54.38
228.559	50.38
228.793	70.38
229.027	76.38
229.262	57.38
229.496	75.38
229.73	92.38
229.964	69.38
230.199	77.38
230.433	78.38
230.667	81.38
230.901	65.38
231.136	71.38
231.37	70.38
231.604	76.38
231.838	87.38
232.072	74.38
232.306	80.38
232.541	78.38
232.775	80.38
233.009	86.38
233.243	88.38
233.477	79.38
233.711	88.38
233.945	88.38
234.179	87.38
234.413	88.38
234.647	73.38
234.881	80.38
235.115	58.38
235.349	84.38
235.583	70.38
235.817	84.38
236.051	92.38
236.285	83.38
236.519	72.38
236.753	83.38
236.987	79.38
237.221	81.38
237.455	86.38
237.689	65.38
237.922	85.38
238.156	80.38
238.39	76.38
238.624	67.38
238.858	80.38
239.091	67.38
239.325	73.38
239.559	89.38
239.793	77.38
240.027	68.38
240.26	72.38
240.494	71.38
240.728	76.38
240.961	80.38
241.195	90.38
241.429	75.38
241.662	68.38
241.896	78.38
242.13	75.38
242.363	72.38
242.597	82.38
242.83	81.38
243.064	64.38
243.298	80.38
243.531	66.38
243.765	81.38
243.998	86.38
244.232	83.38
244.465	94.38
244.699	80.38
244.932	89.38
245.166	87.38
245.399	74.38
245.633	66.38
245.866	69.38
246.099	80.38
246.333	83.38
246.566	99.38
246.8	68.38
247.033	86.38
247.266	77.38
247.5	87.38
247.733	87.38
247.966	91.38
248.2	80.38
248.433	72.38
248.666	82.38
248.899	87.38
249.133	75.38
249.366	103.38
249.599	91.38
249.832	80.38
250.066	87.38
250.299	69.38
250.532	78.38
250.765	74.38
250.998	88.38
251.231	65.38
251.465	72.38
251.698	72.38
251.931	71.38
252.164	83.38
252.397	89.38
252.63	91.38
252.863	90.38
253.096	76.38
253.329	80.38
253.562	69.38
253.795	94.38
254.028	75.38
254.261	78.38
254.494	85.38
254.727	80.38
254.96	94.38
255.193	78.38
255.426	86.38
255.659	73.38
255.892	75.38
256.124	76.38
256.357	84.38
256.59	71.38
256.823	78.38
257.056	83.38
257.289	77.38
257.521	81.38
257.754	82.38
257.987	68.38
258.22	90.38
258.452	70.38
258.685	80.38
258.918	80.38
259.151	83.38
259.383	77.38
259.616	82.38
259.849	80.38
260.081	78.38
260.314	80.38
260.547	85.38
260.779	74.38
261.012	74.38
261.244	95.38
261.477	89.38
261.71	88.38
261.942	115.38
262.175	100.38
262.407	97.38
262.64	76.38
262.872	82.38
263.105	96.38
263.337	77.38
263.57	91.38
263.802	88.38
264.035	66.38
264.267	81.38
264.499	90.38
264.732	78.38
264.964	76.38
265.197	82.38
265.429	84.38
265.661	90.38
265.894	83.38
266.126	83.38
266.358	83.38
266.591	93.38
266.823	95.38
267.055	94.38
267.287	81.38
267.52	80.38
267.752	95.38
267.984	89.38
268.216	85.38
268.448	91.38
268.681	95.38
268.913	90.38
269.145	67.38
269.377	92.38
269.609	80.38
269.841	74.38
270.073	82.38
270.306	87.38
270.538	91.38
270.77	81.38
271.002	88.38
271.234	82.38
271.466	83.38
271.698	82.38
271.93	85.38
272.162	75.38
272.394	92.38
272.626	86.38
272.858	88.38
273.09	88.38
273.322	83.38
273.553	88.38
273.785	83.38
274.017	87.38
274.249	83.38
274.481	84.38
274.713	90.38
274.945	91.38
275.176	85.38
275.408	79.38
275.64	75.38
275.872	77.38
276.104	88.38
276.335	96.38
276.567	103.38
276.799	102.38
277.031	103.38
277.262	82.38
277.494	94.38
277.726	86.38
277.957	100.38
278.189	82.38
278.421	89.38
278.652	71.38
278.884	99.38
279.115	85.38
279.347	76.38
279.579	91.38
279.81	95.38
280.042	82.38
280.273	94.38
280.505	88.38
280.736	78.38
280.968	103.38
281.199	86.38
281.431	84.38
281.662	92.38
281.894	72.38
282.125	72.38
282.356	123.38
282.588	134.38
282.819	132.38
283.051	94.38
283.282	88.38
283.513	82.38
283.745	88.38
283.976	90.38
284.207	89.38
284.439	90.38
284.67	79.38
284.901	78.38
285.132	86.38
285.364	75.38
285.595	92.38
285.826	83.38
286.057	91.38
286.288	100.38
286.52	90.38
286.751	91.38
286.982	85.38
287.213	95.38
287.444	96.38
287.675	99.38
287.906	99.38
288.138	95.38
288.369	85.38
288.6	104.38
288.831	91.38
289.062	80.38
289.293	87.38
289.524	91.38
289.755	94.38
289.986	93.38
290.217	72.38
290.448	78.38
290.679	86.38
290.91	81.38
291.141	90.38
291.371	80.38
291.602	96.38
291.833	81.38
292.064	78.38
292.295	87.38
292.526	84.38
292.757	89.38
292.987	93.38
293.218	94.38
293.449	82.38
293.68	84.38
293.91	89.38
294.141	90.38
294.372	97.38
294.603	99.38
294.833	97.38
295.064	80.38
295.295	86.38
295.525	97.38
295.756	94.38
295.987	107.38
296.217	140.38
296.448	123.38
296.679	86.38
296.909	87.38
297.14	96.38
297.37	91.38
297.601	79.38
297.831	88.38
298.062	87.38
298.292	83.38
298.523	92.38
298.753	81.38
298.984	97.38
299.214	87.38
299.445	84.38
299.675	92.38
299.905	92.38
300.136	107.38
300.366	81.38
300.597	99.38
300.827	98.38
301.057	91.38
301.288	104.38
301.518	95.38
301.748	86.38
301.979	95.38
302.209	102.38
302.439	117.38
302.669	91.38
302.9	88.38
303.13	89.38
303.36	112.38
303.59	99.38
303.82	98.38
304.051	102.38
304.281	83.38
304.511	88.38
304.741	82.38
304.971	87.38
305.201	98.38
305.431	70.38
305.661	85.38
305.891	81.38
306.121	96.38
306.352	104.38
306.582	90.38
306.812	95.38
307.042	103.38
307.272	89.38
307.502	98.38
307.731	82.38
307.961	86.38
308.191	92.38
308.421	84.38
308.651	86.38
308.881	89.38
309.111	102.38
309.341	82.38
309.571	98.38
309.8	99.38
310.03	103.38
310.26	93.38
310.49	103.38
310.72	97.38
310.949	104.38
311.179	107.38
311.409	93.38
311.639	99.38
311.868	107.38
312.098	92.38
312.328	89.38
312.557	98.38
312.787	116.38
313.017	107.38
313.246	106.38
313.476	91.38
313.706	96.38
313.935	103.38
314.165	102.38
314.394	103.38
314.624	99.38
314.853	104.38
315.083	89.38
315.312	99.38
315.542	87.38
315.771	83.38
316.001	87.38
316.23	80.38
316.46	91.38
316.689	84.38
316.919	103.38
317.148	86.38
317.377	107.38
317.607	87.38
317.836	103.38
318.065	90.38
318.295	92.38
318.524	84.38
318.753	99.38
318.983	104.38
319.212	103.38
319.441	114.38
319.67	91.38
319.9	100.38
320.129	79.38
320.358	91.38
320.587	99.38
320.816	93.38
321.046	91.38
321.275	100.38
321.504	83.38
321.733	95.38
321.962	95.38
322.191	89.38
322.42	120.38
322.649	112.38
322.878	115.38
323.108	121.38
323.337	120.38
323.566	119.38
323.795	158.38
324.024	203.38
324.253	376.38
324.482	792.38
324.71	1645.38
324.939	2132.38
325.168	791.38
325.397	242.38
325.626	128.38
325.855	129.38
326.084	128.38
326.313	128.38
326.542	164.38
326.77	224.38
326.999	446.38
327.228	920.38
327.457	1676.38
327.686	1292.38
327.914	372.38
328.143	193.38
328.372	174.38
328.6	126.38
328.829	98.38
329.058	116.38
329.287	138.38
329.515	110.38
329.744	107.38
329.972	116.38
330.201	114.38
330.43	143.38
330.658	126.38
330.887	147.38
331.115	122.38
331.344	88.38
331.572	95.38
331.801	91.38
332.03	102.38
332.258	94.38
332.486	106.38
332.715	100.38
332.943	97.38
333.172	91.38
333.4	91.38
333.629	98.38
333.857	110.38
334.085	115.38
334.314	118.38
334.542	146.38
334.771	145.38
334.999	110.38
335.227	103.38
335.455	96.38
335.684	98.38
335.912	103.38
336.14	103.38
336.369	101.38
336.597	128.38
336.825	104.38
337.053	81.38
337.281	97.38
337.51	86.38
337.738	100.38
337.966	92.38
338.194	85.38
338.422	94.38
338.65	98.38
338.878	98.38
339.106	83.38
339.334	96.38
339.562	92.38
339.79	91.38
340.018	86.38
340.246	93.38
340.474	98.38
340.702	101.38
340.93	88.38
341.158	91.38
341.386	93.38
341.614	93.38
341.842	101.38
342.07	81.38
342.298	89.38
342.526	96.38
342.754	89.38
342.981	107.38
343.209	94.38
343.437	107.38
343.665	83.38
343.893	87.38
344.12	106.38
344.348	76.38
344.576	104.38
344.804	97.38
345.031	96.38
345.259	92.38
345.487	89.38
345.714	84.38
345.942	95.38
346.17	107.38
346.397	78.38
346.625	87.38
346.853	103.38
347.08	99.38
347.308	91.38
347.535	99.38
347.763	94.38
347.99	100.38
348.218	112.38
348.445	109.38
348.673	97.38
348.9	100.38
349.128	110.38
349.355	88.38
349.583	87.38
349.81	114.38
350.037	85.38
350.265	92.38
350.492	99.38
350.72	86.38
350.947	112.38
351.174	109.38
351.402	109.38
351.629	88.38
351.856	105.38
352.083	95.38
352.311	112.38
352.538	121.38
352.765	107.38
352.992	123.38
353.22	117.38
353.447	90.38
353.674	112.38
353.901	96.38
354.128	92.38
354.355	89.38
354.583	100.38
354.81	86.38
355.037	87.38
355.264	87.38
355.491	97.38
355.718	96.38
355.945	90.38
356.172	108.38
356.399	97.38
356.626	87.38
356.853	79.38
357.08	90.38
357.307	100.38
357.534	85.38
357.761	87.38
357.988	103.38
358.215	89.38
358.441	99.38
358.668	90.38
358.895	91.38
359.122	81.38
359.349	79.38
359.576	105.38
359.802	99.38
360.029	105.38
360.256	112.38
360.483	93.38
360.709	90.38
360.936	93.38
361.163	91.38
361.39	102.38
361.616	91.38
361.843	94.38
362.07	94.38
362.296	105.38
362.523	103.38
362.749	101.38
362.976	100.38
363.203	87.38
363.429	81.38
363.656	75.38
363.882	88.38
364.109	93.38
364.335	97.38
364.562	78.38
364.788	80.38
365.015	87.38
365.241	104.38
365.468	111.38
365.694	111.38
365.92	108.38
366.147	102.38
366.373	82.38
366.599	90.38
366.826	87.38
367.052	106.38
367.278	97.38
367.505	84.38
367.731	84.38
367.957	89.38
368.184	75.38
368.41	97.38
368.636	85.38
368.862	105.38
369.089	98.38
369.315	111.38
369.541	98.38
369.767	90.38
369.993	102.38
370.219	89.38
370.445	90.38
370.672	82.38
370.898	88.38
371.124	94.38
371.35	94.38
371.576	96.38
371.802	90.38
372.028	83.38
372.254	86.38
372.48	97.38
372.706	85.38
372.932	86.38
373.158	76.38
373.384	84.38
373.61	90.38
373.835	92.38
374.061	86.38
374.287	87.38
374.513	84.38
374.739	97.38
374.965	89.38
375.191	85.38
375.416	91.38
375.642	87.38
375.868	90.38
376.094	90.38
376.319	94.38
376.545	104.38
376.771	78.38
376.997	92.38
377.222	65.38
377.448	82.38
377.674	91.38
377.899	95.38
378.125	100.38
378.35	89.38
378.576	83.38
378.802	96.38
379.027	99.38
379.253	100.38
379.478	91.38
379.704	92.38
379.929	101.38
380.155	92.38
380.38	88.38
380.606	86.38
380.831	92.38
381.057	94.38
381.282	103.38
381.507	106.38
381.733	86.38
381.958	106.38
382.184	100.38
382.409	102.38
382.634	114.38
382.86	102.38
383.085	101.38
383.31	102.38
383.535	112.38
383.761	109.38
383.986	91.38
384.211	89.38
384.436	101.38
384.662	101.38
384.887	103.38
385.112	108.38
385.337	108.38
385.562	111.38
385.787	120.38
386.013	105.38
386.238	120.38
386.463	114.38
386.688	107.38
386.913	113.38
387.138	115.38
387.363	92.38
387.588	103.38
387.813	119.38
388.038	96.38
388.263	120.38
388.488	110.38
388.713	93.38
388.938	97.38
389.163	83.38
389.387	96.38
389.612	87.38
389.837	92.38
390.062	81.38
390.287	104.38
390.512	94.38
390.736	90.38
390.961	86.38
391.186	106.38
391.411	96.38
391.636	82.38
391.86	89.38
392.085	92.38
392.31	96.38
392.534	106.38
392.759	98.38
392.984	86.38
393.208	103.38
393.433	96.38
393.658	100.38
393.882	92.38
394.107	91.38
394.331	86.38
394.556	79.38
394.78	93.38
395.005	97.38
395.229	84.38
395.454	85.38
395.678	99.38
395.903	94.38
396.127	84.38
396.352	71.38
396.576	88.38
396.801	93.38
397.025	96.38
397.249	101.38
397.474	100.38
397.698	90.38
397.922	89.38
398.147	89.38
398.371	98.38
398.595	86.38
398.82	88.38
399.044	84.38
399.268	87.38
399.492	95.38
399.717	86.38
399.941	78.38
400.165	90.38
400.389	95.38
400.613	90.38
400.837	77.38
401.062	99.38
401.286	82.38
401.51	95.38
401.734	85.38
401.958	112.38
402.182	133.38
402.406	147.38
402.63	122.38
402.854	82.38
403.078	97.38
403.302	86.38
403.526	88.38
403.75	85.38
403.974	74.38
404.198	80.38
404.422	97.38
404.645	91.38
404.869	94.38
405.093	106.38
405.317	111.38
405.541	89.38
405.765	92.38
405.988	112.38
406.212	160.38
406.436	214.38
406.66	132.38
406.883	102.38
407.107	88.38
407.331	102.38
407.555	104.38
407.778	116.38
408.002	96.38
408.226	78.38
408.449	99.38
408.673	103.38
408.896	93.38
409.12	98.38
409.344	97.38
409.567	99.38
409.791	91.38
410.014	87.38
410.238	100.38
410.461	101.38
410.685	89.38
410.908	107.38
411.132	106.38
411.355	95.38
411.578	85.38
411.802	102.38
412.025	73.38
412.249	91.38
412.472	92.38
412.695	95.38
412.919	90.38
413.142	94.38
413.365	84.38
413.589	88.38
413.812	89.38
414.035	94.38
414.258	104.38
414.482	92.38
414.705	86.38
414.928	87.38
415.151	95.38
415.374	72.38
415.597	98.38
415.821	99.38
416.044	88.38
416.267	85.38
416.49	110.38
416.713	103.38
416.936	97.38
417.159	90.38
417.382	81.38
417.605	90.38
417.828	99.38
418.051	102.38
418.274	105.38
418.497	94.38
418.72	83.38
418.943	91.38
419.166	100.38
419.389	92.38
419.611	70.38
419.834	99.38
420.057	86.38
420.28	92.38
420.503	86.38
420.726	88.38
420.948	91.38
421.171	111.38
421.394	96.38
421.617	93.38
421.839	88.38
422.062	81.38
422.285	92.38
422.507	99.38
422.73	95.38
422.953	93.38
423.175	86.38
423.398	80.38
423.621	89.38
423.843	100.38
424.066	94.38
424.288	89.38
424.511	95.38
424.733	89.38
424.956	100.38
425.178	88.38
425.401	98.38
425.623	96.38
425.846	88.38
426.068	95.38
426.291	95.38
426.513	95.38
426.735	99.38
426.958	103.38
427.18	95.38
427.402	130.38
427.625	160.38
427.847	117.38
428.069	111.38
428.292	99.38
428.514	90.38
428.736	88.38
428.958	83.38
429.181	83.38
429.403	114.38
429.625	101.38
429.847	94.38
430.069	87.38
430.292	83.38
430.514	72.38
430.736	74.38
430.958	82.38
431.18	88.38
431.402	90.38
431.624	95.38
431.846	84.38
432.068	94.38
432.29	98.38
432.512	92.38
432.734	90.38
432.956	92.38
433.178	88.38
433.4	98.38
433.622	78.38
433.844	80.38
434.066	94.38
434.287	78.38
434.509	82.38
434.731	87.38
434.953	94.38
435.175	78.38
435.397	99.38
435.618	90.38
435.84	94.38
436.062	103.38
436.284	129.38
436.505	104.38
436.727	111.38
436.949	89.38
437.17	76.38
437.392	81.38
437.614	85.38
437.835	106.38
438.057	108.38
438.278	112.38
438.5	99.38
438.721	97.38
438.943	101.38
439.165	92.38
439.386	80.38
439.608	112.38
439.829	98.38
440.05	118.38
440.272	124.38
440.493	98.38
440.715	80.38
440.936	81.38
441.158	94.38
441.379	85.38
441.6	91.38
441.822	88.38
442.043	92.38
442.264	109.38
442.486	101.38
442.707	70.38
442.928	113.38
443.149	126.38
443.371	138.38
443.592	102.38
443.813	108.38
444.034	111.38
444.255	93.38
444.476	96.38
444.698	70.38
444.919	102.38
445.14	130.38
445.361	121.38
445.582	111.38
445.803	124.38
446.024	120.38
446.245	120.38
446.466	98.38
446.687	88.38
446.908	86.38
447.129	101.38
447.35	101.38
447.571	89.38
447.792	93.38
448.013	90.38
448.234	105.38
448.455	102.38
448.675	116.38
448.896	110.38
449.117	92.38
449.338	112.38
449.559	130.38
449.779	130.38
450	87.38
450.221	88.38
450.442	89.38
450.662	94.38
450.883	107.38
451.104	102.38
451.324	104.38
451.545	96.38
451.766	89.38
451.986	68.38
452.207	80.38
452.428	81.38
452.648	88.38
452.869	108.38
453.089	100.38
453.31	99.38
453.53	106.38
453.751	92.38
453.971	101.38
454.192	109.38
454.412	97.38
454.633	95.38
454.853	74.38
455.073	86.38
455.294	94.38
455.514	108.38
455.734	88.38
455.955	83.38
456.175	67.38
456.395	83.38
456.616	88.38
456.836	94.38
457.056	93.38
457.276	88.38
457.497	84.38
457.717	93.38
457.937	97.38
458.157	99.38
458.377	86.38
458.598	115.38
458.818	136.38
459.038	146.38
459.258	107.38
459.478	88.38
459.698	91.38
459.918	90.38
460.138	90.38
460.358	76.38
460.578	96.38
460.798	81.38
461.018	77.38
461.238	81.38
461.458	97.38
461.678	82.38
461.898	89.38
462.118	95.38
462.338	91.38
462.558	84.38
462.777	86.38
462.997	91.38
463.217	90.38
463.437	87.38
463.657	78.38
463.876	82.38
464.096	89.38
464.316	107.38
464.536	113.38
464.755	89.38
464.975	110.38
465.195	162.38
465.414	171.38
465.634	88.38
465.854	83.38
466.073	104.38
466.293	89.38
466.512	82.38
466.732	84.38
466.951	81.38
467.171	96.38
467.391	91.38
467.61	102.38
467.829	115.38
468.049	111.38
468.268	113.38
468.488	83.38
468.707	89.38
468.927	92.38
469.146	83.38
469.365	95.38
469.585	98.38
469.804	93.38
470.023	109.38
470.243	90.38
470.462	120.38
470.681	115.38
470.901	105.38
471.12	90.38
471.339	87.38
471.558	78.38
471.777	82.38
471.997	96.38
472.216	114.38
472.435	164.38
472.654	104.38
472.873	82.38
473.092	95.38
473.311	102.38
473.53	85.38
473.749	90.38
473.968	102.38
474.187	99.38
474.406	97.38
474.625	83.38
474.844	86.38
475.063	85.38
475.282	86.38
475.501	80.38
475.72	92.38
475.939	88.38
476.158	75.38
476.377	87.38
476.596	92.38
476.814	101.38
477.033	91.38
477.252	88.38
477.471	87.38
477.69	85.38
477.908	92.38
478.127	98.38
478.346	82.38
478.564	74.38
478.783	120.38
479.002	78.38
479.22	87.38
479.439	117.38
479.658	105.38
479.876	88.38
480.095	94.38
480.313	88.38
480.532	92.38
480.751	106.38
480.969	118.38
481.188	250.38
481.406	176.38
481.624	102.38
481.843	97.38
482.061	78.38
482.28	90.38
482.498	86.38
482.717	84.38
482.935	78.38
483.153	97.38
483.372	82.38
483.59	87.38
483.808	101.38
484.027	98.38
484.245	91.38
484.463	84.38
484.681	92.38
484.9	98.38
485.118	112.38
485.336	101.38
485.554	99.38
485.772	108.38
485.99	102.38
486.209	123.38
486.427	96.38
486.645	132.38
486.863	113.38
487.081	95.38
487.299	91.38
487.517	100.38
487.735	94.38
487.953	82.38
488.171	97.38
488.389	96.38
488.607	119.38
488.825	91.38
489.043	79.38
489.261	84.38
489.479	84.38
489.696	98.38
489.914	99.38
490.132	84.38
490.35	91.38
490.568	85.38
490.786	90.38
491.003	90.38
491.221	93.38
491.439	93.38
491.657	97.38
491.874	98.38
492.092	84.38
492.31	98.38
492.527	88.38
492.745	78.38
492.963	74.38
493.18	82.38
493.398	87.38
493.615	99.38
493.833	95.38
494.05	98.38
494.268	95.38
494.485	90.38
494.703	92.38
494.92	97.38
495.138	89.38
495.355	99.38
495.573	88.38
495.79	90.38
496.008	99.38
496.225	90.38
496.442	80.38
496.66	102.38
496.877	89.38
497.094	96.38
497.312	91.38
497.529	88.38
497.746	89.38
497.963	94.38
498.181	101.38
498.398	104.38
498.615	113.38
498.832	115.38
499.049	114.38
499.267	98.38
499.484	100.38
499.701	106.38
499.918	96.38
500.135	110.38
500.352	95.38
500.569	100.38
500.786	91.38
501.003	96.38
501.22	86.38
501.437	92.38
501.654	80.38
501.871	110.38
502.088	95.38
502.305	97.38
502.522	101.38
502.739	90.38
502.956	82.38
503.172	91.38
503.389	90.38
503.606	110.38
503.823	99.38
504.04	100.38
504.256	106.38
504.473	108.38
504.69	96.38
504.907	106.38
505.123	81.38
505.34	91.38
505.557	87.38
505.773	84.38
505.99	90.38
506.207	89.38
506.423	96.38
506.64	94.38
506.856	80.38
507.073	99.38
507.289	89.38
507.506	97.38
507.722	112.38
507.939	110.38
508.155	92.38
508.372	102.38
508.588	84.38
508.805	95.38
509.021	101.38
509.238	100.38
509.454	103.38
509.67	84.38
509.887	108.38
510.103	125.38
510.319	208.38
510.536	772.38
510.752	2418.38
510.968	692.38
511.184	162.38
511.401	109.38
511.617	106.38
511.833	87.38
512.049	100.38
512.265	96.38
512.481	90.38
512.698	87.38
512.914	100.38
513.13	94.38
513.346	100.38
513.562	112.38
513.778	113.38
513.994	102.38
514.21	115.38
514.426	117.38
514.642	120.38
514.858	124.38
515.074	161.38
