Data from Circ_2003_H10_HRD10591_00073.txt Node
Date: Wed Jan 03 10:37:17 EST 2024
User: Yrep
Spectrometer: HR+D1059
Trigger mode: 1
Integration Time (sec): 1.000000E-1
Scans to average: 1
Electric dark correction enabled: true
Nonlinearity correction enabled: false
Boxcar width: 0
XAxis mode: Wavelengths
Number of Pixels in Spectrum: 2048
>>>>>Begin Spectral Data<<<<<
223.165	-20.06
223.4	-20.06
223.635	-20.06
223.869	-24.06
224.104	-14.06
224.338	-16.06
224.573	-8.06
224.808	-7.06
225.042	-20.06
225.277	-9.06
225.511	-3.06
225.746	8.94
225.98	4.94
226.215	7.94
226.449	12.94
226.683	23.94
226.918	28.94
227.152	33.94
227.387	25.94
227.621	45.94
227.856	38.94
228.09	40.94
228.324	47.94
228.559	47.94
228.793	67.94
229.027	51.94
229.262	60.94
229.496	73.94
229.73	76.94
229.964	87.94
230.199	71.94
230.433	82.94
230.667	67.94
230.901	72.94
231.136	69.94
231.37	68.94
231.604	85.94
231.838	78.94
232.072	73.94
232.306	77.94
232.541	87.94
232.775	71.94
233.009	82.94
233.243	80.94
233.477	82.94
233.711	74.94
233.945	90.94
234.179	87.94
234.413	77.94
234.647	68.94
234.881	80.94
235.115	87.94
235.349	70.94
235.583	87.94
235.817	80.94
236.051	74.94
236.285	72.94
236.519	69.94
236.753	88.94
236.987	81.94
237.221	91.94
237.455	82.94
237.689	68.94
237.922	85.94
238.156	74.94
238.39	70.94
238.624	68.94
238.858	68.94
239.091	86.94
239.325	83.94
239.559	72.94
239.793	80.94
240.027	67.94
240.26	79.94
240.494	69.94
240.728	83.94
240.961	78.94
241.195	78.94
241.429	76.94
241.662	81.94
241.896	73.94
242.13	60.94
242.363	61.94
242.597	85.94
242.83	81.94
243.064	83.94
243.298	84.94
243.531	73.94
243.765	81.94
243.998	82.94
244.232	80.94
244.465	77.94
244.699	94.94
244.932	80.94
245.166	65.94
245.399	76.94
245.633	65.94
245.866	77.94
246.099	72.94
246.333	76.94
246.566	71.94
246.8	77.94
247.033	80.94
247.266	74.94
247.5	61.94
247.733	68.94
247.966	97.94
248.2	76.94
248.433	79.94
248.666	69.94
248.899	80.94
249.133	88.94
249.366	76.94
249.599	98.94
249.832	76.94
250.066	81.94
250.299	96.94
250.532	88.94
250.765	84.94
250.998	77.94
251.231	68.94
251.465	81.94
251.698	84.94
251.931	84.94
252.164	84.94
252.397	79.94
252.63	84.94
252.863	77.94
253.096	67.94
253.329	67.94
253.562	65.94
253.795	78.94
254.028	82.94
254.261	77.94
254.494	79.94
254.727	88.94
254.96	81.94
255.193	78.94
255.426	85.94
255.659	74.94
255.892	103.94
256.124	74.94
256.357	72.94
256.59	82.94
256.823	79.94
257.056	76.94
257.289	89.94
257.521	72.94
257.754	74.94
257.987	83.94
258.22	85.94
258.452	85.94
258.685	97.94
258.918	77.94
259.151	82.94
259.383	76.94
259.616	83.94
259.849	72.94
260.081	87.94
260.314	76.94
260.547	81.94
260.779	75.94
261.012	58.94
261.244	80.94
261.477	87.94
261.71	88.94
261.942	91.94
262.175	108.94
262.407	77.94
262.64	96.94
262.872	89.94
263.105	97.94
263.337	80.94
263.57	80.94
263.802	89.94
264.035	81.94
264.267	84.94
264.499	76.94
264.732	84.94
264.964	85.94
265.197	81.94
265.429	73.94
265.661	80.94
265.894	83.94
266.126	76.94
266.358	86.94
266.591	67.94
266.823	81.94
267.055	85.94
267.287	81.94
267.52	78.94
267.752	81.94
267.984	85.94
268.216	85.94
268.448	83.94
268.681	78.94
268.913	80.94
269.145	73.94
269.377	72.94
269.609	90.94
269.841	85.94
270.073	97.94
270.306	73.94
270.538	93.94
270.77	78.94
271.002	87.94
271.234	84.94
271.466	88.94
271.698	82.94
271.93	74.94
272.162	83.94
272.394	79.94
272.626	92.94
272.858	79.94
273.09	84.94
273.322	87.94
273.553	66.94
273.785	92.94
274.017	81.94
274.249	78.94
274.481	95.94
274.713	98.94
274.945	81.94
275.176	86.94
275.408	100.94
275.64	91.94
275.872	88.94
276.104	95.94
276.335	86.94
276.567	98.94
276.799	105.94
277.031	95.94
277.262	89.94
277.494	85.94
277.726	80.94
277.957	84.94
278.189	93.94
278.421	90.94
278.652	84.94
278.884	82.94
279.115	72.94
279.347	77.94
279.579	89.94
279.81	99.94
280.042	72.94
280.273	93.94
280.505	94.94
280.736	74.94
280.968	91.94
281.199	86.94
281.431	79.94
281.662	80.94
281.894	80.94
282.125	99.94
282.356	112.94
282.588	127.94
282.819	100.94
283.051	82.94
283.282	78.94
283.513	82.94
283.745	83.94
283.976	88.94
284.207	78.94
284.439	85.94
284.67	80.94
284.901	75.94
285.132	80.94
285.364	95.94
285.595	86.94
285.826	88.94
286.057	76.94
286.288	85.94
286.52	81.94
286.751	97.94
286.982	92.94
287.213	75.94
287.444	97.94
287.675	79.94
287.906	74.94
288.138	74.94
288.369	88.94
288.6	97.94
288.831	98.94
289.062	106.94
289.293	71.94
289.524	89.94
289.755	82.94
289.986	80.94
290.217	82.94
290.448	89.94
290.679	86.94
290.91	86.94
291.141	94.94
291.371	87.94
291.602	84.94
291.833	84.94
292.064	84.94
292.295	93.94
292.526	91.94
292.757	97.94
292.987	95.94
293.218	76.94
293.449	94.94
293.68	95.94
293.91	97.94
294.141	97.94
294.372	90.94
294.603	81.94
294.833	78.94
295.064	77.94
295.295	90.94
295.525	81.94
295.756	102.94
295.987	116.94
296.217	118.94
296.448	130.94
296.679	77.94
296.909	80.94
297.14	75.94
297.37	76.94
297.601	79.94
297.831	79.94
298.062	82.94
298.292	82.94
298.523	110.94
298.753	93.94
298.984	90.94
299.214	79.94
299.445	87.94
299.675	89.94
299.905	95.94
300.136	97.94
300.366	94.94
300.597	100.94
300.827	93.94
301.057	89.94
301.288	98.94
301.518	89.94
301.748	83.94
301.979	97.94
302.209	89.94
302.439	81.94
302.669	82.94
302.9	81.94
303.13	100.94
303.36	85.94
303.59	102.94
303.82	101.94
304.051	92.94
304.281	89.94
304.511	85.94
304.741	81.94
304.971	73.94
305.201	86.94
305.431	92.94
305.661	73.94
305.891	104.94
306.121	84.94
306.352	114.94
306.582	110.94
306.812	94.94
307.042	103.94
307.272	96.94
307.502	87.94
307.731	105.94
307.961	79.94
308.191	96.94
308.421	79.94
308.651	93.94
308.881	86.94
309.111	92.94
309.341	101.94
309.571	94.94
309.8	91.94
310.03	92.94
310.26	94.94
310.49	105.94
310.72	91.94
310.949	94.94
311.179	104.94
311.409	98.94
311.639	78.94
311.868	90.94
312.098	81.94
312.328	80.94
312.557	105.94
312.787	101.94
313.017	94.94
313.246	93.94
313.476	99.94
313.706	109.94
313.935	89.94
314.165	91.94
314.394	92.94
314.624	86.94
314.853	102.94
315.083	96.94
315.312	112.94
315.542	84.94
315.771	89.94
316.001	87.94
316.23	89.94
316.46	93.94
316.689	82.94
316.919	82.94
317.148	108.94
317.377	96.94
317.607	81.94
317.836	81.94
318.065	90.94
318.295	106.94
318.524	96.94
318.753	88.94
318.983	97.94
319.212	101.94
319.441	94.94
319.67	101.94
319.9	87.94
320.129	91.94
320.358	94.94
320.587	110.94
320.816	118.94
321.046	98.94
321.275	79.94
321.504	76.94
321.733	84.94
321.962	88.94
322.191	95.94
322.42	101.94
322.649	109.94
322.878	100.94
323.108	116.94
323.337	104.94
323.566	127.94
323.795	136.94
324.024	199.94
324.253	359.94
324.482	780.94
324.71	1603.94
324.939	2134.94
325.168	805.94
325.397	236.94
325.626	156.94
325.855	117.94
326.084	108.94
326.313	125.94
326.542	143.94
326.77	225.94
326.999	444.94
327.228	908.94
327.457	1633.94
327.686	1295.94
327.914	354.94
328.143	198.94
328.372	160.94
328.6	130.94
328.829	119.94
329.058	121.94
329.287	116.94
329.515	100.94
329.744	106.94
329.972	100.94
330.201	148.94
330.43	160.94
330.658	114.94
330.887	124.94
331.115	126.94
331.344	73.94
331.572	106.94
331.801	95.94
332.03	100.94
332.258	106.94
332.486	82.94
332.715	101.94
332.943	86.94
333.172	104.94
333.4	90.94
333.629	91.94
333.857	112.94
334.085	123.94
334.314	136.94
334.542	184.94
334.771	191.94
334.999	114.94
335.227	94.94
335.455	96.94
335.684	87.94
335.912	93.94
336.14	110.94
336.369	101.94
336.597	92.94
336.825	105.94
337.053	94.94
337.281	90.94
337.51	90.94
337.738	86.94
337.966	90.94
338.194	82.94
338.422	100.94
338.65	102.94
338.878	90.94
339.106	96.94
339.334	95.94
339.562	90.94
339.79	88.94
340.018	82.94
340.246	92.94
340.474	89.94
340.702	85.94
340.93	78.94
341.158	82.94
341.386	89.94
341.614	76.94
341.842	88.94
342.07	91.94
342.298	90.94
342.526	90.94
342.754	95.94
342.981	90.94
343.209	76.94
343.437	93.94
343.665	96.94
343.893	96.94
344.12	94.94
344.348	79.94
344.576	87.94
344.804	85.94
345.031	78.94
345.259	79.94
345.487	98.94
345.714	96.94
345.942	88.94
346.17	85.94
346.397	101.94
346.625	85.94
346.853	96.94
347.08	105.94
347.308	101.94
347.535	90.94
347.763	97.94
347.99	103.94
348.218	99.94
348.445	96.94
348.673	102.94
348.9	99.94
349.128	93.94
349.355	86.94
349.583	95.94
349.81	102.94
350.037	94.94
350.265	95.94
350.492	101.94
350.72	88.94
350.947	120.94
351.174	119.94
351.402	115.94
351.629	91.94
351.856	87.94
352.083	89.94
352.311	97.94
352.538	110.94
352.765	92.94
352.992	115.94
353.22	112.94
353.447	101.94
353.674	102.94
353.901	109.94
354.128	89.94
354.355	84.94
354.583	106.94
354.81	99.94
355.037	90.94
355.264	89.94
355.491	88.94
355.718	89.94
355.945	100.94
356.172	92.94
356.399	109.94
356.626	89.94
356.853	93.94
357.08	92.94
357.307	91.94
357.534	93.94
357.761	95.94
357.988	104.94
358.215	86.94
358.441	94.94
358.668	99.94
358.895	88.94
359.122	88.94
359.349	85.94
359.576	82.94
359.802	105.94
360.029	103.94
360.256	99.94
360.483	93.94
360.709	95.94
360.936	71.94
361.163	86.94
361.39	99.94
361.616	85.94
361.843	98.94
362.07	89.94
362.296	80.94
362.523	97.94
362.749	93.94
362.976	84.94
363.203	84.94
363.429	98.94
363.656	97.94
363.882	88.94
364.109	88.94
364.335	100.94
364.562	79.94
364.788	81.94
365.015	85.94
365.241	96.94
365.468	102.94
365.694	87.94
365.92	86.94
366.147	79.94
366.373	87.94
366.599	106.94
366.826	79.94
367.052	84.94
367.278	77.94
367.505	92.94
367.731	94.94
367.957	87.94
368.184	80.94
368.41	101.94
368.636	98.94
368.862	108.94
369.089	110.94
369.315	86.94
369.541	92.94
369.767	75.94
369.993	84.94
370.219	93.94
370.445	73.94
370.672	93.94
370.898	100.94
371.124	73.94
371.35	96.94
371.576	80.94
371.802	97.94
372.028	82.94
372.254	88.94
372.48	89.94
372.706	84.94
372.932	75.94
373.158	75.94
373.384	100.94
373.61	84.94
373.835	89.94
374.061	77.94
374.287	90.94
374.513	76.94
374.739	85.94
374.965	84.94
375.191	85.94
375.416	80.94
375.642	84.94
375.868	88.94
376.094	94.94
376.319	92.94
376.545	98.94
376.771	101.94
376.997	73.94
377.222	76.94
377.448	87.94
377.674	89.94
377.899	89.94
378.125	104.94
378.35	96.94
378.576	85.94
378.802	84.94
379.027	79.94
379.253	101.94
379.478	89.94
379.704	84.94
379.929	74.94
380.155	99.94
380.38	86.94
380.606	105.94
380.831	96.94
381.057	88.94
381.282	90.94
381.507	88.94
381.733	99.94
381.958	105.94
382.184	84.94
382.409	89.94
382.634	103.94
382.86	100.94
383.085	89.94
383.31	111.94
383.535	97.94
383.761	105.94
383.986	94.94
384.211	103.94
384.436	99.94
384.662	90.94
384.887	104.94
385.112	101.94
385.337	93.94
385.562	95.94
385.787	102.94
386.013	100.94
386.238	115.94
386.463	114.94
386.688	102.94
386.913	97.94
387.138	94.94
387.363	98.94
387.588	92.94
387.813	105.94
388.038	90.94
388.263	123.94
388.488	97.94
388.713	102.94
388.938	83.94
389.163	100.94
389.387	78.94
389.612	79.94
389.837	96.94
390.062	93.94
390.287	90.94
390.512	103.94
390.736	97.94
390.961	92.94
391.186	92.94
391.411	95.94
391.636	108.94
391.86	82.94
392.085	89.94
392.31	82.94
392.534	96.94
392.759	78.94
392.984	72.94
393.208	83.94
393.433	101.94
393.658	79.94
393.882	88.94
394.107	84.94
394.331	69.94
394.556	76.94
394.78	84.94
395.005	81.94
395.229	87.94
395.454	85.94
395.678	83.94
395.903	77.94
396.127	96.94
396.352	91.94
396.576	74.94
396.801	80.94
397.025	90.94
397.249	90.94
397.474	95.94
397.698	87.94
397.922	97.94
398.147	98.94
398.371	81.94
398.595	91.94
398.82	80.94
399.044	85.94
399.268	96.94
399.492	91.94
399.717	83.94
399.941	90.94
400.165	100.94
400.389	98.94
400.613	97.94
400.837	99.94
401.062	99.94
401.286	96.94
401.51	89.94
401.734	73.94
401.958	89.94
402.182	113.94
402.406	148.94
402.63	109.94
402.854	104.94
403.078	88.94
403.302	75.94
403.526	79.94
403.75	79.94
403.974	88.94
404.198	85.94
404.422	97.94
404.645	92.94
404.869	82.94
405.093	88.94
405.317	84.94
405.541	106.94
405.765	104.94
405.988	90.94
406.212	165.94
406.436	220.94
406.66	144.94
406.883	94.94
407.107	97.94
407.331	101.94
407.555	79.94
407.778	97.94
408.002	84.94
408.226	104.94
408.449	73.94
408.673	85.94
408.896	96.94
409.12	104.94
409.344	99.94
409.567	89.94
409.791	78.94
410.014	92.94
410.238	100.94
410.461	86.94
410.685	103.94
410.908	106.94
411.132	121.94
411.355	99.94
411.578	87.94
411.802	87.94
412.025	96.94
412.249	86.94
412.472	90.94
412.695	97.94
412.919	101.94
413.142	85.94
413.365	81.94
413.589	91.94
413.812	97.94
414.035	109.94
414.258	82.94
414.482	88.94
414.705	90.94
414.928	86.94
415.151	90.94
415.374	90.94
415.597	91.94
415.821	78.94
416.044	104.94
416.267	94.94
416.49	80.94
416.713	80.94
416.936	95.94
417.159	88.94
417.382	96.94
417.605	95.94
417.828	80.94
418.051	95.94
418.274	87.94
418.497	84.94
418.72	83.94
418.943	86.94
419.166	78.94
419.389	81.94
419.611	82.94
419.834	97.94
420.057	81.94
420.28	100.94
420.503	96.94
420.726	86.94
420.948	85.94
421.171	94.94
421.394	87.94
421.617	105.94
421.839	99.94
422.062	105.94
422.285	75.94
422.507	86.94
422.73	103.94
422.953	95.94
423.175	76.94
423.398	82.94
423.621	85.94
423.843	90.94
424.066	100.94
424.288	86.94
424.511	77.94
424.733	101.94
424.956	102.94
425.178	91.94
425.401	105.94
425.623	96.94
425.846	93.94
426.068	93.94
426.291	80.94
426.513	90.94
426.735	92.94
426.958	81.94
427.18	101.94
427.402	140.94
427.625	152.94
427.847	135.94
428.069	114.94
428.292	94.94
428.514	73.94
428.736	77.94
428.958	81.94
429.181	96.94
429.403	86.94
429.625	74.94
429.847	96.94
430.069	95.94
430.292	81.94
430.514	102.94
430.736	83.94
430.958	86.94
431.18	75.94
431.402	74.94
431.624	85.94
431.846	94.94
432.068	92.94
432.29	95.94
432.512	75.94
432.734	84.94
432.956	90.94
433.178	94.94
433.4	96.94
433.622	82.94
433.844	89.94
434.066	97.94
434.287	93.94
434.509	92.94
434.731	90.94
434.953	93.94
435.175	87.94
435.397	97.94
435.618	94.94
435.84	110.94
436.062	116.94
436.284	118.94
436.505	94.94
436.727	91.94
436.949	85.94
437.17	82.94
437.392	87.94
437.614	94.94
437.835	91.94
438.057	109.94
438.278	105.94
438.5	101.94
438.721	89.94
438.943	83.94
439.165	95.94
439.386	92.94
439.608	98.94
439.829	82.94
440.05	118.94
440.272	136.94
440.493	89.94
440.715	69.94
440.936	75.94
441.158	94.94
441.379	83.94
441.6	92.94
441.822	87.94
442.043	93.94
442.264	92.94
442.486	91.94
442.707	97.94
442.928	98.94
443.149	125.94
443.371	126.94
443.592	101.94
443.813	110.94
444.034	98.94
444.255	77.94
444.476	85.94
444.698	99.94
444.919	95.94
445.14	138.94
445.361	125.94
445.582	115.94
445.803	150.94
446.024	116.94
446.245	129.94
446.466	110.94
446.687	86.94
446.908	79.94
447.129	90.94
447.35	97.94
447.571	90.94
447.792	101.94
448.013	95.94
448.234	119.94
448.455	100.94
448.675	109.94
448.896	100.94
449.117	95.94
449.338	96.94
449.559	128.94
449.779	118.94
450	95.94
450.221	94.94
450.442	101.94
450.662	84.94
450.883	97.94
451.104	100.94
451.324	95.94
451.545	72.94
451.766	86.94
451.986	82.94
452.207	77.94
452.428	86.94
452.648	102.94
452.869	112.94
453.089	113.94
453.31	105.94
453.53	95.94
453.751	98.94
453.971	95.94
454.192	90.94
454.412	90.94
454.633	83.94
454.853	82.94
455.073	89.94
455.294	89.94
455.514	104.94
455.734	98.94
455.955	91.94
456.175	90.94
456.395	71.94
456.616	91.94
456.836	90.94
457.056	104.94
457.276	102.94
457.497	96.94
457.717	90.94
457.937	82.94
458.157	92.94
458.377	101.94
458.598	97.94
458.818	129.94
459.038	139.94
459.258	113.94
459.478	79.94
459.698	86.94
459.918	74.94
460.138	90.94
460.358	89.94
460.578	88.94
460.798	85.94
461.018	84.94
461.238	83.94
461.458	77.94
461.678	74.94
461.898	89.94
462.118	83.94
462.338	95.94
462.558	86.94
462.777	85.94
462.997	71.94
463.217	91.94
463.437	83.94
463.657	86.94
463.876	89.94
464.096	94.94
464.316	93.94
464.536	92.94
464.755	92.94
464.975	113.94
465.195	150.94
465.414	139.94
465.634	100.94
465.854	84.94
466.073	88.94
466.293	85.94
466.512	97.94
466.732	92.94
466.951	80.94
467.171	87.94
467.391	87.94
467.61	100.94
467.829	88.94
468.049	120.94
468.268	128.94
468.488	85.94
468.707	76.94
468.927	82.94
469.146	94.94
469.365	93.94
469.585	82.94
469.804	106.94
470.023	97.94
470.243	108.94
470.462	91.94
470.681	107.94
470.901	93.94
471.12	94.94
471.339	96.94
471.558	95.94
471.777	87.94
471.997	97.94
472.216	142.94
472.435	243.94
472.654	110.94
472.873	97.94
473.092	90.94
473.311	85.94
473.53	78.94
473.749	91.94
473.968	93.94
474.187	96.94
474.406	89.94
474.625	74.94
474.844	97.94
475.063	98.94
475.282	89.94
475.501	79.94
475.72	91.94
475.939	90.94
476.158	94.94
476.377	80.94
476.596	96.94
476.814	95.94
477.033	86.94
477.252	84.94
477.471	87.94
477.69	90.94
477.908	83.94
478.127	90.94
478.346	91.94
478.564	87.94
478.783	86.94
479.002	85.94
479.22	82.94
479.439	102.94
479.658	108.94
479.876	95.94
480.095	84.94
480.313	87.94
480.532	90.94
480.751	99.94
480.969	146.94
481.188	351.94
481.406	220.94
481.624	105.94
481.843	86.94
482.061	79.94
482.28	94.94
482.498	90.94
482.717	86.94
482.935	81.94
483.153	85.94
483.372	81.94
483.59	87.94
483.808	90.94
484.027	106.94
484.245	79.94
484.463	85.94
484.681	104.94
484.9	97.94
485.118	90.94
485.336	96.94
485.554	86.94
485.772	102.94
485.99	91.94
486.209	100.94
486.427	98.94
486.645	105.94
486.863	117.94
487.081	100.94
487.299	96.94
487.517	94.94
487.735	98.94
487.953	77.94
488.171	92.94
488.389	81.94
488.607	90.94
488.825	87.94
489.043	92.94
489.261	98.94
489.479	89.94
489.696	105.94
489.914	106.94
490.132	88.94
490.35	87.94
490.568	100.94
490.786	112.94
491.003	93.94
491.221	88.94
491.439	88.94
491.657	78.94
491.874	98.94
492.092	91.94
492.31	100.94
492.527	82.94
492.745	104.94
492.963	101.94
493.18	87.94
493.398	89.94
493.615	92.94
493.833	107.94
494.05	87.94
494.268	90.94
494.485	93.94
494.703	96.94
494.92	88.94
495.138	79.94
495.355	100.94
495.573	85.94
495.79	80.94
496.008	97.94
496.225	88.94
496.442	80.94
496.66	112.94
496.877	90.94
497.094	98.94
497.312	84.94
497.529	89.94
497.746	75.94
497.963	79.94
498.181	94.94
498.398	81.94
498.615	101.94
498.832	103.94
499.049	101.94
499.267	96.94
499.484	88.94
499.701	102.94
499.918	76.94
500.135	93.94
500.352	98.94
500.569	79.94
500.786	97.94
501.003	77.94
501.22	85.94
501.437	81.94
501.654	77.94
501.871	105.94
502.088	81.94
502.305	94.94
502.522	82.94
502.739	95.94
502.956	77.94
503.172	96.94
503.389	105.94
503.606	100.94
503.823	92.94
504.04	79.94
504.256	98.94
504.473	98.94
504.69	89.94
504.907	93.94
505.123	86.94
505.34	89.94
505.557	95.94
505.773	82.94
505.99	99.94
506.207	91.94
506.423	89.94
506.64	81.94
506.856	95.94
507.073	92.94
507.289	89.94
507.506	103.94
507.722	106.94
507.939	108.94
508.155	98.94
508.372	94.94
508.588	99.94
508.805	93.94
509.021	88.94
509.238	93.94
509.454	92.94
509.67	90.94
509.887	109.94
510.103	134.94
510.319	202.94
510.536	739.94
510.752	2323.94
510.968	656.94
511.184	161.94
511.401	112.94
511.617	86.94
511.833	96.94
512.049	106.94
512.265	88.94
512.481	83.94
512.698	84.94
512.914	82.94
513.13	94.94
513.346	84.94
513.562	87.94
513.778	74.94
513.994	93.94
514.21	104.94
514.426	108.94
514.642	109.94
514.858	124.94
515.074	150.94
515.29	426.94
515.506	1364.94
515.721	506.94
515.937	134.94
516.153	97.94
