Data from Circ_2003_H10_HRD10591_00084.txt Node
Date: Wed Jan 03 10:37:19 EST 2024
User: Yrep
Spectrometer: HR+D1059
Trigger mode: 1
Integration Time (sec): 1.000000E-1
Scans to average: 1
Electric dark correction enabled: true
Nonlinearity correction enabled: false
Boxcar width: 0
XAxis mode: Wavelengths
Number of Pixels in Spectrum: 2048
>>>>>Begin Spectral Data<<<<<
223.165	-3.88
223.4	-3.88
223.635	-3.88
223.869	-16.88
224.104	-11.88
224.338	-17.88
224.573	-13.88
224.808	-21.88
225.042	-22.88
225.277	-10.88
225.511	-9.88
225.746	-5.88
225.98	14.12
226.215	11.12
226.449	14.12
226.683	28.12
226.918	33.12
227.152	35.12
227.387	37.12
227.621	45.12
227.856	44.12
228.09	40.12
228.324	57.12
228.559	60.12
228.793	58.12
229.027	73.12
229.262	71.12
229.496	77.12
229.73	73.12
229.964	74.12
230.199	80.12
230.433	80.12
230.667	73.12
230.901	82.12
231.136	85.12
231.37	79.12
231.604	75.12
231.838	77.12
232.072	81.12
232.306	79.12
232.541	74.12
232.775	84.12
233.009	84.12
233.243	86.12
233.477	89.12
233.711	82.12
233.945	75.12
234.179	89.12
234.413	76.12
234.647	83.12
234.881	80.12
235.115	90.12
235.349	84.12
235.583	78.12
235.817	68.12
236.051	80.12
236.285	89.12
236.519	69.12
236.753	78.12
236.987	82.12
237.221	88.12
237.455	84.12
237.689	75.12
237.922	74.12
238.156	81.12
238.39	94.12
238.624	87.12
238.858	86.12
239.091	76.12
239.325	72.12
239.559	85.12
239.793	76.12
240.027	93.12
240.26	91.12
240.494	84.12
240.728	87.12
240.961	87.12
241.195	94.12
241.429	75.12
241.662	75.12
241.896	90.12
242.13	79.12
242.363	87.12
242.597	70.12
242.83	88.12
243.064	75.12
243.298	77.12
243.531	74.12
243.765	69.12
243.998	87.12
244.232	93.12
244.465	87.12
244.699	83.12
244.932	76.12
245.166	85.12
245.399	78.12
245.633	83.12
245.866	85.12
246.099	72.12
246.333	85.12
246.566	91.12
246.8	64.12
247.033	88.12
247.266	82.12
247.5	84.12
247.733	77.12
247.966	75.12
248.2	69.12
248.433	66.12
248.666	80.12
248.899	78.12
249.133	80.12
249.366	77.12
249.599	98.12
249.832	84.12
250.066	78.12
250.299	72.12
250.532	84.12
250.765	92.12
250.998	83.12
251.231	80.12
251.465	85.12
251.698	80.12
251.931	90.12
252.164	80.12
252.397	84.12
252.63	85.12
252.863	89.12
253.096	96.12
253.329	72.12
253.562	81.12
253.795	86.12
254.028	72.12
254.261	85.12
254.494	69.12
254.727	82.12
254.96	92.12
255.193	78.12
255.426	72.12
255.659	79.12
255.892	82.12
256.124	85.12
256.357	81.12
256.59	86.12
256.823	75.12
257.056	80.12
257.289	85.12
257.521	82.12
257.754	84.12
257.987	85.12
258.22	90.12
258.452	91.12
258.685	77.12
258.918	91.12
259.151	84.12
259.383	84.12
259.616	83.12
259.849	85.12
260.081	77.12
260.314	88.12
260.547	89.12
260.779	94.12
261.012	91.12
261.244	74.12
261.477	111.12
261.71	109.12
261.942	112.12
262.175	94.12
262.407	91.12
262.64	88.12
262.872	86.12
263.105	92.12
263.337	89.12
263.57	77.12
263.802	91.12
264.035	88.12
264.267	83.12
264.499	84.12
264.732	101.12
264.964	84.12
265.197	87.12
265.429	89.12
265.661	78.12
265.894	82.12
266.126	77.12
266.358	83.12
266.591	85.12
266.823	88.12
267.055	85.12
267.287	76.12
267.52	71.12
267.752	93.12
267.984	88.12
268.216	78.12
268.448	75.12
268.681	90.12
268.913	84.12
269.145	76.12
269.377	79.12
269.609	87.12
269.841	102.12
270.073	85.12
270.306	66.12
270.538	79.12
270.77	88.12
271.002	87.12
271.234	90.12
271.466	77.12
271.698	96.12
271.93	79.12
272.162	83.12
272.394	80.12
272.626	84.12
272.858	80.12
273.09	67.12
273.322	84.12
273.553	89.12
273.785	85.12
274.017	88.12
274.249	88.12
274.481	88.12
274.713	80.12
274.945	98.12
275.176	89.12
275.408	98.12
275.64	90.12
275.872	101.12
276.104	90.12
276.335	94.12
276.567	95.12
276.799	108.12
277.031	99.12
277.262	109.12
277.494	89.12
277.726	101.12
277.957	91.12
278.189	92.12
278.421	94.12
278.652	68.12
278.884	87.12
279.115	82.12
279.347	93.12
279.579	92.12
279.81	98.12
280.042	80.12
280.273	101.12
280.505	86.12
280.736	105.12
280.968	88.12
281.199	92.12
281.431	94.12
281.662	102.12
281.894	111.12
282.125	102.12
282.356	116.12
282.588	126.12
282.819	107.12
283.051	95.12
283.282	102.12
283.513	104.12
283.745	94.12
283.976	98.12
284.207	90.12
284.439	89.12
284.67	83.12
284.901	92.12
285.132	84.12
285.364	65.12
285.595	75.12
285.826	76.12
286.057	85.12
286.288	82.12
286.52	82.12
286.751	93.12
286.982	86.12
287.213	88.12
287.444	89.12
287.675	93.12
287.906	82.12
288.138	82.12
288.369	82.12
288.6	94.12
288.831	89.12
289.062	86.12
289.293	102.12
289.524	102.12
289.755	101.12
289.986	87.12
290.217	84.12
290.448	100.12
290.679	89.12
290.91	94.12
291.141	101.12
291.371	77.12
291.602	87.12
291.833	84.12
292.064	88.12
292.295	94.12
292.526	103.12
292.757	99.12
292.987	87.12
293.218	91.12
293.449	98.12
293.68	91.12
293.91	75.12
294.141	102.12
294.372	78.12
294.603	78.12
294.833	93.12
295.064	79.12
295.295	84.12
295.525	89.12
295.756	107.12
295.987	95.12
296.217	139.12
296.448	118.12
296.679	89.12
296.909	98.12
297.14	98.12
297.37	91.12
297.601	75.12
297.831	98.12
298.062	99.12
298.292	106.12
298.523	88.12
298.753	89.12
298.984	89.12
299.214	87.12
299.445	100.12
299.675	92.12
299.905	101.12
300.136	87.12
300.366	83.12
300.597	88.12
300.827	101.12
301.057	101.12
301.288	108.12
301.518	105.12
301.748	91.12
301.979	97.12
302.209	99.12
302.439	101.12
302.669	88.12
302.9	87.12
303.13	101.12
303.36	90.12
303.59	99.12
303.82	89.12
304.051	62.12
304.281	88.12
304.511	105.12
304.741	100.12
304.971	93.12
305.201	94.12
305.431	88.12
305.661	98.12
305.891	96.12
306.121	100.12
306.352	98.12
306.582	123.12
306.812	103.12
307.042	102.12
307.272	98.12
307.502	102.12
307.731	101.12
307.961	104.12
308.191	93.12
308.421	95.12
308.651	83.12
308.881	92.12
309.111	85.12
309.341	98.12
309.571	85.12
309.8	88.12
310.03	96.12
310.26	81.12
310.49	86.12
310.72	101.12
310.949	99.12
311.179	107.12
311.409	103.12
311.639	114.12
311.868	88.12
312.098	95.12
312.328	104.12
312.557	105.12
312.787	100.12
313.017	99.12
313.246	77.12
313.476	93.12
313.706	96.12
313.935	89.12
314.165	103.12
314.394	106.12
314.624	90.12
314.853	94.12
315.083	96.12
315.312	93.12
315.542	93.12
315.771	107.12
316.001	95.12
316.23	94.12
316.46	95.12
316.689	88.12
316.919	97.12
317.148	97.12
317.377	101.12
317.607	86.12
317.836	100.12
318.065	90.12
318.295	102.12
318.524	91.12
318.753	88.12
318.983	84.12
319.212	91.12
319.441	102.12
319.67	114.12
319.9	92.12
320.129	91.12
320.358	102.12
320.587	101.12
320.816	120.12
321.046	100.12
321.275	100.12
321.504	98.12
321.733	91.12
321.962	100.12
322.191	94.12
322.42	105.12
322.649	114.12
322.878	109.12
323.108	112.12
323.337	113.12
323.566	140.12
323.795	162.12
324.024	184.12
324.253	387.12
324.482	824.12
324.71	1684.12
324.939	2217.12
325.168	796.12
325.397	246.12
325.626	145.12
325.855	145.12
326.084	130.12
326.313	133.12
326.542	154.12
326.77	248.12
326.999	452.12
327.228	965.12
327.457	1752.12
327.686	1324.12
327.914	353.12
328.143	196.12
328.372	161.12
328.6	160.12
328.829	117.12
329.058	132.12
329.287	115.12
329.515	106.12
329.744	112.12
329.972	120.12
330.201	154.12
330.43	187.12
330.658	135.12
330.887	117.12
331.115	121.12
331.344	89.12
331.572	103.12
331.801	91.12
332.03	95.12
332.258	91.12
332.486	90.12
332.715	101.12
332.943	108.12
333.172	105.12
333.4	99.12
333.629	97.12
333.857	131.12
334.085	126.12
334.314	162.12
334.542	200.12
334.771	178.12
334.999	132.12
335.227	101.12
335.455	108.12
335.684	96.12
335.912	98.12
336.14	110.12
336.369	92.12
336.597	106.12
336.825	102.12
337.053	107.12
337.281	86.12
337.51	96.12
337.738	88.12
337.966	88.12
338.194	94.12
338.422	104.12
338.65	93.12
338.878	92.12
339.106	90.12
339.334	96.12
339.562	94.12
339.79	86.12
340.018	99.12
340.246	106.12
340.474	100.12
340.702	93.12
340.93	89.12
341.158	101.12
341.386	108.12
341.614	86.12
341.842	74.12
342.07	103.12
342.298	93.12
342.526	98.12
342.754	76.12
342.981	116.12
343.209	101.12
343.437	102.12
343.665	82.12
343.893	93.12
344.12	77.12
344.348	94.12
344.576	90.12
344.804	90.12
345.031	109.12
345.259	102.12
345.487	100.12
345.714	88.12
345.942	90.12
346.17	77.12
346.397	101.12
346.625	100.12
346.853	101.12
347.08	99.12
347.308	97.12
347.535	99.12
347.763	105.12
347.99	104.12
348.218	106.12
348.445	100.12
348.673	91.12
348.9	89.12
349.128	96.12
349.355	101.12
349.583	91.12
349.81	103.12
350.037	92.12
350.265	95.12
350.492	102.12
350.72	94.12
350.947	101.12
351.174	106.12
351.402	110.12
351.629	87.12
351.856	101.12
352.083	104.12
352.311	116.12
352.538	99.12
352.765	102.12
352.992	102.12
353.22	98.12
353.447	96.12
353.674	105.12
353.901	89.12
354.128	101.12
354.355	92.12
354.583	104.12
354.81	101.12
355.037	100.12
355.264	96.12
355.491	90.12
355.718	100.12
355.945	107.12
356.172	93.12
356.399	88.12
356.626	87.12
356.853	88.12
357.08	94.12
357.307	99.12
357.534	96.12
357.761	98.12
357.988	104.12
358.215	108.12
358.441	94.12
358.668	99.12
358.895	89.12
359.122	100.12
359.349	91.12
359.576	90.12
359.802	97.12
360.029	96.12
360.256	118.12
360.483	94.12
360.709	97.12
360.936	101.12
361.163	91.12
361.39	100.12
361.616	99.12
361.843	98.12
362.07	89.12
362.296	95.12
362.523	84.12
362.749	80.12
362.976	86.12
363.203	86.12
363.429	86.12
363.656	112.12
363.882	84.12
364.109	82.12
364.335	87.12
364.562	86.12
364.788	103.12
365.015	99.12
365.241	81.12
365.468	93.12
365.694	110.12
365.92	100.12
366.147	87.12
366.373	79.12
366.599	90.12
366.826	106.12
367.052	86.12
367.278	95.12
367.505	86.12
367.731	94.12
367.957	93.12
368.184	84.12
368.41	95.12
368.636	111.12
368.862	122.12
369.089	108.12
369.315	89.12
369.541	100.12
369.767	98.12
369.993	91.12
370.219	90.12
370.445	93.12
370.672	77.12
370.898	87.12
371.124	92.12
371.35	99.12
371.576	97.12
371.802	93.12
372.028	82.12
372.254	88.12
372.48	80.12
372.706	74.12
372.932	84.12
373.158	90.12
373.384	91.12
373.61	95.12
373.835	99.12
374.061	93.12
374.287	95.12
374.513	89.12
374.739	81.12
374.965	85.12
375.191	85.12
375.416	94.12
375.642	89.12
375.868	90.12
376.094	90.12
376.319	90.12
376.545	84.12
376.771	89.12
376.997	96.12
377.222	82.12
377.448	101.12
377.674	92.12
377.899	80.12
378.125	88.12
378.35	105.12
378.576	88.12
378.802	95.12
379.027	85.12
379.253	97.12
379.478	96.12
379.704	94.12
379.929	91.12
380.155	100.12
380.38	93.12
380.606	99.12
380.831	88.12
381.057	101.12
381.282	97.12
381.507	104.12
381.733	107.12
381.958	95.12
382.184	99.12
382.409	95.12
382.634	100.12
382.86	103.12
383.085	107.12
383.31	96.12
383.535	109.12
383.761	110.12
383.986	91.12
384.211	113.12
384.436	100.12
384.662	96.12
384.887	92.12
385.112	98.12
385.337	92.12
385.562	108.12
385.787	98.12
386.013	106.12
386.238	109.12
386.463	99.12
386.688	97.12
386.913	102.12
387.138	105.12
387.363	99.12
387.588	116.12
387.813	105.12
388.038	109.12
388.263	121.12
388.488	104.12
388.713	84.12
388.938	96.12
389.163	85.12
389.387	106.12
389.612	91.12
389.837	87.12
390.062	120.12
390.287	94.12
390.512	89.12
390.736	98.12
390.961	94.12
391.186	99.12
391.411	87.12
391.636	90.12
391.86	83.12
392.085	97.12
392.31	100.12
392.534	93.12
392.759	91.12
392.984	96.12
393.208	91.12
393.433	86.12
393.658	95.12
393.882	99.12
394.107	87.12
394.331	98.12
394.556	94.12
394.78	88.12
395.005	84.12
395.229	85.12
395.454	82.12
395.678	95.12
395.903	99.12
396.127	94.12
396.352	77.12
396.576	94.12
396.801	94.12
397.025	99.12
397.249	83.12
397.474	104.12
397.698	84.12
397.922	92.12
398.147	79.12
398.371	83.12
398.595	81.12
398.82	98.12
399.044	82.12
399.268	88.12
399.492	99.12
399.717	99.12
399.941	93.12
400.165	102.12
400.389	86.12
400.613	96.12
400.837	90.12
401.062	94.12
401.286	100.12
401.51	85.12
401.734	94.12
401.958	97.12
402.182	101.12
402.406	158.12
402.63	116.12
402.854	105.12
403.078	84.12
403.302	97.12
403.526	83.12
403.75	94.12
403.974	93.12
404.198	88.12
404.422	95.12
404.645	106.12
404.869	94.12
405.093	89.12
405.317	103.12
405.541	98.12
405.765	90.12
405.988	106.12
406.212	147.12
406.436	213.12
406.66	130.12
406.883	105.12
407.107	89.12
407.331	93.12
407.555	97.12
407.778	103.12
408.002	91.12
408.226	87.12
408.449	85.12
408.673	82.12
408.896	104.12
409.12	108.12
409.344	96.12
409.567	77.12
409.791	86.12
410.014	90.12
410.238	99.12
410.461	91.12
410.685	94.12
410.908	96.12
411.132	104.12
411.355	96.12
411.578	101.12
411.802	84.12
412.025	94.12
412.249	97.12
412.472	97.12
412.695	107.12
412.919	88.12
413.142	99.12
413.365	95.12
413.589	80.12
413.812	92.12
414.035	80.12
414.258	98.12
414.482	83.12
414.705	88.12
414.928	84.12
415.151	90.12
415.374	98.12
415.597	94.12
415.821	89.12
416.044	94.12
416.267	88.12
416.49	95.12
416.713	87.12
416.936	77.12
417.159	98.12
417.382	86.12
417.605	89.12
417.828	84.12
418.051	93.12
418.274	79.12
418.497	82.12
418.72	104.12
418.943	90.12
419.166	94.12
419.389	95.12
419.611	95.12
419.834	96.12
420.057	85.12
420.28	87.12
420.503	83.12
420.726	103.12
420.948	92.12
421.171	102.12
421.394	102.12
421.617	87.12
421.839	98.12
422.062	91.12
422.285	87.12
422.507	98.12
422.73	99.12
422.953	98.12
423.175	95.12
423.398	95.12
423.621	83.12
423.843	77.12
424.066	85.12
424.288	77.12
424.511	89.12
424.733	89.12
424.956	105.12
425.178	92.12
425.401	122.12
425.623	101.12
425.846	90.12
426.068	87.12
426.291	98.12
426.513	87.12
426.735	102.12
426.958	107.12
427.18	105.12
427.402	138.12
427.625	152.12
427.847	134.12
428.069	111.12
428.292	88.12
428.514	91.12
428.736	81.12
428.958	81.12
429.181	82.12
429.403	82.12
429.625	85.12
429.847	78.12
430.069	106.12
430.292	105.12
430.514	103.12
430.736	91.12
430.958	107.12
431.18	79.12
431.402	84.12
431.624	93.12
431.846	84.12
432.068	88.12
432.29	94.12
432.512	76.12
432.734	86.12
432.956	84.12
433.178	104.12
433.4	101.12
433.622	79.12
433.844	89.12
434.066	94.12
434.287	88.12
434.509	91.12
434.731	83.12
434.953	90.12
435.175	77.12
435.397	88.12
435.618	81.12
435.84	102.12
436.062	128.12
436.284	108.12
436.505	108.12
436.727	94.12
436.949	96.12
437.17	82.12
437.392	66.12
437.614	87.12
437.835	113.12
438.057	122.12
438.278	98.12
438.5	102.12
438.721	98.12
438.943	97.12
439.165	95.12
439.386	96.12
439.608	88.12
439.829	101.12
440.05	106.12
440.272	121.12
440.493	98.12
440.715	98.12
440.936	91.12
441.158	94.12
441.379	96.12
441.6	93.12
441.822	94.12
442.043	92.12
442.264	112.12
442.486	93.12
442.707	110.12
442.928	107.12
443.149	117.12
443.371	122.12
443.592	100.12
443.813	104.12
444.034	103.12
444.255	99.12
444.476	92.12
444.698	85.12
444.919	86.12
445.14	150.12
445.361	116.12
445.582	111.12
445.803	142.12
446.024	130.12
446.245	123.12
446.466	108.12
446.687	84.12
446.908	97.12
447.129	93.12
447.35	93.12
447.571	88.12
447.792	88.12
448.013	90.12
448.234	93.12
448.455	92.12
448.675	103.12
448.896	111.12
449.117	111.12
449.338	101.12
449.559	122.12
449.779	112.12
450	114.12
450.221	82.12
450.442	97.12
450.662	98.12
450.883	99.12
451.104	92.12
451.324	93.12
451.545	80.12
451.766	102.12
451.986	97.12
452.207	93.12
452.428	99.12
452.648	114.12
452.869	107.12
453.089	94.12
453.31	106.12
453.53	94.12
453.751	103.12
453.971	89.12
454.192	85.12
454.412	83.12
454.633	98.12
454.853	85.12
455.073	94.12
455.294	95.12
455.514	102.12
455.734	84.12
455.955	91.12
456.175	83.12
456.395	78.12
456.616	75.12
456.836	88.12
457.056	88.12
457.276	76.12
457.497	86.12
457.717	77.12
457.937	101.12
458.157	87.12
458.377	83.12
458.598	102.12
458.818	131.12
459.038	149.12
459.258	109.12
459.478	103.12
459.698	82.12
459.918	93.12
460.138	94.12
460.358	85.12
460.578	94.12
460.798	77.12
461.018	90.12
461.238	83.12
461.458	78.12
461.678	73.12
461.898	87.12
462.118	97.12
462.338	107.12
462.558	87.12
462.777	97.12
462.997	98.12
463.217	95.12
463.437	89.12
463.657	90.12
463.876	93.12
464.096	93.12
464.316	92.12
464.536	96.12
464.755	95.12
464.975	87.12
465.195	150.12
465.414	146.12
465.634	92.12
465.854	74.12
466.073	94.12
466.293	91.12
466.512	101.12
466.732	104.12
466.951	97.12
467.171	83.12
467.391	101.12
467.61	116.12
467.829	98.12
468.049	122.12
468.268	115.12
468.488	107.12
468.707	82.12
468.927	83.12
469.146	92.12
469.365	83.12
469.585	99.12
469.804	96.12
470.023	87.12
470.243	103.12
470.462	100.12
470.681	111.12
470.901	98.12
471.12	86.12
471.339	94.12
471.558	86.12
471.777	98.12
471.997	112.12
472.216	172.12
472.435	245.12
472.654	120.12
472.873	96.12
473.092	87.12
473.311	83.12
473.53	88.12
473.749	93.12
473.968	101.12
474.187	106.12
474.406	102.12
474.625	77.12
474.844	92.12
475.063	89.12
475.282	90.12
475.501	77.12
475.72	91.12
475.939	91.12
476.158	75.12
476.377	87.12
476.596	94.12
476.814	99.12
477.033	101.12
477.252	81.12
477.471	112.12
477.69	97.12
477.908	97.12
478.127	90.12
478.346	92.12
478.564	101.12
478.783	94.12
479.002	103.12
479.22	93.12
479.439	91.12
479.658	97.12
479.876	100.12
480.095	102.12
480.313	91.12
480.532	91.12
480.751	116.12
480.969	152.12
481.188	376.12
481.406	249.12
481.624	107.12
481.843	92.12
482.061	101.12
482.28	85.12
482.498	90.12
482.717	89.12
482.935	100.12
483.153	89.12
483.372	86.12
483.59	93.12
483.808	93.12
484.027	92.12
484.245	94.12
484.463	92.12
484.681	84.12
484.9	94.12
485.118	98.12
485.336	91.12
485.554	106.12
485.772	100.12
485.99	100.12
486.209	104.12
486.427	94.12
486.645	89.12
486.863	103.12
487.081	102.12
487.299	104.12
487.517	107.12
487.735	104.12
487.953	89.12
488.171	90.12
488.389	92.12
488.607	108.12
488.825	106.12
489.043	85.12
489.261	93.12
489.479	89.12
489.696	105.12
489.914	90.12
490.132	89.12
490.35	98.12
490.568	91.12
490.786	93.12
491.003	89.12
491.221	94.12
491.439	98.12
491.657	97.12
491.874	88.12
492.092	102.12
492.31	96.12
492.527	84.12
492.745	95.12
492.963	93.12
493.18	87.12
493.398	93.12
493.615	108.12
493.833	98.12
494.05	84.12
494.268	90.12
494.485	74.12
494.703	87.12
494.92	93.12
495.138	72.12
495.355	98.12
495.573	94.12
495.79	88.12
496.008	93.12
496.225	81.12
496.442	81.12
496.66	96.12
496.877	89.12
497.094	81.12
497.312	94.12
497.529	102.12
497.746	97.12
497.963	91.12
498.181	86.12
498.398	93.12
498.615	99.12
498.832	97.12
499.049	99.12
499.267	100.12
499.484	82.12
499.701	93.12
499.918	99.12
500.135	88.12
500.352	102.12
500.569	90.12
500.786	95.12
501.003	86.12
501.22	84.12
501.437	100.12
501.654	101.12
501.871	108.12
502.088	90.12
502.305	94.12
502.522	88.12
502.739	101.12
502.956	105.12
503.172	91.12
503.389	102.12
503.606	98.12
503.823	109.12
504.04	83.12
504.256	91.12
504.473	104.12
504.69	98.12
504.907	100.12
505.123	97.12
505.34	89.12
505.557	97.12
505.773	86.12
505.99	82.12
506.207	99.12
506.423	86.12
506.64	92.12
506.856	90.12
507.073	85.12
507.289	101.12
507.506	102.12
507.722	108.12
507.939	111.12
508.155	100.12
508.372	100.12
508.588	90.12
508.805	98.12
509.021	87.12
509.238	101.12
509.454	117.12
509.67	99.12
509.887	89.12
510.103	132.12
510.319	194.12
510.536	732.12
510.752	2358.12
510.968	656.12
511.184	158.12
511.401	109.12
511.617	95.12
511.833	89.12
512.049	94.12
512.265	99.12
512.481	90.12
512.698	113.12
512.914	92.12
513.13	88.12
513.346	106.12
513.562	100.12
513.778	87.12
513.994	97.12
514.21	104.12
514.426	114.12
514.642	122.12
514.858	121.12
