Data from Circ_2003_H10_HRD10591_00036.txt Node
Date: Wed Jan 03 10:37:09 EST 2024
User: Yrep
Spectrometer: HR+D1059
Trigger mode: 1
Integration Time (sec): 1.000000E-1
Scans to average: 1
Electric dark correction enabled: true
Nonlinearity correction enabled: false
Boxcar width: 0
XAxis mode: Wavelengths
Number of Pixels in Spectrum: 2048
>>>>>Begin Spectral Data<<<<<
223.165	-16.56
223.4	-16.56
223.635	-16.56
223.869	-26.56
224.104	-26.56
224.338	-5.56
224.573	-20.56
224.808	-13.56
225.042	-5.56
225.277	-5.56
225.511	6.44
225.746	-6.56
225.98	5.44
226.215	16.44
226.449	9.44
226.683	29.44
226.918	25.44
227.152	34.44
227.387	29.44
227.621	50.44
227.856	46.44
228.09	57.44
228.324	42.44
228.559	61.44
228.793	48.44
229.027	67.44
229.262	63.44
229.496	73.44
229.73	72.44
229.964	76.44
230.199	56.44
230.433	71.44
230.667	60.44
230.901	70.44
231.136	86.44
231.37	84.44
231.604	84.44
231.838	68.44
232.072	64.44
232.306	67.44
232.541	79.44
232.775	79.44
233.009	83.44
233.243	79.44
233.477	71.44
233.711	84.44
233.945	71.44
234.179	74.44
234.413	80.44
234.647	79.44
234.881	72.44
235.115	84.44
235.349	72.44
235.583	65.44
235.817	87.44
236.051	73.44
236.285	78.44
236.519	79.44
236.753	73.44
236.987	82.44
237.221	86.44
237.455	78.44
237.689	92.44
237.922	71.44
238.156	80.44
238.39	77.44
238.624	63.44
238.858	83.44
239.091	80.44
239.325	74.44
239.559	83.44
239.793	91.44
240.027	80.44
240.26	81.44
240.494	77.44
240.728	74.44
240.961	78.44
241.195	80.44
241.429	70.44
241.662	76.44
241.896	72.44
242.13	87.44
242.363	68.44
242.597	76.44
242.83	85.44
243.064	79.44
243.298	79.44
243.531	69.44
243.765	64.44
243.998	74.44
244.232	80.44
244.465	82.44
244.699	75.44
244.932	72.44
245.166	81.44
245.399	70.44
245.633	74.44
245.866	72.44
246.099	63.44
246.333	72.44
246.566	58.44
246.8	63.44
247.033	72.44
247.266	76.44
247.5	65.44
247.733	87.44
247.966	69.44
248.2	74.44
248.433	78.44
248.666	74.44
248.899	77.44
249.133	88.44
249.366	87.44
249.599	72.44
249.832	71.44
250.066	66.44
250.299	85.44
250.532	81.44
250.765	78.44
250.998	76.44
251.231	54.44
251.465	87.44
251.698	78.44
251.931	71.44
252.164	72.44
252.397	65.44
252.63	81.44
252.863	80.44
253.096	69.44
253.329	78.44
253.562	85.44
253.795	88.44
254.028	79.44
254.261	83.44
254.494	87.44
254.727	71.44
254.96	81.44
255.193	79.44
255.426	79.44
255.659	68.44
255.892	80.44
256.124	94.44
256.357	72.44
256.59	77.44
256.823	71.44
257.056	78.44
257.289	78.44
257.521	81.44
257.754	88.44
257.987	76.44
258.22	98.44
258.452	95.44
258.685	67.44
258.918	73.44
259.151	85.44
259.383	84.44
259.616	81.44
259.849	82.44
260.081	88.44
260.314	77.44
260.547	89.44
260.779	60.44
261.012	84.44
261.244	89.44
261.477	89.44
261.71	98.44
261.942	113.44
262.175	109.44
262.407	79.44
262.64	73.44
262.872	79.44
263.105	86.44
263.337	87.44
263.57	86.44
263.802	86.44
264.035	68.44
264.267	86.44
264.499	65.44
264.732	89.44
264.964	71.44
265.197	83.44
265.429	78.44
265.661	78.44
265.894	90.44
266.126	96.44
266.358	74.44
266.591	65.44
266.823	81.44
267.055	76.44
267.287	83.44
267.52	76.44
267.752	85.44
267.984	77.44
268.216	83.44
268.448	84.44
268.681	84.44
268.913	86.44
269.145	84.44
269.377	62.44
269.609	77.44
269.841	75.44
270.073	80.44
270.306	84.44
270.538	93.44
270.77	67.44
271.002	81.44
271.234	81.44
271.466	84.44
271.698	90.44
271.93	89.44
272.162	81.44
272.394	80.44
272.626	75.44
272.858	85.44
273.09	90.44
273.322	87.44
273.553	92.44
273.785	83.44
274.017	87.44
274.249	93.44
274.481	83.44
274.713	85.44
274.945	77.44
275.176	77.44
275.408	78.44
275.64	94.44
275.872	89.44
276.104	103.44
276.335	100.44
276.567	92.44
276.799	90.44
277.031	105.44
277.262	94.44
277.494	88.44
277.726	70.44
277.957	85.44
278.189	79.44
278.421	80.44
278.652	81.44
278.884	88.44
279.115	86.44
279.347	77.44
279.579	70.44
279.81	71.44
280.042	84.44
280.273	80.44
280.505	79.44
280.736	90.44
280.968	88.44
281.199	91.44
281.431	74.44
281.662	99.44
281.894	105.44
282.125	95.44
282.356	111.44
282.588	144.44
282.819	109.44
283.051	101.44
283.282	89.44
283.513	77.44
283.745	85.44
283.976	86.44
284.207	89.44
284.439	81.44
284.67	88.44
284.901	89.44
285.132	84.44
285.364	90.44
285.595	83.44
285.826	93.44
286.057	85.44
286.288	94.44
286.52	88.44
286.751	87.44
286.982	75.44
287.213	73.44
287.444	68.44
287.675	78.44
287.906	90.44
288.138	86.44
288.369	88.44
288.6	101.44
288.831	84.44
289.062	71.44
289.293	87.44
289.524	79.44
289.755	81.44
289.986	84.44
290.217	88.44
290.448	79.44
290.679	76.44
290.91	78.44
291.141	89.44
291.371	80.44
291.602	75.44
291.833	74.44
292.064	80.44
292.295	84.44
292.526	92.44
292.757	95.44
292.987	84.44
293.218	78.44
293.449	78.44
293.68	89.44
293.91	88.44
294.141	84.44
294.372	80.44
294.603	93.44
294.833	78.44
295.064	87.44
295.295	79.44
295.525	95.44
295.756	102.44
295.987	118.44
296.217	142.44
296.448	119.44
296.679	88.44
296.909	102.44
297.14	78.44
297.37	81.44
297.601	88.44
297.831	82.44
298.062	94.44
298.292	80.44
298.523	86.44
298.753	84.44
298.984	100.44
299.214	105.44
299.445	94.44
299.675	96.44
299.905	86.44
300.136	97.44
300.366	83.44
300.597	82.44
300.827	100.44
301.057	96.44
301.288	91.44
301.518	86.44
301.748	86.44
301.979	105.44
302.209	89.44
302.439	103.44
302.669	104.44
302.9	97.44
303.13	96.44
303.36	90.44
303.59	99.44
303.82	110.44
304.051	90.44
304.281	91.44
304.511	98.44
304.741	88.44
304.971	87.44
305.201	89.44
305.431	85.44
305.661	85.44
305.891	106.44
306.121	87.44
306.352	93.44
306.582	104.44
306.812	109.44
307.042	108.44
307.272	84.44
307.502	90.44
307.731	89.44
307.961	98.44
308.191	90.44
308.421	87.44
308.651	83.44
308.881	84.44
309.111	108.44
309.341	94.44
309.571	105.44
309.8	90.44
310.03	94.44
310.26	87.44
310.49	85.44
310.72	98.44
310.949	93.44
311.179	96.44
311.409	87.44
311.639	84.44
311.868	103.44
312.098	101.44
312.328	97.44
312.557	95.44
312.787	111.44
313.017	98.44
313.246	92.44
313.476	94.44
313.706	88.44
313.935	81.44
314.165	93.44
314.394	97.44
314.624	96.44
314.853	105.44
315.083	95.44
315.312	104.44
315.542	92.44
315.771	78.44
316.001	83.44
316.23	100.44
316.46	88.44
316.689	81.44
316.919	86.44
317.148	89.44
317.377	87.44
317.607	96.44
317.836	100.44
318.065	97.44
318.295	99.44
318.524	92.44
318.753	82.44
318.983	93.44
319.212	102.44
319.441	107.44
319.67	105.44
319.9	90.44
320.129	93.44
320.358	93.44
320.587	89.44
320.816	89.44
321.046	102.44
321.275	97.44
321.504	93.44
321.733	93.44
321.962	91.44
322.191	92.44
322.42	105.44
322.649	112.44
322.878	109.44
323.108	96.44
323.337	125.44
323.566	130.44
323.795	152.44
324.024	209.44
324.253	402.44
324.482	862.44
324.71	1769.44
324.939	2284.44
325.168	808.44
325.397	250.44
325.626	160.44
325.855	136.44
326.084	114.44
326.313	142.44
326.542	147.44
326.77	239.44
326.999	500.44
327.228	992.44
327.457	1712.44
327.686	1375.44
327.914	368.44
328.143	187.44
328.372	159.44
328.6	110.44
328.829	121.44
329.058	129.44
329.287	125.44
329.515	108.44
329.744	96.44
329.972	85.44
330.201	103.44
330.43	110.44
330.658	128.44
330.887	142.44
331.115	124.44
331.344	96.44
331.572	93.44
331.801	100.44
332.03	102.44
332.258	94.44
332.486	88.44
332.715	88.44
332.943	89.44
333.172	96.44
333.4	90.44
333.629	102.44
333.857	109.44
334.085	97.44
334.314	97.44
334.542	105.44
334.771	107.44
334.999	87.44
335.227	83.44
335.455	97.44
335.684	94.44
335.912	93.44
336.14	84.44
336.369	90.44
336.597	99.44
336.825	97.44
337.053	83.44
337.281	81.44
337.51	107.44
337.738	82.44
337.966	103.44
338.194	84.44
338.422	101.44
338.65	88.44
338.878	81.44
339.106	92.44
339.334	77.44
339.562	89.44
339.79	95.44
340.018	83.44
340.246	88.44
340.474	85.44
340.702	89.44
340.93	84.44
341.158	93.44
341.386	92.44
341.614	100.44
341.842	96.44
342.07	84.44
342.298	73.44
342.526	83.44
342.754	101.44
342.981	84.44
343.209	107.44
343.437	102.44
343.665	101.44
343.893	96.44
344.12	100.44
344.348	93.44
344.576	89.44
344.804	91.44
345.031	91.44
345.259	106.44
345.487	90.44
345.714	93.44
345.942	102.44
346.17	83.44
346.397	87.44
346.625	93.44
346.853	94.44
347.08	93.44
347.308	86.44
347.535	101.44
347.763	105.44
347.99	90.44
348.218	112.44
348.445	101.44
348.673	90.44
348.9	98.44
349.128	97.44
349.355	101.44
349.583	81.44
349.81	86.44
350.037	90.44
350.265	85.44
350.492	81.44
350.72	93.44
350.947	98.44
351.174	107.44
351.402	104.44
351.629	101.44
351.856	95.44
352.083	101.44
352.311	95.44
352.538	105.44
352.765	106.44
352.992	109.44
353.22	104.44
353.447	104.44
353.674	92.44
353.901	97.44
354.128	119.44
354.355	85.44
354.583	99.44
354.81	100.44
355.037	93.44
355.264	92.44
355.491	106.44
355.718	101.44
355.945	96.44
356.172	102.44
356.399	77.44
356.626	100.44
356.853	105.44
357.08	112.44
357.307	91.44
357.534	91.44
357.761	101.44
357.988	97.44
358.215	104.44
358.441	93.44
358.668	89.44
358.895	73.44
359.122	91.44
359.349	84.44
359.576	105.44
359.802	105.44
360.029	116.44
360.256	100.44
360.483	96.44
360.709	81.44
360.936	89.44
361.163	113.44
361.39	97.44
361.616	95.44
361.843	89.44
362.07	83.44
362.296	76.44
362.523	82.44
362.749	107.44
362.976	88.44
363.203	93.44
363.429	95.44
363.656	85.44
363.882	89.44
364.109	91.44
364.335	98.44
364.562	86.44
364.788	90.44
365.015	97.44
365.241	108.44
365.468	97.44
365.694	100.44
365.92	100.44
366.147	77.44
366.373	95.44
366.599	83.44
366.826	85.44
367.052	82.44
367.278	98.44
367.505	83.44
367.731	96.44
367.957	97.44
368.184	93.44
368.41	108.44
368.636	109.44
368.862	118.44
369.089	106.44
369.315	89.44
369.541	99.44
369.767	84.44
369.993	94.44
370.219	87.44
370.445	89.44
370.672	85.44
370.898	88.44
371.124	84.44
371.35	88.44
371.576	86.44
371.802	94.44
372.028	93.44
372.254	91.44
372.48	91.44
372.706	97.44
372.932	87.44
373.158	89.44
373.384	81.44
373.61	83.44
373.835	93.44
374.061	96.44
374.287	79.44
374.513	88.44
374.739	88.44
374.965	84.44
375.191	93.44
375.416	91.44
375.642	106.44
375.868	101.44
376.094	95.44
376.319	100.44
376.545	102.44
376.771	93.44
376.997	90.44
377.222	104.44
377.448	97.44
377.674	103.44
377.899	100.44
378.125	89.44
378.35	96.44
378.576	80.44
378.802	88.44
379.027	100.44
379.253	102.44
379.478	99.44
379.704	93.44
379.929	88.44
380.155	100.44
380.38	97.44
380.606	85.44
380.831	98.44
381.057	103.44
381.282	94.44
381.507	99.44
381.733	99.44
381.958	102.44
382.184	119.44
382.409	105.44
382.634	115.44
382.86	99.44
383.085	100.44
383.31	108.44
383.535	98.44
383.761	109.44
383.986	98.44
384.211	92.44
384.436	96.44
384.662	101.44
384.887	116.44
385.112	133.44
385.337	103.44
385.562	108.44
385.787	124.44
386.013	111.44
386.238	124.44
386.463	99.44
386.688	114.44
386.913	124.44
387.138	116.44
387.363	119.44
387.588	86.44
387.813	100.44
388.038	122.44
388.263	105.44
388.488	120.44
388.713	87.44
388.938	106.44
389.163	102.44
389.387	95.44
389.612	90.44
389.837	85.44
390.062	99.44
390.287	100.44
390.512	88.44
390.736	93.44
390.961	100.44
391.186	94.44
391.411	98.44
391.636	92.44
391.86	92.44
392.085	88.44
392.31	92.44
392.534	83.44
392.759	91.44
392.984	70.44
393.208	93.44
393.433	98.44
393.658	88.44
393.882	85.44
394.107	96.44
394.331	92.44
394.556	100.44
394.78	104.44
395.005	89.44
395.229	77.44
395.454	66.44
395.678	81.44
395.903	84.44
396.127	80.44
396.352	88.44
396.576	90.44
396.801	81.44
397.025	93.44
397.249	97.44
397.474	87.44
397.698	85.44
397.922	90.44
398.147	86.44
398.371	78.44
398.595	94.44
398.82	90.44
399.044	98.44
399.268	98.44
399.492	89.44
399.717	89.44
399.941	96.44
400.165	97.44
400.389	91.44
400.613	95.44
400.837	87.44
401.062	95.44
401.286	90.44
401.51	83.44
401.734	82.44
401.958	89.44
402.182	120.44
402.406	155.44
402.63	113.44
402.854	98.44
403.078	96.44
403.302	90.44
403.526	92.44
403.75	86.44
403.974	82.44
404.198	81.44
404.422	86.44
404.645	83.44
404.869	85.44
405.093	87.44
405.317	105.44
405.541	110.44
405.765	88.44
405.988	108.44
406.212	166.44
406.436	218.44
406.66	144.44
406.883	102.44
407.107	90.44
407.331	94.44
407.555	86.44
407.778	87.44
408.002	92.44
408.226	86.44
408.449	97.44
408.673	94.44
408.896	94.44
409.12	92.44
409.344	107.44
409.567	96.44
409.791	85.44
410.014	92.44
410.238	78.44
410.461	91.44
410.685	101.44
410.908	96.44
411.132	93.44
411.355	97.44
411.578	78.44
411.802	88.44
412.025	77.44
412.249	96.44
412.472	85.44
412.695	87.44
412.919	89.44
413.142	94.44
413.365	64.44
413.589	83.44
413.812	91.44
414.035	104.44
414.258	93.44
414.482	90.44
414.705	90.44
414.928	81.44
415.151	83.44
415.374	79.44
415.597	92.44
415.821	80.44
416.044	98.44
416.267	77.44
416.49	93.44
416.713	81.44
416.936	89.44
417.159	82.44
417.382	77.44
417.605	89.44
417.828	85.44
418.051	104.44
418.274	82.44
418.497	85.44
418.72	92.44
418.943	82.44
419.166	89.44
419.389	80.44
419.611	90.44
419.834	90.44
420.057	81.44
420.28	73.44
420.503	92.44
420.726	82.44
420.948	87.44
421.171	83.44
421.394	77.44
421.617	91.44
421.839	84.44
422.062	85.44
422.285	101.44
422.507	91.44
422.73	102.44
422.953	89.44
423.175	94.44
423.398	94.44
423.621	96.44
423.843	92.44
424.066	92.44
424.288	83.44
424.511	98.44
424.733	87.44
424.956	103.44
425.178	97.44
425.401	96.44
425.623	93.44
425.846	85.44
426.068	99.44
426.291	92.44
426.513	92.44
426.735	98.44
426.958	105.44
427.18	102.44
427.402	121.44
427.625	155.44
427.847	137.44
428.069	101.44
428.292	76.44
428.514	85.44
428.736	100.44
428.958	82.44
429.181	81.44
429.403	80.44
429.625	85.44
429.847	97.44
430.069	100.44
430.292	111.44
430.514	94.44
430.736	97.44
430.958	89.44
431.18	94.44
431.402	93.44
431.624	91.44
431.846	79.44
432.068	93.44
432.29	85.44
432.512	84.44
432.734	93.44
432.956	98.44
433.178	92.44
433.4	91.44
433.622	92.44
433.844	84.44
434.066	91.44
434.287	84.44
434.509	83.44
434.731	87.44
434.953	95.44
435.175	75.44
435.397	86.44
435.618	101.44
435.84	94.44
436.062	125.44
436.284	99.44
436.505	81.44
436.727	92.44
436.949	95.44
437.17	85.44
437.392	84.44
437.614	88.44
437.835	105.44
438.057	109.44
438.278	114.44
438.5	107.44
438.721	104.44
438.943	77.44
439.165	95.44
439.386	71.44
439.608	86.44
439.829	83.44
440.05	109.44
440.272	140.44
440.493	86.44
440.715	89.44
440.936	78.44
441.158	88.44
441.379	91.44
441.6	106.44
441.822	93.44
442.043	115.44
442.264	101.44
442.486	110.44
442.707	95.44
442.928	90.44
443.149	113.44
443.371	113.44
443.592	119.44
443.813	101.44
444.034	98.44
444.255	93.44
444.476	93.44
444.698	87.44
444.919	93.44
445.14	145.44
445.361	119.44
445.582	113.44
445.803	121.44
446.024	120.44
446.245	138.44
446.466	112.44
446.687	86.44
446.908	92.44
447.129	90.44
447.35	93.44
447.571	94.44
447.792	89.44
448.013	92.44
448.234	101.44
448.455	108.44
448.675	100.44
448.896	112.44
449.117	104.44
449.338	91.44
449.559	120.44
449.779	135.44
450	98.44
450.221	85.44
450.442	77.44
450.662	101.44
450.883	107.44
451.104	90.44
451.324	99.44
451.545	89.44
451.766	94.44
451.986	102.44
452.207	89.44
452.428	97.44
452.648	105.44
452.869	120.44
453.089	116.44
453.31	112.44
453.53	84.44
453.751	89.44
453.971	101.44
454.192	114.44
454.412	97.44
454.633	94.44
454.853	80.44
455.073	101.44
455.294	80.44
455.514	92.44
455.734	96.44
455.955	89.44
456.175	76.44
456.395	67.44
456.616	90.44
456.836	96.44
457.056	90.44
457.276	82.44
457.497	87.44
457.717	77.44
457.937	73.44
458.157	80.44
458.377	96.44
458.598	87.44
458.818	140.44
459.038	127.44
459.258	122.44
459.478	98.44
459.698	99.44
459.918	85.44
460.138	86.44
460.358	80.44
460.578	99.44
460.798	91.44
461.018	88.44
461.238	89.44
461.458	94.44
461.678	88.44
461.898	92.44
462.118	95.44
462.338	95.44
462.558	82.44
462.777	85.44
462.997	79.44
463.217	89.44
463.437	79.44
463.657	89.44
463.876	98.44
464.096	84.44
464.316	85.44
464.536	96.44
464.755	98.44
464.975	108.44
465.195	167.44
465.414	156.44
465.634	92.44
465.854	81.44
466.073	81.44
466.293	86.44
466.512	89.44
466.732	87.44
466.951	86.44
467.171	104.44
467.391	81.44
467.61	104.44
467.829	96.44
468.049	96.44
468.268	86.44
468.488	87.44
468.707	76.44
468.927	74.44
469.146	80.44
469.365	82.44
469.585	87.44
469.804	90.44
470.023	87.44
470.243	82.44
470.462	100.44
470.681	111.44
470.901	107.44
471.12	91.44
471.339	101.44
471.558	98.44
471.777	83.44
471.997	88.44
472.216	109.44
472.435	111.44
472.654	76.44
472.873	88.44
473.092	90.44
473.311	87.44
473.53	79.44
473.749	85.44
473.968	105.44
474.187	95.44
474.406	105.44
474.625	90.44
474.844	80.44
475.063	87.44
475.282	82.44
475.501	87.44
475.72	88.44
475.939	84.44
476.158	77.44
476.377	84.44
476.596	94.44
476.814	92.44
477.033	81.44
477.252	87.44
477.471	94.44
477.69	81.44
477.908	87.44
478.127	76.44
478.346	88.44
478.564	83.44
478.783	100.44
479.002	90.44
479.22	89.44
479.439	94.44
479.658	109.44
479.876	79.44
480.095	83.44
480.313	90.44
480.532	103.44
480.751	90.44
480.969	107.44
481.188	150.44
481.406	116.44
481.624	93.44
481.843	80.44
482.061	84.44
482.28	76.44
482.498	91.44
482.717	90.44
482.935	92.44
483.153	81.44
483.372	85.44
483.59	85.44
483.808	87.44
484.027	90.44
484.245	82.44
484.463	91.44
484.681	82.44
484.9	94.44
485.118	106.44
485.336	99.44
485.554	97.44
485.772	90.44
485.99	101.44
486.209	103.44
486.427	97.44
486.645	116.44
486.863	114.44
487.081	111.44
487.299	91.44
487.517	113.44
487.735	103.44
487.953	99.44
488.171	101.44
488.389	103.44
488.607	80.44
488.825	82.44
489.043	92.44
489.261	90.44
489.479	101.44
489.696	89.44
489.914	79.44
490.132	100.44
490.35	76.44
490.568	78.44
490.786	82.44
491.003	81.44
491.221	87.44
491.439	89.44
491.657	98.44
491.874	84.44
492.092	98.44
492.31	86.44
492.527	89.44
492.745	101.44
492.963	80.44
493.18	94.44
493.398	84.44
493.615	107.44
493.833	91.44
494.05	95.44
494.268	96.44
494.485	85.44
494.703	90.44
494.92	88.44
495.138	87.44
495.355	90.44
495.573	96.44
495.79	104.44
496.008	84.44
496.225	91.44
496.442	97.44
496.66	106.44
496.877	89.44
497.094	87.44
497.312	96.44
497.529	99.44
497.746	88.44
497.963	90.44
498.181	89.44
498.398	87.44
498.615	102.44
498.832	110.44
499.049	90.44
499.267	91.44
499.484	92.44
499.701	96.44
499.918	105.44
500.135	89.44
500.352	94.44
500.569	98.44
500.786	94.44
501.003	93.44
501.22	91.44
501.437	89.44
501.654	90.44
501.871	102.44
502.088	89.44
502.305	86.44
502.522	98.44
502.739	93.44
502.956	85.44
503.172	95.44
503.389	107.44
503.606	107.44
503.823	97.44
504.04	68.44
504.256	94.44
504.473	85.44
504.69	100.44
504.907	101.44
505.123	89.44
505.34	86.44
505.557	100.44
505.773	85.44
505.99	100.44
506.207	97.44
506.423	91.44
506.64	100.44
506.856	86.44
507.073	93.44
507.289	85.44
507.506	95.44
507.722	121.44
507.939	106.44
508.155	100.44
508.372	76.44
508.588	103.44
508.805	97.44
509.021	88.44
509.238	116.44
509.454	96.44
509.67	94.44
509.887	113.44
510.103	116.44
510.319	225.44
510.536	818.44
510.752	2647.44
510.968	739.44
511.184	166.44
511.401	109.44
511.617	88.44
511.833	84.44
512.049	70.44
512.265	98.44
512.481	99.44
512.698	116.44
512.914	102.44
513.13	101.44
513.346	105.44
513.562	104.44
513.778	94.44
513.994	100.44
514.21	100.44
514.426	117.44
514.642	120.44
514.858	115.44
515.074	165.44
515.29	451.44
515.506	1511.44
515.721	564.44
