Data from Circ_2003_H10_HRD10591_00089.txt Node
Date: Wed Jan 03 10:37:20 EST 2024
User: Yrep
Spectrometer: HR+D1059
Trigger mode: 1
Integration Time (sec): 1.000000E-1
Scans to average: 1
Electric dark correction enabled: true
Nonlinearity correction enabled: false
Boxcar width: 0
XAxis mode: Wavelengths
Number of Pixels in Spectrum: 2048
>>>>>Begin Spectral Data<<<<<
223.165	-18.94
223.4	-18.94
223.635	-18.94
223.869	-20.94
224.104	-22.94
224.338	-18.94
224.573	-9.94
224.808	-4.94
225.042	1.06
225.277	-6.94
225.511	-5.94
225.746	15.06
225.98	17.06
226.215	9.06
226.449	17.06
226.683	2.06
226.918	25.06
227.152	23.06
227.387	32.06
227.621	49.06
227.856	56.06
228.09	45.06
228.324	39.06
228.559	75.06
228.793	63.06
229.027	74.06
229.262	67.06
229.496	74.06
229.73	71.06
229.964	66.06
230.199	61.06
230.433	71.06
230.667	85.06
230.901	74.06
231.136	75.06
231.37	67.06
231.604	72.06
231.838	75.06
232.072	82.06
232.306	78.06
232.541	83.06
232.775	97.06
233.009	83.06
233.243	81.06
233.477	84.06
233.711	92.06
233.945	88.06
234.179	89.06
234.413	83.06
234.647	79.06
234.881	76.06
235.115	74.06
235.349	75.06
235.583	85.06
235.817	81.06
236.051	84.06
236.285	82.06
236.519	78.06
236.753	80.06
236.987	90.06
237.221	82.06
237.455	68.06
237.689	79.06
237.922	72.06
238.156	62.06
238.39	75.06
238.624	74.06
238.858	87.06
239.091	74.06
239.325	79.06
239.559	70.06
239.793	80.06
240.027	80.06
240.26	90.06
240.494	82.06
240.728	70.06
240.961	70.06
241.195	73.06
241.429	79.06
241.662	75.06
241.896	86.06
242.13	78.06
242.363	71.06
242.597	70.06
242.83	81.06
243.064	71.06
243.298	76.06
243.531	84.06
243.765	78.06
243.998	77.06
244.232	69.06
244.465	88.06
244.699	72.06
244.932	69.06
245.166	83.06
245.399	72.06
245.633	76.06
245.866	75.06
246.099	81.06
246.333	91.06
246.566	81.06
246.8	70.06
247.033	76.06
247.266	75.06
247.5	80.06
247.733	74.06
247.966	79.06
248.2	74.06
248.433	87.06
248.666	84.06
248.899	75.06
249.133	73.06
249.366	85.06
249.599	95.06
249.832	91.06
250.066	86.06
250.299	87.06
250.532	74.06
250.765	78.06
250.998	82.06
251.231	73.06
251.465	102.06
251.698	82.06
251.931	82.06
252.164	77.06
252.397	74.06
252.63	82.06
252.863	78.06
253.096	71.06
253.329	86.06
253.562	89.06
253.795	66.06
254.028	95.06
254.261	74.06
254.494	93.06
254.727	82.06
254.96	92.06
255.193	89.06
255.426	74.06
255.659	89.06
255.892	90.06
256.124	88.06
256.357	88.06
256.59	71.06
256.823	80.06
257.056	93.06
257.289	86.06
257.521	101.06
257.754	84.06
257.987	92.06
258.22	83.06
258.452	88.06
258.685	72.06
258.918	91.06
259.151	71.06
259.383	81.06
259.616	80.06
259.849	78.06
260.081	86.06
260.314	99.06
260.547	103.06
260.779	95.06
261.012	86.06
261.244	89.06
261.477	90.06
261.71	94.06
261.942	95.06
262.175	107.06
262.407	77.06
262.64	81.06
262.872	78.06
263.105	99.06
263.337	84.06
263.57	90.06
263.802	81.06
264.035	89.06
264.267	81.06
264.499	76.06
264.732	77.06
264.964	81.06
265.197	88.06
265.429	79.06
265.661	102.06
265.894	69.06
266.126	78.06
266.358	93.06
266.591	75.06
266.823	84.06
267.055	82.06
267.287	91.06
267.52	96.06
267.752	91.06
267.984	97.06
268.216	81.06
268.448	82.06
268.681	86.06
268.913	78.06
269.145	91.06
269.377	86.06
269.609	84.06
269.841	85.06
270.073	94.06
270.306	90.06
270.538	95.06
270.77	85.06
271.002	75.06
271.234	94.06
271.466	95.06
271.698	78.06
271.93	85.06
272.162	85.06
272.394	87.06
272.626	84.06
272.858	84.06
273.09	88.06
273.322	82.06
273.553	73.06
273.785	83.06
274.017	93.06
274.249	83.06
274.481	89.06
274.713	95.06
274.945	90.06
275.176	76.06
275.408	87.06
275.64	86.06
275.872	78.06
276.104	85.06
276.335	85.06
276.567	94.06
276.799	113.06
277.031	104.06
277.262	91.06
277.494	102.06
277.726	94.06
277.957	86.06
278.189	81.06
278.421	86.06
278.652	81.06
278.884	91.06
279.115	87.06
279.347	85.06
279.579	91.06
279.81	90.06
280.042	97.06
280.273	102.06
280.505	85.06
280.736	83.06
280.968	85.06
281.199	98.06
281.431	89.06
281.662	99.06
281.894	90.06
282.125	93.06
282.356	114.06
282.588	118.06
282.819	115.06
283.051	83.06
283.282	89.06
283.513	83.06
283.745	75.06
283.976	95.06
284.207	87.06
284.439	96.06
284.67	101.06
284.901	91.06
285.132	95.06
285.364	90.06
285.595	85.06
285.826	95.06
286.057	87.06
286.288	90.06
286.52	85.06
286.751	75.06
286.982	96.06
287.213	79.06
287.444	87.06
287.675	94.06
287.906	82.06
288.138	78.06
288.369	84.06
288.6	85.06
288.831	96.06
289.062	85.06
289.293	71.06
289.524	92.06
289.755	83.06
289.986	78.06
290.217	90.06
290.448	84.06
290.679	90.06
290.91	82.06
291.141	71.06
291.371	91.06
291.602	87.06
291.833	86.06
292.064	74.06
292.295	71.06
292.526	92.06
292.757	91.06
292.987	91.06
293.218	89.06
293.449	90.06
293.68	88.06
293.91	93.06
294.141	103.06
294.372	89.06
294.603	85.06
294.833	94.06
295.064	87.06
295.295	91.06
295.525	97.06
295.756	87.06
295.987	103.06
296.217	144.06
296.448	117.06
296.679	91.06
296.909	95.06
297.14	75.06
297.37	83.06
297.601	92.06
297.831	91.06
298.062	94.06
298.292	87.06
298.523	99.06
298.753	87.06
298.984	94.06
299.214	88.06
299.445	89.06
299.675	87.06
299.905	83.06
300.136	102.06
300.366	100.06
300.597	95.06
300.827	106.06
301.057	95.06
301.288	109.06
301.518	106.06
301.748	108.06
301.979	96.06
302.209	79.06
302.439	68.06
302.669	101.06
302.9	96.06
303.13	90.06
303.36	93.06
303.59	95.06
303.82	86.06
304.051	104.06
304.281	88.06
304.511	92.06
304.741	83.06
304.971	105.06
305.201	96.06
305.431	88.06
305.661	88.06
305.891	83.06
306.121	100.06
306.352	96.06
306.582	116.06
306.812	101.06
307.042	89.06
307.272	89.06
307.502	101.06
307.731	90.06
307.961	104.06
308.191	91.06
308.421	95.06
308.651	98.06
308.881	80.06
309.111	82.06
309.341	91.06
309.571	80.06
309.8	89.06
310.03	98.06
310.26	105.06
310.49	91.06
310.72	90.06
310.949	82.06
311.179	95.06
311.409	95.06
311.639	91.06
311.868	104.06
312.098	104.06
312.328	106.06
312.557	90.06
312.787	102.06
313.017	94.06
313.246	99.06
313.476	102.06
313.706	85.06
313.935	90.06
314.165	92.06
314.394	91.06
314.624	95.06
314.853	94.06
315.083	94.06
315.312	91.06
315.542	91.06
315.771	88.06
316.001	76.06
316.23	80.06
316.46	89.06
316.689	90.06
316.919	75.06
317.148	96.06
317.377	99.06
317.607	101.06
317.836	102.06
318.065	83.06
318.295	91.06
318.524	92.06
318.753	81.06
318.983	100.06
319.212	106.06
319.441	103.06
319.67	94.06
319.9	95.06
320.129	88.06
320.358	95.06
320.587	89.06
320.816	97.06
321.046	98.06
321.275	88.06
321.504	105.06
321.733	91.06
321.962	103.06
322.191	97.06
322.42	95.06
322.649	98.06
322.878	116.06
323.108	101.06
323.337	111.06
323.566	131.06
323.795	150.06
324.024	191.06
324.253	371.06
324.482	807.06
324.71	1588.06
324.939	2162.06
325.168	766.06
325.397	233.06
325.626	150.06
325.855	118.06
326.084	120.06
326.313	127.06
326.542	148.06
326.77	232.06
326.999	466.06
327.228	916.06
327.457	1638.06
327.686	1301.06
327.914	363.06
328.143	194.06
328.372	170.06
328.6	147.06
328.829	118.06
329.058	125.06
329.287	109.06
329.515	115.06
329.744	113.06
329.972	134.06
330.201	179.06
330.43	192.06
330.658	158.06
330.887	131.06
331.115	117.06
331.344	95.06
331.572	97.06
331.801	105.06
332.03	91.06
332.258	94.06
332.486	88.06
332.715	99.06
332.943	97.06
333.172	91.06
333.4	94.06
333.629	102.06
333.857	121.06
334.085	133.06
334.314	148.06
334.542	214.06
334.771	185.06
334.999	115.06
335.227	93.06
335.455	107.06
335.684	90.06
335.912	114.06
336.14	99.06
336.369	78.06
336.597	109.06
336.825	94.06
337.053	100.06
337.281	105.06
337.51	84.06
337.738	98.06
337.966	91.06
338.194	107.06
338.422	96.06
338.65	103.06
338.878	91.06
339.106	97.06
339.334	99.06
339.562	82.06
339.79	91.06
340.018	86.06
340.246	95.06
340.474	90.06
340.702	79.06
340.93	97.06
341.158	95.06
341.386	93.06
341.614	94.06
341.842	79.06
342.07	81.06
342.298	82.06
342.526	98.06
342.754	97.06
342.981	98.06
343.209	92.06
343.437	100.06
343.665	84.06
343.893	93.06
344.12	95.06
344.348	86.06
344.576	97.06
344.804	100.06
345.031	87.06
345.259	101.06
345.487	85.06
345.714	89.06
345.942	102.06
346.17	112.06
346.397	94.06
346.625	87.06
346.853	86.06
347.08	86.06
347.308	78.06
347.535	77.06
347.763	91.06
347.99	95.06
348.218	101.06
348.445	105.06
348.673	95.06
348.9	100.06
349.128	102.06
349.355	89.06
349.583	92.06
349.81	79.06
350.037	88.06
350.265	84.06
350.492	97.06
350.72	94.06
350.947	107.06
351.174	111.06
351.402	89.06
351.629	94.06
351.856	88.06
352.083	94.06
352.311	112.06
352.538	104.06
352.765	106.06
352.992	102.06
353.22	117.06
353.447	97.06
353.674	85.06
353.901	101.06
354.128	86.06
354.355	92.06
354.583	98.06
354.81	98.06
355.037	90.06
355.264	102.06
355.491	89.06
355.718	98.06
355.945	104.06
356.172	87.06
356.399	90.06
356.626	105.06
356.853	86.06
357.08	96.06
357.307	94.06
357.534	86.06
357.761	96.06
357.988	75.06
358.215	112.06
358.441	93.06
358.668	93.06
358.895	88.06
359.122	78.06
359.349	81.06
359.576	89.06
359.802	104.06
360.029	103.06
360.256	103.06
360.483	79.06
360.709	72.06
360.936	82.06
361.163	82.06
361.39	98.06
361.616	92.06
361.843	82.06
362.07	92.06
362.296	101.06
362.523	87.06
362.749	93.06
362.976	85.06
363.203	84.06
363.429	90.06
363.656	101.06
363.882	85.06
364.109	83.06
364.335	87.06
364.562	97.06
364.788	83.06
365.015	97.06
365.241	101.06
365.468	98.06
365.694	93.06
365.92	91.06
366.147	89.06
366.373	79.06
366.599	89.06
366.826	93.06
367.052	77.06
367.278	93.06
367.505	85.06
367.731	74.06
367.957	104.06
368.184	97.06
368.41	95.06
368.636	124.06
368.862	109.06
369.089	95.06
369.315	90.06
369.541	87.06
369.767	85.06
369.993	79.06
370.219	85.06
370.445	81.06
370.672	80.06
370.898	102.06
371.124	80.06
371.35	95.06
371.576	102.06
371.802	81.06
372.028	90.06
372.254	79.06
372.48	95.06
372.706	79.06
372.932	79.06
373.158	90.06
373.384	94.06
373.61	86.06
373.835	75.06
374.061	93.06
374.287	87.06
374.513	95.06
374.739	92.06
374.965	81.06
375.191	96.06
375.416	78.06
375.642	98.06
375.868	85.06
376.094	89.06
376.319	95.06
376.545	81.06
376.771	94.06
376.997	85.06
377.222	99.06
377.448	95.06
377.674	85.06
377.899	95.06
378.125	96.06
378.35	81.06
378.576	85.06
378.802	90.06
379.027	91.06
379.253	88.06
379.478	90.06
379.704	96.06
379.929	102.06
380.155	84.06
380.38	86.06
380.606	80.06
380.831	96.06
381.057	105.06
381.282	95.06
381.507	100.06
381.733	89.06
381.958	97.06
382.184	108.06
382.409	101.06
382.634	99.06
382.86	105.06
383.085	111.06
383.31	93.06
383.535	101.06
383.761	86.06
383.986	76.06
384.211	87.06
384.436	110.06
384.662	90.06
384.887	97.06
385.112	95.06
385.337	90.06
385.562	114.06
385.787	113.06
386.013	95.06
386.238	117.06
386.463	111.06
386.688	101.06
386.913	98.06
387.138	96.06
387.363	109.06
387.588	95.06
387.813	114.06
388.038	103.06
388.263	110.06
388.488	99.06
388.713	91.06
388.938	80.06
389.163	105.06
389.387	106.06
389.612	98.06
389.837	95.06
390.062	89.06
390.287	75.06
390.512	94.06
390.736	93.06
390.961	84.06
391.186	90.06
391.411	98.06
391.636	101.06
391.86	84.06
392.085	82.06
392.31	79.06
392.534	101.06
392.759	85.06
392.984	80.06
393.208	93.06
393.433	92.06
393.658	84.06
393.882	95.06
394.107	89.06
394.331	90.06
394.556	79.06
394.78	87.06
395.005	80.06
395.229	100.06
395.454	92.06
395.678	91.06
395.903	88.06
396.127	95.06
396.352	86.06
396.576	85.06
396.801	95.06
397.025	83.06
397.249	94.06
397.474	92.06
397.698	85.06
397.922	86.06
398.147	75.06
398.371	80.06
398.595	78.06
398.82	91.06
399.044	97.06
399.268	78.06
399.492	99.06
399.717	90.06
399.941	91.06
400.165	89.06
400.389	94.06
400.613	93.06
400.837	100.06
401.062	83.06
401.286	99.06
401.51	82.06
401.734	88.06
401.958	88.06
402.182	127.06
402.406	141.06
402.63	114.06
402.854	97.06
403.078	81.06
403.302	89.06
403.526	80.06
403.75	91.06
403.974	84.06
404.198	105.06
404.422	77.06
404.645	94.06
404.869	91.06
405.093	85.06
405.317	105.06
405.541	107.06
405.765	94.06
405.988	108.06
406.212	148.06
406.436	203.06
406.66	129.06
406.883	99.06
407.107	82.06
407.331	90.06
407.555	85.06
407.778	76.06
408.002	81.06
408.226	77.06
408.449	103.06
408.673	86.06
408.896	94.06
409.12	97.06
409.344	90.06
409.567	77.06
409.791	71.06
410.014	83.06
410.238	89.06
410.461	103.06
410.685	95.06
410.908	102.06
411.132	99.06
411.355	101.06
411.578	72.06
411.802	84.06
412.025	77.06
412.249	91.06
412.472	94.06
412.695	93.06
412.919	85.06
413.142	95.06
413.365	78.06
413.589	77.06
413.812	82.06
414.035	94.06
414.258	85.06
414.482	90.06
414.705	90.06
414.928	95.06
415.151	85.06
415.374	99.06
415.597	97.06
415.821	83.06
416.044	84.06
416.267	97.06
416.49	92.06
416.713	87.06
416.936	92.06
417.159	83.06
417.382	85.06
417.605	95.06
417.828	83.06
418.051	86.06
418.274	96.06
418.497	90.06
418.72	96.06
418.943	85.06
419.166	80.06
419.389	98.06
419.611	88.06
419.834	87.06
420.057	102.06
420.28	88.06
420.503	78.06
420.726	97.06
420.948	82.06
421.171	79.06
421.394	94.06
421.617	97.06
421.839	93.06
422.062	91.06
422.285	78.06
422.507	90.06
422.73	103.06
422.953	94.06
423.175	78.06
423.398	87.06
423.621	86.06
423.843	81.06
424.066	82.06
424.288	80.06
424.511	83.06
424.733	95.06
424.956	109.06
425.178	88.06
425.401	103.06
425.623	94.06
425.846	82.06
426.068	91.06
426.291	92.06
426.513	97.06
426.735	90.06
426.958	89.06
427.18	107.06
427.402	133.06
427.625	149.06
427.847	134.06
428.069	129.06
428.292	88.06
428.514	91.06
428.736	96.06
428.958	86.06
429.181	92.06
429.403	79.06
429.625	95.06
429.847	79.06
430.069	94.06
430.292	98.06
430.514	87.06
430.736	100.06
430.958	84.06
431.18	80.06
431.402	85.06
431.624	79.06
431.846	75.06
432.068	84.06
432.29	89.06
432.512	90.06
432.734	88.06
432.956	93.06
433.178	114.06
433.4	95.06
433.622	95.06
433.844	99.06
434.066	84.06
434.287	92.06
434.509	93.06
434.731	87.06
434.953	82.06
435.175	91.06
435.397	90.06
435.618	100.06
435.84	97.06
436.062	122.06
436.284	101.06
436.505	105.06
436.727	100.06
436.949	70.06
437.17	79.06
437.392	72.06
437.614	84.06
437.835	96.06
438.057	108.06
438.278	107.06
438.5	94.06
438.721	97.06
438.943	100.06
439.165	81.06
439.386	86.06
439.608	97.06
439.829	89.06
440.05	117.06
440.272	127.06
440.493	94.06
440.715	94.06
440.936	78.06
441.158	88.06
441.379	96.06
441.6	94.06
441.822	101.06
442.043	97.06
442.264	82.06
442.486	97.06
442.707	95.06
442.928	98.06
443.149	113.06
443.371	119.06
443.592	97.06
443.813	97.06
444.034	103.06
444.255	95.06
444.476	82.06
444.698	89.06
444.919	81.06
445.14	114.06
445.361	118.06
445.582	106.06
445.803	126.06
446.024	131.06
446.245	107.06
446.466	102.06
446.687	79.06
446.908	81.06
447.129	89.06
447.35	89.06
447.571	82.06
447.792	90.06
448.013	98.06
448.234	85.06
448.455	83.06
448.675	102.06
448.896	124.06
449.117	101.06
449.338	104.06
449.559	114.06
449.779	119.06
450	96.06
450.221	82.06
450.442	102.06
450.662	97.06
450.883	101.06
451.104	102.06
451.324	83.06
451.545	88.06
451.766	99.06
451.986	89.06
452.207	90.06
452.428	91.06
452.648	101.06
452.869	101.06
453.089	113.06
453.31	101.06
453.53	86.06
453.751	87.06
453.971	104.06
454.192	90.06
454.412	89.06
454.633	85.06
454.853	88.06
455.073	77.06
455.294	88.06
455.514	84.06
455.734	81.06
455.955	80.06
456.175	81.06
456.395	87.06
456.616	91.06
456.836	92.06
457.056	88.06
457.276	89.06
457.497	81.06
457.717	89.06
457.937	104.06
458.157	83.06
458.377	73.06
458.598	95.06
458.818	130.06
459.038	141.06
459.258	115.06
459.478	90.06
459.698	87.06
459.918	99.06
460.138	82.06
460.358	73.06
460.578	93.06
460.798	81.06
461.018	81.06
461.238	89.06
461.458	95.06
461.678	73.06
461.898	97.06
462.118	89.06
462.338	81.06
462.558	73.06
462.777	94.06
462.997	97.06
463.217	73.06
463.437	78.06
463.657	92.06
463.876	84.06
464.096	75.06
464.316	78.06
464.536	81.06
464.755	85.06
464.975	101.06
465.195	153.06
465.414	142.06
465.634	97.06
465.854	93.06
466.073	86.06
466.293	86.06
466.512	80.06
466.732	82.06
466.951	82.06
467.171	99.06
467.391	96.06
467.61	95.06
467.829	111.06
468.049	116.06
468.268	139.06
468.488	97.06
468.707	95.06
468.927	86.06
469.146	92.06
469.365	82.06
469.585	103.06
469.804	97.06
470.023	90.06
470.243	87.06
470.462	88.06
470.681	101.06
470.901	80.06
471.12	75.06
471.339	78.06
471.558	81.06
471.777	88.06
471.997	100.06
472.216	165.06
472.435	269.06
472.654	122.06
472.873	102.06
473.092	85.06
473.311	103.06
473.53	85.06
473.749	82.06
473.968	89.06
474.187	96.06
474.406	95.06
474.625	98.06
474.844	81.06
475.063	78.06
475.282	92.06
475.501	80.06
475.72	93.06
475.939	79.06
476.158	85.06
476.377	85.06
476.596	81.06
476.814	81.06
477.033	99.06
477.252	91.06
477.471	101.06
477.69	88.06
477.908	94.06
478.127	88.06
478.346	90.06
478.564	78.06
478.783	95.06
479.002	96.06
479.22	92.06
479.439	93.06
479.658	106.06
479.876	94.06
480.095	101.06
480.313	99.06
480.532	98.06
480.751	109.06
480.969	157.06
481.188	420.06
481.406	279.06
481.624	110.06
481.843	75.06
482.061	79.06
482.28	89.06
482.498	87.06
482.717	96.06
482.935	86.06
483.153	89.06
483.372	87.06
483.59	74.06
483.808	84.06
484.027	87.06
484.245	84.06
484.463	89.06
484.681	75.06
484.9	93.06
485.118	100.06
485.336	91.06
485.554	92.06
485.772	95.06
485.99	100.06
486.209	109.06
486.427	107.06
486.645	99.06
486.863	119.06
487.081	103.06
487.299	106.06
487.517	105.06
487.735	93.06
487.953	81.06
488.171	109.06
488.389	109.06
488.607	78.06
488.825	83.06
489.043	94.06
489.261	98.06
489.479	87.06
489.696	85.06
489.914	91.06
490.132	88.06
490.35	92.06
490.568	79.06
490.786	89.06
491.003	75.06
491.221	90.06
491.439	82.06
491.657	98.06
491.874	90.06
492.092	82.06
492.31	97.06
492.527	104.06
492.745	102.06
492.963	105.06
493.18	82.06
493.398	67.06
493.615	95.06
493.833	91.06
494.05	83.06
494.268	88.06
494.485	82.06
494.703	91.06
494.92	86.06
495.138	99.06
495.355	99.06
495.573	101.06
495.79	92.06
496.008	98.06
496.225	100.06
496.442	88.06
496.66	95.06
496.877	86.06
497.094	95.06
497.312	87.06
497.529	82.06
497.746	89.06
497.963	92.06
498.181	85.06
498.398	102.06
498.615	122.06
498.832	103.06
499.049	78.06
499.267	94.06
499.484	86.06
499.701	99.06
499.918	73.06
500.135	88.06
500.352	94.06
500.569	88.06
500.786	85.06
501.003	70.06
501.22	87.06
501.437	92.06
501.654	94.06
501.871	98.06
502.088	89.06
502.305	100.06
502.522	91.06
502.739	80.06
502.956	92.06
503.172	81.06
503.389	82.06
503.606	103.06
503.823	95.06
504.04	85.06
504.256	102.06
504.473	88.06
504.69	78.06
504.907	105.06
505.123	88.06
505.34	87.06
505.557	83.06
505.773	95.06
505.99	95.06
506.207	89.06
506.423	83.06
506.64	96.06
506.856	92.06
507.073	70.06
507.289	98.06
507.506	105.06
507.722	104.06
507.939	111.06
508.155	103.06
508.372	75.06
508.588	103.06
508.805	98.06
509.021	90.06
509.238	80.06
509.454	83.06
509.67	99.06
509.887	111.06
510.103	126.06
510.319	202.06
510.536	703.06
510.752	2232.06
510.968	621.06
511.184	151.06
511.401	111.06
511.617	83.06
511.833	92.06
512.049	87.06
512.265	99.06
512.481	90.06
512.698	90.06
512.914	87.06
513.13	90.06
513.346	103.06
513.562	92.06
513.778	99.06
513.994	101.06
514.21	101.06
514.426	96.06
514.642	112.06
514.858	107.06
515.074	157.06
515.29	365.06
515.506	1202.06
515.721	455.06
515.937	170.06
516.153	104.06
