Data from Circ_2003_H10_HRD10591_00077.txt Node
Date: Wed Jan 03 10:37:18 EST 2024
User: Yrep
Spectrometer: HR+D1059
Trigger mode: 1
Integration Time (sec): 1.000000E-1
Scans to average: 1
Electric dark correction enabled: true
Nonlinearity correction enabled: false
Boxcar width: 0
XAxis mode: Wavelengths
Number of Pixels in Spectrum: 2048
>>>>>Begin Spectral Data<<<<<
223.165	-28.75
223.4	-28.75
223.635	-28.75
223.869	-29.75
224.104	-7.75
224.338	-21.75
224.573	-9.75
224.808	-12.75
225.042	-9.75
225.277	-4.75
225.511	4.25
225.746	5.25
225.98	8.25
226.215	10.25
226.449	17.25
226.683	28.25
226.918	21.25
227.152	30.25
227.387	37.25
227.621	44.25
227.856	48.25
228.09	46.25
228.324	41.25
228.559	60.25
228.793	60.25
229.027	71.25
229.262	74.25
229.496	70.25
229.73	89.25
229.964	76.25
230.199	78.25
230.433	82.25
230.667	78.25
230.901	93.25
231.136	77.25
231.37	85.25
231.604	75.25
231.838	73.25
232.072	74.25
232.306	77.25
232.541	83.25
232.775	64.25
233.009	93.25
233.243	88.25
233.477	92.25
233.711	90.25
233.945	86.25
234.179	76.25
234.413	81.25
234.647	91.25
234.881	74.25
235.115	84.25
235.349	84.25
235.583	74.25
235.817	82.25
236.051	71.25
236.285	80.25
236.519	78.25
236.753	77.25
236.987	95.25
237.221	89.25
237.455	88.25
237.689	70.25
237.922	85.25
238.156	85.25
238.39	82.25
238.624	80.25
238.858	75.25
239.091	81.25
239.325	70.25
239.559	69.25
239.793	87.25
240.027	68.25
240.26	73.25
240.494	84.25
240.728	74.25
240.961	82.25
241.195	82.25
241.429	92.25
241.662	71.25
241.896	80.25
242.13	76.25
242.363	76.25
242.597	81.25
242.83	74.25
243.064	68.25
243.298	89.25
243.531	72.25
243.765	75.25
243.998	80.25
244.232	84.25
244.465	98.25
244.699	88.25
244.932	90.25
245.166	72.25
245.399	83.25
245.633	79.25
245.866	86.25
246.099	71.25
246.333	84.25
246.566	83.25
246.8	66.25
247.033	77.25
247.266	69.25
247.5	84.25
247.733	82.25
247.966	76.25
248.2	85.25
248.433	84.25
248.666	86.25
248.899	73.25
249.133	85.25
249.366	97.25
249.599	97.25
249.832	83.25
250.066	76.25
250.299	91.25
250.532	84.25
250.765	78.25
250.998	85.25
251.231	91.25
251.465	74.25
251.698	89.25
251.931	84.25
252.164	73.25
252.397	81.25
252.63	85.25
252.863	81.25
253.096	75.25
253.329	90.25
253.562	96.25
253.795	84.25
254.028	84.25
254.261	89.25
254.494	69.25
254.727	87.25
254.96	89.25
255.193	77.25
255.426	80.25
255.659	76.25
255.892	90.25
256.124	86.25
256.357	83.25
256.59	69.25
256.823	82.25
257.056	80.25
257.289	89.25
257.521	83.25
257.754	96.25
257.987	72.25
258.22	82.25
258.452	80.25
258.685	81.25
258.918	88.25
259.151	81.25
259.383	93.25
259.616	89.25
259.849	96.25
260.081	87.25
260.314	89.25
260.547	83.25
260.779	78.25
261.012	86.25
261.244	94.25
261.477	94.25
261.71	88.25
261.942	98.25
262.175	101.25
262.407	82.25
262.64	86.25
262.872	73.25
263.105	73.25
263.337	87.25
263.57	85.25
263.802	88.25
264.035	85.25
264.267	65.25
264.499	86.25
264.732	94.25
264.964	84.25
265.197	79.25
265.429	82.25
265.661	97.25
265.894	72.25
266.126	82.25
266.358	88.25
266.591	83.25
266.823	82.25
267.055	76.25
267.287	81.25
267.52	94.25
267.752	80.25
267.984	78.25
268.216	91.25
268.448	103.25
268.681	74.25
268.913	90.25
269.145	82.25
269.377	79.25
269.609	80.25
269.841	77.25
270.073	101.25
270.306	86.25
270.538	89.25
270.77	91.25
271.002	103.25
271.234	92.25
271.466	94.25
271.698	98.25
271.93	102.25
272.162	80.25
272.394	94.25
272.626	92.25
272.858	82.25
273.09	80.25
273.322	77.25
273.553	79.25
273.785	88.25
274.017	84.25
274.249	90.25
274.481	96.25
274.713	86.25
274.945	97.25
275.176	71.25
275.408	93.25
275.64	89.25
275.872	97.25
276.104	75.25
276.335	92.25
276.567	102.25
276.799	116.25
277.031	116.25
277.262	103.25
277.494	87.25
277.726	81.25
277.957	88.25
278.189	77.25
278.421	85.25
278.652	84.25
278.884	98.25
279.115	86.25
279.347	81.25
279.579	87.25
279.81	96.25
280.042	81.25
280.273	89.25
280.505	92.25
280.736	91.25
280.968	107.25
281.199	78.25
281.431	91.25
281.662	75.25
281.894	105.25
282.125	102.25
282.356	124.25
282.588	112.25
282.819	115.25
283.051	91.25
283.282	91.25
283.513	90.25
283.745	86.25
283.976	89.25
284.207	102.25
284.439	93.25
284.67	89.25
284.901	81.25
285.132	97.25
285.364	92.25
285.595	101.25
285.826	83.25
286.057	96.25
286.288	91.25
286.52	92.25
286.751	75.25
286.982	90.25
287.213	84.25
287.444	88.25
287.675	92.25
287.906	97.25
288.138	100.25
288.369	87.25
288.6	90.25
288.831	88.25
289.062	101.25
289.293	93.25
289.524	74.25
289.755	99.25
289.986	93.25
290.217	89.25
290.448	82.25
290.679	86.25
290.91	93.25
291.141	92.25
291.371	87.25
291.602	105.25
291.833	81.25
292.064	96.25
292.295	89.25
292.526	93.25
292.757	89.25
292.987	97.25
293.218	100.25
293.449	98.25
293.68	105.25
293.91	118.25
294.141	105.25
294.372	86.25
294.603	84.25
294.833	88.25
295.064	88.25
295.295	95.25
295.525	103.25
295.756	99.25
295.987	121.25
296.217	132.25
296.448	128.25
296.679	101.25
296.909	78.25
297.14	99.25
297.37	98.25
297.601	85.25
297.831	85.25
298.062	93.25
298.292	98.25
298.523	86.25
298.753	83.25
298.984	93.25
299.214	99.25
299.445	90.25
299.675	89.25
299.905	98.25
300.136	89.25
300.366	95.25
300.597	88.25
300.827	97.25
301.057	110.25
301.288	100.25
301.518	94.25
301.748	101.25
301.979	96.25
302.209	96.25
302.439	97.25
302.669	92.25
302.9	100.25
303.13	87.25
303.36	95.25
303.59	98.25
303.82	108.25
304.051	93.25
304.281	91.25
304.511	89.25
304.741	97.25
304.971	95.25
305.201	92.25
305.431	84.25
305.661	94.25
305.891	93.25
306.121	107.25
306.352	101.25
306.582	104.25
306.812	101.25
307.042	106.25
307.272	108.25
307.502	89.25
307.731	90.25
307.961	103.25
308.191	92.25
308.421	92.25
308.651	101.25
308.881	82.25
309.111	100.25
309.341	90.25
309.571	100.25
309.8	93.25
310.03	99.25
310.26	98.25
310.49	96.25
310.72	100.25
310.949	98.25
311.179	102.25
311.409	94.25
311.639	89.25
311.868	93.25
312.098	96.25
312.328	102.25
312.557	101.25
312.787	93.25
313.017	102.25
313.246	96.25
313.476	88.25
313.706	115.25
313.935	89.25
314.165	96.25
314.394	104.25
314.624	91.25
314.853	117.25
315.083	98.25
315.312	77.25
315.542	104.25
315.771	96.25
316.001	94.25
316.23	95.25
316.46	98.25
316.689	92.25
316.919	85.25
317.148	86.25
317.377	106.25
317.607	85.25
317.836	104.25
318.065	90.25
318.295	88.25
318.524	93.25
318.753	93.25
318.983	102.25
319.212	102.25
319.441	100.25
319.67	97.25
319.9	94.25
320.129	85.25
320.358	84.25
320.587	106.25
320.816	109.25
321.046	109.25
321.275	101.25
321.504	97.25
321.733	107.25
321.962	90.25
322.191	100.25
322.42	100.25
322.649	116.25
322.878	110.25
323.108	107.25
323.337	127.25
323.566	134.25
323.795	159.25
324.024	200.25
324.253	369.25
324.482	773.25
324.71	1651.25
324.939	2178.25
325.168	828.25
325.397	246.25
325.626	157.25
325.855	130.25
326.084	134.25
326.313	135.25
326.542	148.25
326.77	221.25
326.999	461.25
327.228	930.25
327.457	1689.25
327.686	1348.25
327.914	367.25
328.143	210.25
328.372	174.25
328.6	131.25
328.829	111.25
329.058	124.25
329.287	145.25
329.515	108.25
329.744	120.25
329.972	129.25
330.201	165.25
330.43	184.25
330.658	150.25
330.887	139.25
331.115	127.25
331.344	102.25
331.572	100.25
331.801	96.25
332.03	104.25
332.258	89.25
332.486	92.25
332.715	92.25
332.943	97.25
333.172	110.25
333.4	93.25
333.629	85.25
333.857	102.25
334.085	134.25
334.314	176.25
334.542	218.25
334.771	204.25
334.999	113.25
335.227	114.25
335.455	118.25
335.684	84.25
335.912	99.25
336.14	112.25
336.369	109.25
336.597	97.25
336.825	109.25
337.053	90.25
337.281	77.25
337.51	95.25
337.738	103.25
337.966	100.25
338.194	93.25
338.422	99.25
338.65	104.25
338.878	97.25
339.106	105.25
339.334	111.25
339.562	99.25
339.79	97.25
340.018	90.25
340.246	78.25
340.474	86.25
340.702	102.25
340.93	92.25
341.158	102.25
341.386	105.25
341.614	92.25
341.842	100.25
342.07	82.25
342.298	86.25
342.526	103.25
342.754	92.25
342.981	93.25
343.209	93.25
343.437	107.25
343.665	92.25
343.893	88.25
344.12	85.25
344.348	83.25
344.576	96.25
344.804	87.25
345.031	101.25
345.259	101.25
345.487	99.25
345.714	101.25
345.942	110.25
346.17	96.25
346.397	89.25
346.625	101.25
346.853	90.25
347.08	88.25
347.308	98.25
347.535	97.25
347.763	109.25
347.99	108.25
348.218	97.25
348.445	97.25
348.673	100.25
348.9	102.25
349.128	114.25
349.355	97.25
349.583	93.25
349.81	100.25
350.037	106.25
350.265	93.25
350.492	104.25
350.72	100.25
350.947	99.25
351.174	104.25
351.402	105.25
351.629	114.25
351.856	102.25
352.083	106.25
352.311	101.25
352.538	113.25
352.765	121.25
352.992	111.25
353.22	107.25
353.447	113.25
353.674	105.25
353.901	100.25
354.128	98.25
354.355	112.25
354.583	104.25
354.81	102.25
355.037	101.25
355.264	93.25
355.491	84.25
355.718	97.25
355.945	112.25
356.172	98.25
356.399	94.25
356.626	91.25
356.853	108.25
357.08	109.25
357.307	92.25
357.534	81.25
357.761	86.25
357.988	102.25
358.215	108.25
358.441	88.25
358.668	90.25
358.895	115.25
359.122	94.25
359.349	77.25
359.576	81.25
359.802	102.25
360.029	103.25
360.256	109.25
360.483	98.25
360.709	94.25
360.936	101.25
361.163	92.25
361.39	103.25
361.616	96.25
361.843	92.25
362.07	88.25
362.296	97.25
362.523	103.25
362.749	85.25
362.976	106.25
363.203	111.25
363.429	91.25
363.656	102.25
363.882	88.25
364.109	95.25
364.335	93.25
364.562	91.25
364.788	86.25
365.015	95.25
365.241	90.25
365.468	101.25
365.694	116.25
365.92	101.25
366.147	96.25
366.373	110.25
366.599	81.25
366.826	90.25
367.052	89.25
367.278	97.25
367.505	83.25
367.731	95.25
367.957	90.25
368.184	104.25
368.41	97.25
368.636	93.25
368.862	108.25
369.089	99.25
369.315	108.25
369.541	92.25
369.767	85.25
369.993	113.25
370.219	95.25
370.445	95.25
370.672	82.25
370.898	93.25
371.124	85.25
371.35	100.25
371.576	98.25
371.802	105.25
372.028	87.25
372.254	94.25
372.48	91.25
372.706	88.25
372.932	95.25
373.158	83.25
373.384	106.25
373.61	92.25
373.835	82.25
374.061	87.25
374.287	93.25
374.513	101.25
374.739	91.25
374.965	94.25
375.191	93.25
375.416	81.25
375.642	106.25
375.868	99.25
376.094	78.25
376.319	97.25
376.545	104.25
376.771	108.25
376.997	109.25
377.222	89.25
377.448	94.25
377.674	91.25
377.899	93.25
378.125	97.25
378.35	93.25
378.576	97.25
378.802	103.25
379.027	92.25
379.253	103.25
379.478	93.25
379.704	102.25
379.929	115.25
380.155	96.25
380.38	99.25
380.606	97.25
380.831	92.25
381.057	105.25
381.282	106.25
381.507	108.25
381.733	102.25
381.958	97.25
382.184	105.25
382.409	113.25
382.634	108.25
382.86	100.25
383.085	99.25
383.31	98.25
383.535	100.25
383.761	102.25
383.986	99.25
384.211	98.25
384.436	111.25
384.662	90.25
384.887	118.25
385.112	108.25
385.337	107.25
385.562	107.25
385.787	100.25
386.013	112.25
386.238	117.25
386.463	109.25
386.688	115.25
386.913	99.25
387.138	94.25
387.363	112.25
387.588	97.25
387.813	101.25
388.038	119.25
388.263	123.25
388.488	115.25
388.713	97.25
388.938	107.25
389.163	78.25
389.387	97.25
389.612	105.25
389.837	95.25
390.062	99.25
390.287	98.25
390.512	96.25
390.736	102.25
390.961	92.25
391.186	94.25
391.411	94.25
391.636	91.25
391.86	78.25
392.085	86.25
392.31	89.25
392.534	83.25
392.759	99.25
392.984	102.25
393.208	107.25
393.433	95.25
393.658	84.25
393.882	95.25
394.107	84.25
394.331	97.25
394.556	76.25
394.78	104.25
395.005	86.25
395.229	88.25
395.454	81.25
395.678	83.25
395.903	100.25
396.127	93.25
396.352	116.25
396.576	80.25
396.801	80.25
397.025	89.25
397.249	77.25
397.474	93.25
397.698	94.25
397.922	80.25
398.147	92.25
398.371	98.25
398.595	90.25
398.82	95.25
399.044	101.25
399.268	92.25
399.492	98.25
399.717	96.25
399.941	90.25
400.165	106.25
400.389	99.25
400.613	91.25
400.837	85.25
401.062	99.25
401.286	81.25
401.51	94.25
401.734	94.25
401.958	103.25
402.182	129.25
402.406	166.25
402.63	130.25
402.854	95.25
403.078	94.25
403.302	86.25
403.526	106.25
403.75	89.25
403.974	86.25
404.198	95.25
404.422	104.25
404.645	91.25
404.869	96.25
405.093	107.25
405.317	108.25
405.541	101.25
405.765	96.25
405.988	113.25
406.212	171.25
406.436	221.25
406.66	145.25
406.883	100.25
407.107	110.25
407.331	100.25
407.555	93.25
407.778	105.25
408.002	90.25
408.226	85.25
408.449	101.25
408.673	87.25
408.896	84.25
409.12	93.25
409.344	89.25
409.567	76.25
409.791	89.25
410.014	102.25
410.238	98.25
410.461	106.25
410.685	107.25
410.908	97.25
411.132	113.25
411.355	105.25
411.578	102.25
411.802	93.25
412.025	99.25
412.249	98.25
412.472	107.25
412.695	113.25
412.919	91.25
413.142	93.25
413.365	89.25
413.589	104.25
413.812	104.25
414.035	97.25
414.258	85.25
414.482	101.25
414.705	88.25
414.928	96.25
415.151	105.25
415.374	94.25
415.597	89.25
415.821	88.25
416.044	107.25
416.267	95.25
416.49	107.25
416.713	91.25
416.936	87.25
417.159	85.25
417.382	105.25
417.605	95.25
417.828	98.25
418.051	95.25
418.274	105.25
418.497	92.25
418.72	89.25
418.943	92.25
419.166	86.25
419.389	97.25
419.611	100.25
419.834	87.25
420.057	86.25
420.28	76.25
420.503	101.25
420.726	94.25
420.948	96.25
421.171	106.25
421.394	94.25
421.617	109.25
421.839	91.25
422.062	83.25
422.285	93.25
422.507	90.25
422.73	99.25
422.953	90.25
423.175	79.25
423.398	79.25
423.621	100.25
423.843	102.25
424.066	83.25
424.288	74.25
424.511	92.25
424.733	109.25
424.956	107.25
425.178	86.25
425.401	93.25
425.623	102.25
425.846	92.25
426.068	75.25
426.291	84.25
426.513	87.25
426.735	85.25
426.958	91.25
427.18	122.25
427.402	145.25
427.625	168.25
427.847	128.25
428.069	121.25
428.292	107.25
428.514	94.25
428.736	77.25
428.958	97.25
429.181	90.25
429.403	91.25
429.625	91.25
429.847	93.25
430.069	102.25
430.292	86.25
430.514	101.25
430.736	91.25
430.958	107.25
431.18	93.25
431.402	100.25
431.624	81.25
431.846	84.25
432.068	96.25
432.29	80.25
432.512	79.25
432.734	85.25
432.956	93.25
433.178	98.25
433.4	95.25
433.622	106.25
433.844	106.25
434.066	90.25
434.287	88.25
434.509	92.25
434.731	83.25
434.953	88.25
435.175	92.25
435.397	90.25
435.618	94.25
435.84	89.25
436.062	101.25
436.284	103.25
436.505	99.25
436.727	102.25
436.949	106.25
437.17	98.25
437.392	97.25
437.614	106.25
437.835	103.25
438.057	116.25
438.278	108.25
438.5	94.25
438.721	110.25
438.943	104.25
439.165	89.25
439.386	106.25
439.608	92.25
439.829	99.25
440.05	119.25
440.272	122.25
440.493	103.25
440.715	91.25
440.936	82.25
441.158	95.25
441.379	97.25
441.6	99.25
441.822	94.25
442.043	99.25
442.264	98.25
442.486	87.25
442.707	93.25
442.928	97.25
443.149	112.25
443.371	131.25
443.592	107.25
443.813	116.25
444.034	113.25
444.255	93.25
444.476	93.25
444.698	99.25
444.919	97.25
445.14	154.25
445.361	146.25
445.582	108.25
445.803	130.25
446.024	123.25
446.245	130.25
446.466	111.25
446.687	92.25
446.908	110.25
447.129	86.25
447.35	91.25
447.571	87.25
447.792	97.25
448.013	100.25
448.234	102.25
448.455	107.25
448.675	115.25
448.896	116.25
449.117	101.25
449.338	100.25
449.559	118.25
449.779	121.25
450	98.25
450.221	89.25
450.442	104.25
450.662	102.25
450.883	100.25
451.104	101.25
451.324	91.25
451.545	88.25
451.766	73.25
451.986	90.25
452.207	100.25
452.428	93.25
452.648	93.25
452.869	114.25
453.089	119.25
453.31	118.25
453.53	95.25
453.751	100.25
453.971	111.25
454.192	106.25
454.412	89.25
454.633	91.25
454.853	93.25
455.073	79.25
455.294	89.25
455.514	97.25
455.734	89.25
455.955	86.25
456.175	77.25
456.395	81.25
456.616	94.25
456.836	77.25
457.056	96.25
457.276	94.25
457.497	84.25
457.717	81.25
457.937	103.25
458.157	89.25
458.377	104.25
458.598	94.25
458.818	135.25
459.038	150.25
459.258	121.25
459.478	85.25
459.698	105.25
459.918	78.25
460.138	88.25
460.358	82.25
460.578	101.25
460.798	95.25
461.018	94.25
461.238	86.25
461.458	89.25
461.678	97.25
461.898	95.25
462.118	85.25
462.338	97.25
462.558	85.25
462.777	86.25
462.997	96.25
463.217	89.25
463.437	88.25
463.657	88.25
463.876	100.25
464.096	96.25
464.316	86.25
464.536	87.25
464.755	101.25
464.975	106.25
465.195	158.25
465.414	161.25
465.634	90.25
465.854	88.25
466.073	93.25
466.293	94.25
466.512	92.25
466.732	114.25
466.951	91.25
467.171	100.25
467.391	108.25
467.61	100.25
467.829	100.25
468.049	120.25
468.268	155.25
468.488	93.25
468.707	95.25
468.927	86.25
469.146	90.25
469.365	90.25
469.585	98.25
469.804	90.25
470.023	90.25
470.243	98.25
470.462	93.25
470.681	93.25
470.901	102.25
471.12	91.25
471.339	86.25
471.558	100.25
471.777	92.25
471.997	99.25
472.216	174.25
472.435	265.25
472.654	122.25
472.873	94.25
473.092	87.25
473.311	87.25
473.53	77.25
473.749	94.25
473.968	96.25
474.187	82.25
474.406	88.25
474.625	97.25
474.844	83.25
475.063	82.25
475.282	98.25
475.501	88.25
475.72	92.25
475.939	92.25
476.158	96.25
476.377	87.25
476.596	96.25
476.814	103.25
477.033	95.25
477.252	95.25
477.471	104.25
477.69	100.25
477.908	86.25
478.127	88.25
478.346	92.25
478.564	102.25
478.783	108.25
479.002	89.25
479.22	97.25
479.439	114.25
479.658	108.25
479.876	98.25
480.095	93.25
480.313	99.25
480.532	101.25
480.751	105.25
480.969	192.25
481.188	410.25
481.406	278.25
481.624	121.25
481.843	85.25
482.061	85.25
482.28	83.25
482.498	89.25
482.717	91.25
482.935	100.25
483.153	94.25
483.372	100.25
483.59	100.25
483.808	92.25
484.027	92.25
484.245	97.25
484.463	76.25
484.681	88.25
484.9	99.25
485.118	104.25
485.336	97.25
485.554	104.25
485.772	91.25
485.99	108.25
486.209	112.25
486.427	102.25
486.645	104.25
486.863	121.25
487.081	92.25
487.299	102.25
487.517	111.25
487.735	104.25
487.953	92.25
488.171	105.25
488.389	98.25
488.607	101.25
488.825	108.25
489.043	92.25
489.261	95.25
489.479	101.25
489.696	90.25
489.914	88.25
490.132	96.25
490.35	103.25
490.568	86.25
490.786	80.25
491.003	100.25
491.221	100.25
491.439	82.25
491.657	93.25
491.874	94.25
492.092	98.25
492.31	115.25
492.527	99.25
492.745	97.25
492.963	92.25
493.18	97.25
493.398	100.25
493.615	106.25
493.833	100.25
494.05	96.25
494.268	104.25
494.485	97.25
494.703	95.25
494.92	84.25
495.138	87.25
495.355	105.25
495.573	98.25
495.79	89.25
496.008	86.25
496.225	93.25
496.442	93.25
496.66	94.25
496.877	104.25
497.094	92.25
497.312	108.25
497.529	93.25
497.746	84.25
497.963	106.25
498.181	105.25
498.398	91.25
498.615	119.25
498.832	114.25
499.049	85.25
499.267	93.25
499.484	82.25
499.701	102.25
499.918	93.25
500.135	90.25
500.352	93.25
500.569	86.25
500.786	89.25
501.003	80.25
501.22	93.25
501.437	104.25
501.654	87.25
501.871	97.25
502.088	90.25
502.305	101.25
502.522	85.25
502.739	83.25
502.956	100.25
503.172	86.25
503.389	105.25
503.606	103.25
503.823	99.25
504.04	107.25
504.256	95.25
504.473	86.25
504.69	101.25
504.907	88.25
505.123	101.25
505.34	88.25
505.557	105.25
505.773	91.25
505.99	85.25
506.207	83.25
506.423	92.25
506.64	92.25
506.856	98.25
507.073	98.25
507.289	99.25
507.506	94.25
507.722	119.25
507.939	92.25
508.155	99.25
508.372	108.25
508.588	83.25
508.805	94.25
509.021	89.25
509.238	103.25
509.454	108.25
509.67	102.25
509.887	122.25
510.103	140.25
510.319	206.25
510.536	745.25
510.752	2359.25
510.968	661.25
511.184	164.25
511.401	101.25
511.617	102.25
511.833	109.25
512.049	107.25
512.265	89.25
512.481	91.25
512.698	92.25
512.914	93.25
513.13	90.25
513.346	90.25
513.562	108.25
513.778	94.25
513.994	98.25
