Data from Circ_2003_H10_HRD10591_00085.txt Node
Date: Wed Jan 03 10:37:19 EST 2024
User: Yrep
Spectrometer: HR+D1059
Trigger mode: 1
Integration Time (sec): 1.000000E-1
Scans to average: 1
Electric dark correction enabled: true
Nonlinearity correction enabled: false
Boxcar width: 0
XAxis mode: Wavelengths
Number of Pixels in Spectrum: 2048
>>>>>Begin Spectral Data<<<<<
223.165	-13.06
223.4	-13.06
223.635	-13.06
223.869	-19.06
224.104	-29.06
224.338	-6.06
224.573	-11.06
224.808	-12.06
225.042	-6.06
225.277	-10.06
225.511	-0.06
225.746	-6.06
225.98	13.94
226.215	13.94
226.449	15.94
226.683	10.94
226.918	21.94
227.152	35.94
227.387	30.94
227.621	45.94
227.856	43.94
228.09	48.94
228.324	53.94
228.559	59.94
228.793	59.94
229.027	74.94
229.262	63.94
229.496	66.94
229.73	85.94
229.964	79.94
230.199	66.94
230.433	80.94
230.667	90.94
230.901	72.94
231.136	76.94
231.37	63.94
231.604	67.94
231.838	77.94
232.072	82.94
232.306	76.94
232.541	70.94
232.775	73.94
233.009	82.94
233.243	83.94
233.477	83.94
233.711	78.94
233.945	83.94
234.179	81.94
234.413	76.94
234.647	85.94
234.881	88.94
235.115	100.94
235.349	81.94
235.583	80.94
235.817	83.94
236.051	77.94
236.285	75.94
236.519	84.94
236.753	78.94
236.987	73.94
237.221	69.94
237.455	80.94
237.689	82.94
237.922	86.94
238.156	88.94
238.39	83.94
238.624	82.94
238.858	86.94
239.091	78.94
239.325	81.94
239.559	70.94
239.793	75.94
240.027	75.94
240.26	61.94
240.494	71.94
240.728	74.94
240.961	79.94
241.195	84.94
241.429	67.94
241.662	86.94
241.896	71.94
242.13	80.94
242.363	72.94
242.597	78.94
242.83	79.94
243.064	72.94
243.298	80.94
243.531	72.94
243.765	81.94
243.998	74.94
244.232	75.94
244.465	82.94
244.699	87.94
244.932	83.94
245.166	71.94
245.399	82.94
245.633	83.94
245.866	74.94
246.099	76.94
246.333	99.94
246.566	67.94
246.8	76.94
247.033	64.94
247.266	76.94
247.5	84.94
247.733	76.94
247.966	88.94
248.2	74.94
248.433	75.94
248.666	77.94
248.899	78.94
249.133	79.94
249.366	97.94
249.599	88.94
249.832	94.94
250.066	93.94
250.299	80.94
250.532	81.94
250.765	84.94
250.998	89.94
251.231	79.94
251.465	96.94
251.698	79.94
251.931	65.94
252.164	76.94
252.397	81.94
252.63	76.94
252.863	91.94
253.096	84.94
253.329	91.94
253.562	84.94
253.795	77.94
254.028	83.94
254.261	70.94
254.494	88.94
254.727	74.94
254.96	80.94
255.193	84.94
255.426	74.94
255.659	77.94
255.892	70.94
256.124	68.94
256.357	87.94
256.59	90.94
256.823	70.94
257.056	91.94
257.289	87.94
257.521	80.94
257.754	97.94
257.987	85.94
258.22	78.94
258.452	82.94
258.685	67.94
258.918	70.94
259.151	92.94
259.383	81.94
259.616	94.94
259.849	91.94
260.081	74.94
260.314	77.94
260.547	89.94
260.779	82.94
261.012	76.94
261.244	79.94
261.477	86.94
261.71	101.94
261.942	94.94
262.175	104.94
262.407	77.94
262.64	99.94
262.872	83.94
263.105	93.94
263.337	86.94
263.57	80.94
263.802	84.94
264.035	87.94
264.267	87.94
264.499	72.94
264.732	95.94
264.964	79.94
265.197	83.94
265.429	77.94
265.661	99.94
265.894	86.94
266.126	99.94
266.358	101.94
266.591	93.94
266.823	69.94
267.055	77.94
267.287	76.94
267.52	83.94
267.752	77.94
267.984	81.94
268.216	85.94
268.448	74.94
268.681	75.94
268.913	85.94
269.145	88.94
269.377	81.94
269.609	86.94
269.841	88.94
270.073	83.94
270.306	66.94
270.538	92.94
270.77	96.94
271.002	80.94
271.234	87.94
271.466	92.94
271.698	75.94
271.93	88.94
272.162	98.94
272.394	64.94
272.626	100.94
272.858	90.94
273.09	84.94
273.322	78.94
273.553	86.94
273.785	86.94
274.017	103.94
274.249	72.94
274.481	92.94
274.713	89.94
274.945	89.94
275.176	73.94
275.408	97.94
275.64	95.94
275.872	100.94
276.104	81.94
276.335	82.94
276.567	96.94
276.799	103.94
277.031	97.94
277.262	96.94
277.494	81.94
277.726	101.94
277.957	82.94
278.189	97.94
278.421	90.94
278.652	96.94
278.884	70.94
279.115	70.94
279.347	79.94
279.579	101.94
279.81	79.94
280.042	97.94
280.273	96.94
280.505	104.94
280.736	85.94
280.968	85.94
281.199	76.94
281.431	85.94
281.662	92.94
281.894	92.94
282.125	99.94
282.356	117.94
282.588	139.94
282.819	106.94
283.051	96.94
283.282	107.94
283.513	98.94
283.745	78.94
283.976	92.94
284.207	84.94
284.439	99.94
284.67	91.94
284.901	91.94
285.132	68.94
285.364	76.94
285.595	74.94
285.826	90.94
286.057	95.94
286.288	104.94
286.52	85.94
286.751	92.94
286.982	88.94
287.213	88.94
287.444	97.94
287.675	102.94
287.906	97.94
288.138	73.94
288.369	81.94
288.6	91.94
288.831	98.94
289.062	86.94
289.293	78.94
289.524	89.94
289.755	99.94
289.986	97.94
290.217	82.94
290.448	94.94
290.679	108.94
290.91	85.94
291.141	67.94
291.371	98.94
291.602	97.94
291.833	92.94
292.064	88.94
292.295	92.94
292.526	76.94
292.757	97.94
292.987	91.94
293.218	94.94
293.449	100.94
293.68	88.94
293.91	89.94
294.141	88.94
294.372	84.94
294.603	80.94
294.833	86.94
295.064	86.94
295.295	85.94
295.525	89.94
295.756	100.94
295.987	113.94
296.217	132.94
296.448	111.94
296.679	89.94
296.909	91.94
297.14	83.94
297.37	80.94
297.601	97.94
297.831	81.94
298.062	99.94
298.292	89.94
298.523	99.94
298.753	99.94
298.984	84.94
299.214	81.94
299.445	88.94
299.675	88.94
299.905	94.94
300.136	92.94
300.366	95.94
300.597	86.94
300.827	109.94
301.057	97.94
301.288	87.94
301.518	90.94
301.748	88.94
301.979	105.94
302.209	83.94
302.439	89.94
302.669	99.94
302.9	91.94
303.13	96.94
303.36	88.94
303.59	91.94
303.82	109.94
304.051	97.94
304.281	89.94
304.511	87.94
304.741	81.94
304.971	90.94
305.201	95.94
305.431	98.94
305.661	92.94
305.891	98.94
306.121	93.94
306.352	82.94
306.582	104.94
306.812	103.94
307.042	98.94
307.272	100.94
307.502	99.94
307.731	92.94
307.961	93.94
308.191	95.94
308.421	107.94
308.651	93.94
308.881	88.94
309.111	93.94
309.341	86.94
309.571	93.94
309.8	95.94
310.03	99.94
310.26	85.94
310.49	84.94
310.72	99.94
310.949	92.94
311.179	106.94
311.409	99.94
311.639	80.94
311.868	99.94
312.098	91.94
312.328	100.94
312.557	99.94
312.787	103.94
313.017	89.94
313.246	98.94
313.476	96.94
313.706	95.94
313.935	96.94
314.165	93.94
314.394	97.94
314.624	93.94
314.853	93.94
315.083	99.94
315.312	83.94
315.542	83.94
315.771	82.94
316.001	84.94
316.23	91.94
316.46	101.94
316.689	90.94
316.919	88.94
317.148	106.94
317.377	97.94
317.607	87.94
317.836	88.94
318.065	90.94
318.295	100.94
318.524	91.94
318.753	90.94
318.983	92.94
319.212	95.94
319.441	107.94
319.67	102.94
319.9	112.94
320.129	100.94
320.358	80.94
320.587	99.94
320.816	98.94
321.046	94.94
321.275	105.94
321.504	97.94
321.733	108.94
321.962	103.94
322.191	90.94
322.42	103.94
322.649	100.94
322.878	104.94
323.108	115.94
323.337	122.94
323.566	128.94
323.795	160.94
324.024	203.94
324.253	369.94
324.482	811.94
324.71	1642.94
324.939	2186.94
325.168	802.94
325.397	240.94
325.626	146.94
325.855	120.94
326.084	127.94
326.313	129.94
326.542	148.94
326.77	229.94
326.999	492.94
327.228	947.94
327.457	1729.94
327.686	1377.94
327.914	369.94
328.143	207.94
328.372	173.94
328.6	136.94
328.829	116.94
329.058	120.94
329.287	115.94
329.515	107.94
329.744	126.94
329.972	131.94
330.201	157.94
330.43	173.94
330.658	137.94
330.887	124.94
331.115	115.94
331.344	96.94
331.572	114.94
331.801	110.94
332.03	104.94
332.258	86.94
332.486	89.94
332.715	100.94
332.943	99.94
333.172	85.94
333.4	98.94
333.629	118.94
333.857	130.94
334.085	132.94
334.314	157.94
334.542	217.94
334.771	208.94
334.999	116.94
335.227	107.94
335.455	103.94
335.684	106.94
335.912	118.94
336.14	107.94
336.369	101.94
336.597	102.94
336.825	91.94
337.053	104.94
337.281	97.94
337.51	102.94
337.738	90.94
337.966	92.94
338.194	89.94
338.422	97.94
338.65	95.94
338.878	98.94
339.106	103.94
339.334	87.94
339.562	88.94
339.79	101.94
340.018	100.94
340.246	104.94
340.474	94.94
340.702	100.94
340.93	92.94
341.158	88.94
341.386	102.94
341.614	96.94
341.842	87.94
342.07	96.94
342.298	93.94
342.526	81.94
342.754	91.94
342.981	93.94
343.209	110.94
343.437	111.94
343.665	93.94
343.893	93.94
344.12	88.94
344.348	103.94
344.576	105.94
344.804	103.94
345.031	95.94
345.259	102.94
345.487	84.94
345.714	85.94
345.942	92.94
346.17	80.94
346.397	87.94
346.625	91.94
346.853	87.94
347.08	87.94
347.308	82.94
347.535	92.94
347.763	100.94
347.99	97.94
348.218	97.94
348.445	96.94
348.673	103.94
348.9	96.94
349.128	120.94
349.355	93.94
349.583	81.94
349.81	93.94
350.037	85.94
350.265	85.94
350.492	102.94
350.72	96.94
350.947	108.94
351.174	115.94
351.402	117.94
351.629	99.94
351.856	109.94
352.083	113.94
352.311	104.94
352.538	106.94
352.765	104.94
352.992	107.94
353.22	108.94
353.447	114.94
353.674	97.94
353.901	116.94
354.128	113.94
354.355	91.94
354.583	90.94
354.81	100.94
355.037	115.94
355.264	101.94
355.491	91.94
355.718	90.94
355.945	101.94
356.172	108.94
356.399	97.94
356.626	91.94
356.853	91.94
357.08	104.94
357.307	90.94
357.534	97.94
357.761	104.94
357.988	78.94
358.215	85.94
358.441	90.94
358.668	88.94
358.895	95.94
359.122	88.94
359.349	85.94
359.576	90.94
359.802	104.94
360.029	110.94
360.256	109.94
360.483	97.94
360.709	82.94
360.936	81.94
361.163	106.94
361.39	88.94
361.616	86.94
361.843	81.94
362.07	104.94
362.296	86.94
362.523	102.94
362.749	91.94
362.976	99.94
363.203	94.94
363.429	104.94
363.656	87.94
363.882	99.94
364.109	91.94
364.335	87.94
364.562	96.94
364.788	77.94
365.015	87.94
365.241	93.94
365.468	105.94
365.694	106.94
365.92	107.94
366.147	86.94
366.373	91.94
366.599	109.94
366.826	88.94
367.052	90.94
367.278	102.94
367.505	79.94
367.731	100.94
367.957	85.94
368.184	88.94
368.41	95.94
368.636	101.94
368.862	120.94
369.089	101.94
369.315	83.94
369.541	96.94
369.767	81.94
369.993	93.94
370.219	85.94
370.445	91.94
370.672	78.94
370.898	89.94
371.124	91.94
371.35	89.94
371.576	107.94
371.802	99.94
372.028	87.94
372.254	87.94
372.48	73.94
372.706	84.94
372.932	99.94
373.158	88.94
373.384	97.94
373.61	97.94
373.835	98.94
374.061	89.94
374.287	101.94
374.513	90.94
374.739	117.94
374.965	103.94
375.191	88.94
375.416	90.94
375.642	91.94
375.868	91.94
376.094	86.94
376.319	82.94
376.545	90.94
376.771	100.94
376.997	93.94
377.222	93.94
377.448	72.94
377.674	81.94
377.899	76.94
378.125	100.94
378.35	84.94
378.576	99.94
378.802	83.94
379.027	92.94
379.253	89.94
379.478	100.94
379.704	84.94
379.929	92.94
380.155	92.94
380.38	85.94
380.606	93.94
380.831	100.94
381.057	103.94
381.282	88.94
381.507	103.94
381.733	122.94
381.958	96.94
382.184	101.94
382.409	112.94
382.634	101.94
382.86	96.94
383.085	99.94
383.31	96.94
383.535	93.94
383.761	93.94
383.986	104.94
384.211	83.94
384.436	94.94
384.662	90.94
384.887	108.94
385.112	107.94
385.337	95.94
385.562	92.94
385.787	92.94
386.013	87.94
386.238	104.94
386.463	106.94
386.688	103.94
386.913	89.94
387.138	101.94
387.363	108.94
387.588	89.94
387.813	97.94
388.038	88.94
388.263	112.94
388.488	102.94
388.713	102.94
388.938	88.94
389.163	93.94
389.387	104.94
389.612	81.94
389.837	99.94
390.062	106.94
390.287	92.94
390.512	101.94
390.736	99.94
390.961	101.94
391.186	83.94
391.411	86.94
391.636	93.94
391.86	103.94
392.085	85.94
392.31	70.94
392.534	79.94
392.759	90.94
392.984	83.94
393.208	103.94
393.433	103.94
393.658	101.94
393.882	83.94
394.107	82.94
394.331	90.94
394.556	90.94
394.78	85.94
395.005	97.94
395.229	82.94
395.454	85.94
395.678	87.94
395.903	81.94
396.127	92.94
396.352	82.94
396.576	89.94
396.801	88.94
397.025	83.94
397.249	92.94
397.474	102.94
397.698	88.94
397.922	91.94
398.147	85.94
398.371	88.94
398.595	96.94
398.82	80.94
399.044	93.94
399.268	82.94
399.492	89.94
399.717	83.94
399.941	78.94
400.165	105.94
400.389	94.94
400.613	92.94
400.837	95.94
401.062	89.94
401.286	90.94
401.51	100.94
401.734	99.94
401.958	86.94
402.182	107.94
402.406	141.94
402.63	108.94
402.854	99.94
403.078	88.94
403.302	97.94
403.526	86.94
403.75	91.94
403.974	93.94
404.198	89.94
404.422	82.94
404.645	77.94
404.869	81.94
405.093	100.94
405.317	100.94
405.541	102.94
405.765	93.94
405.988	108.94
406.212	164.94
406.436	184.94
406.66	145.94
406.883	100.94
407.107	94.94
407.331	84.94
407.555	85.94
407.778	105.94
408.002	86.94
408.226	86.94
408.449	78.94
408.673	105.94
408.896	92.94
409.12	86.94
409.344	79.94
409.567	83.94
409.791	95.94
410.014	105.94
410.238	89.94
410.461	94.94
410.685	97.94
410.908	97.94
411.132	99.94
411.355	103.94
411.578	94.94
411.802	88.94
412.025	90.94
412.249	98.94
412.472	84.94
412.695	100.94
412.919	99.94
413.142	97.94
413.365	97.94
413.589	109.94
413.812	86.94
414.035	88.94
414.258	103.94
414.482	85.94
414.705	92.94
414.928	97.94
415.151	88.94
415.374	96.94
415.597	89.94
415.821	80.94
416.044	92.94
416.267	93.94
416.49	91.94
416.713	81.94
416.936	98.94
417.159	90.94
417.382	89.94
417.605	100.94
417.828	96.94
418.051	99.94
418.274	90.94
418.497	88.94
418.72	81.94
418.943	90.94
419.166	100.94
419.389	97.94
419.611	91.94
419.834	98.94
420.057	98.94
420.28	79.94
420.503	85.94
420.726	76.94
420.948	98.94
421.171	89.94
421.394	85.94
421.617	92.94
421.839	90.94
422.062	96.94
422.285	90.94
422.507	97.94
422.73	100.94
422.953	99.94
423.175	88.94
423.398	82.94
423.621	80.94
423.843	85.94
424.066	77.94
424.288	89.94
424.511	77.94
424.733	103.94
424.956	118.94
425.178	110.94
425.401	95.94
425.623	92.94
425.846	88.94
426.068	105.94
426.291	93.94
426.513	88.94
426.735	94.94
426.958	97.94
427.18	109.94
427.402	140.94
427.625	155.94
427.847	125.94
428.069	117.94
428.292	86.94
428.514	95.94
428.736	85.94
428.958	85.94
429.181	96.94
429.403	94.94
429.625	90.94
429.847	104.94
430.069	87.94
430.292	94.94
430.514	94.94
430.736	82.94
430.958	87.94
431.18	100.94
431.402	83.94
431.624	90.94
431.846	77.94
432.068	86.94
432.29	100.94
432.512	93.94
432.734	87.94
432.956	88.94
433.178	102.94
433.4	78.94
433.622	88.94
433.844	84.94
434.066	82.94
434.287	86.94
434.509	91.94
434.731	80.94
434.953	83.94
435.175	93.94
435.397	83.94
435.618	74.94
435.84	94.94
436.062	114.94
436.284	113.94
436.505	90.94
436.727	102.94
436.949	106.94
437.17	97.94
437.392	79.94
437.614	77.94
437.835	101.94
438.057	107.94
438.278	101.94
438.5	105.94
438.721	110.94
438.943	111.94
439.165	95.94
439.386	90.94
439.608	84.94
439.829	97.94
440.05	121.94
440.272	119.94
440.493	95.94
440.715	92.94
440.936	93.94
441.158	97.94
441.379	85.94
441.6	66.94
441.822	97.94
442.043	88.94
442.264	91.94
442.486	84.94
442.707	85.94
442.928	98.94
443.149	114.94
443.371	115.94
443.592	91.94
443.813	89.94
444.034	98.94
444.255	99.94
444.476	72.94
444.698	81.94
444.919	88.94
445.14	133.94
445.361	122.94
445.582	107.94
445.803	130.94
446.024	113.94
446.245	128.94
446.466	122.94
446.687	84.94
446.908	87.94
447.129	77.94
447.35	84.94
447.571	83.94
447.792	74.94
448.013	95.94
448.234	108.94
448.455	99.94
448.675	104.94
448.896	98.94
449.117	92.94
449.338	101.94
449.559	122.94
449.779	120.94
450	93.94
450.221	93.94
450.442	89.94
450.662	91.94
450.883	85.94
451.104	120.94
451.324	83.94
451.545	75.94
451.766	92.94
451.986	94.94
452.207	83.94
452.428	96.94
452.648	87.94
452.869	104.94
453.089	98.94
453.31	121.94
453.53	90.94
453.751	86.94
453.971	100.94
454.192	97.94
454.412	87.94
454.633	69.94
454.853	82.94
455.073	84.94
455.294	103.94
455.514	91.94
455.734	88.94
455.955	98.94
456.175	89.94
456.395	79.94
456.616	73.94
456.836	102.94
457.056	84.94
457.276	93.94
457.497	75.94
457.717	87.94
457.937	89.94
458.157	74.94
458.377	90.94
458.598	103.94
458.818	141.94
459.038	155.94
459.258	105.94
459.478	98.94
459.698	92.94
459.918	90.94
460.138	89.94
460.358	71.94
460.578	84.94
460.798	81.94
461.018	81.94
461.238	89.94
461.458	80.94
461.678	88.94
461.898	102.94
462.118	93.94
462.338	98.94
462.558	86.94
462.777	83.94
462.997	89.94
463.217	92.94
463.437	92.94
463.657	93.94
463.876	96.94
464.096	87.94
464.316	98.94
464.536	72.94
464.755	91.94
464.975	89.94
465.195	153.94
465.414	152.94
465.634	98.94
465.854	81.94
466.073	66.94
466.293	87.94
466.512	64.94
466.732	85.94
466.951	100.94
467.171	101.94
467.391	92.94
467.61	102.94
467.829	85.94
468.049	123.94
468.268	153.94
468.488	85.94
468.707	96.94
468.927	60.94
469.146	99.94
469.365	89.94
469.585	94.94
469.804	95.94
470.023	91.94
470.243	92.94
470.462	98.94
470.681	109.94
470.901	94.94
471.12	80.94
471.339	73.94
471.558	96.94
471.777	91.94
471.997	115.94
472.216	175.94
472.435	249.94
472.654	111.94
472.873	89.94
473.092	87.94
473.311	84.94
473.53	90.94
473.749	90.94
473.968	91.94
474.187	97.94
474.406	100.94
474.625	98.94
474.844	103.94
475.063	95.94
475.282	91.94
475.501	87.94
475.72	94.94
475.939	95.94
476.158	79.94
476.377	75.94
476.596	90.94
476.814	85.94
477.033	86.94
477.252	93.94
477.471	93.94
477.69	85.94
477.908	77.94
478.127	88.94
478.346	79.94
478.564	96.94
478.783	104.94
479.002	96.94
479.22	85.94
479.439	82.94
479.658	82.94
479.876	98.94
480.095	78.94
480.313	102.94
480.532	96.94
480.751	109.94
480.969	169.94
481.188	411.94
481.406	281.94
481.624	109.94
481.843	97.94
482.061	103.94
482.28	95.94
482.498	85.94
482.717	85.94
482.935	92.94
483.153	89.94
483.372	84.94
483.59	90.94
483.808	95.94
484.027	99.94
484.245	86.94
484.463	99.94
484.681	87.94
484.9	82.94
485.118	92.94
485.336	87.94
485.554	89.94
485.772	106.94
485.99	101.94
486.209	107.94
486.427	106.94
486.645	123.94
486.863	105.94
487.081	98.94
487.299	90.94
487.517	99.94
487.735	95.94
487.953	101.94
488.171	99.94
488.389	107.94
488.607	113.94
488.825	90.94
489.043	95.94
489.261	87.94
489.479	76.94
489.696	83.94
489.914	97.94
490.132	85.94
490.35	92.94
490.568	79.94
490.786	92.94
491.003	87.94
491.221	85.94
491.439	84.94
491.657	80.94
491.874	94.94
492.092	95.94
492.31	95.94
492.527	90.94
492.745	67.94
492.963	76.94
493.18	96.94
493.398	89.94
493.615	86.94
493.833	91.94
494.05	88.94
494.268	90.94
494.485	88.94
494.703	96.94
494.92	87.94
495.138	91.94
495.355	83.94
495.573	91.94
495.79	89.94
496.008	102.94
496.225	97.94
496.442	97.94
496.66	90.94
496.877	95.94
497.094	91.94
497.312	107.94
497.529	87.94
497.746	102.94
497.963	83.94
498.181	85.94
498.398	105.94
498.615	103.94
498.832	122.94
499.049	101.94
499.267	77.94
499.484	99.94
499.701	97.94
499.918	98.94
500.135	92.94
500.352	95.94
500.569	84.94
500.786	86.94
501.003	85.94
501.22	87.94
501.437	100.94
501.654	97.94
501.871	101.94
502.088	102.94
502.305	88.94
502.522	83.94
502.739	92.94
502.956	93.94
503.172	84.94
503.389	95.94
503.606	112.94
503.823	90.94
504.04	83.94
504.256	92.94
504.473	73.94
504.69	92.94
504.907	95.94
505.123	88.94
505.34	96.94
505.557	103.94
505.773	95.94
505.99	91.94
506.207	96.94
506.423	95.94
506.64	80.94
506.856	104.94
507.073	89.94
507.289	99.94
507.506	92.94
507.722	100.94
507.939	109.94
508.155	96.94
508.372	97.94
508.588	93.94
508.805	99.94
509.021	90.94
509.238	104.94
509.454	95.94
509.67	109.94
509.887	111.94
510.103	115.94
510.319	191.94
510.536	697.94
510.752	2172.94
510.968	633.94
511.184	137.94
511.401	115.94
511.617	111.94
511.833	88.94
512.049	103.94
512.265	95.94
512.481	86.94
512.698	93.94
512.914	87.94
513.13	90.94
513.346	86.94
513.562	93.94
513.778	94.94
513.994	113.94
514.21	94.94
514.426	101.94
514.642	120.94
514.858	99.94
515.074	152.94
515.29	390.94
515.506	1269.94
