Data from Circ_2003_H10_HRD10591_00031.txt Node
Date: Wed Jan 03 10:37:08 EST 2024
User: Yrep
Spectrometer: HR+D1059
Trigger mode: 1
Integration Time (sec): 1.000000E-1
Scans to average: 1
Electric dark correction enabled: true
Nonlinearity correction enabled: false
Boxcar width: 0
XAxis mode: Wavelengths
Number of Pixels in Spectrum: 2048
>>>>>Begin Spectral Data<<<<<
223.165	-17.31
223.4	-17.31
223.635	-17.31
223.869	-33.31
224.104	-28.31
224.338	-21.31
224.573	-6.31
224.808	-11.31
225.042	-8.31
225.277	5.69
225.511	5.69
225.746	0.69
225.98	8.69
226.215	17.69
226.449	14.69
226.683	25.69
226.918	21.69
227.152	25.69
227.387	28.69
227.621	55.69
227.856	53.69
228.09	50.69
228.324	44.69
228.559	70.69
228.793	60.69
229.027	62.69
229.262	71.69
229.496	69.69
229.73	79.69
229.964	78.69
230.199	70.69
230.433	85.69
230.667	85.69
230.901	78.69
231.136	72.69
231.37	79.69
231.604	82.69
231.838	81.69
232.072	78.69
232.306	74.69
232.541	78.69
232.775	78.69
233.009	84.69
233.243	81.69
233.477	82.69
233.711	86.69
233.945	83.69
234.179	84.69
234.413	91.69
234.647	61.69
234.881	80.69
235.115	75.69
235.349	88.69
235.583	77.69
235.817	94.69
236.051	73.69
236.285	70.69
236.519	72.69
236.753	76.69
236.987	80.69
237.221	82.69
237.455	85.69
237.689	81.69
237.922	71.69
238.156	77.69
238.39	81.69
238.624	69.69
238.858	79.69
239.091	81.69
239.325	68.69
239.559	86.69
239.793	75.69
240.027	86.69
240.26	78.69
240.494	90.69
240.728	83.69
240.961	82.69
241.195	80.69
241.429	93.69
241.662	88.69
241.896	72.69
242.13	73.69
242.363	85.69
242.597	75.69
242.83	83.69
243.064	77.69
243.298	100.69
243.531	67.69
243.765	90.69
243.998	73.69
244.232	92.69
244.465	87.69
244.699	70.69
244.932	81.69
245.166	87.69
245.399	92.69
245.633	91.69
245.866	91.69
246.099	92.69
246.333	83.69
246.566	81.69
246.8	78.69
247.033	74.69
247.266	88.69
247.5	72.69
247.733	74.69
247.966	73.69
248.2	76.69
248.433	96.69
248.666	73.69
248.899	93.69
249.133	82.69
249.366	111.69
249.599	97.69
249.832	77.69
250.066	78.69
250.299	79.69
250.532	89.69
250.765	71.69
250.998	75.69
251.231	86.69
251.465	86.69
251.698	75.69
251.931	82.69
252.164	69.69
252.397	71.69
252.63	68.69
252.863	82.69
253.096	77.69
253.329	98.69
253.562	91.69
253.795	78.69
254.028	82.69
254.261	80.69
254.494	87.69
254.727	88.69
254.96	80.69
255.193	87.69
255.426	87.69
255.659	71.69
255.892	86.69
256.124	79.69
256.357	83.69
256.59	82.69
256.823	84.69
257.056	84.69
257.289	91.69
257.521	84.69
257.754	66.69
257.987	85.69
258.22	94.69
258.452	91.69
258.685	87.69
258.918	92.69
259.151	86.69
259.383	74.69
259.616	72.69
259.849	79.69
260.081	80.69
260.314	71.69
260.547	83.69
260.779	80.69
261.012	96.69
261.244	92.69
261.477	87.69
261.71	97.69
261.942	117.69
262.175	132.69
262.407	84.69
262.64	89.69
262.872	83.69
263.105	75.69
263.337	84.69
263.57	79.69
263.802	89.69
264.035	82.69
264.267	81.69
264.499	85.69
264.732	88.69
264.964	78.69
265.197	89.69
265.429	86.69
265.661	80.69
265.894	91.69
266.126	96.69
266.358	90.69
266.591	86.69
266.823	79.69
267.055	93.69
267.287	92.69
267.52	76.69
267.752	86.69
267.984	93.69
268.216	94.69
268.448	102.69
268.681	80.69
268.913	91.69
269.145	70.69
269.377	78.69
269.609	94.69
269.841	93.69
270.073	87.69
270.306	99.69
270.538	82.69
270.77	90.69
271.002	80.69
271.234	93.69
271.466	88.69
271.698	77.69
271.93	78.69
272.162	85.69
272.394	73.69
272.626	80.69
272.858	97.69
273.09	85.69
273.322	97.69
273.553	100.69
273.785	95.69
274.017	91.69
274.249	91.69
274.481	79.69
274.713	83.69
274.945	80.69
275.176	98.69
275.408	89.69
275.64	91.69
275.872	85.69
276.104	82.69
276.335	85.69
276.567	100.69
276.799	111.69
277.031	109.69
277.262	97.69
277.494	95.69
277.726	91.69
277.957	86.69
278.189	85.69
278.421	98.69
278.652	90.69
278.884	90.69
279.115	76.69
279.347	98.69
279.579	83.69
279.81	94.69
280.042	90.69
280.273	84.69
280.505	88.69
280.736	88.69
280.968	85.69
281.199	88.69
281.431	87.69
281.662	80.69
281.894	94.69
282.125	100.69
282.356	126.69
282.588	159.69
282.819	109.69
283.051	101.69
283.282	91.69
283.513	98.69
283.745	100.69
283.976	91.69
284.207	86.69
284.439	92.69
284.67	88.69
284.901	81.69
285.132	82.69
285.364	85.69
285.595	99.69
285.826	85.69
286.057	100.69
286.288	86.69
286.52	96.69
286.751	86.69
286.982	84.69
287.213	91.69
287.444	94.69
287.675	93.69
287.906	88.69
288.138	86.69
288.369	93.69
288.6	88.69
288.831	82.69
289.062	96.69
289.293	109.69
289.524	86.69
289.755	93.69
289.986	77.69
290.217	101.69
290.448	86.69
290.679	82.69
290.91	94.69
291.141	84.69
291.371	89.69
291.602	92.69
291.833	89.69
292.064	88.69
292.295	94.69
292.526	86.69
292.757	83.69
292.987	89.69
293.218	96.69
293.449	88.69
293.68	100.69
293.91	86.69
294.141	83.69
294.372	69.69
294.603	82.69
294.833	87.69
295.064	97.69
295.295	92.69
295.525	90.69
295.756	98.69
295.987	129.69
296.217	153.69
296.448	130.69
296.679	86.69
296.909	83.69
297.14	96.69
297.37	102.69
297.601	102.69
297.831	88.69
298.062	104.69
298.292	88.69
298.523	88.69
298.753	87.69
298.984	86.69
299.214	92.69
299.445	97.69
299.675	95.69
299.905	94.69
300.136	101.69
300.366	102.69
300.597	97.69
300.827	94.69
301.057	93.69
301.288	103.69
301.518	99.69
301.748	99.69
301.979	95.69
302.209	91.69
302.439	91.69
302.669	87.69
302.9	83.69
303.13	105.69
303.36	99.69
303.59	93.69
303.82	123.69
304.051	104.69
304.281	101.69
304.511	87.69
304.741	98.69
304.971	100.69
305.201	97.69
305.431	95.69
305.661	84.69
305.891	106.69
306.121	105.69
306.352	99.69
306.582	113.69
306.812	81.69
307.042	91.69
307.272	98.69
307.502	108.69
307.731	94.69
307.961	99.69
308.191	95.69
308.421	88.69
308.651	86.69
308.881	97.69
309.111	93.69
309.341	97.69
309.571	111.69
309.8	95.69
310.03	83.69
310.26	93.69
310.49	99.69
310.72	103.69
310.949	114.69
311.179	100.69
311.409	105.69
311.639	116.69
311.868	91.69
312.098	102.69
312.328	93.69
312.557	102.69
312.787	109.69
313.017	113.69
313.246	100.69
313.476	101.69
313.706	97.69
313.935	108.69
314.165	99.69
314.394	109.69
314.624	111.69
314.853	91.69
315.083	106.69
315.312	101.69
315.542	94.69
315.771	104.69
316.001	100.69
316.23	88.69
316.46	84.69
316.689	86.69
316.919	102.69
317.148	90.69
317.377	102.69
317.607	97.69
317.836	91.69
318.065	93.69
318.295	100.69
318.524	96.69
318.753	85.69
318.983	93.69
319.212	105.69
319.441	112.69
319.67	109.69
319.9	103.69
320.129	101.69
320.358	98.69
320.587	95.69
320.816	105.69
321.046	103.69
321.275	103.69
321.504	95.69
321.733	81.69
321.962	103.69
322.191	100.69
322.42	104.69
322.649	109.69
322.878	101.69
323.108	111.69
323.337	134.69
323.566	134.69
323.795	182.69
324.024	251.69
324.253	464.69
324.482	1046.69
324.71	2226.69
324.939	2791.69
325.168	996.69
325.397	268.69
325.626	166.69
325.855	135.69
326.084	136.69
326.313	139.69
326.542	171.69
326.77	270.69
326.999	579.69
327.228	1176.69
327.457	2186.69
327.686	1685.69
327.914	437.69
328.143	214.69
328.372	158.69
328.6	145.69
328.829	124.69
329.058	137.69
329.287	135.69
329.515	113.69
329.744	94.69
329.972	109.69
330.201	113.69
330.43	116.69
330.658	136.69
330.887	142.69
331.115	155.69
331.344	105.69
331.572	104.69
331.801	112.69
332.03	94.69
332.258	96.69
332.486	102.69
332.715	90.69
332.943	106.69
333.172	102.69
333.4	105.69
333.629	105.69
333.857	120.69
334.085	113.69
334.314	100.69
334.542	109.69
334.771	103.69
334.999	92.69
335.227	94.69
335.455	92.69
335.684	97.69
335.912	106.69
336.14	90.69
336.369	98.69
336.597	106.69
336.825	108.69
337.053	106.69
337.281	106.69
337.51	97.69
337.738	105.69
337.966	91.69
338.194	96.69
338.422	100.69
338.65	98.69
338.878	94.69
339.106	84.69
339.334	97.69
339.562	81.69
339.79	90.69
340.018	101.69
340.246	92.69
340.474	92.69
340.702	87.69
340.93	100.69
341.158	102.69
341.386	112.69
341.614	104.69
341.842	105.69
342.07	107.69
342.298	102.69
342.526	103.69
342.754	102.69
342.981	89.69
343.209	97.69
343.437	99.69
343.665	89.69
343.893	94.69
344.12	97.69
344.348	88.69
344.576	102.69
344.804	84.69
345.031	92.69
345.259	115.69
345.487	101.69
345.714	95.69
345.942	100.69
346.17	98.69
346.397	79.69
346.625	81.69
346.853	90.69
347.08	91.69
347.308	93.69
347.535	109.69
347.763	98.69
347.99	98.69
348.218	112.69
348.445	103.69
348.673	108.69
348.9	94.69
349.128	108.69
349.355	104.69
349.583	92.69
349.81	97.69
350.037	105.69
350.265	95.69
350.492	103.69
350.72	108.69
350.947	102.69
351.174	103.69
351.402	120.69
351.629	97.69
351.856	122.69
352.083	133.69
352.311	107.69
352.538	128.69
352.765	113.69
352.992	121.69
353.22	112.69
353.447	109.69
353.674	115.69
353.901	102.69
354.128	105.69
354.355	100.69
354.583	99.69
354.81	89.69
355.037	96.69
355.264	104.69
355.491	100.69
355.718	88.69
355.945	91.69
356.172	99.69
356.399	93.69
356.626	104.69
356.853	102.69
357.08	88.69
357.307	102.69
357.534	105.69
357.761	97.69
357.988	117.69
358.215	98.69
358.441	90.69
358.668	103.69
358.895	105.69
359.122	98.69
359.349	84.69
359.576	90.69
359.802	123.69
360.029	106.69
360.256	104.69
360.483	103.69
360.709	82.69
360.936	104.69
361.163	80.69
361.39	85.69
361.616	106.69
361.843	105.69
362.07	94.69
362.296	100.69
362.523	91.69
362.749	93.69
362.976	103.69
363.203	96.69
363.429	91.69
363.656	98.69
363.882	85.69
364.109	99.69
364.335	94.69
364.562	104.69
364.788	85.69
365.015	104.69
365.241	107.69
365.468	124.69
365.694	106.69
365.92	86.69
366.147	84.69
366.373	87.69
366.599	100.69
366.826	90.69
367.052	90.69
367.278	89.69
367.505	100.69
367.731	111.69
367.957	104.69
368.184	93.69
368.41	112.69
368.636	130.69
368.862	124.69
369.089	86.69
369.315	99.69
369.541	110.69
369.767	90.69
369.993	86.69
370.219	82.69
370.445	90.69
370.672	84.69
370.898	104.69
371.124	83.69
371.35	102.69
371.576	93.69
371.802	97.69
372.028	82.69
372.254	86.69
372.48	95.69
372.706	93.69
372.932	98.69
373.158	94.69
373.384	88.69
373.61	86.69
373.835	93.69
374.061	97.69
374.287	100.69
374.513	73.69
374.739	76.69
374.965	115.69
375.191	97.69
375.416	94.69
375.642	92.69
375.868	97.69
376.094	105.69
376.319	85.69
376.545	75.69
376.771	77.69
376.997	94.69
377.222	107.69
377.448	102.69
377.674	87.69
377.899	91.69
378.125	89.69
378.35	97.69
378.576	93.69
378.802	99.69
379.027	90.69
379.253	99.69
379.478	98.69
379.704	102.69
379.929	101.69
380.155	114.69
380.38	102.69
380.606	101.69
380.831	105.69
381.057	107.69
381.282	107.69
381.507	98.69
381.733	88.69
381.958	98.69
382.184	114.69
382.409	117.69
382.634	117.69
382.86	113.69
383.085	119.69
383.31	106.69
383.535	110.69
383.761	104.69
383.986	105.69
384.211	118.69
384.436	112.69
384.662	118.69
384.887	106.69
385.112	128.69
385.337	112.69
385.562	130.69
385.787	127.69
386.013	117.69
386.238	119.69
386.463	115.69
386.688	111.69
386.913	113.69
387.138	116.69
387.363	115.69
387.588	108.69
387.813	110.69
388.038	122.69
388.263	124.69
388.488	116.69
388.713	98.69
388.938	95.69
389.163	106.69
389.387	99.69
389.612	100.69
389.837	90.69
390.062	100.69
390.287	107.69
390.512	110.69
390.736	104.69
390.961	81.69
391.186	87.69
391.411	88.69
391.636	91.69
391.86	83.69
392.085	82.69
392.31	94.69
392.534	94.69
392.759	105.69
392.984	97.69
393.208	97.69
393.433	104.69
393.658	94.69
393.882	92.69
394.107	96.69
394.331	91.69
394.556	81.69
394.78	100.69
395.005	90.69
395.229	82.69
395.454	91.69
395.678	82.69
395.903	88.69
396.127	94.69
396.352	109.69
396.576	89.69
396.801	107.69
397.025	98.69
397.249	88.69
397.474	88.69
397.698	88.69
397.922	95.69
398.147	91.69
398.371	85.69
398.595	100.69
398.82	91.69
399.044	96.69
399.268	91.69
399.492	86.69
399.717	101.69
399.941	91.69
400.165	110.69
400.389	90.69
400.613	91.69
400.837	97.69
401.062	98.69
401.286	89.69
401.51	100.69
401.734	93.69
401.958	107.69
402.182	133.69
402.406	163.69
402.63	135.69
402.854	107.69
403.078	101.69
403.302	85.69
403.526	91.69
403.75	89.69
403.974	95.69
404.198	98.69
404.422	87.69
404.645	89.69
404.869	92.69
405.093	97.69
405.317	103.69
405.541	99.69
405.765	101.69
405.988	125.69
406.212	175.69
406.436	242.69
406.66	161.69
406.883	116.69
407.107	106.69
407.331	98.69
407.555	100.69
407.778	102.69
408.002	95.69
408.226	104.69
408.449	96.69
408.673	83.69
408.896	93.69
409.12	111.69
409.344	109.69
409.567	93.69
409.791	107.69
410.014	84.69
410.238	91.69
410.461	95.69
410.685	102.69
410.908	96.69
411.132	106.69
411.355	108.69
411.578	91.69
411.802	87.69
412.025	98.69
412.249	109.69
412.472	105.69
412.695	79.69
412.919	80.69
413.142	96.69
413.365	94.69
413.589	97.69
413.812	102.69
414.035	87.69
414.258	93.69
414.482	102.69
414.705	96.69
414.928	81.69
415.151	99.69
415.374	93.69
415.597	87.69
415.821	103.69
416.044	100.69
416.267	90.69
416.49	92.69
416.713	89.69
416.936	84.69
417.159	85.69
417.382	107.69
417.605	88.69
417.828	99.69
418.051	94.69
418.274	93.69
418.497	99.69
418.72	91.69
418.943	99.69
419.166	84.69
419.389	79.69
419.611	96.69
419.834	84.69
420.057	96.69
420.28	94.69
420.503	89.69
420.726	97.69
420.948	91.69
421.171	99.69
421.394	77.69
421.617	100.69
421.839	96.69
422.062	99.69
422.285	92.69
422.507	112.69
422.73	105.69
422.953	105.69
423.175	93.69
423.398	88.69
423.621	104.69
423.843	89.69
424.066	91.69
424.288	88.69
424.511	93.69
424.733	107.69
424.956	126.69
425.178	97.69
425.401	108.69
425.623	103.69
425.846	93.69
426.068	88.69
426.291	91.69
426.513	84.69
426.735	103.69
426.958	106.69
427.18	119.69
427.402	156.69
427.625	179.69
427.847	137.69
428.069	119.69
428.292	86.69
428.514	90.69
428.736	107.69
428.958	94.69
429.181	90.69
429.403	92.69
429.625	96.69
429.847	124.69
430.069	119.69
430.292	104.69
430.514	69.69
430.736	91.69
430.958	89.69
431.18	84.69
431.402	89.69
431.624	103.69
431.846	85.69
432.068	94.69
432.29	94.69
432.512	80.69
432.734	109.69
432.956	107.69
433.178	100.69
433.4	104.69
433.622	105.69
433.844	92.69
434.066	93.69
434.287	101.69
434.509	86.69
434.731	101.69
434.953	98.69
435.175	91.69
435.397	91.69
435.618	82.69
435.84	105.69
436.062	132.69
436.284	118.69
436.505	93.69
436.727	115.69
436.949	84.69
437.17	94.69
437.392	98.69
437.614	95.69
437.835	108.69
438.057	112.69
438.278	102.69
438.5	102.69
438.721	133.69
438.943	115.69
439.165	88.69
439.386	106.69
439.608	98.69
439.829	109.69
440.05	144.69
440.272	142.69
440.493	105.69
440.715	92.69
440.936	96.69
441.158	95.69
441.379	94.69
441.6	101.69
441.822	94.69
442.043	88.69
442.264	126.69
442.486	109.69
442.707	103.69
442.928	106.69
443.149	134.69
443.371	148.69
443.592	112.69
443.813	119.69
444.034	119.69
444.255	104.69
444.476	98.69
444.698	84.69
444.919	84.69
445.14	141.69
445.361	121.69
445.582	128.69
445.803	154.69
446.024	139.69
446.245	153.69
446.466	125.69
446.687	101.69
446.908	106.69
447.129	93.69
447.35	78.69
447.571	89.69
447.792	97.69
448.013	107.69
448.234	115.69
448.455	98.69
448.675	125.69
448.896	125.69
449.117	106.69
449.338	94.69
449.559	137.69
449.779	130.69
450	108.69
450.221	89.69
450.442	89.69
450.662	112.69
450.883	107.69
451.104	116.69
451.324	108.69
451.545	108.69
451.766	90.69
451.986	97.69
452.207	94.69
452.428	99.69
452.648	103.69
452.869	104.69
453.089	116.69
453.31	115.69
453.53	91.69
453.751	89.69
453.971	98.69
454.192	124.69
454.412	118.69
454.633	85.69
454.853	78.69
455.073	85.69
455.294	87.69
455.514	115.69
455.734	94.69
455.955	90.69
456.175	85.69
456.395	88.69
456.616	100.69
456.836	91.69
457.056	91.69
457.276	94.69
457.497	85.69
457.717	90.69
457.937	86.69
458.157	82.69
458.377	96.69
458.598	103.69
458.818	162.69
459.038	164.69
459.258	130.69
459.478	86.69
459.698	93.69
459.918	99.69
460.138	86.69
460.358	86.69
460.578	88.69
460.798	93.69
461.018	74.69
461.238	90.69
461.458	92.69
461.678	106.69
461.898	91.69
462.118	76.69
462.338	87.69
462.558	89.69
462.777	83.69
462.997	89.69
463.217	99.69
463.437	92.69
463.657	85.69
463.876	93.69
464.096	85.69
464.316	98.69
464.536	105.69
464.755	110.69
464.975	117.69
465.195	185.69
465.414	181.69
465.634	77.69
465.854	95.69
466.073	95.69
466.293	83.69
466.512	89.69
466.732	77.69
466.951	86.69
467.171	96.69
467.391	91.69
467.61	117.69
467.829	109.69
468.049	90.69
468.268	97.69
468.488	93.69
468.707	96.69
468.927	84.69
469.146	92.69
469.365	99.69
469.585	107.69
469.804	100.69
470.023	106.69
470.243	86.69
470.462	101.69
470.681	126.69
470.901	100.69
471.12	97.69
471.339	99.69
471.558	96.69
471.777	88.69
471.997	89.69
472.216	104.69
472.435	119.69
472.654	81.69
472.873	104.69
473.092	89.69
473.311	100.69
473.53	72.69
473.749	89.69
473.968	93.69
474.187	109.69
474.406	104.69
474.625	101.69
474.844	96.69
475.063	94.69
475.282	104.69
475.501	94.69
475.72	92.69
475.939	92.69
476.158	97.69
476.377	76.69
476.596	88.69
476.814	94.69
477.033	106.69
477.252	90.69
477.471	91.69
477.69	87.69
477.908	80.69
478.127	112.69
478.346	93.69
478.564	96.69
478.783	107.69
479.002	103.69
479.22	102.69
479.439	98.69
479.658	92.69
479.876	101.69
480.095	102.69
480.313	99.69
480.532	92.69
480.751	94.69
480.969	97.69
481.188	131.69
481.406	115.69
481.624	97.69
481.843	94.69
482.061	90.69
482.28	91.69
482.498	86.69
482.717	92.69
482.935	90.69
483.153	97.69
483.372	100.69
483.59	89.69
483.808	89.69
484.027	96.69
484.245	97.69
484.463	87.69
484.681	100.69
484.9	101.69
485.118	96.69
485.336	95.69
485.554	112.69
485.772	101.69
485.99	112.69
486.209	117.69
486.427	113.69
486.645	123.69
486.863	107.69
487.081	96.69
487.299	91.69
487.517	99.69
487.735	100.69
487.953	91.69
488.171	94.69
488.389	107.69
488.607	95.69
488.825	100.69
489.043	105.69
489.261	98.69
489.479	91.69
489.696	100.69
489.914	90.69
490.132	100.69
490.35	94.69
490.568	91.69
490.786	88.69
491.003	101.69
491.221	100.69
491.439	106.69
491.657	89.69
491.874	98.69
492.092	103.69
492.31	98.69
492.527	87.69
492.745	87.69
492.963	82.69
493.18	90.69
493.398	103.69
493.615	84.69
493.833	99.69
494.05	103.69
494.268	83.69
494.485	109.69
494.703	98.69
494.92	90.69
495.138	103.69
495.355	81.69
495.573	96.69
495.79	90.69
496.008	106.69
496.225	89.69
496.442	92.69
496.66	100.69
496.877	90.69
497.094	85.69
497.312	87.69
497.529	97.69
497.746	79.69
497.963	91.69
498.181	93.69
498.398	79.69
498.615	125.69
498.832	118.69
499.049	96.69
499.267	94.69
499.484	85.69
499.701	85.69
499.918	102.69
500.135	92.69
500.352	83.69
500.569	88.69
500.786	82.69
501.003	108.69
501.22	90.69
501.437	91.69
501.654	104.69
501.871	114.69
502.088	104.69
502.305	92.69
502.522	91.69
502.739	100.69
502.956	104.69
503.172	90.69
503.389	92.69
503.606	109.69
503.823	98.69
504.04	91.69
504.256	92.69
504.473	89.69
504.69	96.69
504.907	98.69
505.123	102.69
505.34	107.69
505.557	84.69
505.773	90.69
505.99	98.69
506.207	80.69
506.423	90.69
506.64	115.69
506.856	100.69
507.073	107.69
507.289	106.69
507.506	99.69
507.722	121.69
507.939	112.69
508.155	106.69
508.372	108.69
508.588	94.69
508.805	97.69
509.021	102.69
509.238	99.69
509.454	96.69
509.67	105.69
509.887	117.69
510.103	136.69
510.319	244.69
510.536	858.69
510.752	2836.69
510.968	784.69
511.184	170.69
511.401	119.69
511.617	100.69
511.833	99.69
512.049	94.69
512.265	98.69
512.481	107.69
512.698	85.69
512.914	101.69
513.13	114.69
513.346	102.69
