Data from Circ_2003_H10_HRD10591_00069.txt Node
Date: Wed Jan 03 10:37:16 EST 2024
User: Yrep
Spectrometer: HR+D1059
Trigger mode: 1
Integration Time (sec): 1.000000E-1
Scans to average: 1
Electric dark correction enabled: true
Nonlinearity correction enabled: false
Boxcar width: 0
XAxis mode: Wavelengths
Number of Pixels in Spectrum: 2048
>>>>>Begin Spectral Data<<<<<
223.165	-24.19
223.4	-24.19
223.635	-24.19
223.869	-14.19
224.104	-29.19
224.338	-27.19
224.573	-15.19
224.808	-4.19
225.042	-6.19
225.277	-17.19
225.511	5.81
225.746	6.81
225.98	7.81
226.215	20.81
226.449	16.81
226.683	15.81
226.918	35.81
227.152	27.81
227.387	30.81
227.621	33.81
227.856	62.81
228.09	54.81
228.324	41.81
228.559	62.81
228.793	66.81
229.027	60.81
229.262	71.81
229.496	74.81
229.73	78.81
229.964	72.81
230.199	63.81
230.433	55.81
230.667	88.81
230.901	71.81
231.136	78.81
231.37	81.81
231.604	67.81
231.838	85.81
232.072	78.81
232.306	95.81
232.541	91.81
232.775	77.81
233.009	86.81
233.243	77.81
233.477	84.81
233.711	86.81
233.945	71.81
234.179	82.81
234.413	74.81
234.647	90.81
234.881	86.81
235.115	86.81
235.349	79.81
235.583	74.81
235.817	81.81
236.051	81.81
236.285	79.81
236.519	85.81
236.753	74.81
236.987	72.81
237.221	92.81
237.455	75.81
237.689	88.81
237.922	84.81
238.156	87.81
238.39	93.81
238.624	62.81
238.858	63.81
239.091	69.81
239.325	78.81
239.559	70.81
239.793	66.81
240.027	81.81
240.26	90.81
240.494	72.81
240.728	82.81
240.961	73.81
241.195	84.81
241.429	76.81
241.662	74.81
241.896	78.81
242.13	83.81
242.363	60.81
242.597	80.81
242.83	86.81
243.064	76.81
243.298	92.81
243.531	76.81
243.765	76.81
243.998	83.81
244.232	95.81
244.465	79.81
244.699	86.81
244.932	80.81
245.166	72.81
245.399	78.81
245.633	73.81
245.866	74.81
246.099	74.81
246.333	67.81
246.566	96.81
246.8	78.81
247.033	81.81
247.266	73.81
247.5	75.81
247.733	88.81
247.966	66.81
248.2	75.81
248.433	90.81
248.666	75.81
248.899	81.81
249.133	90.81
249.366	86.81
249.599	88.81
249.832	82.81
250.066	84.81
250.299	70.81
250.532	75.81
250.765	82.81
250.998	91.81
251.231	87.81
251.465	81.81
251.698	79.81
251.931	79.81
252.164	92.81
252.397	72.81
252.63	80.81
252.863	74.81
253.096	65.81
253.329	93.81
253.562	90.81
253.795	87.81
254.028	86.81
254.261	74.81
254.494	74.81
254.727	79.81
254.96	64.81
255.193	86.81
255.426	79.81
255.659	83.81
255.892	79.81
256.124	71.81
256.357	71.81
256.59	75.81
256.823	75.81
257.056	83.81
257.289	83.81
257.521	78.81
257.754	81.81
257.987	98.81
258.22	84.81
258.452	73.81
258.685	67.81
258.918	83.81
259.151	84.81
259.383	72.81
259.616	89.81
259.849	87.81
260.081	74.81
260.314	86.81
260.547	85.81
260.779	89.81
261.012	99.81
261.244	71.81
261.477	85.81
261.71	87.81
261.942	109.81
262.175	99.81
262.407	91.81
262.64	81.81
262.872	94.81
263.105	83.81
263.337	86.81
263.57	86.81
263.802	81.81
264.035	82.81
264.267	74.81
264.499	72.81
264.732	89.81
264.964	80.81
265.197	90.81
265.429	90.81
265.661	79.81
265.894	71.81
266.126	90.81
266.358	67.81
266.591	81.81
266.823	87.81
267.055	78.81
267.287	95.81
267.52	81.81
267.752	87.81
267.984	83.81
268.216	89.81
268.448	82.81
268.681	80.81
268.913	72.81
269.145	86.81
269.377	94.81
269.609	90.81
269.841	86.81
270.073	80.81
270.306	88.81
270.538	79.81
270.77	90.81
271.002	85.81
271.234	81.81
271.466	80.81
271.698	91.81
271.93	91.81
272.162	73.81
272.394	80.81
272.626	91.81
272.858	82.81
273.09	98.81
273.322	88.81
273.553	88.81
273.785	73.81
274.017	97.81
274.249	73.81
274.481	90.81
274.713	84.81
274.945	75.81
275.176	84.81
275.408	79.81
275.64	88.81
275.872	86.81
276.104	86.81
276.335	94.81
276.567	101.81
276.799	98.81
277.031	114.81
277.262	99.81
277.494	92.81
277.726	86.81
277.957	83.81
278.189	68.81
278.421	83.81
278.652	78.81
278.884	96.81
279.115	69.81
279.347	78.81
279.579	100.81
279.81	86.81
280.042	91.81
280.273	86.81
280.505	83.81
280.736	89.81
280.968	83.81
281.199	85.81
281.431	84.81
281.662	90.81
281.894	96.81
282.125	93.81
282.356	115.81
282.588	138.81
282.819	100.81
283.051	91.81
283.282	85.81
283.513	114.81
283.745	94.81
283.976	80.81
284.207	81.81
284.439	90.81
284.67	88.81
284.901	88.81
285.132	82.81
285.364	92.81
285.595	79.81
285.826	82.81
286.057	73.81
286.288	83.81
286.52	85.81
286.751	89.81
286.982	81.81
287.213	67.81
287.444	81.81
287.675	92.81
287.906	96.81
288.138	94.81
288.369	88.81
288.6	95.81
288.831	94.81
289.062	86.81
289.293	83.81
289.524	89.81
289.755	88.81
289.986	88.81
290.217	79.81
290.448	96.81
290.679	74.81
290.91	91.81
291.141	92.81
291.371	86.81
291.602	98.81
291.833	82.81
292.064	101.81
292.295	88.81
292.526	90.81
292.757	87.81
292.987	86.81
293.218	93.81
293.449	85.81
293.68	78.81
293.91	80.81
294.141	97.81
294.372	90.81
294.603	90.81
294.833	90.81
295.064	83.81
295.295	85.81
295.525	103.81
295.756	101.81
295.987	114.81
296.217	126.81
296.448	123.81
296.679	87.81
296.909	80.81
297.14	79.81
297.37	95.81
297.601	92.81
297.831	75.81
298.062	104.81
298.292	86.81
298.523	91.81
298.753	86.81
298.984	90.81
299.214	81.81
299.445	78.81
299.675	78.81
299.905	82.81
300.136	86.81
300.366	92.81
300.597	82.81
300.827	99.81
301.057	100.81
301.288	90.81
301.518	99.81
301.748	103.81
301.979	115.81
302.209	89.81
302.439	77.81
302.669	89.81
302.9	92.81
303.13	90.81
303.36	91.81
303.59	89.81
303.82	91.81
304.051	93.81
304.281	100.81
304.511	87.81
304.741	86.81
304.971	83.81
305.201	84.81
305.431	88.81
305.661	90.81
305.891	106.81
306.121	100.81
306.352	103.81
306.582	88.81
306.812	95.81
307.042	102.81
307.272	91.81
307.502	98.81
307.731	92.81
307.961	88.81
308.191	96.81
308.421	92.81
308.651	89.81
308.881	83.81
309.111	85.81
309.341	90.81
309.571	101.81
309.8	85.81
310.03	94.81
310.26	97.81
310.49	95.81
310.72	88.81
310.949	101.81
311.179	90.81
311.409	108.81
311.639	100.81
311.868	84.81
312.098	107.81
312.328	100.81
312.557	75.81
312.787	86.81
313.017	101.81
313.246	91.81
313.476	100.81
313.706	77.81
313.935	99.81
314.165	96.81
314.394	96.81
314.624	108.81
314.853	98.81
315.083	79.81
315.312	92.81
315.542	82.81
315.771	91.81
316.001	101.81
316.23	83.81
316.46	90.81
316.689	98.81
316.919	88.81
317.148	85.81
317.377	82.81
317.607	112.81
317.836	76.81
318.065	82.81
318.295	83.81
318.524	75.81
318.753	103.81
318.983	99.81
319.212	100.81
319.441	88.81
319.67	117.81
319.9	94.81
320.129	88.81
320.358	93.81
320.587	99.81
320.816	81.81
321.046	91.81
321.275	92.81
321.504	78.81
321.733	95.81
321.962	82.81
322.191	97.81
322.42	103.81
322.649	90.81
322.878	98.81
323.108	113.81
323.337	139.81
323.566	112.81
323.795	146.81
324.024	192.81
324.253	336.81
324.482	746.81
324.71	1488.81
324.939	1958.81
325.168	738.81
325.397	229.81
325.626	144.81
325.855	133.81
326.084	128.81
326.313	136.81
326.542	151.81
326.77	218.81
326.999	426.81
327.228	826.81
327.457	1543.81
327.686	1226.81
327.914	322.81
328.143	210.81
328.372	155.81
328.6	126.81
328.829	105.81
329.058	115.81
329.287	102.81
329.515	103.81
329.744	110.81
329.972	113.81
330.201	122.81
330.43	156.81
330.658	128.81
330.887	121.81
331.115	109.81
331.344	91.81
331.572	102.81
331.801	103.81
332.03	109.81
332.258	93.81
332.486	101.81
332.715	92.81
332.943	100.81
333.172	102.81
333.4	102.81
333.629	103.81
333.857	102.81
334.085	113.81
334.314	142.81
334.542	183.81
334.771	164.81
334.999	94.81
335.227	88.81
335.455	87.81
335.684	111.81
335.912	103.81
336.14	100.81
336.369	95.81
336.597	102.81
336.825	94.81
337.053	84.81
337.281	90.81
337.51	89.81
337.738	100.81
337.966	86.81
338.194	95.81
338.422	93.81
338.65	99.81
338.878	81.81
339.106	84.81
339.334	94.81
339.562	78.81
339.79	98.81
340.018	88.81
340.246	92.81
340.474	95.81
340.702	96.81
340.93	86.81
341.158	90.81
341.386	103.81
341.614	99.81
341.842	96.81
342.07	86.81
342.298	90.81
342.526	90.81
342.754	81.81
342.981	86.81
343.209	84.81
343.437	104.81
343.665	91.81
343.893	90.81
344.12	99.81
344.348	95.81
344.576	78.81
344.804	87.81
345.031	96.81
345.259	98.81
345.487	92.81
345.714	85.81
345.942	84.81
346.17	77.81
346.397	83.81
346.625	86.81
346.853	91.81
347.08	101.81
347.308	86.81
347.535	95.81
347.763	108.81
347.99	91.81
348.218	97.81
348.445	109.81
348.673	108.81
348.9	85.81
349.128	90.81
349.355	85.81
349.583	92.81
349.81	99.81
350.037	96.81
350.265	85.81
350.492	99.81
350.72	101.81
350.947	101.81
351.174	108.81
351.402	114.81
351.629	109.81
351.856	84.81
352.083	103.81
352.311	107.81
352.538	107.81
352.765	105.81
352.992	118.81
353.22	96.81
353.447	99.81
353.674	94.81
353.901	88.81
354.128	101.81
354.355	103.81
354.583	99.81
354.81	106.81
355.037	117.81
355.264	96.81
355.491	106.81
355.718	86.81
355.945	101.81
356.172	98.81
356.399	105.81
356.626	107.81
356.853	92.81
357.08	83.81
357.307	99.81
357.534	95.81
357.761	88.81
357.988	100.81
358.215	99.81
358.441	96.81
358.668	112.81
358.895	105.81
359.122	82.81
359.349	79.81
359.576	83.81
359.802	95.81
360.029	111.81
360.256	92.81
360.483	86.81
360.709	90.81
360.936	88.81
361.163	85.81
361.39	85.81
361.616	101.81
361.843	87.81
362.07	90.81
362.296	103.81
362.523	92.81
362.749	102.81
362.976	83.81
363.203	84.81
363.429	86.81
363.656	85.81
363.882	72.81
364.109	98.81
364.335	94.81
364.562	89.81
364.788	88.81
365.015	80.81
365.241	102.81
365.468	90.81
365.694	104.81
365.92	106.81
366.147	103.81
366.373	97.81
366.599	88.81
366.826	82.81
367.052	94.81
367.278	82.81
367.505	90.81
367.731	103.81
367.957	90.81
368.184	75.81
368.41	95.81
368.636	117.81
368.862	123.81
369.089	85.81
369.315	80.81
369.541	98.81
369.767	96.81
369.993	99.81
370.219	95.81
370.445	78.81
370.672	83.81
370.898	89.81
371.124	87.81
371.35	91.81
371.576	99.81
371.802	88.81
372.028	106.81
372.254	89.81
372.48	91.81
372.706	90.81
372.932	85.81
373.158	95.81
373.384	104.81
373.61	91.81
373.835	85.81
374.061	88.81
374.287	83.81
374.513	75.81
374.739	89.81
374.965	101.81
375.191	87.81
375.416	90.81
375.642	78.81
375.868	73.81
376.094	96.81
376.319	85.81
376.545	87.81
376.771	89.81
376.997	87.81
377.222	81.81
377.448	92.81
377.674	87.81
377.899	78.81
378.125	75.81
378.35	91.81
378.576	90.81
378.802	79.81
379.027	91.81
379.253	88.81
379.478	94.81
379.704	102.81
379.929	98.81
380.155	106.81
380.38	90.81
380.606	88.81
380.831	92.81
381.057	104.81
381.282	100.81
381.507	94.81
381.733	97.81
381.958	87.81
382.184	89.81
382.409	92.81
382.634	94.81
382.86	88.81
383.085	96.81
383.31	103.81
383.535	116.81
383.761	92.81
383.986	101.81
384.211	100.81
384.436	95.81
384.662	101.81
384.887	93.81
385.112	97.81
385.337	102.81
385.562	107.81
385.787	119.81
386.013	111.81
386.238	104.81
386.463	105.81
386.688	118.81
386.913	111.81
387.138	114.81
387.363	107.81
387.588	99.81
387.813	87.81
388.038	115.81
388.263	112.81
388.488	107.81
388.713	93.81
388.938	90.81
389.163	96.81
389.387	99.81
389.612	94.81
389.837	89.81
390.062	92.81
390.287	92.81
390.512	86.81
390.736	92.81
390.961	99.81
391.186	94.81
391.411	90.81
391.636	79.81
391.86	95.81
392.085	85.81
392.31	82.81
392.534	87.81
392.759	87.81
392.984	84.81
393.208	100.81
393.433	91.81
393.658	89.81
393.882	83.81
394.107	98.81
394.331	84.81
394.556	81.81
394.78	95.81
395.005	67.81
395.229	79.81
395.454	98.81
395.678	81.81
395.903	89.81
396.127	82.81
396.352	95.81
396.576	81.81
396.801	92.81
397.025	92.81
397.249	69.81
397.474	92.81
397.698	85.81
397.922	92.81
398.147	84.81
398.371	76.81
398.595	79.81
398.82	82.81
399.044	99.81
399.268	96.81
399.492	84.81
399.717	88.81
399.941	84.81
400.165	98.81
400.389	93.81
400.613	90.81
400.837	91.81
401.062	86.81
401.286	81.81
401.51	92.81
401.734	97.81
401.958	91.81
402.182	112.81
402.406	138.81
402.63	113.81
402.854	88.81
403.078	76.81
403.302	100.81
403.526	99.81
403.75	99.81
403.974	80.81
404.198	91.81
404.422	93.81
404.645	94.81
404.869	95.81
405.093	91.81
405.317	107.81
405.541	92.81
405.765	98.81
405.988	127.81
406.212	168.81
406.436	198.81
406.66	118.81
406.883	92.81
407.107	103.81
407.331	94.81
407.555	90.81
407.778	101.81
408.002	96.81
408.226	88.81
408.449	83.81
408.673	90.81
408.896	78.81
409.12	96.81
409.344	82.81
409.567	98.81
409.791	91.81
410.014	91.81
410.238	104.81
410.461	100.81
410.685	90.81
410.908	82.81
411.132	100.81
411.355	93.81
411.578	107.81
411.802	88.81
412.025	100.81
412.249	86.81
412.472	102.81
412.695	95.81
412.919	92.81
413.142	96.81
413.365	87.81
413.589	96.81
413.812	84.81
414.035	95.81
414.258	97.81
414.482	98.81
414.705	77.81
414.928	99.81
415.151	91.81
415.374	98.81
415.597	86.81
415.821	85.81
416.044	108.81
416.267	94.81
416.49	86.81
416.713	88.81
416.936	79.81
417.159	84.81
417.382	85.81
417.605	98.81
417.828	99.81
418.051	91.81
418.274	95.81
418.497	100.81
418.72	75.81
418.943	93.81
419.166	66.81
419.389	91.81
419.611	89.81
419.834	97.81
420.057	107.81
420.28	88.81
420.503	89.81
420.726	89.81
420.948	83.81
421.171	92.81
421.394	95.81
421.617	80.81
421.839	90.81
422.062	100.81
422.285	96.81
422.507	96.81
422.73	93.81
422.953	87.81
423.175	96.81
423.398	82.81
423.621	94.81
423.843	99.81
424.066	96.81
424.288	83.81
424.511	65.81
424.733	86.81
424.956	98.81
425.178	88.81
425.401	98.81
425.623	99.81
425.846	91.81
426.068	86.81
426.291	98.81
426.513	72.81
426.735	87.81
426.958	81.81
427.18	94.81
427.402	121.81
427.625	141.81
427.847	111.81
428.069	110.81
428.292	95.81
428.514	76.81
428.736	73.81
428.958	87.81
429.181	83.81
429.403	79.81
429.625	80.81
429.847	90.81
430.069	95.81
430.292	87.81
430.514	78.81
430.736	84.81
430.958	75.81
431.18	82.81
431.402	87.81
431.624	89.81
431.846	92.81
432.068	80.81
432.29	82.81
432.512	97.81
432.734	99.81
432.956	93.81
433.178	101.81
433.4	82.81
433.622	84.81
433.844	76.81
434.066	84.81
434.287	98.81
434.509	88.81
434.731	82.81
434.953	91.81
435.175	94.81
435.397	94.81
435.618	95.81
435.84	96.81
436.062	109.81
436.284	108.81
436.505	95.81
436.727	101.81
436.949	110.81
437.17	92.81
437.392	94.81
437.614	107.81
437.835	109.81
438.057	102.81
438.278	103.81
438.5	89.81
438.721	107.81
438.943	97.81
439.165	89.81
439.386	92.81
439.608	83.81
439.829	94.81
440.05	105.81
440.272	130.81
440.493	103.81
440.715	88.81
440.936	95.81
441.158	82.81
441.379	87.81
441.6	79.81
441.822	85.81
442.043	94.81
442.264	92.81
442.486	99.81
442.707	75.81
442.928	95.81
443.149	111.81
443.371	116.81
443.592	105.81
443.813	92.81
444.034	101.81
444.255	96.81
444.476	98.81
444.698	101.81
444.919	98.81
445.14	115.81
445.361	122.81
445.582	106.81
445.803	118.81
446.024	127.81
446.245	114.81
446.466	118.81
446.687	96.81
446.908	87.81
447.129	87.81
447.35	81.81
447.571	87.81
447.792	100.81
448.013	102.81
448.234	106.81
448.455	95.81
448.675	103.81
448.896	111.81
449.117	100.81
449.338	101.81
449.559	119.81
449.779	126.81
450	96.81
450.221	79.81
450.442	100.81
450.662	80.81
450.883	94.81
451.104	108.81
451.324	96.81
451.545	79.81
451.766	97.81
451.986	99.81
452.207	85.81
452.428	88.81
452.648	99.81
452.869	106.81
453.089	100.81
453.31	106.81
453.53	82.81
453.751	89.81
453.971	85.81
454.192	114.81
454.412	95.81
454.633	99.81
454.853	82.81
455.073	81.81
455.294	90.81
455.514	91.81
455.734	94.81
455.955	76.81
456.175	77.81
456.395	92.81
456.616	84.81
456.836	86.81
457.056	78.81
457.276	84.81
457.497	81.81
457.717	82.81
457.937	87.81
458.157	96.81
458.377	79.81
458.598	103.81
458.818	118.81
459.038	127.81
459.258	119.81
459.478	104.81
459.698	85.81
459.918	90.81
460.138	76.81
460.358	89.81
460.578	93.81
460.798	96.81
461.018	90.81
461.238	92.81
461.458	86.81
461.678	87.81
461.898	86.81
462.118	96.81
462.338	74.81
462.558	85.81
462.777	75.81
462.997	84.81
463.217	80.81
463.437	89.81
463.657	85.81
463.876	96.81
464.096	102.81
464.316	83.81
464.536	90.81
464.755	84.81
464.975	115.81
465.195	133.81
465.414	134.81
465.634	92.81
465.854	87.81
466.073	98.81
466.293	96.81
466.512	103.81
466.732	91.81
466.951	83.81
467.171	82.81
467.391	84.81
467.61	113.81
467.829	117.81
468.049	105.81
468.268	118.81
468.488	91.81
468.707	89.81
468.927	100.81
469.146	85.81
469.365	86.81
469.585	88.81
469.804	81.81
470.023	107.81
470.243	91.81
470.462	91.81
470.681	103.81
470.901	92.81
471.12	81.81
471.339	93.81
471.558	90.81
471.777	93.81
471.997	94.81
472.216	128.81
472.435	193.81
472.654	106.81
472.873	86.81
473.092	77.81
473.311	95.81
473.53	92.81
473.749	92.81
473.968	112.81
474.187	111.81
474.406	81.81
474.625	86.81
474.844	98.81
475.063	82.81
475.282	76.81
475.501	86.81
475.72	84.81
475.939	88.81
476.158	83.81
476.377	86.81
476.596	103.81
476.814	102.81
477.033	101.81
477.252	89.81
477.471	76.81
477.69	91.81
477.908	92.81
478.127	89.81
478.346	91.81
478.564	92.81
478.783	106.81
479.002	96.81
479.22	94.81
479.439	110.81
479.658	100.81
479.876	83.81
480.095	89.81
480.313	107.81
480.532	95.81
480.751	89.81
480.969	156.81
481.188	304.81
481.406	194.81
481.624	101.81
481.843	94.81
482.061	92.81
482.28	91.81
482.498	88.81
482.717	90.81
482.935	86.81
483.153	79.81
483.372	92.81
483.59	85.81
483.808	76.81
484.027	99.81
484.245	90.81
484.463	84.81
484.681	109.81
484.9	96.81
485.118	88.81
485.336	71.81
485.554	95.81
485.772	106.81
485.99	95.81
486.209	92.81
486.427	87.81
486.645	107.81
486.863	92.81
487.081	91.81
487.299	92.81
487.517	94.81
487.735	67.81
487.953	84.81
488.171	78.81
488.389	97.81
488.607	106.81
488.825	99.81
489.043	91.81
489.261	90.81
489.479	90.81
489.696	92.81
489.914	88.81
490.132	90.81
490.35	99.81
490.568	90.81
490.786	101.81
491.003	105.81
491.221	93.81
491.439	83.81
491.657	103.81
491.874	97.81
492.092	84.81
492.31	99.81
492.527	78.81
492.745	93.81
492.963	98.81
493.18	74.81
493.398	92.81
493.615	102.81
493.833	96.81
494.05	105.81
494.268	91.81
494.485	97.81
494.703	99.81
494.92	93.81
495.138	91.81
495.355	107.81
495.573	86.81
495.79	100.81
496.008	81.81
496.225	92.81
496.442	83.81
496.66	89.81
496.877	91.81
497.094	72.81
497.312	88.81
497.529	89.81
497.746	83.81
497.963	92.81
498.181	90.81
498.398	91.81
498.615	94.81
498.832	99.81
499.049	89.81
499.267	83.81
499.484	86.81
499.701	81.81
499.918	73.81
500.135	91.81
500.352	98.81
500.569	84.81
500.786	93.81
501.003	92.81
501.22	81.81
501.437	91.81
501.654	108.81
501.871	92.81
502.088	104.81
502.305	97.81
502.522	85.81
502.739	91.81
502.956	89.81
503.172	86.81
503.389	97.81
503.606	95.81
503.823	102.81
504.04	102.81
504.256	85.81
504.473	91.81
504.69	85.81
504.907	99.81
505.123	96.81
505.34	101.81
505.557	95.81
505.773	102.81
505.99	81.81
506.207	79.81
506.423	88.81
506.64	92.81
506.856	82.81
507.073	92.81
507.289	79.81
507.506	93.81
507.722	98.81
507.939	108.81
508.155	110.81
508.372	88.81
508.588	91.81
508.805	74.81
509.021	99.81
509.238	86.81
509.454	92.81
509.67	96.81
509.887	90.81
510.103	131.81
510.319	201.81
510.536	723.81
510.752	2170.81
510.968	628.81
511.184	160.81
511.401	119.81
511.617	97.81
511.833	94.81
512.049	96.81
512.265	98.81
512.481	86.81
512.698	102.81
512.914	86.81
513.13	92.81
513.346	90.81
513.562	80.81
513.778	87.81
513.994	104.81
514.21	88.81
514.426	111.81
514.642	125.81
514.858	122.81
515.074	139.81
515.29	382.81
515.506	1208.81
515.721	464.81
515.937	135.81
