Data from Circ_2003_H10_HRD10591_00029.txt Node
Date: Wed Jan 03 10:37:08 EST 2024
User: Yrep
Spectrometer: HR+D1059
Trigger mode: 1
Integration Time (sec): 1.000000E-1
Scans to average: 1
Electric dark correction enabled: true
Nonlinearity correction enabled: false
Boxcar width: 0
XAxis mode: Wavelengths
Number of Pixels in Spectrum: 2048
>>>>>Begin Spectral Data<<<<<
223.165	-17.19
223.4	-17.19
223.635	-17.19
223.869	-31.19
224.104	-5.19
224.338	-11.19
224.573	-15.19
224.808	-19.19
225.042	-5.19
225.277	-3.19
225.511	-1.19
225.746	5.81
225.98	4.81
226.215	29.81
226.449	13.81
226.683	16.81
226.918	6.81
227.152	30.81
227.387	35.81
227.621	36.81
227.856	51.81
228.09	51.81
228.324	38.81
228.559	36.81
228.793	42.81
229.027	61.81
229.262	61.81
229.496	70.81
229.73	87.81
229.964	87.81
230.199	74.81
230.433	79.81
230.667	76.81
230.901	90.81
231.136	78.81
231.37	80.81
231.604	93.81
231.838	77.81
232.072	78.81
232.306	64.81
232.541	72.81
232.775	87.81
233.009	66.81
233.243	82.81
233.477	72.81
233.711	85.81
233.945	85.81
234.179	84.81
234.413	76.81
234.647	73.81
234.881	79.81
235.115	82.81
235.349	78.81
235.583	84.81
235.817	90.81
236.051	85.81
236.285	77.81
236.519	93.81
236.753	74.81
236.987	83.81
237.221	76.81
237.455	81.81
237.689	72.81
237.922	87.81
238.156	89.81
238.39	79.81
238.624	72.81
238.858	58.81
239.091	57.81
239.325	80.81
239.559	82.81
239.793	80.81
240.027	80.81
240.26	65.81
240.494	77.81
240.728	75.81
240.961	80.81
241.195	68.81
241.429	83.81
241.662	56.81
241.896	84.81
242.13	78.81
242.363	74.81
242.597	82.81
242.83	69.81
243.064	65.81
243.298	70.81
243.531	61.81
243.765	88.81
243.998	80.81
244.232	78.81
244.465	84.81
244.699	77.81
244.932	60.81
245.166	78.81
245.399	81.81
245.633	79.81
245.866	61.81
246.099	89.81
246.333	74.81
246.566	69.81
246.8	68.81
247.033	78.81
247.266	79.81
247.5	72.81
247.733	83.81
247.966	75.81
248.2	76.81
248.433	73.81
248.666	73.81
248.899	80.81
249.133	87.81
249.366	97.81
249.599	90.81
249.832	91.81
250.066	76.81
250.299	84.81
250.532	86.81
250.765	85.81
250.998	85.81
251.231	70.81
251.465	86.81
251.698	73.81
251.931	76.81
252.164	82.81
252.397	76.81
252.63	80.81
252.863	81.81
253.096	73.81
253.329	68.81
253.562	79.81
253.795	72.81
254.028	79.81
254.261	80.81
254.494	76.81
254.727	89.81
254.96	77.81
255.193	72.81
255.426	81.81
255.659	90.81
255.892	76.81
256.124	80.81
256.357	84.81
256.59	68.81
256.823	78.81
257.056	77.81
257.289	73.81
257.521	94.81
257.754	90.81
257.987	74.81
258.22	79.81
258.452	85.81
258.685	76.81
258.918	90.81
259.151	71.81
259.383	72.81
259.616	85.81
259.849	74.81
260.081	79.81
260.314	71.81
260.547	89.81
260.779	75.81
261.012	81.81
261.244	81.81
261.477	90.81
261.71	95.81
261.942	111.81
262.175	102.81
262.407	89.81
262.64	82.81
262.872	91.81
263.105	84.81
263.337	94.81
263.57	80.81
263.802	84.81
264.035	92.81
264.267	76.81
264.499	89.81
264.732	72.81
264.964	67.81
265.197	71.81
265.429	86.81
265.661	90.81
265.894	95.81
266.126	85.81
266.358	82.81
266.591	77.81
266.823	88.81
267.055	83.81
267.287	82.81
267.52	80.81
267.752	89.81
267.984	76.81
268.216	82.81
268.448	76.81
268.681	77.81
268.913	80.81
269.145	83.81
269.377	72.81
269.609	52.81
269.841	78.81
270.073	94.81
270.306	95.81
270.538	81.81
270.77	76.81
271.002	81.81
271.234	94.81
271.466	83.81
271.698	73.81
271.93	93.81
272.162	85.81
272.394	87.81
272.626	94.81
272.858	72.81
273.09	63.81
273.322	71.81
273.553	91.81
273.785	84.81
274.017	85.81
274.249	79.81
274.481	89.81
274.713	93.81
274.945	108.81
275.176	85.81
275.408	71.81
275.64	87.81
275.872	86.81
276.104	80.81
276.335	82.81
276.567	94.81
276.799	109.81
277.031	106.81
277.262	80.81
277.494	88.81
277.726	99.81
277.957	84.81
278.189	85.81
278.421	86.81
278.652	95.81
278.884	85.81
279.115	79.81
279.347	91.81
279.579	86.81
279.81	81.81
280.042	78.81
280.273	81.81
280.505	86.81
280.736	75.81
280.968	89.81
281.199	94.81
281.431	86.81
281.662	75.81
281.894	96.81
282.125	90.81
282.356	119.81
282.588	141.81
282.819	114.81
283.051	80.81
283.282	80.81
283.513	78.81
283.745	85.81
283.976	93.81
284.207	82.81
284.439	95.81
284.67	87.81
284.901	89.81
285.132	78.81
285.364	73.81
285.595	93.81
285.826	86.81
286.057	85.81
286.288	98.81
286.52	74.81
286.751	86.81
286.982	94.81
287.213	87.81
287.444	80.81
287.675	79.81
287.906	82.81
288.138	98.81
288.369	86.81
288.6	94.81
288.831	94.81
289.062	87.81
289.293	94.81
289.524	89.81
289.755	76.81
289.986	90.81
290.217	87.81
290.448	79.81
290.679	81.81
290.91	94.81
291.141	84.81
291.371	89.81
291.602	87.81
291.833	87.81
292.064	89.81
292.295	82.81
292.526	99.81
292.757	94.81
292.987	80.81
293.218	89.81
293.449	105.81
293.68	85.81
293.91	78.81
294.141	83.81
294.372	94.81
294.603	81.81
294.833	89.81
295.064	80.81
295.295	82.81
295.525	88.81
295.756	103.81
295.987	108.81
296.217	139.81
296.448	124.81
296.679	89.81
296.909	84.81
297.14	85.81
297.37	73.81
297.601	96.81
297.831	97.81
298.062	102.81
298.292	86.81
298.523	82.81
298.753	80.81
298.984	79.81
299.214	87.81
299.445	88.81
299.675	89.81
299.905	104.81
300.136	101.81
300.366	86.81
300.597	86.81
300.827	95.81
301.057	106.81
301.288	100.81
301.518	96.81
301.748	79.81
301.979	93.81
302.209	86.81
302.439	73.81
302.669	95.81
302.9	81.81
303.13	81.81
303.36	94.81
303.59	94.81
303.82	104.81
304.051	90.81
304.281	97.81
304.511	89.81
304.741	86.81
304.971	73.81
305.201	79.81
305.431	109.81
305.661	81.81
305.891	86.81
306.121	96.81
306.352	110.81
306.582	102.81
306.812	84.81
307.042	95.81
307.272	87.81
307.502	105.81
307.731	84.81
307.961	95.81
308.191	97.81
308.421	83.81
308.651	75.81
308.881	92.81
309.111	97.81
309.341	94.81
309.571	96.81
309.8	99.81
310.03	98.81
310.26	97.81
310.49	95.81
310.72	116.81
310.949	88.81
311.179	90.81
311.409	87.81
311.639	97.81
311.868	94.81
312.098	87.81
312.328	97.81
312.557	110.81
312.787	105.81
313.017	101.81
313.246	88.81
313.476	83.81
313.706	97.81
313.935	87.81
314.165	106.81
314.394	94.81
314.624	92.81
314.853	100.81
315.083	85.81
315.312	93.81
315.542	93.81
315.771	76.81
316.001	105.81
316.23	93.81
316.46	89.81
316.689	95.81
316.919	83.81
317.148	90.81
317.377	88.81
317.607	84.81
317.836	104.81
318.065	81.81
318.295	101.81
318.524	81.81
318.753	95.81
318.983	105.81
319.212	86.81
319.441	109.81
319.67	110.81
319.9	82.81
320.129	94.81
320.358	86.81
320.587	101.81
320.816	99.81
321.046	105.81
321.275	109.81
321.504	102.81
321.733	76.81
321.962	100.81
322.191	89.81
322.42	103.81
322.649	89.81
322.878	109.81
323.108	112.81
323.337	113.81
323.566	138.81
323.795	150.81
324.024	217.81
324.253	437.81
324.482	970.81
324.71	1960.81
324.939	2520.81
325.168	909.81
325.397	257.81
325.626	161.81
325.855	142.81
326.084	144.81
326.313	146.81
326.542	154.81
326.77	240.81
326.999	520.81
327.228	1081.81
327.457	1992.81
327.686	1536.81
327.914	412.81
328.143	199.81
328.372	138.81
328.6	124.81
328.829	128.81
329.058	131.81
329.287	132.81
329.515	109.81
329.744	107.81
329.972	91.81
330.201	110.81
330.43	110.81
330.658	121.81
330.887	140.81
331.115	101.81
331.344	96.81
331.572	93.81
331.801	102.81
332.03	114.81
332.258	101.81
332.486	82.81
332.715	89.81
332.943	87.81
333.172	100.81
333.4	92.81
333.629	102.81
333.857	109.81
334.085	119.81
334.314	96.81
334.542	125.81
334.771	106.81
334.999	102.81
335.227	86.81
335.455	97.81
335.684	102.81
335.912	104.81
336.14	79.81
336.369	98.81
336.597	105.81
336.825	87.81
337.053	98.81
337.281	102.81
337.51	88.81
337.738	103.81
337.966	85.81
338.194	105.81
338.422	104.81
338.65	93.81
338.878	93.81
339.106	85.81
339.334	78.81
339.562	101.81
339.79	82.81
340.018	90.81
340.246	95.81
340.474	108.81
340.702	106.81
340.93	89.81
341.158	84.81
341.386	90.81
341.614	97.81
341.842	93.81
342.07	86.81
342.298	91.81
342.526	82.81
342.754	80.81
342.981	73.81
343.209	88.81
343.437	100.81
343.665	89.81
343.893	94.81
344.12	98.81
344.348	88.81
344.576	94.81
344.804	100.81
345.031	93.81
345.259	103.81
345.487	103.81
345.714	97.81
345.942	83.81
346.17	98.81
346.397	99.81
346.625	86.81
346.853	96.81
347.08	81.81
347.308	96.81
347.535	92.81
347.763	101.81
347.99	96.81
348.218	100.81
348.445	87.81
348.673	109.81
348.9	108.81
349.128	95.81
349.355	94.81
349.583	90.81
349.81	93.81
350.037	85.81
350.265	91.81
350.492	103.81
350.72	90.81
350.947	90.81
351.174	104.81
351.402	110.81
351.629	88.81
351.856	89.81
352.083	111.81
352.311	129.81
352.538	118.81
352.765	116.81
352.992	101.81
353.22	109.81
353.447	114.81
353.674	97.81
353.901	92.81
354.128	90.81
354.355	89.81
354.583	98.81
354.81	91.81
355.037	103.81
355.264	86.81
355.491	89.81
355.718	104.81
355.945	88.81
356.172	91.81
356.399	87.81
356.626	95.81
356.853	97.81
357.08	90.81
357.307	98.81
357.534	112.81
357.761	104.81
357.988	93.81
358.215	105.81
358.441	94.81
358.668	90.81
358.895	83.81
359.122	80.81
359.349	88.81
359.576	102.81
359.802	106.81
360.029	104.81
360.256	109.81
360.483	87.81
360.709	90.81
360.936	95.81
361.163	87.81
361.39	92.81
361.616	106.81
361.843	93.81
362.07	79.81
362.296	85.81
362.523	82.81
362.749	82.81
362.976	88.81
363.203	96.81
363.429	94.81
363.656	83.81
363.882	86.81
364.109	88.81
364.335	90.81
364.562	80.81
364.788	92.81
365.015	80.81
365.241	102.81
365.468	113.81
365.694	92.81
365.92	78.81
366.147	94.81
366.373	104.81
366.599	81.81
366.826	98.81
367.052	88.81
367.278	85.81
367.505	81.81
367.731	98.81
367.957	85.81
368.184	87.81
368.41	96.81
368.636	111.81
368.862	125.81
369.089	104.81
369.315	96.81
369.541	98.81
369.767	88.81
369.993	83.81
370.219	93.81
370.445	93.81
370.672	74.81
370.898	76.81
371.124	79.81
371.35	92.81
371.576	73.81
371.802	90.81
372.028	80.81
372.254	82.81
372.48	76.81
372.706	81.81
372.932	85.81
373.158	88.81
373.384	87.81
373.61	100.81
373.835	101.81
374.061	90.81
374.287	93.81
374.513	90.81
374.739	87.81
374.965	80.81
375.191	78.81
375.416	93.81
375.642	94.81
375.868	86.81
376.094	90.81
376.319	95.81
376.545	85.81
376.771	108.81
376.997	92.81
377.222	99.81
377.448	89.81
377.674	92.81
377.899	95.81
378.125	84.81
378.35	79.81
378.576	94.81
378.802	104.81
379.027	100.81
379.253	108.81
379.478	102.81
379.704	98.81
379.929	106.81
380.155	108.81
380.38	105.81
380.606	111.81
380.831	101.81
381.057	102.81
381.282	94.81
381.507	106.81
381.733	106.81
381.958	94.81
382.184	114.81
382.409	106.81
382.634	100.81
382.86	94.81
383.085	111.81
383.31	110.81
383.535	102.81
383.761	113.81
383.986	107.81
384.211	100.81
384.436	102.81
384.662	111.81
384.887	102.81
385.112	118.81
385.337	112.81
385.562	114.81
385.787	112.81
386.013	108.81
386.238	115.81
386.463	108.81
386.688	122.81
386.913	113.81
387.138	122.81
387.363	118.81
387.588	93.81
387.813	90.81
388.038	104.81
388.263	125.81
388.488	109.81
388.713	108.81
388.938	95.81
389.163	89.81
389.387	98.81
389.612	88.81
389.837	89.81
390.062	89.81
390.287	79.81
390.512	89.81
390.736	94.81
390.961	90.81
391.186	97.81
391.411	91.81
391.636	93.81
391.86	77.81
392.085	71.81
392.31	86.81
392.534	90.81
392.759	73.81
392.984	92.81
393.208	101.81
393.433	96.81
393.658	92.81
393.882	90.81
394.107	86.81
394.331	82.81
394.556	83.81
394.78	86.81
395.005	105.81
395.229	81.81
395.454	100.81
395.678	85.81
395.903	97.81
396.127	89.81
396.352	93.81
396.576	82.81
396.801	96.81
397.025	84.81
397.249	76.81
397.474	66.81
397.698	73.81
397.922	86.81
398.147	96.81
398.371	98.81
398.595	96.81
398.82	83.81
399.044	89.81
399.268	86.81
399.492	85.81
399.717	97.81
399.941	102.81
400.165	101.81
400.389	87.81
400.613	80.81
400.837	88.81
401.062	84.81
401.286	82.81
401.51	100.81
401.734	98.81
401.958	98.81
402.182	120.81
402.406	167.81
402.63	111.81
402.854	96.81
403.078	89.81
403.302	94.81
403.526	103.81
403.75	100.81
403.974	88.81
404.198	81.81
404.422	82.81
404.645	79.81
404.869	84.81
405.093	86.81
405.317	98.81
405.541	97.81
405.765	102.81
405.988	114.81
406.212	174.81
406.436	234.81
406.66	148.81
406.883	99.81
407.107	85.81
407.331	84.81
407.555	103.81
407.778	76.81
408.002	88.81
408.226	90.81
408.449	80.81
408.673	81.81
408.896	98.81
409.12	82.81
409.344	95.81
409.567	78.81
409.791	85.81
410.014	104.81
410.238	102.81
410.461	81.81
410.685	92.81
410.908	91.81
411.132	97.81
411.355	94.81
411.578	103.81
411.802	92.81
412.025	94.81
412.249	89.81
412.472	96.81
412.695	94.81
412.919	79.81
413.142	95.81
413.365	86.81
413.589	105.81
413.812	91.81
414.035	105.81
414.258	91.81
414.482	98.81
414.705	98.81
414.928	88.81
415.151	88.81
415.374	84.81
415.597	95.81
415.821	96.81
416.044	91.81
416.267	96.81
416.49	89.81
416.713	86.81
416.936	81.81
417.159	68.81
417.382	81.81
417.605	85.81
417.828	90.81
418.051	104.81
418.274	83.81
418.497	90.81
418.72	98.81
418.943	86.81
419.166	85.81
419.389	103.81
419.611	94.81
419.834	88.81
420.057	93.81
420.28	100.81
420.503	93.81
420.726	92.81
420.948	81.81
421.171	93.81
421.394	103.81
421.617	94.81
421.839	101.81
422.062	94.81
422.285	81.81
422.507	86.81
422.73	110.81
422.953	89.81
423.175	80.81
423.398	97.81
423.621	82.81
423.843	90.81
424.066	74.81
424.288	98.81
424.511	75.81
424.733	104.81
424.956	101.81
425.178	97.81
425.401	113.81
425.623	91.81
425.846	105.81
426.068	98.81
426.291	87.81
426.513	96.81
426.735	110.81
426.958	101.81
427.18	115.81
427.402	135.81
427.625	159.81
427.847	127.81
428.069	96.81
428.292	72.81
428.514	86.81
428.736	94.81
428.958	86.81
429.181	77.81
429.403	76.81
429.625	82.81
429.847	96.81
430.069	91.81
430.292	87.81
430.514	84.81
430.736	93.81
430.958	80.81
431.18	78.81
431.402	97.81
431.624	83.81
431.846	75.81
432.068	90.81
432.29	81.81
432.512	91.81
432.734	88.81
432.956	98.81
433.178	99.81
433.4	97.81
433.622	94.81
433.844	87.81
434.066	97.81
434.287	89.81
434.509	88.81
434.731	87.81
434.953	72.81
435.175	85.81
435.397	84.81
435.618	101.81
435.84	92.81
436.062	138.81
436.284	136.81
436.505	107.81
436.727	106.81
436.949	92.81
437.17	83.81
437.392	101.81
437.614	97.81
437.835	104.81
438.057	116.81
438.278	102.81
438.5	121.81
438.721	117.81
438.943	89.81
439.165	76.81
439.386	81.81
439.608	102.81
439.829	89.81
440.05	117.81
440.272	132.81
440.493	90.81
440.715	90.81
440.936	84.81
441.158	89.81
441.379	79.81
441.6	93.81
441.822	94.81
442.043	91.81
442.264	100.81
442.486	103.81
442.707	96.81
442.928	106.81
443.149	134.81
443.371	134.81
443.592	115.81
443.813	105.81
444.034	103.81
444.255	105.81
444.476	85.81
444.698	81.81
444.919	88.81
445.14	147.81
445.361	137.81
445.582	112.81
445.803	118.81
446.024	130.81
446.245	131.81
446.466	119.81
446.687	104.81
446.908	87.81
447.129	94.81
447.35	77.81
447.571	78.81
447.792	100.81
448.013	79.81
448.234	89.81
448.455	102.81
448.675	112.81
448.896	122.81
449.117	112.81
449.338	97.81
449.559	118.81
449.779	144.81
450	94.81
450.221	76.81
450.442	110.81
450.662	90.81
450.883	102.81
451.104	117.81
451.324	104.81
451.545	94.81
451.766	100.81
451.986	97.81
452.207	90.81
452.428	86.81
452.648	105.81
452.869	119.81
453.089	124.81
453.31	122.81
453.53	103.81
453.751	93.81
453.971	102.81
454.192	113.81
454.412	82.81
454.633	86.81
454.853	93.81
455.073	101.81
455.294	90.81
455.514	103.81
455.734	87.81
455.955	98.81
456.175	76.81
456.395	94.81
456.616	89.81
456.836	85.81
457.056	94.81
457.276	93.81
457.497	91.81
457.717	86.81
457.937	100.81
458.157	92.81
458.377	88.81
458.598	114.81
458.818	150.81
459.038	170.81
459.258	120.81
459.478	86.81
459.698	89.81
459.918	102.81
460.138	88.81
460.358	95.81
460.578	87.81
460.798	104.81
461.018	94.81
461.238	74.81
461.458	94.81
461.678	80.81
461.898	78.81
462.118	89.81
462.338	84.81
462.558	82.81
462.777	83.81
462.997	71.81
463.217	84.81
463.437	77.81
463.657	83.81
463.876	87.81
464.096	93.81
464.316	88.81
464.536	108.81
464.755	90.81
464.975	119.81
465.195	166.81
465.414	158.81
465.634	103.81
465.854	84.81
466.073	76.81
466.293	100.81
466.512	85.81
466.732	93.81
466.951	67.81
467.171	99.81
467.391	84.81
467.61	102.81
467.829	98.81
468.049	100.81
468.268	101.81
468.488	90.81
468.707	91.81
468.927	84.81
469.146	96.81
469.365	82.81
469.585	90.81
469.804	94.81
470.023	84.81
470.243	99.81
470.462	92.81
470.681	113.81
470.901	82.81
471.12	91.81
471.339	81.81
471.558	95.81
471.777	85.81
471.997	84.81
472.216	97.81
472.435	134.81
472.654	109.81
472.873	97.81
473.092	93.81
473.311	92.81
473.53	90.81
473.749	98.81
473.968	81.81
474.187	104.81
474.406	88.81
474.625	97.81
474.844	84.81
475.063	102.81
475.282	96.81
475.501	86.81
475.72	80.81
475.939	80.81
476.158	79.81
476.377	83.81
476.596	90.81
476.814	80.81
477.033	93.81
477.252	94.81
477.471	86.81
477.69	83.81
477.908	94.81
478.127	89.81
478.346	80.81
478.564	83.81
478.783	96.81
479.002	84.81
479.22	100.81
479.439	101.81
479.658	97.81
479.876	103.81
480.095	91.81
480.313	90.81
480.532	98.81
480.751	86.81
480.969	95.81
481.188	137.81
481.406	116.81
481.624	90.81
481.843	99.81
482.061	95.81
482.28	90.81
482.498	96.81
482.717	87.81
482.935	97.81
483.153	77.81
483.372	80.81
483.59	89.81
483.808	88.81
484.027	79.81
484.245	100.81
484.463	92.81
484.681	90.81
484.9	87.81
485.118	90.81
485.336	87.81
485.554	100.81
485.772	113.81
485.99	102.81
486.209	98.81
486.427	108.81
486.645	115.81
486.863	117.81
487.081	100.81
487.299	105.81
487.517	85.81
487.735	96.81
487.953	103.81
488.171	97.81
488.389	88.81
488.607	105.81
488.825	95.81
489.043	93.81
489.261	79.81
489.479	89.81
489.696	85.81
489.914	72.81
490.132	88.81
490.35	91.81
490.568	89.81
490.786	94.81
491.003	87.81
491.221	93.81
491.439	77.81
491.657	103.81
491.874	87.81
492.092	84.81
492.31	83.81
492.527	84.81
492.745	104.81
492.963	93.81
493.18	82.81
493.398	87.81
493.615	86.81
493.833	98.81
494.05	92.81
494.268	83.81
494.485	100.81
494.703	100.81
494.92	92.81
495.138	86.81
495.355	82.81
495.573	73.81
495.79	109.81
496.008	106.81
496.225	87.81
496.442	79.81
496.66	83.81
496.877	94.81
497.094	90.81
497.312	94.81
497.529	101.81
497.746	93.81
497.963	92.81
498.181	97.81
498.398	97.81
498.615	112.81
498.832	101.81
499.049	89.81
499.267	105.81
499.484	85.81
499.701	93.81
499.918	97.81
500.135	82.81
500.352	103.81
500.569	101.81
500.786	102.81
501.003	93.81
501.22	108.81
501.437	90.81
501.654	88.81
501.871	124.81
502.088	97.81
502.305	90.81
502.522	93.81
502.739	97.81
502.956	90.81
503.172	94.81
503.389	81.81
503.606	114.81
503.823	100.81
504.04	89.81
504.256	86.81
504.473	96.81
504.69	77.81
504.907	99.81
505.123	89.81
505.34	93.81
505.557	81.81
505.773	84.81
505.99	102.81
506.207	93.81
506.423	90.81
506.64	95.81
506.856	90.81
507.073	83.81
507.289	93.81
507.506	97.81
507.722	105.81
507.939	106.81
508.155	107.81
508.372	98.81
508.588	87.81
508.805	103.81
509.021	104.81
509.238	99.81
509.454	109.81
509.67	112.81
509.887	97.81
510.103	119.81
510.319	229.81
510.536	841.81
510.752	2745.81
510.968	747.81
511.184	170.81
511.401	111.81
511.617	111.81
511.833	91.81
512.049	81.81
512.265	88.81
512.481	95.81
512.698	97.81
512.914	81.81
513.13	92.81
513.346	102.81
513.562	105.81
513.778	114.81
513.994	97.81
514.21	105.81
514.426	110.81
514.642	150.81
514.858	124.81
515.074	178.81
515.29	477.81
