Data from Circ_2003_H10_HRD10591_00065.txt Node
Date: Wed Jan 03 10:37:15 EST 2024
User: Yrep
Spectrometer: HR+D1059
Trigger mode: 1
Integration Time (sec): 1.000000E-1
Scans to average: 1
Electric dark correction enabled: true
Nonlinearity correction enabled: false
Boxcar width: 0
XAxis mode: Wavelengths
Number of Pixels in Spectrum: 2048
>>>>>Begin Spectral Data<<<<<
223.165	-22.81
223.4	-22.81
223.635	-22.81
223.869	-18.81
224.104	-26.81
224.338	-15.81
224.573	-18.81
224.808	-8.81
225.042	3.19
225.277	-2.81
225.511	-6.81
225.746	6.19
225.98	9.19
226.215	3.19
226.449	26.19
226.683	14.19
226.918	26.19
227.152	33.19
227.387	40.19
227.621	45.19
227.856	44.19
228.09	44.19
228.324	46.19
228.559	52.19
228.793	52.19
229.027	54.19
229.262	67.19
229.496	77.19
229.73	80.19
229.964	89.19
230.199	62.19
230.433	66.19
230.667	80.19
230.901	72.19
231.136	81.19
231.37	77.19
231.604	72.19
231.838	76.19
232.072	76.19
232.306	82.19
232.541	78.19
232.775	88.19
233.009	79.19
233.243	60.19
233.477	89.19
233.711	80.19
233.945	78.19
234.179	87.19
234.413	78.19
234.647	73.19
234.881	77.19
235.115	88.19
235.349	75.19
235.583	76.19
235.817	81.19
236.051	81.19
236.285	82.19
236.519	91.19
236.753	69.19
236.987	90.19
237.221	79.19
237.455	69.19
237.689	79.19
237.922	82.19
238.156	68.19
238.39	73.19
238.624	87.19
238.858	68.19
239.091	72.19
239.325	70.19
239.559	73.19
239.793	69.19
240.027	52.19
240.26	73.19
240.494	71.19
240.728	69.19
240.961	85.19
241.195	85.19
241.429	62.19
241.662	74.19
241.896	70.19
242.13	62.19
242.363	76.19
242.597	83.19
242.83	71.19
243.064	77.19
243.298	84.19
243.531	65.19
243.765	89.19
243.998	67.19
244.232	84.19
244.465	85.19
244.699	70.19
244.932	75.19
245.166	83.19
245.399	85.19
245.633	70.19
245.866	56.19
246.099	82.19
246.333	96.19
246.566	95.19
246.8	68.19
247.033	56.19
247.266	86.19
247.5	68.19
247.733	71.19
247.966	66.19
248.2	91.19
248.433	68.19
248.666	78.19
248.899	79.19
249.133	86.19
249.366	98.19
249.599	86.19
249.832	82.19
250.066	73.19
250.299	94.19
250.532	84.19
250.765	79.19
250.998	70.19
251.231	68.19
251.465	76.19
251.698	78.19
251.931	69.19
252.164	68.19
252.397	76.19
252.63	85.19
252.863	77.19
253.096	88.19
253.329	87.19
253.562	78.19
253.795	80.19
254.028	86.19
254.261	80.19
254.494	85.19
254.727	77.19
254.96	81.19
255.193	73.19
255.426	82.19
255.659	81.19
255.892	77.19
256.124	80.19
256.357	81.19
256.59	77.19
256.823	83.19
257.056	88.19
257.289	85.19
257.521	76.19
257.754	80.19
257.987	81.19
258.22	94.19
258.452	67.19
258.685	84.19
258.918	70.19
259.151	74.19
259.383	84.19
259.616	92.19
259.849	82.19
260.081	96.19
260.314	85.19
260.547	82.19
260.779	85.19
261.012	89.19
261.244	68.19
261.477	85.19
261.71	76.19
261.942	89.19
262.175	106.19
262.407	96.19
262.64	87.19
262.872	82.19
263.105	72.19
263.337	107.19
263.57	80.19
263.802	72.19
264.035	62.19
264.267	85.19
264.499	76.19
264.732	82.19
264.964	86.19
265.197	91.19
265.429	87.19
265.661	78.19
265.894	72.19
266.126	78.19
266.358	72.19
266.591	84.19
266.823	80.19
267.055	84.19
267.287	87.19
267.52	81.19
267.752	87.19
267.984	77.19
268.216	82.19
268.448	85.19
268.681	78.19
268.913	71.19
269.145	87.19
269.377	79.19
269.609	82.19
269.841	79.19
270.073	79.19
270.306	79.19
270.538	87.19
270.77	83.19
271.002	85.19
271.234	93.19
271.466	84.19
271.698	75.19
271.93	75.19
272.162	74.19
272.394	85.19
272.626	83.19
272.858	84.19
273.09	79.19
273.322	88.19
273.553	82.19
273.785	79.19
274.017	82.19
274.249	88.19
274.481	88.19
274.713	86.19
274.945	91.19
275.176	93.19
275.408	87.19
275.64	88.19
275.872	72.19
276.104	90.19
276.335	91.19
276.567	95.19
276.799	104.19
277.031	104.19
277.262	87.19
277.494	91.19
277.726	73.19
277.957	92.19
278.189	79.19
278.421	85.19
278.652	84.19
278.884	80.19
279.115	97.19
279.347	74.19
279.579	105.19
279.81	86.19
280.042	86.19
280.273	79.19
280.505	84.19
280.736	86.19
280.968	86.19
281.199	106.19
281.431	90.19
281.662	80.19
281.894	88.19
282.125	95.19
282.356	117.19
282.588	127.19
282.819	100.19
283.051	92.19
283.282	97.19
283.513	91.19
283.745	82.19
283.976	88.19
284.207	89.19
284.439	93.19
284.67	90.19
284.901	80.19
285.132	73.19
285.364	75.19
285.595	103.19
285.826	73.19
286.057	90.19
286.288	89.19
286.52	90.19
286.751	81.19
286.982	84.19
287.213	79.19
287.444	86.19
287.675	85.19
287.906	91.19
288.138	79.19
288.369	85.19
288.6	106.19
288.831	101.19
289.062	89.19
289.293	83.19
289.524	87.19
289.755	96.19
289.986	75.19
290.217	86.19
290.448	87.19
290.679	81.19
290.91	90.19
291.141	100.19
291.371	63.19
291.602	84.19
291.833	73.19
292.064	77.19
292.295	84.19
292.526	87.19
292.757	88.19
292.987	90.19
293.218	91.19
293.449	86.19
293.68	73.19
293.91	92.19
294.141	93.19
294.372	98.19
294.603	95.19
294.833	84.19
295.064	92.19
295.295	86.19
295.525	104.19
295.756	92.19
295.987	109.19
296.217	138.19
296.448	117.19
296.679	84.19
296.909	82.19
297.14	102.19
297.37	89.19
297.601	109.19
297.831	73.19
298.062	89.19
298.292	101.19
298.523	81.19
298.753	82.19
298.984	98.19
299.214	80.19
299.445	90.19
299.675	79.19
299.905	79.19
300.136	87.19
300.366	96.19
300.597	88.19
300.827	85.19
301.057	100.19
301.288	88.19
301.518	96.19
301.748	100.19
301.979	95.19
302.209	89.19
302.439	84.19
302.669	96.19
302.9	97.19
303.13	87.19
303.36	78.19
303.59	104.19
303.82	82.19
304.051	90.19
304.281	80.19
304.511	90.19
304.741	95.19
304.971	84.19
305.201	92.19
305.431	97.19
305.661	93.19
305.891	81.19
306.121	98.19
306.352	110.19
306.582	97.19
306.812	87.19
307.042	85.19
307.272	87.19
307.502	92.19
307.731	98.19
307.961	88.19
308.191	87.19
308.421	95.19
308.651	92.19
308.881	97.19
309.111	103.19
309.341	109.19
309.571	85.19
309.8	93.19
310.03	110.19
310.26	89.19
310.49	92.19
310.72	98.19
310.949	101.19
311.179	121.19
311.409	97.19
311.639	100.19
311.868	105.19
312.098	94.19
312.328	96.19
312.557	97.19
312.787	102.19
313.017	104.19
313.246	89.19
313.476	78.19
313.706	94.19
313.935	85.19
314.165	95.19
314.394	96.19
314.624	92.19
314.853	78.19
315.083	76.19
315.312	92.19
315.542	84.19
315.771	88.19
316.001	78.19
316.23	88.19
316.46	92.19
316.689	80.19
316.919	89.19
317.148	97.19
317.377	94.19
317.607	89.19
317.836	86.19
318.065	86.19
318.295	93.19
318.524	85.19
318.753	99.19
318.983	96.19
319.212	94.19
319.441	112.19
319.67	91.19
319.9	97.19
320.129	99.19
320.358	74.19
320.587	100.19
320.816	105.19
321.046	96.19
321.275	102.19
321.504	94.19
321.733	87.19
321.962	91.19
322.191	99.19
322.42	100.19
322.649	109.19
322.878	107.19
323.108	104.19
323.337	124.19
323.566	125.19
323.795	156.19
324.024	201.19
324.253	390.19
324.482	784.19
324.71	1660.19
324.939	2126.19
325.168	808.19
325.397	238.19
325.626	156.19
325.855	120.19
326.084	114.19
326.313	134.19
326.542	152.19
326.77	232.19
326.999	447.19
327.228	931.19
327.457	1670.19
327.686	1318.19
327.914	350.19
328.143	201.19
328.372	159.19
328.6	122.19
328.829	103.19
329.058	118.19
329.287	131.19
329.515	105.19
329.744	105.19
329.972	116.19
330.201	136.19
330.43	153.19
330.658	150.19
330.887	131.19
331.115	105.19
331.344	101.19
331.572	104.19
331.801	110.19
332.03	93.19
332.258	96.19
332.486	97.19
332.715	81.19
332.943	94.19
333.172	104.19
333.4	99.19
333.629	116.19
333.857	114.19
334.085	103.19
334.314	105.19
334.542	165.19
334.771	170.19
334.999	109.19
335.227	102.19
335.455	89.19
335.684	88.19
335.912	101.19
336.14	103.19
336.369	104.19
336.597	104.19
336.825	83.19
337.053	93.19
337.281	88.19
337.51	86.19
337.738	95.19
337.966	94.19
338.194	112.19
338.422	102.19
338.65	97.19
338.878	96.19
339.106	72.19
339.334	86.19
339.562	97.19
339.79	89.19
340.018	95.19
340.246	90.19
340.474	86.19
340.702	95.19
340.93	88.19
341.158	87.19
341.386	81.19
341.614	103.19
341.842	89.19
342.07	79.19
342.298	92.19
342.526	87.19
342.754	85.19
342.981	78.19
343.209	75.19
343.437	93.19
343.665	89.19
343.893	102.19
344.12	91.19
344.348	90.19
344.576	92.19
344.804	90.19
345.031	85.19
345.259	79.19
345.487	87.19
345.714	80.19
345.942	88.19
346.17	72.19
346.397	94.19
346.625	98.19
346.853	108.19
347.08	92.19
347.308	90.19
347.535	85.19
347.763	79.19
347.99	85.19
348.218	94.19
348.445	94.19
348.673	89.19
348.9	93.19
349.128	88.19
349.355	96.19
349.583	96.19
349.81	96.19
350.037	80.19
350.265	84.19
350.492	99.19
350.72	87.19
350.947	90.19
351.174	106.19
351.402	101.19
351.629	98.19
351.856	92.19
352.083	102.19
352.311	90.19
352.538	108.19
352.765	112.19
352.992	108.19
353.22	97.19
353.447	102.19
353.674	111.19
353.901	95.19
354.128	108.19
354.355	91.19
354.583	95.19
354.81	107.19
355.037	95.19
355.264	93.19
355.491	89.19
355.718	88.19
355.945	109.19
356.172	96.19
356.399	90.19
356.626	109.19
356.853	87.19
357.08	90.19
357.307	84.19
357.534	94.19
357.761	89.19
357.988	97.19
358.215	100.19
358.441	103.19
358.668	83.19
358.895	89.19
359.122	85.19
359.349	95.19
359.576	94.19
359.802	88.19
360.029	101.19
360.256	108.19
360.483	100.19
360.709	94.19
360.936	88.19
361.163	100.19
361.39	102.19
361.616	93.19
361.843	81.19
362.07	97.19
362.296	99.19
362.523	94.19
362.749	82.19
362.976	78.19
363.203	78.19
363.429	94.19
363.656	94.19
363.882	93.19
364.109	102.19
364.335	87.19
364.562	74.19
364.788	81.19
365.015	85.19
365.241	102.19
365.468	94.19
365.694	91.19
365.92	80.19
366.147	92.19
366.373	98.19
366.599	94.19
366.826	84.19
367.052	88.19
367.278	96.19
367.505	83.19
367.731	86.19
367.957	87.19
368.184	90.19
368.41	97.19
368.636	109.19
368.862	108.19
369.089	98.19
369.315	95.19
369.541	93.19
369.767	85.19
369.993	69.19
370.219	80.19
370.445	94.19
370.672	84.19
370.898	91.19
371.124	77.19
371.35	82.19
371.576	84.19
371.802	86.19
372.028	80.19
372.254	85.19
372.48	72.19
372.706	92.19
372.932	90.19
373.158	89.19
373.384	92.19
373.61	91.19
373.835	90.19
374.061	82.19
374.287	79.19
374.513	82.19
374.739	83.19
374.965	88.19
375.191	83.19
375.416	77.19
375.642	88.19
375.868	92.19
376.094	87.19
376.319	97.19
376.545	90.19
376.771	89.19
376.997	87.19
377.222	90.19
377.448	94.19
377.674	92.19
377.899	80.19
378.125	93.19
378.35	113.19
378.576	96.19
378.802	95.19
379.027	83.19
379.253	93.19
379.478	92.19
379.704	103.19
379.929	110.19
380.155	103.19
380.38	99.19
380.606	83.19
380.831	85.19
381.057	98.19
381.282	94.19
381.507	82.19
381.733	100.19
381.958	100.19
382.184	100.19
382.409	112.19
382.634	106.19
382.86	83.19
383.085	102.19
383.31	100.19
383.535	109.19
383.761	85.19
383.986	91.19
384.211	107.19
384.436	103.19
384.662	110.19
384.887	105.19
385.112	96.19
385.337	101.19
385.562	110.19
385.787	112.19
386.013	114.19
386.238	111.19
386.463	103.19
386.688	99.19
386.913	107.19
387.138	125.19
387.363	113.19
387.588	94.19
387.813	105.19
388.038	110.19
388.263	109.19
388.488	109.19
388.713	96.19
388.938	105.19
389.163	92.19
389.387	93.19
389.612	94.19
389.837	94.19
390.062	105.19
390.287	100.19
390.512	79.19
390.736	93.19
390.961	78.19
391.186	95.19
391.411	98.19
391.636	92.19
391.86	85.19
392.085	88.19
392.31	74.19
392.534	86.19
392.759	94.19
392.984	73.19
393.208	82.19
393.433	96.19
393.658	93.19
393.882	97.19
394.107	79.19
394.331	89.19
394.556	71.19
394.78	80.19
395.005	73.19
395.229	89.19
395.454	77.19
395.678	86.19
395.903	101.19
396.127	82.19
396.352	78.19
396.576	84.19
396.801	88.19
397.025	87.19
397.249	95.19
397.474	80.19
397.698	93.19
397.922	80.19
398.147	89.19
398.371	82.19
398.595	88.19
398.82	72.19
399.044	97.19
399.268	82.19
399.492	93.19
399.717	88.19
399.941	94.19
400.165	90.19
400.389	92.19
400.613	92.19
400.837	90.19
401.062	79.19
401.286	84.19
401.51	96.19
401.734	104.19
401.958	93.19
402.182	106.19
402.406	142.19
402.63	108.19
402.854	98.19
403.078	81.19
403.302	83.19
403.526	84.19
403.75	82.19
403.974	85.19
404.198	85.19
404.422	92.19
404.645	85.19
404.869	103.19
405.093	95.19
405.317	116.19
405.541	101.19
405.765	104.19
405.988	121.19
406.212	160.19
406.436	188.19
406.66	135.19
406.883	97.19
407.107	92.19
407.331	105.19
407.555	100.19
407.778	83.19
408.002	77.19
408.226	86.19
408.449	85.19
408.673	94.19
408.896	98.19
409.12	84.19
409.344	103.19
409.567	82.19
409.791	98.19
410.014	87.19
410.238	98.19
410.461	100.19
410.685	96.19
410.908	96.19
411.132	106.19
411.355	96.19
411.578	90.19
411.802	93.19
412.025	96.19
412.249	84.19
412.472	109.19
412.695	100.19
412.919	81.19
413.142	84.19
413.365	86.19
413.589	80.19
413.812	99.19
414.035	88.19
414.258	66.19
414.482	83.19
414.705	85.19
414.928	88.19
415.151	82.19
415.374	103.19
415.597	91.19
415.821	88.19
416.044	82.19
416.267	77.19
416.49	86.19
416.713	93.19
416.936	82.19
417.159	97.19
417.382	81.19
417.605	82.19
417.828	104.19
418.051	87.19
418.274	72.19
418.497	92.19
418.72	84.19
418.943	85.19
419.166	68.19
419.389	93.19
419.611	97.19
419.834	78.19
420.057	73.19
420.28	95.19
420.503	90.19
420.726	89.19
420.948	85.19
421.171	93.19
421.394	85.19
421.617	98.19
421.839	93.19
422.062	85.19
422.285	94.19
422.507	102.19
422.73	106.19
422.953	100.19
423.175	83.19
423.398	80.19
423.621	87.19
423.843	81.19
424.066	84.19
424.288	78.19
424.511	92.19
424.733	91.19
424.956	93.19
425.178	87.19
425.401	96.19
425.623	83.19
425.846	84.19
426.068	77.19
426.291	90.19
426.513	80.19
426.735	95.19
426.958	85.19
427.18	102.19
427.402	119.19
427.625	134.19
427.847	108.19
428.069	108.19
428.292	88.19
428.514	71.19
428.736	74.19
428.958	78.19
429.181	92.19
429.403	68.19
429.625	85.19
429.847	77.19
430.069	94.19
430.292	94.19
430.514	84.19
430.736	78.19
430.958	80.19
431.18	67.19
431.402	73.19
431.624	81.19
431.846	82.19
432.068	97.19
432.29	98.19
432.512	88.19
432.734	92.19
432.956	86.19
433.178	97.19
433.4	101.19
433.622	97.19
433.844	78.19
434.066	82.19
434.287	87.19
434.509	89.19
434.731	93.19
434.953	89.19
435.175	84.19
435.397	90.19
435.618	93.19
435.84	92.19
436.062	108.19
436.284	101.19
436.505	90.19
436.727	89.19
436.949	87.19
437.17	85.19
437.392	81.19
437.614	84.19
437.835	111.19
438.057	118.19
438.278	102.19
438.5	106.19
438.721	105.19
438.943	89.19
439.165	94.19
439.386	87.19
439.608	93.19
439.829	101.19
440.05	118.19
440.272	135.19
440.493	101.19
440.715	80.19
440.936	76.19
441.158	94.19
441.379	76.19
441.6	88.19
441.822	85.19
442.043	105.19
442.264	92.19
442.486	90.19
442.707	79.19
442.928	102.19
443.149	118.19
443.371	121.19
443.592	100.19
443.813	105.19
444.034	101.19
444.255	83.19
444.476	98.19
444.698	80.19
444.919	88.19
445.14	137.19
445.361	109.19
445.582	102.19
445.803	125.19
446.024	101.19
446.245	123.19
446.466	103.19
446.687	85.19
446.908	79.19
447.129	102.19
447.35	91.19
447.571	92.19
447.792	78.19
448.013	90.19
448.234	96.19
448.455	94.19
448.675	92.19
448.896	89.19
449.117	96.19
449.338	109.19
449.559	117.19
449.779	129.19
450	93.19
450.221	86.19
450.442	71.19
450.662	85.19
450.883	88.19
451.104	101.19
451.324	80.19
451.545	84.19
451.766	72.19
451.986	86.19
452.207	110.19
452.428	77.19
452.648	102.19
452.869	97.19
453.089	102.19
453.31	104.19
453.53	87.19
453.751	88.19
453.971	85.19
454.192	102.19
454.412	80.19
454.633	74.19
454.853	85.19
455.073	100.19
455.294	86.19
455.514	94.19
455.734	83.19
455.955	70.19
456.175	81.19
456.395	78.19
456.616	76.19
456.836	85.19
457.056	81.19
457.276	80.19
457.497	70.19
457.717	96.19
457.937	86.19
458.157	82.19
458.377	80.19
458.598	113.19
458.818	141.19
459.038	153.19
459.258	117.19
459.478	91.19
459.698	89.19
459.918	72.19
460.138	91.19
460.358	80.19
460.578	89.19
460.798	88.19
461.018	79.19
461.238	93.19
461.458	86.19
461.678	92.19
461.898	99.19
462.118	100.19
462.338	93.19
462.558	85.19
462.777	90.19
462.997	91.19
463.217	80.19
463.437	97.19
463.657	81.19
463.876	81.19
464.096	92.19
464.316	96.19
464.536	98.19
464.755	102.19
464.975	115.19
465.195	134.19
465.414	146.19
465.634	88.19
465.854	74.19
466.073	84.19
466.293	87.19
466.512	80.19
466.732	83.19
466.951	96.19
467.171	98.19
467.391	90.19
467.61	99.19
467.829	84.19
468.049	98.19
468.268	115.19
468.488	73.19
468.707	90.19
468.927	84.19
469.146	73.19
469.365	82.19
469.585	96.19
469.804	105.19
470.023	79.19
470.243	84.19
470.462	86.19
470.681	94.19
470.901	80.19
471.12	92.19
471.339	89.19
471.558	86.19
471.777	80.19
471.997	94.19
472.216	144.19
472.435	206.19
472.654	102.19
472.873	95.19
473.092	85.19
473.311	85.19
473.53	101.19
473.749	72.19
473.968	100.19
474.187	108.19
474.406	95.19
474.625	81.19
474.844	83.19
475.063	94.19
475.282	69.19
475.501	90.19
475.72	88.19
475.939	93.19
476.158	89.19
476.377	78.19
476.596	86.19
476.814	105.19
477.033	92.19
477.252	86.19
477.471	80.19
477.69	91.19
477.908	93.19
478.127	93.19
478.346	93.19
478.564	88.19
478.783	77.19
479.002	101.19
479.22	88.19
479.439	81.19
479.658	82.19
479.876	96.19
480.095	87.19
480.313	88.19
480.532	94.19
480.751	99.19
480.969	144.19
481.188	291.19
481.406	215.19
481.624	110.19
481.843	92.19
482.061	84.19
482.28	89.19
482.498	92.19
482.717	88.19
482.935	95.19
483.153	88.19
483.372	92.19
483.59	105.19
483.808	90.19
484.027	106.19
484.245	87.19
484.463	82.19
484.681	94.19
484.9	105.19
485.118	92.19
485.336	78.19
485.554	99.19
485.772	101.19
485.99	113.19
486.209	117.19
486.427	106.19
486.645	95.19
486.863	101.19
487.081	84.19
487.299	89.19
487.517	87.19
487.735	87.19
487.953	81.19
488.171	82.19
488.389	101.19
488.607	92.19
488.825	93.19
489.043	81.19
489.261	86.19
489.479	90.19
489.696	79.19
489.914	93.19
490.132	86.19
490.35	100.19
490.568	87.19
490.786	88.19
491.003	91.19
491.221	99.19
491.439	94.19
491.657	93.19
491.874	103.19
492.092	74.19
492.31	96.19
492.527	85.19
492.745	90.19
492.963	85.19
493.18	94.19
493.398	79.19
493.615	99.19
493.833	88.19
494.05	85.19
494.268	89.19
494.485	73.19
494.703	94.19
494.92	81.19
495.138	95.19
495.355	84.19
495.573	102.19
495.79	84.19
496.008	89.19
496.225	90.19
496.442	90.19
496.66	84.19
496.877	101.19
497.094	88.19
497.312	92.19
497.529	85.19
497.746	86.19
497.963	98.19
498.181	97.19
498.398	103.19
498.615	99.19
498.832	95.19
499.049	81.19
499.267	96.19
499.484	80.19
499.701	80.19
499.918	83.19
500.135	92.19
500.352	73.19
500.569	82.19
500.786	94.19
501.003	91.19
501.22	80.19
501.437	80.19
501.654	89.19
501.871	86.19
502.088	85.19
502.305	95.19
502.522	81.19
502.739	91.19
502.956	89.19
503.172	86.19
503.389	93.19
503.606	100.19
503.823	100.19
504.04	68.19
504.256	90.19
504.473	95.19
504.69	88.19
504.907	90.19
505.123	85.19
505.34	87.19
505.557	89.19
505.773	90.19
505.99	93.19
506.207	109.19
506.423	90.19
506.64	94.19
506.856	89.19
507.073	93.19
507.289	92.19
507.506	88.19
507.722	110.19
507.939	82.19
508.155	96.19
508.372	85.19
508.588	90.19
508.805	90.19
509.021	102.19
509.238	91.19
509.454	89.19
509.67	90.19
509.887	111.19
510.103	126.19
510.319	196.19
510.536	749.19
510.752	2320.19
510.968	660.19
511.184	151.19
511.401	110.19
511.617	83.19
511.833	83.19
512.049	80.19
512.265	112.19
512.481	101.19
512.698	70.19
512.914	91.19
513.13	84.19
513.346	88.19
513.562	91.19
513.778	99.19
513.994	103.19
514.21	81.19
514.426	104.19
514.642	130.19
514.858	120.19
515.074	144.19
515.29	419.19
515.506	1360.19
515.721	509.19
515.937	150.19
516.153	95.19
