Data from Circ_2003_H10_HRD10591_00087.txt Node
Date: Wed Jan 03 10:37:20 EST 2024
User: Yrep
Spectrometer: HR+D1059
Trigger mode: 1
Integration Time (sec): 1.000000E-1
Scans to average: 1
Electric dark correction enabled: true
Nonlinearity correction enabled: false
Boxcar width: 0
XAxis mode: Wavelengths
Number of Pixels in Spectrum: 2048
>>>>>Begin Spectral Data<<<<<
223.165	-20.81
223.4	-20.81
223.635	-20.81
223.869	-12.81
224.104	-12.81
224.338	-12.81
224.573	-23.81
224.808	-23.81
225.042	-5.81
225.277	6.19
225.511	10.19
225.746	11.19
225.98	2.19
226.215	10.19
226.449	8.19
226.683	18.19
226.918	26.19
227.152	20.19
227.387	35.19
227.621	62.19
227.856	34.19
228.09	56.19
228.324	50.19
228.559	59.19
228.793	52.19
229.027	67.19
229.262	72.19
229.496	69.19
229.73	81.19
229.964	89.19
230.199	78.19
230.433	70.19
230.667	72.19
230.901	84.19
231.136	91.19
231.37	78.19
231.604	78.19
231.838	71.19
232.072	66.19
232.306	92.19
232.541	75.19
232.775	74.19
233.009	79.19
233.243	78.19
233.477	87.19
233.711	86.19
233.945	87.19
234.179	83.19
234.413	85.19
234.647	89.19
234.881	79.19
235.115	76.19
235.349	89.19
235.583	81.19
235.817	77.19
236.051	79.19
236.285	74.19
236.519	79.19
236.753	76.19
236.987	91.19
237.221	88.19
237.455	80.19
237.689	96.19
237.922	75.19
238.156	79.19
238.39	74.19
238.624	74.19
238.858	81.19
239.091	71.19
239.325	64.19
239.559	68.19
239.793	85.19
240.027	86.19
240.26	88.19
240.494	80.19
240.728	87.19
240.961	73.19
241.195	67.19
241.429	82.19
241.662	74.19
241.896	84.19
242.13	83.19
242.363	79.19
242.597	72.19
242.83	72.19
243.064	70.19
243.298	70.19
243.531	67.19
243.765	91.19
243.998	89.19
244.232	96.19
244.465	86.19
244.699	78.19
244.932	81.19
245.166	100.19
245.399	76.19
245.633	86.19
245.866	64.19
246.099	66.19
246.333	76.19
246.566	87.19
246.8	69.19
247.033	80.19
247.266	80.19
247.5	74.19
247.733	73.19
247.966	88.19
248.2	79.19
248.433	74.19
248.666	76.19
248.899	80.19
249.133	94.19
249.366	92.19
249.599	92.19
249.832	85.19
250.066	80.19
250.299	86.19
250.532	81.19
250.765	69.19
250.998	88.19
251.231	73.19
251.465	86.19
251.698	82.19
251.931	87.19
252.164	82.19
252.397	94.19
252.63	81.19
252.863	85.19
253.096	75.19
253.329	86.19
253.562	83.19
253.795	82.19
254.028	85.19
254.261	84.19
254.494	82.19
254.727	94.19
254.96	87.19
255.193	96.19
255.426	81.19
255.659	77.19
255.892	76.19
256.124	79.19
256.357	78.19
256.59	79.19
256.823	98.19
257.056	79.19
257.289	76.19
257.521	92.19
257.754	78.19
257.987	81.19
258.22	82.19
258.452	88.19
258.685	74.19
258.918	93.19
259.151	103.19
259.383	90.19
259.616	78.19
259.849	80.19
260.081	76.19
260.314	85.19
260.547	85.19
260.779	82.19
261.012	88.19
261.244	74.19
261.477	99.19
261.71	90.19
261.942	103.19
262.175	118.19
262.407	90.19
262.64	80.19
262.872	83.19
263.105	86.19
263.337	92.19
263.57	80.19
263.802	90.19
264.035	87.19
264.267	78.19
264.499	85.19
264.732	81.19
264.964	72.19
265.197	80.19
265.429	79.19
265.661	70.19
265.894	65.19
266.126	79.19
266.358	87.19
266.591	87.19
266.823	84.19
267.055	87.19
267.287	95.19
267.52	86.19
267.752	88.19
267.984	100.19
268.216	85.19
268.448	77.19
268.681	73.19
268.913	93.19
269.145	74.19
269.377	82.19
269.609	95.19
269.841	93.19
270.073	79.19
270.306	89.19
270.538	90.19
270.77	84.19
271.002	92.19
271.234	87.19
271.466	97.19
271.698	76.19
271.93	90.19
272.162	83.19
272.394	90.19
272.626	76.19
272.858	83.19
273.09	90.19
273.322	89.19
273.553	86.19
273.785	99.19
274.017	79.19
274.249	81.19
274.481	70.19
274.713	92.19
274.945	81.19
275.176	75.19
275.408	88.19
275.64	91.19
275.872	84.19
276.104	84.19
276.335	76.19
276.567	108.19
276.799	104.19
277.031	100.19
277.262	101.19
277.494	89.19
277.726	77.19
277.957	85.19
278.189	85.19
278.421	81.19
278.652	84.19
278.884	101.19
279.115	90.19
279.347	90.19
279.579	76.19
279.81	100.19
280.042	78.19
280.273	83.19
280.505	86.19
280.736	84.19
280.968	99.19
281.199	86.19
281.431	69.19
281.662	91.19
281.894	87.19
282.125	101.19
282.356	117.19
282.588	129.19
282.819	108.19
283.051	97.19
283.282	82.19
283.513	89.19
283.745	82.19
283.976	93.19
284.207	76.19
284.439	71.19
284.67	103.19
284.901	92.19
285.132	82.19
285.364	91.19
285.595	111.19
285.826	88.19
286.057	85.19
286.288	84.19
286.52	91.19
286.751	87.19
286.982	88.19
287.213	96.19
287.444	95.19
287.675	84.19
287.906	105.19
288.138	94.19
288.369	91.19
288.6	90.19
288.831	87.19
289.062	84.19
289.293	96.19
289.524	97.19
289.755	89.19
289.986	90.19
290.217	100.19
290.448	91.19
290.679	99.19
290.91	90.19
291.141	75.19
291.371	80.19
291.602	90.19
291.833	92.19
292.064	80.19
292.295	93.19
292.526	82.19
292.757	78.19
292.987	96.19
293.218	79.19
293.449	85.19
293.68	83.19
293.91	89.19
294.141	78.19
294.372	92.19
294.603	78.19
294.833	88.19
295.064	102.19
295.295	93.19
295.525	103.19
295.756	97.19
295.987	109.19
296.217	142.19
296.448	136.19
296.679	99.19
296.909	98.19
297.14	87.19
297.37	103.19
297.601	96.19
297.831	83.19
298.062	82.19
298.292	79.19
298.523	87.19
298.753	93.19
298.984	101.19
299.214	99.19
299.445	98.19
299.675	92.19
299.905	80.19
300.136	101.19
300.366	90.19
300.597	89.19
300.827	92.19
301.057	105.19
301.288	94.19
301.518	93.19
301.748	94.19
301.979	96.19
302.209	82.19
302.439	95.19
302.669	74.19
302.9	98.19
303.13	98.19
303.36	93.19
303.59	104.19
303.82	104.19
304.051	88.19
304.281	103.19
304.511	91.19
304.741	82.19
304.971	99.19
305.201	94.19
305.431	85.19
305.661	87.19
305.891	100.19
306.121	89.19
306.352	96.19
306.582	90.19
306.812	105.19
307.042	90.19
307.272	93.19
307.502	97.19
307.731	98.19
307.961	98.19
308.191	86.19
308.421	91.19
308.651	85.19
308.881	93.19
309.111	102.19
309.341	102.19
309.571	97.19
309.8	88.19
310.03	95.19
310.26	91.19
310.49	100.19
310.72	104.19
310.949	99.19
311.179	104.19
311.409	101.19
311.639	83.19
311.868	84.19
312.098	93.19
312.328	85.19
312.557	96.19
312.787	104.19
313.017	97.19
313.246	103.19
313.476	90.19
313.706	100.19
313.935	104.19
314.165	83.19
314.394	100.19
314.624	87.19
314.853	95.19
315.083	89.19
315.312	95.19
315.542	89.19
315.771	96.19
316.001	95.19
316.23	88.19
316.46	100.19
316.689	81.19
316.919	91.19
317.148	96.19
317.377	108.19
317.607	92.19
317.836	86.19
318.065	90.19
318.295	86.19
318.524	101.19
318.753	81.19
318.983	101.19
319.212	94.19
319.441	91.19
319.67	101.19
319.9	105.19
320.129	111.19
320.358	97.19
320.587	85.19
320.816	82.19
321.046	118.19
321.275	91.19
321.504	100.19
321.733	107.19
321.962	104.19
322.191	98.19
322.42	92.19
322.649	112.19
322.878	108.19
323.108	113.19
323.337	109.19
323.566	121.19
323.795	145.19
324.024	207.19
324.253	410.19
324.482	856.19
324.71	1738.19
324.939	2293.19
325.168	822.19
325.397	263.19
325.626	142.19
325.855	142.19
326.084	131.19
326.313	132.19
326.542	142.19
326.77	237.19
326.999	464.19
327.228	951.19
327.457	1796.19
327.686	1389.19
327.914	384.19
328.143	203.19
328.372	177.19
328.6	120.19
328.829	120.19
329.058	117.19
329.287	129.19
329.515	122.19
329.744	109.19
329.972	104.19
330.201	158.19
330.43	185.19
330.658	153.19
330.887	138.19
331.115	123.19
331.344	103.19
331.572	103.19
331.801	117.19
332.03	99.19
332.258	85.19
332.486	90.19
332.715	99.19
332.943	89.19
333.172	91.19
333.4	92.19
333.629	104.19
333.857	123.19
334.085	132.19
334.314	170.19
334.542	222.19
334.771	208.19
334.999	115.19
335.227	112.19
335.455	106.19
335.684	95.19
335.912	112.19
336.14	80.19
336.369	104.19
336.597	95.19
336.825	99.19
337.053	91.19
337.281	96.19
337.51	91.19
337.738	86.19
337.966	89.19
338.194	99.19
338.422	91.19
338.65	87.19
338.878	95.19
339.106	80.19
339.334	105.19
339.562	89.19
339.79	92.19
340.018	80.19
340.246	88.19
340.474	81.19
340.702	81.19
340.93	84.19
341.158	101.19
341.386	105.19
341.614	95.19
341.842	95.19
342.07	92.19
342.298	87.19
342.526	95.19
342.754	103.19
342.981	90.19
343.209	85.19
343.437	105.19
343.665	97.19
343.893	98.19
344.12	97.19
344.348	92.19
344.576	89.19
344.804	103.19
345.031	102.19
345.259	107.19
345.487	90.19
345.714	96.19
345.942	96.19
346.17	85.19
346.397	91.19
346.625	92.19
346.853	91.19
347.08	90.19
347.308	106.19
347.535	115.19
347.763	105.19
347.99	104.19
348.218	105.19
348.445	103.19
348.673	98.19
348.9	95.19
349.128	98.19
349.355	83.19
349.583	97.19
349.81	101.19
350.037	87.19
350.265	84.19
350.492	89.19
350.72	98.19
350.947	102.19
351.174	99.19
351.402	102.19
351.629	93.19
351.856	107.19
352.083	108.19
352.311	99.19
352.538	85.19
352.765	107.19
352.992	110.19
353.22	124.19
353.447	102.19
353.674	102.19
353.901	99.19
354.128	91.19
354.355	90.19
354.583	107.19
354.81	99.19
355.037	101.19
355.264	110.19
355.491	92.19
355.718	98.19
355.945	96.19
356.172	90.19
356.399	100.19
356.626	90.19
356.853	111.19
357.08	93.19
357.307	102.19
357.534	82.19
357.761	90.19
357.988	98.19
358.215	99.19
358.441	95.19
358.668	107.19
358.895	87.19
359.122	88.19
359.349	91.19
359.576	95.19
359.802	105.19
360.029	99.19
360.256	113.19
360.483	98.19
360.709	78.19
360.936	86.19
361.163	85.19
361.39	103.19
361.616	105.19
361.843	102.19
362.07	97.19
362.296	95.19
362.523	96.19
362.749	87.19
362.976	94.19
363.203	97.19
363.429	91.19
363.656	88.19
363.882	91.19
364.109	103.19
364.335	93.19
364.562	89.19
364.788	92.19
365.015	99.19
365.241	94.19
365.468	105.19
365.694	99.19
365.92	92.19
366.147	105.19
366.373	97.19
366.599	84.19
366.826	94.19
367.052	73.19
367.278	83.19
367.505	96.19
367.731	89.19
367.957	91.19
368.184	89.19
368.41	100.19
368.636	104.19
368.862	105.19
369.089	116.19
369.315	90.19
369.541	88.19
369.767	80.19
369.993	92.19
370.219	91.19
370.445	82.19
370.672	90.19
370.898	82.19
371.124	82.19
371.35	90.19
371.576	96.19
371.802	92.19
372.028	108.19
372.254	90.19
372.48	81.19
372.706	101.19
372.932	106.19
373.158	103.19
373.384	95.19
373.61	100.19
373.835	80.19
374.061	92.19
374.287	99.19
374.513	95.19
374.739	75.19
374.965	76.19
375.191	106.19
375.416	83.19
375.642	86.19
375.868	83.19
376.094	86.19
376.319	87.19
376.545	97.19
376.771	85.19
376.997	92.19
377.222	81.19
377.448	100.19
377.674	83.19
377.899	89.19
378.125	84.19
378.35	100.19
378.576	87.19
378.802	98.19
379.027	95.19
379.253	97.19
379.478	101.19
379.704	92.19
379.929	91.19
380.155	102.19
380.38	91.19
380.606	90.19
380.831	88.19
381.057	96.19
381.282	106.19
381.507	98.19
381.733	104.19
381.958	90.19
382.184	84.19
382.409	98.19
382.634	88.19
382.86	102.19
383.085	106.19
383.31	109.19
383.535	96.19
383.761	99.19
383.986	105.19
384.211	90.19
384.436	96.19
384.662	91.19
384.887	102.19
385.112	95.19
385.337	104.19
385.562	108.19
385.787	106.19
386.013	102.19
386.238	99.19
386.463	106.19
386.688	133.19
386.913	113.19
387.138	98.19
387.363	104.19
387.588	106.19
387.813	104.19
388.038	105.19
388.263	121.19
388.488	118.19
388.713	107.19
388.938	90.19
389.163	100.19
389.387	88.19
389.612	87.19
389.837	97.19
390.062	108.19
390.287	104.19
390.512	83.19
390.736	94.19
390.961	88.19
391.186	93.19
391.411	88.19
391.636	95.19
391.86	92.19
392.085	77.19
392.31	89.19
392.534	89.19
392.759	81.19
392.984	81.19
393.208	98.19
393.433	87.19
393.658	81.19
393.882	95.19
394.107	91.19
394.331	86.19
394.556	98.19
394.78	94.19
395.005	96.19
395.229	91.19
395.454	95.19
395.678	83.19
395.903	80.19
396.127	91.19
396.352	86.19
396.576	91.19
396.801	87.19
397.025	93.19
397.249	76.19
397.474	95.19
397.698	74.19
397.922	87.19
398.147	77.19
398.371	91.19
398.595	80.19
398.82	102.19
399.044	89.19
399.268	86.19
399.492	94.19
399.717	86.19
399.941	82.19
400.165	94.19
400.389	102.19
400.613	79.19
400.837	101.19
401.062	89.19
401.286	83.19
401.51	84.19
401.734	96.19
401.958	99.19
402.182	118.19
402.406	156.19
402.63	114.19
402.854	104.19
403.078	91.19
403.302	83.19
403.526	91.19
403.75	102.19
403.974	90.19
404.198	79.19
404.422	95.19
404.645	79.19
404.869	88.19
405.093	90.19
405.317	91.19
405.541	100.19
405.765	111.19
405.988	121.19
406.212	166.19
406.436	212.19
406.66	135.19
406.883	104.19
407.107	86.19
407.331	91.19
407.555	101.19
407.778	92.19
408.002	94.19
408.226	96.19
408.449	93.19
408.673	95.19
408.896	102.19
409.12	82.19
409.344	100.19
409.567	77.19
409.791	99.19
410.014	97.19
410.238	99.19
410.461	89.19
410.685	98.19
410.908	100.19
411.132	91.19
411.355	104.19
411.578	101.19
411.802	98.19
412.025	86.19
412.249	92.19
412.472	92.19
412.695	98.19
412.919	85.19
413.142	99.19
413.365	82.19
413.589	92.19
413.812	87.19
414.035	83.19
414.258	94.19
414.482	80.19
414.705	91.19
414.928	91.19
415.151	100.19
415.374	86.19
415.597	101.19
415.821	83.19
416.044	93.19
416.267	90.19
416.49	87.19
416.713	92.19
416.936	98.19
417.159	105.19
417.382	94.19
417.605	88.19
417.828	102.19
418.051	97.19
418.274	86.19
418.497	91.19
418.72	82.19
418.943	87.19
419.166	86.19
419.389	104.19
419.611	90.19
419.834	83.19
420.057	96.19
420.28	93.19
420.503	98.19
420.726	91.19
420.948	95.19
421.171	107.19
421.394	89.19
421.617	91.19
421.839	94.19
422.062	91.19
422.285	99.19
422.507	99.19
422.73	101.19
422.953	86.19
423.175	77.19
423.398	89.19
423.621	99.19
423.843	72.19
424.066	90.19
424.288	79.19
424.511	81.19
424.733	111.19
424.956	106.19
425.178	99.19
425.401	91.19
425.623	98.19
425.846	89.19
426.068	97.19
426.291	91.19
426.513	91.19
426.735	97.19
426.958	98.19
427.18	109.19
427.402	128.19
427.625	168.19
427.847	141.19
428.069	105.19
428.292	87.19
428.514	86.19
428.736	86.19
428.958	92.19
429.181	90.19
429.403	88.19
429.625	88.19
429.847	76.19
430.069	84.19
430.292	99.19
430.514	92.19
430.736	88.19
430.958	90.19
431.18	94.19
431.402	82.19
431.624	85.19
431.846	85.19
432.068	79.19
432.29	86.19
432.512	83.19
432.734	81.19
432.956	80.19
433.178	95.19
433.4	92.19
433.622	90.19
433.844	96.19
434.066	80.19
434.287	91.19
434.509	96.19
434.731	82.19
434.953	87.19
435.175	92.19
435.397	84.19
435.618	88.19
435.84	95.19
436.062	128.19
436.284	127.19
436.505	103.19
436.727	97.19
436.949	108.19
437.17	92.19
437.392	101.19
437.614	80.19
437.835	94.19
438.057	109.19
438.278	94.19
438.5	105.19
438.721	119.19
438.943	87.19
439.165	89.19
439.386	87.19
439.608	84.19
439.829	110.19
440.05	103.19
440.272	143.19
440.493	103.19
440.715	97.19
440.936	105.19
441.158	94.19
441.379	90.19
441.6	93.19
441.822	101.19
442.043	89.19
442.264	99.19
442.486	109.19
442.707	91.19
442.928	111.19
443.149	114.19
443.371	127.19
443.592	105.19
443.813	118.19
444.034	103.19
444.255	101.19
444.476	85.19
444.698	98.19
444.919	78.19
445.14	139.19
445.361	130.19
445.582	105.19
445.803	144.19
446.024	140.19
446.245	132.19
446.466	128.19
446.687	94.19
446.908	95.19
447.129	87.19
447.35	91.19
447.571	92.19
447.792	86.19
448.013	91.19
448.234	109.19
448.455	91.19
448.675	107.19
448.896	111.19
449.117	91.19
449.338	109.19
449.559	126.19
449.779	126.19
450	98.19
450.221	90.19
450.442	91.19
450.662	88.19
450.883	102.19
451.104	107.19
451.324	107.19
451.545	80.19
451.766	82.19
451.986	88.19
452.207	98.19
452.428	87.19
452.648	91.19
452.869	112.19
453.089	101.19
453.31	126.19
453.53	87.19
453.751	96.19
453.971	109.19
454.192	101.19
454.412	81.19
454.633	84.19
454.853	99.19
455.073	81.19
455.294	90.19
455.514	96.19
455.734	78.19
455.955	85.19
456.175	83.19
456.395	85.19
456.616	94.19
456.836	96.19
457.056	88.19
457.276	88.19
457.497	83.19
457.717	92.19
457.937	78.19
458.157	86.19
458.377	98.19
458.598	100.19
458.818	143.19
459.038	147.19
459.258	98.19
459.478	81.19
459.698	92.19
459.918	87.19
460.138	90.19
460.358	80.19
460.578	83.19
460.798	99.19
461.018	97.19
461.238	84.19
461.458	88.19
461.678	90.19
461.898	92.19
462.118	109.19
462.338	80.19
462.558	82.19
462.777	92.19
462.997	78.19
463.217	72.19
463.437	72.19
463.657	88.19
463.876	86.19
464.096	94.19
464.316	91.19
464.536	105.19
464.755	101.19
464.975	100.19
465.195	149.19
465.414	162.19
465.634	94.19
465.854	82.19
466.073	88.19
466.293	91.19
466.512	86.19
466.732	85.19
466.951	79.19
467.171	87.19
467.391	91.19
467.61	99.19
467.829	101.19
468.049	134.19
468.268	132.19
468.488	85.19
468.707	85.19
468.927	88.19
469.146	78.19
469.365	86.19
469.585	91.19
469.804	98.19
470.023	96.19
470.243	102.19
470.462	83.19
470.681	104.19
470.901	82.19
471.12	79.19
471.339	75.19
471.558	90.19
471.777	89.19
471.997	98.19
472.216	175.19
472.435	246.19
472.654	134.19
472.873	99.19
473.092	77.19
473.311	98.19
473.53	86.19
473.749	89.19
473.968	88.19
474.187	95.19
474.406	97.19
474.625	81.19
474.844	93.19
475.063	81.19
475.282	81.19
475.501	87.19
475.72	87.19
475.939	70.19
476.158	90.19
476.377	95.19
476.596	91.19
476.814	103.19
477.033	88.19
477.252	94.19
477.471	83.19
477.69	96.19
477.908	93.19
478.127	89.19
478.346	82.19
478.564	93.19
478.783	101.19
479.002	101.19
479.22	99.19
479.439	98.19
479.658	99.19
479.876	82.19
480.095	99.19
480.313	89.19
480.532	93.19
480.751	106.19
480.969	181.19
481.188	424.19
481.406	288.19
481.624	108.19
481.843	79.19
482.061	96.19
482.28	92.19
482.498	76.19
482.717	87.19
482.935	89.19
483.153	95.19
483.372	91.19
483.59	89.19
483.808	84.19
484.027	91.19
484.245	94.19
484.463	98.19
484.681	92.19
484.9	92.19
485.118	99.19
485.336	92.19
485.554	92.19
485.772	94.19
485.99	92.19
486.209	98.19
486.427	100.19
486.645	106.19
486.863	100.19
487.081	101.19
487.299	83.19
487.517	77.19
487.735	88.19
487.953	92.19
488.171	92.19
488.389	90.19
488.607	104.19
488.825	109.19
489.043	86.19
489.261	90.19
489.479	79.19
489.696	79.19
489.914	87.19
490.132	87.19
490.35	86.19
490.568	92.19
490.786	99.19
491.003	80.19
491.221	92.19
491.439	88.19
491.657	103.19
491.874	92.19
492.092	87.19
492.31	89.19
492.527	84.19
492.745	95.19
492.963	83.19
493.18	93.19
493.398	72.19
493.615	91.19
493.833	106.19
494.05	92.19
494.268	95.19
494.485	83.19
494.703	93.19
494.92	96.19
495.138	84.19
495.355	80.19
495.573	88.19
495.79	98.19
496.008	92.19
496.225	87.19
496.442	97.19
496.66	92.19
496.877	100.19
497.094	92.19
497.312	79.19
497.529	80.19
497.746	94.19
497.963	86.19
498.181	99.19
498.398	98.19
498.615	101.19
498.832	90.19
499.049	91.19
499.267	87.19
499.484	95.19
499.701	90.19
499.918	93.19
500.135	94.19
500.352	88.19
500.569	98.19
500.786	94.19
501.003	77.19
501.22	96.19
501.437	90.19
501.654	96.19
501.871	112.19
502.088	90.19
502.305	88.19
502.522	75.19
502.739	78.19
502.956	86.19
503.172	95.19
503.389	90.19
503.606	101.19
503.823	77.19
504.04	96.19
504.256	89.19
504.473	83.19
504.69	90.19
504.907	82.19
505.123	93.19
505.34	90.19
505.557	87.19
505.773	98.19
505.99	82.19
506.207	87.19
506.423	103.19
506.64	96.19
506.856	91.19
507.073	107.19
507.289	97.19
507.506	96.19
507.722	104.19
507.939	114.19
508.155	102.19
508.372	83.19
508.588	84.19
508.805	89.19
509.021	91.19
509.238	100.19
509.454	95.19
509.67	92.19
509.887	111.19
510.103	129.19
510.319	216.19
510.536	792.19
510.752	2533.19
510.968	699.19
511.184	167.19
511.401	100.19
511.617	99.19
511.833	86.19
512.049	88.19
512.265	79.19
512.481	105.19
512.698	78.19
512.914	106.19
513.13	92.19
513.346	92.19
513.562	99.19
513.778	92.19
513.994	99.19
514.21	90.19
514.426	109.19
514.642	131.19
514.858	125.19
515.074	140.19
515.29	443.19
515.506	1446.19
