Data from Circ_2003_H10_HRD10591_00037.txt Node
Date: Wed Jan 03 10:37:10 EST 2024
User: Yrep
Spectrometer: HR+D1059
Trigger mode: 1
Integration Time (sec): 1.000000E-1
Scans to average: 1
Electric dark correction enabled: true
Nonlinearity correction enabled: false
Boxcar width: 0
XAxis mode: Wavelengths
Number of Pixels in Spectrum: 2048
>>>>>Begin Spectral Data<<<<<
223.165	-17.81
223.4	-17.81
223.635	-17.81
223.869	-14.81
224.104	-14.81
224.338	-25.81
224.573	-7.81
224.808	-21.81
225.042	4.19
225.277	-5.81
225.511	4.19
225.746	8.19
225.98	10.19
226.215	14.19
226.449	9.19
226.683	18.19
226.918	29.19
227.152	11.19
227.387	31.19
227.621	32.19
227.856	57.19
228.09	45.19
228.324	44.19
228.559	62.19
228.793	67.19
229.027	55.19
229.262	69.19
229.496	67.19
229.73	93.19
229.964	83.19
230.199	82.19
230.433	62.19
230.667	92.19
230.901	82.19
231.136	75.19
231.37	66.19
231.604	75.19
231.838	70.19
232.072	75.19
232.306	85.19
232.541	85.19
232.775	90.19
233.009	71.19
233.243	83.19
233.477	90.19
233.711	88.19
233.945	78.19
234.179	75.19
234.413	82.19
234.647	80.19
234.881	84.19
235.115	73.19
235.349	87.19
235.583	69.19
235.817	95.19
236.051	76.19
236.285	71.19
236.519	89.19
236.753	64.19
236.987	87.19
237.221	71.19
237.455	95.19
237.689	89.19
237.922	92.19
238.156	78.19
238.39	80.19
238.624	80.19
238.858	83.19
239.091	70.19
239.325	88.19
239.559	82.19
239.793	84.19
240.027	84.19
240.26	79.19
240.494	57.19
240.728	82.19
240.961	76.19
241.195	86.19
241.429	77.19
241.662	89.19
241.896	69.19
242.13	94.19
242.363	78.19
242.597	78.19
242.83	68.19
243.064	85.19
243.298	90.19
243.531	70.19
243.765	77.19
243.998	80.19
244.232	80.19
244.465	90.19
244.699	88.19
244.932	83.19
245.166	78.19
245.399	91.19
245.633	78.19
245.866	69.19
246.099	96.19
246.333	74.19
246.566	77.19
246.8	81.19
247.033	78.19
247.266	90.19
247.5	89.19
247.733	82.19
247.966	92.19
248.2	88.19
248.433	80.19
248.666	76.19
248.899	90.19
249.133	90.19
249.366	94.19
249.599	101.19
249.832	84.19
250.066	76.19
250.299	71.19
250.532	80.19
250.765	79.19
250.998	75.19
251.231	90.19
251.465	81.19
251.698	92.19
251.931	66.19
252.164	83.19
252.397	87.19
252.63	87.19
252.863	65.19
253.096	75.19
253.329	83.19
253.562	72.19
253.795	84.19
254.028	79.19
254.261	87.19
254.494	85.19
254.727	80.19
254.96	92.19
255.193	82.19
255.426	88.19
255.659	81.19
255.892	79.19
256.124	80.19
256.357	82.19
256.59	87.19
256.823	77.19
257.056	81.19
257.289	84.19
257.521	85.19
257.754	90.19
257.987	97.19
258.22	81.19
258.452	101.19
258.685	76.19
258.918	88.19
259.151	82.19
259.383	86.19
259.616	87.19
259.849	80.19
260.081	91.19
260.314	85.19
260.547	85.19
260.779	98.19
261.012	82.19
261.244	95.19
261.477	89.19
261.71	91.19
261.942	113.19
262.175	111.19
262.407	88.19
262.64	88.19
262.872	83.19
263.105	90.19
263.337	83.19
263.57	79.19
263.802	86.19
264.035	94.19
264.267	84.19
264.499	90.19
264.732	82.19
264.964	91.19
265.197	90.19
265.429	90.19
265.661	88.19
265.894	90.19
266.126	97.19
266.358	92.19
266.591	98.19
266.823	92.19
267.055	84.19
267.287	78.19
267.52	87.19
267.752	82.19
267.984	80.19
268.216	86.19
268.448	92.19
268.681	102.19
268.913	86.19
269.145	92.19
269.377	88.19
269.609	99.19
269.841	91.19
270.073	96.19
270.306	87.19
270.538	72.19
270.77	96.19
271.002	73.19
271.234	87.19
271.466	80.19
271.698	99.19
271.93	80.19
272.162	83.19
272.394	89.19
272.626	89.19
272.858	91.19
273.09	97.19
273.322	92.19
273.553	96.19
273.785	83.19
274.017	93.19
274.249	81.19
274.481	89.19
274.713	80.19
274.945	85.19
275.176	97.19
275.408	91.19
275.64	85.19
275.872	99.19
276.104	93.19
276.335	89.19
276.567	102.19
276.799	104.19
277.031	94.19
277.262	97.19
277.494	84.19
277.726	88.19
277.957	97.19
278.189	94.19
278.421	86.19
278.652	80.19
278.884	86.19
279.115	80.19
279.347	91.19
279.579	81.19
279.81	89.19
280.042	99.19
280.273	93.19
280.505	90.19
280.736	83.19
280.968	95.19
281.199	97.19
281.431	85.19
281.662	104.19
281.894	89.19
282.125	114.19
282.356	127.19
282.588	153.19
282.819	114.19
283.051	96.19
283.282	87.19
283.513	84.19
283.745	93.19
283.976	98.19
284.207	86.19
284.439	84.19
284.67	82.19
284.901	69.19
285.132	86.19
285.364	93.19
285.595	95.19
285.826	94.19
286.057	94.19
286.288	86.19
286.52	102.19
286.751	84.19
286.982	89.19
287.213	89.19
287.444	88.19
287.675	91.19
287.906	93.19
288.138	96.19
288.369	105.19
288.6	99.19
288.831	81.19
289.062	104.19
289.293	89.19
289.524	94.19
289.755	84.19
289.986	98.19
290.217	99.19
290.448	82.19
290.679	82.19
290.91	77.19
291.141	100.19
291.371	103.19
291.602	90.19
291.833	77.19
292.064	79.19
292.295	99.19
292.526	103.19
292.757	97.19
292.987	68.19
293.218	88.19
293.449	88.19
293.68	91.19
293.91	89.19
294.141	86.19
294.372	105.19
294.603	82.19
294.833	82.19
295.064	92.19
295.295	92.19
295.525	91.19
295.756	100.19
295.987	106.19
296.217	130.19
296.448	121.19
296.679	104.19
296.909	86.19
297.14	89.19
297.37	94.19
297.601	93.19
297.831	98.19
298.062	98.19
298.292	88.19
298.523	80.19
298.753	78.19
298.984	80.19
299.214	82.19
299.445	97.19
299.675	106.19
299.905	107.19
300.136	98.19
300.366	88.19
300.597	102.19
300.827	89.19
301.057	111.19
301.288	113.19
301.518	93.19
301.748	99.19
301.979	92.19
302.209	87.19
302.439	93.19
302.669	87.19
302.9	94.19
303.13	97.19
303.36	97.19
303.59	104.19
303.82	106.19
304.051	94.19
304.281	94.19
304.511	99.19
304.741	96.19
304.971	87.19
305.201	92.19
305.431	89.19
305.661	84.19
305.891	85.19
306.121	102.19
306.352	118.19
306.582	92.19
306.812	105.19
307.042	93.19
307.272	86.19
307.502	90.19
307.731	102.19
307.961	109.19
308.191	96.19
308.421	101.19
308.651	77.19
308.881	95.19
309.111	108.19
309.341	105.19
309.571	101.19
309.8	78.19
310.03	90.19
310.26	107.19
310.49	85.19
310.72	98.19
310.949	109.19
311.179	94.19
311.409	107.19
311.639	95.19
311.868	105.19
312.098	94.19
312.328	96.19
312.557	96.19
312.787	92.19
313.017	109.19
313.246	107.19
313.476	105.19
313.706	96.19
313.935	93.19
314.165	88.19
314.394	93.19
314.624	97.19
314.853	93.19
315.083	96.19
315.312	87.19
315.542	96.19
315.771	92.19
316.001	99.19
316.23	96.19
316.46	86.19
316.689	80.19
316.919	84.19
317.148	105.19
317.377	93.19
317.607	101.19
317.836	100.19
318.065	106.19
318.295	93.19
318.524	82.19
318.753	100.19
318.983	89.19
319.212	93.19
319.441	115.19
319.67	104.19
319.9	92.19
320.129	106.19
320.358	96.19
320.587	96.19
320.816	81.19
321.046	86.19
321.275	103.19
321.504	110.19
321.733	94.19
321.962	89.19
322.191	104.19
322.42	113.19
322.649	101.19
322.878	120.19
323.108	120.19
323.337	116.19
323.566	126.19
323.795	154.19
324.024	192.19
324.253	399.19
324.482	865.19
324.71	1786.19
324.939	2299.19
325.168	856.19
325.397	240.19
325.626	147.19
325.855	148.19
326.084	131.19
326.313	123.19
326.542	160.19
326.77	233.19
326.999	483.19
327.228	1008.19
327.457	1790.19
327.686	1428.19
327.914	381.19
328.143	201.19
328.372	156.19
328.6	140.19
328.829	116.19
329.058	119.19
329.287	120.19
329.515	113.19
329.744	109.19
329.972	91.19
330.201	120.19
330.43	133.19
330.658	131.19
330.887	134.19
331.115	138.19
331.344	88.19
331.572	104.19
331.801	97.19
332.03	108.19
332.258	83.19
332.486	90.19
332.715	90.19
332.943	91.19
333.172	97.19
333.4	99.19
333.629	107.19
333.857	109.19
334.085	113.19
334.314	105.19
334.542	113.19
334.771	122.19
334.999	93.19
335.227	99.19
335.455	105.19
335.684	90.19
335.912	97.19
336.14	98.19
336.369	111.19
336.597	100.19
336.825	93.19
337.053	102.19
337.281	99.19
337.51	102.19
337.738	93.19
337.966	103.19
338.194	102.19
338.422	119.19
338.65	83.19
338.878	101.19
339.106	102.19
339.334	94.19
339.562	97.19
339.79	95.19
340.018	77.19
340.246	83.19
340.474	103.19
340.702	105.19
340.93	101.19
341.158	87.19
341.386	88.19
341.614	103.19
341.842	108.19
342.07	91.19
342.298	101.19
342.526	85.19
342.754	81.19
342.981	90.19
343.209	105.19
343.437	96.19
343.665	88.19
343.893	104.19
344.12	91.19
344.348	101.19
344.576	102.19
344.804	95.19
345.031	102.19
345.259	111.19
345.487	102.19
345.714	88.19
345.942	102.19
346.17	85.19
346.397	83.19
346.625	86.19
346.853	88.19
347.08	112.19
347.308	93.19
347.535	98.19
347.763	100.19
347.99	106.19
348.218	94.19
348.445	98.19
348.673	93.19
348.9	99.19
349.128	100.19
349.355	88.19
349.583	100.19
349.81	103.19
350.037	91.19
350.265	104.19
350.492	104.19
350.72	96.19
350.947	104.19
351.174	124.19
351.402	118.19
351.629	103.19
351.856	94.19
352.083	112.19
352.311	109.19
352.538	112.19
352.765	128.19
352.992	107.19
353.22	105.19
353.447	109.19
353.674	116.19
353.901	95.19
354.128	93.19
354.355	87.19
354.583	105.19
354.81	93.19
355.037	100.19
355.264	102.19
355.491	96.19
355.718	92.19
355.945	85.19
356.172	94.19
356.399	91.19
356.626	99.19
356.853	84.19
357.08	87.19
357.307	91.19
357.534	86.19
357.761	104.19
357.988	107.19
358.215	97.19
358.441	97.19
358.668	92.19
358.895	100.19
359.122	100.19
359.349	100.19
359.576	98.19
359.802	114.19
360.029	105.19
360.256	103.19
360.483	90.19
360.709	85.19
360.936	92.19
361.163	99.19
361.39	97.19
361.616	86.19
361.843	94.19
362.07	98.19
362.296	114.19
362.523	89.19
362.749	92.19
362.976	92.19
363.203	100.19
363.429	89.19
363.656	88.19
363.882	104.19
364.109	91.19
364.335	101.19
364.562	93.19
364.788	105.19
365.015	88.19
365.241	107.19
365.468	107.19
365.694	117.19
365.92	98.19
366.147	105.19
366.373	89.19
366.599	83.19
366.826	98.19
367.052	104.19
367.278	86.19
367.505	100.19
367.731	97.19
367.957	87.19
368.184	107.19
368.41	105.19
368.636	114.19
368.862	141.19
369.089	105.19
369.315	113.19
369.541	102.19
369.767	98.19
369.993	106.19
370.219	78.19
370.445	89.19
370.672	102.19
370.898	83.19
371.124	96.19
371.35	87.19
371.576	91.19
371.802	100.19
372.028	78.19
372.254	87.19
372.48	96.19
372.706	107.19
372.932	89.19
373.158	94.19
373.384	97.19
373.61	94.19
373.835	105.19
374.061	82.19
374.287	93.19
374.513	92.19
374.739	100.19
374.965	84.19
375.191	101.19
375.416	84.19
375.642	87.19
375.868	101.19
376.094	91.19
376.319	97.19
376.545	93.19
376.771	97.19
376.997	94.19
377.222	97.19
377.448	93.19
377.674	88.19
377.899	94.19
378.125	107.19
378.35	84.19
378.576	100.19
378.802	98.19
379.027	104.19
379.253	114.19
379.478	102.19
379.704	97.19
379.929	101.19
380.155	104.19
380.38	109.19
380.606	86.19
380.831	116.19
381.057	104.19
381.282	92.19
381.507	105.19
381.733	103.19
381.958	106.19
382.184	105.19
382.409	101.19
382.634	119.19
382.86	102.19
383.085	107.19
383.31	101.19
383.535	104.19
383.761	95.19
383.986	106.19
384.211	103.19
384.436	104.19
384.662	105.19
384.887	115.19
385.112	114.19
385.337	109.19
385.562	117.19
385.787	110.19
386.013	109.19
386.238	130.19
386.463	108.19
386.688	102.19
386.913	113.19
387.138	122.19
387.363	115.19
387.588	113.19
387.813	101.19
388.038	125.19
388.263	107.19
388.488	114.19
388.713	91.19
388.938	101.19
389.163	91.19
389.387	102.19
389.612	91.19
389.837	96.19
390.062	97.19
390.287	96.19
390.512	93.19
390.736	101.19
390.961	91.19
391.186	110.19
391.411	106.19
391.636	90.19
391.86	89.19
392.085	90.19
392.31	94.19
392.534	95.19
392.759	94.19
392.984	102.19
393.208	90.19
393.433	97.19
393.658	102.19
393.882	90.19
394.107	88.19
394.331	88.19
394.556	89.19
394.78	85.19
395.005	99.19
395.229	82.19
395.454	92.19
395.678	101.19
395.903	88.19
396.127	88.19
396.352	109.19
396.576	98.19
396.801	102.19
397.025	75.19
397.249	93.19
397.474	94.19
397.698	98.19
397.922	97.19
398.147	94.19
398.371	88.19
398.595	86.19
398.82	90.19
399.044	92.19
399.268	100.19
399.492	85.19
399.717	86.19
399.941	87.19
400.165	110.19
400.389	82.19
400.613	91.19
400.837	93.19
401.062	89.19
401.286	94.19
401.51	103.19
401.734	87.19
401.958	100.19
402.182	135.19
402.406	166.19
402.63	130.19
402.854	85.19
403.078	98.19
403.302	96.19
403.526	105.19
403.75	93.19
403.974	86.19
404.198	92.19
404.422	98.19
404.645	84.19
404.869	94.19
405.093	100.19
405.317	101.19
405.541	120.19
405.765	107.19
405.988	126.19
406.212	168.19
406.436	222.19
406.66	141.19
406.883	95.19
407.107	86.19
407.331	96.19
407.555	98.19
407.778	87.19
408.002	94.19
408.226	106.19
408.449	64.19
408.673	87.19
408.896	98.19
409.12	99.19
409.344	90.19
409.567	96.19
409.791	88.19
410.014	104.19
410.238	103.19
410.461	92.19
410.685	101.19
410.908	97.19
411.132	107.19
411.355	98.19
411.578	93.19
411.802	91.19
412.025	98.19
412.249	100.19
412.472	93.19
412.695	113.19
412.919	91.19
413.142	108.19
413.365	81.19
413.589	88.19
413.812	93.19
414.035	91.19
414.258	89.19
414.482	85.19
414.705	100.19
414.928	98.19
415.151	96.19
415.374	110.19
415.597	81.19
415.821	96.19
416.044	91.19
416.267	104.19
416.49	92.19
416.713	99.19
416.936	87.19
417.159	90.19
417.382	84.19
417.605	97.19
417.828	108.19
418.051	92.19
418.274	96.19
418.497	88.19
418.72	91.19
418.943	96.19
419.166	96.19
419.389	83.19
419.611	100.19
419.834	78.19
420.057	82.19
420.28	80.19
420.503	92.19
420.726	84.19
420.948	73.19
421.171	103.19
421.394	89.19
421.617	96.19
421.839	92.19
422.062	95.19
422.285	89.19
422.507	101.19
422.73	99.19
422.953	99.19
423.175	97.19
423.398	98.19
423.621	90.19
423.843	86.19
424.066	100.19
424.288	98.19
424.511	77.19
424.733	89.19
424.956	105.19
425.178	104.19
425.401	97.19
425.623	97.19
425.846	101.19
426.068	90.19
426.291	90.19
426.513	100.19
426.735	91.19
426.958	81.19
427.18	103.19
427.402	120.19
427.625	162.19
427.847	153.19
428.069	101.19
428.292	83.19
428.514	90.19
428.736	91.19
428.958	102.19
429.181	95.19
429.403	95.19
429.625	92.19
429.847	100.19
430.069	97.19
430.292	87.19
430.514	104.19
430.736	88.19
430.958	80.19
431.18	77.19
431.402	76.19
431.624	93.19
431.846	87.19
432.068	90.19
432.29	79.19
432.512	98.19
432.734	96.19
432.956	94.19
433.178	99.19
433.4	106.19
433.622	94.19
433.844	98.19
434.066	94.19
434.287	83.19
434.509	101.19
434.731	106.19
434.953	94.19
435.175	91.19
435.397	102.19
435.618	91.19
435.84	99.19
436.062	124.19
436.284	108.19
436.505	108.19
436.727	94.19
436.949	94.19
437.17	88.19
437.392	103.19
437.614	85.19
437.835	112.19
438.057	117.19
438.278	112.19
438.5	110.19
438.721	130.19
438.943	99.19
439.165	92.19
439.386	94.19
439.608	104.19
439.829	92.19
440.05	127.19
440.272	131.19
440.493	101.19
440.715	88.19
440.936	88.19
441.158	99.19
441.379	101.19
441.6	98.19
441.822	82.19
442.043	90.19
442.264	114.19
442.486	94.19
442.707	96.19
442.928	108.19
443.149	125.19
443.371	129.19
443.592	118.19
443.813	96.19
444.034	101.19
444.255	101.19
444.476	82.19
444.698	100.19
444.919	96.19
445.14	139.19
445.361	125.19
445.582	128.19
445.803	128.19
446.024	125.19
446.245	123.19
446.466	105.19
446.687	87.19
446.908	91.19
447.129	82.19
447.35	91.19
447.571	105.19
447.792	105.19
448.013	100.19
448.234	102.19
448.455	97.19
448.675	122.19
448.896	111.19
449.117	107.19
449.338	92.19
449.559	125.19
449.779	128.19
450	96.19
450.221	102.19
450.442	94.19
450.662	85.19
450.883	92.19
451.104	102.19
451.324	106.19
451.545	76.19
451.766	83.19
451.986	95.19
452.207	87.19
452.428	98.19
452.648	88.19
452.869	92.19
453.089	107.19
453.31	111.19
453.53	94.19
453.751	104.19
453.971	112.19
454.192	112.19
454.412	92.19
454.633	86.19
454.853	82.19
455.073	90.19
455.294	97.19
455.514	93.19
455.734	105.19
455.955	79.19
456.175	91.19
456.395	98.19
456.616	97.19
456.836	95.19
457.056	95.19
457.276	77.19
457.497	94.19
457.717	82.19
457.937	93.19
458.157	84.19
458.377	93.19
458.598	102.19
458.818	135.19
459.038	152.19
459.258	113.19
459.478	96.19
459.698	90.19
459.918	87.19
460.138	89.19
460.358	90.19
460.578	75.19
460.798	89.19
461.018	100.19
461.238	95.19
461.458	83.19
461.678	74.19
461.898	82.19
462.118	89.19
462.338	89.19
462.558	83.19
462.777	103.19
462.997	88.19
463.217	89.19
463.437	91.19
463.657	80.19
463.876	82.19
464.096	93.19
464.316	99.19
464.536	86.19
464.755	103.19
464.975	101.19
465.195	152.19
465.414	156.19
465.634	93.19
465.854	96.19
466.073	84.19
466.293	89.19
466.512	86.19
466.732	77.19
466.951	85.19
467.171	88.19
467.391	96.19
467.61	100.19
467.829	104.19
468.049	101.19
468.268	88.19
468.488	97.19
468.707	90.19
468.927	91.19
469.146	82.19
469.365	84.19
469.585	82.19
469.804	93.19
470.023	98.19
470.243	91.19
470.462	86.19
470.681	107.19
470.901	97.19
471.12	101.19
471.339	79.19
471.558	104.19
471.777	90.19
471.997	79.19
472.216	108.19
472.435	117.19
472.654	95.19
472.873	94.19
473.092	91.19
473.311	92.19
473.53	81.19
473.749	95.19
473.968	102.19
474.187	96.19
474.406	97.19
474.625	97.19
474.844	102.19
475.063	92.19
475.282	98.19
475.501	100.19
475.72	85.19
475.939	89.19
476.158	101.19
476.377	85.19
476.596	91.19
476.814	94.19
477.033	96.19
477.252	85.19
477.471	84.19
477.69	85.19
477.908	92.19
478.127	84.19
478.346	88.19
478.564	98.19
478.783	87.19
479.002	85.19
479.22	97.19
479.439	100.19
479.658	113.19
479.876	94.19
480.095	95.19
480.313	97.19
480.532	84.19
480.751	96.19
480.969	120.19
481.188	151.19
481.406	134.19
481.624	88.19
481.843	93.19
482.061	92.19
482.28	90.19
482.498	87.19
482.717	90.19
482.935	100.19
483.153	104.19
483.372	89.19
483.59	107.19
483.808	92.19
484.027	104.19
484.245	90.19
484.463	95.19
484.681	98.19
484.9	87.19
485.118	92.19
485.336	88.19
485.554	96.19
485.772	105.19
485.99	118.19
486.209	105.19
486.427	114.19
486.645	110.19
486.863	117.19
487.081	93.19
487.299	110.19
487.517	108.19
487.735	77.19
487.953	98.19
488.171	104.19
488.389	101.19
488.607	100.19
488.825	99.19
489.043	97.19
489.261	91.19
489.479	87.19
489.696	97.19
489.914	99.19
490.132	84.19
490.35	99.19
490.568	96.19
490.786	100.19
491.003	105.19
491.221	108.19
491.439	88.19
491.657	98.19
491.874	81.19
492.092	88.19
492.31	87.19
492.527	108.19
492.745	108.19
492.963	90.19
493.18	105.19
493.398	102.19
493.615	97.19
493.833	98.19
494.05	85.19
494.268	96.19
494.485	99.19
494.703	100.19
494.92	86.19
495.138	87.19
495.355	88.19
495.573	97.19
495.79	86.19
496.008	104.19
496.225	94.19
496.442	101.19
496.66	94.19
496.877	82.19
497.094	94.19
497.312	79.19
497.529	92.19
497.746	95.19
497.963	98.19
498.181	95.19
498.398	80.19
498.615	131.19
498.832	101.19
499.049	96.19
499.267	98.19
499.484	92.19
499.701	97.19
499.918	94.19
500.135	87.19
500.352	98.19
500.569	103.19
500.786	82.19
501.003	94.19
501.22	97.19
501.437	89.19
501.654	92.19
501.871	112.19
502.088	89.19
502.305	104.19
502.522	82.19
502.739	99.19
502.956	94.19
503.172	89.19
503.389	94.19
503.606	95.19
503.823	86.19
504.04	93.19
504.256	92.19
504.473	87.19
504.69	94.19
504.907	104.19
505.123	94.19
505.34	90.19
505.557	95.19
505.773	94.19
505.99	90.19
506.207	87.19
506.423	89.19
506.64	94.19
506.856	99.19
507.073	101.19
507.289	86.19
507.506	92.19
507.722	105.19
507.939	106.19
508.155	106.19
508.372	104.19
508.588	106.19
508.805	103.19
509.021	88.19
509.238	92.19
509.454	101.19
509.67	101.19
509.887	120.19
510.103	137.19
510.319	218.19
510.536	799.19
510.752	2514.19
510.968	690.19
511.184	167.19
511.401	118.19
511.617	106.19
511.833	83.19
512.049	98.19
512.265	83.19
512.481	93.19
512.698	107.19
512.914	91.19
513.13	96.19
513.346	98.19
513.562	89.19
513.778	102.19
513.994	110.19
514.21	115.19
