Data from Circ_2003_H10_HRD10591_00083.txt Node
Date: Wed Jan 03 10:37:19 EST 2024
User: Yrep
Spectrometer: HR+D1059
Trigger mode: 1
Integration Time (sec): 1.000000E-1
Scans to average: 1
Electric dark correction enabled: true
Nonlinearity correction enabled: false
Boxcar width: 0
XAxis mode: Wavelengths
Number of Pixels in Spectrum: 2048
>>>>>Begin Spectral Data<<<<<
223.165	-14.75
223.4	-14.75
223.635	-14.75
223.869	-15.75
224.104	-16.75
224.338	-13.75
224.573	-22.75
224.808	-12.75
225.042	-16.75
225.277	2.25
225.511	-19.75
225.746	0.25
225.98	10.25
226.215	13.25
226.449	19.25
226.683	18.25
226.918	24.25
227.152	45.25
227.387	30.25
227.621	41.25
227.856	56.25
228.09	54.25
228.324	45.25
228.559	68.25
228.793	142.25
229.027	428.25
229.262	511.25
229.496	579.25
229.73	742.25
229.964	724.25
230.199	535.25
230.433	454.25
230.667	442.25
230.901	457.25
231.136	431.25
231.37	437.25
231.604	436.25
231.838	449.25
232.072	422.25
232.306	476.25
232.541	454.25
232.775	452.25
233.009	470.25
233.243	462.25
233.477	466.25
233.711	477.25
233.945	520.25
234.179	480.25
234.413	481.25
234.647	504.25
234.881	493.25
235.115	511.25
235.349	524.25
235.583	546.25
235.817	565.25
236.051	601.25
236.285	596.25
236.519	609.25
236.753	685.25
236.987	884.25
237.221	1316.25
237.455	1398.25
237.689	819.25
237.922	698.25
238.156	700.25
238.39	666.25
238.624	639.25
238.858	625.25
239.091	639.25
239.325	656.25
239.559	670.25
239.793	675.25
240.027	745.25
240.26	887.25
240.494	918.25
240.728	916.25
240.961	865.25
241.195	812.25
241.429	772.25
241.662	754.25
241.896	752.25
242.13	741.25
242.363	755.25
242.597	759.25
242.83	795.25
243.064	824.25
243.298	781.25
243.531	811.25
243.765	815.25
243.998	817.25
244.232	831.25
244.465	878.25
244.699	873.25
244.932	869.25
245.166	859.25
245.399	868.25
245.633	863.25
245.866	894.25
246.099	900.25
246.333	924.25
246.566	935.25
246.8	941.25
247.033	973.25
247.266	996.25
247.5	1074.25
247.733	1111.25
247.966	1112.25
248.2	1129.25
248.433	1137.25
248.666	1182.25
248.899	1286.25
249.133	1374.25
249.366	1396.25
249.599	1268.25
249.832	1194.25
250.066	1290.25
250.299	1380.25
250.532	1585.25
250.765	1710.25
250.998	1788.25
251.231	1668.25
251.465	1471.25
251.698	1410.25
251.931	1367.25
252.164	1360.25
252.397	1384.25
252.63	1424.25
252.863	1499.25
253.096	1623.25
253.329	1641.25
253.562	1558.25
253.795	1483.25
254.028	1528.25
254.261	1592.25
254.494	1798.25
254.727	2088.25
254.96	2198.25
255.193	1909.25
255.426	1797.25
255.659	1778.25
255.892	2078.25
256.124	2351.25
256.357	2212.25
256.59	1886.25
256.823	1706.25
257.056	1634.25
257.289	1595.25
257.521	1576.25
257.754	1589.25
257.987	1555.25
258.22	1551.25
258.452	1540.25
258.685	1529.25
258.918	1561.25
259.151	1601.25
259.383	1684.25
259.616	1705.25
259.849	1776.25
260.081	1905.25
260.314	2017.25
260.547	1966.25
260.779	1788.25
261.012	1736.25
261.244	1686.25
261.477	1660.25
261.71	1642.25
261.942	1702.25
262.175	1721.25
262.407	1661.25
262.64	1641.25
262.872	1604.25
263.105	1627.25
263.337	1613.25
263.57	1656.25
263.802	1634.25
264.035	1640.25
264.267	1643.25
264.499	1665.25
264.732	1670.25
264.964	1651.25
265.197	1680.25
265.429	1670.25
265.661	1650.25
265.894	1753.25
266.126	1718.25
266.358	1761.25
266.591	1772.25
266.823	1824.25
267.055	1855.25
267.287	1859.25
267.52	1801.25
267.752	1826.25
267.984	1829.25
268.216	1903.25
268.448	1906.25
268.681	1991.25
268.913	2111.25
269.145	2273.25
269.377	2272.25
269.609	2242.25
269.841	2217.25
270.073	2302.25
270.306	2596.25
270.538	2633.25
270.77	2587.25
271.002	2378.25
271.234	2446.25
271.466	2517.25
271.698	2639.25
271.93	2652.25
272.162	2638.25
272.394	2557.25
272.626	2389.25
272.858	2297.25
273.09	2258.25
273.322	2232.25
273.553	2153.25
273.785	2198.25
274.017	2194.25
274.249	2223.25
274.481	2227.25
274.713	2262.25
274.945	2264.25
275.176	2296.25
275.408	2259.25
275.64	2305.25
275.872	2273.25
276.104	2257.25
276.335	2283.25
276.567	2387.25
276.799	2573.25
277.031	2744.25
277.262	2842.25
277.494	2745.25
277.726	2595.25
277.957	2468.25
278.189	2454.25
278.421	2377.25
278.652	2404.25
278.884	2350.25
279.115	2345.25
279.347	2402.25
279.579	2401.25
279.81	2453.25
280.042	2364.25
280.273	2476.25
280.505	2502.25
280.736	2466.25
280.968	2457.25
281.199	2449.25
281.431	2458.25
281.662	2457.25
281.894	2472.25
282.125	2535.25
282.356	2663.25
282.588	2826.25
282.819	2655.25
283.051	2525.25
283.282	2507.25
283.513	2548.25
283.745	2596.25
283.976	2612.25
284.207	2608.25
284.439	2592.25
284.67	2615.25
284.901	2649.25
285.132	2610.25
285.364	2604.25
285.595	2586.25
285.826	2616.25
286.057	2636.25
286.288	2639.25
286.52	2660.25
286.751	2660.25
286.982	2718.25
287.213	2722.25
287.444	2741.25
287.675	2826.25
287.906	2865.25
288.138	2892.25
288.369	2921.25
288.6	2911.25
288.831	2856.25
289.062	2821.25
289.293	2836.25
289.524	2800.25
289.755	2822.25
289.986	2820.25
290.217	2800.25
290.448	2806.25
290.679	2857.25
290.91	2794.25
291.141	2754.25
291.371	2767.25
291.602	2830.25
291.833	2785.25
292.064	2822.25
292.295	2824.25
292.526	2831.25
292.757	2822.25
292.987	2804.25
293.218	2753.25
293.449	2856.25
293.68	2855.25
293.91	2816.25
294.141	2781.25
294.372	2842.25
294.603	2869.25
294.833	2868.25
295.064	2866.25
295.295	2853.25
295.525	2903.25
295.756	2961.25
295.987	2997.25
296.217	3162.25
296.448	3140.25
296.679	2971.25
296.909	2956.25
297.14	2910.25
297.37	3007.25
297.601	3053.25
297.831	3030.25
298.062	3017.25
298.292	3058.25
298.523	3088.25
298.753	3176.25
298.984	3051.25
299.214	3087.25
299.445	3090.25
299.675	3135.25
299.905	3129.25
300.136	3121.25
300.366	3193.25
300.597	3180.25
300.827	3289.25
301.057	3376.25
301.288	3409.25
301.518	3319.25
301.748	3278.25
301.979	3374.25
302.209	3364.25
302.439	3391.25
302.669	3290.25
302.9	3303.25
303.13	3288.25
303.36	3337.25
303.59	3388.25
303.82	3440.25
304.051	3346.25
304.281	3331.25
304.511	3264.25
304.741	3324.25
304.971	3298.25
305.201	3180.25
305.431	3269.25
305.661	3315.25
305.891	3284.25
306.121	3286.25
306.352	3358.25
306.582	3269.25
306.812	3246.25
307.042	3356.25
307.272	3345.25
307.502	3302.25
307.731	3308.25
307.961	3287.25
308.191	3279.25
308.421	3294.25
308.651	3332.25
308.881	3376.25
309.111	3372.25
309.341	3396.25
309.571	3450.25
309.8	3516.25
310.03	3560.25
310.26	3646.25
310.49	3541.25
310.72	3746.25
310.949	3781.25
311.179	3750.25
311.409	3658.25
311.639	3652.25
311.868	3647.25
312.098	3698.25
312.328	3775.25
312.557	3852.25
312.787	3976.25
313.017	3876.25
313.246	3751.25
313.476	3750.25
313.706	3826.25
313.935	3896.25
314.165	3920.25
314.394	3934.25
314.624	3959.25
314.853	3799.25
315.083	3800.25
315.312	3754.25
315.542	3744.25
315.771	3682.25
316.001	3665.25
316.23	3670.25
316.46	3687.25
316.689	3696.25
316.919	3740.25
317.148	3840.25
317.377	3837.25
317.607	3719.25
317.836	3664.25
318.065	3693.25
318.295	3701.25
318.524	3696.25
318.753	3664.25
318.983	3716.25
319.212	3714.25
319.441	3805.25
319.67	3847.25
319.9	3744.25
320.129	3742.25
320.358	3714.25
320.587	3782.25
320.816	3851.25
321.046	3851.25
321.275	3789.25
321.504	3873.25
321.733	3892.25
321.962	3971.25
322.191	4026.25
322.42	4138.25
322.649	4183.25
322.878	4240.25
323.108	4378.25
323.337	4583.25
323.566	4744.25
323.795	5032.25
324.024	5645.25
324.253	7375.25
324.482	10994.25
324.71	15253.25
324.939	15610.25
325.168	12754.25
325.397	6506.25
325.626	5316.25
325.855	4970.25
326.084	4852.25
326.313	4930.25
326.542	5083.25
326.77	5646.25
326.999	7173.25
327.228	10428.25
327.457	14304.25
327.686	13438.25
327.914	7505.25
328.143	6222.25
328.372	5980.25
328.6	5609.25
328.829	5511.25
329.058	5653.25
329.287	5569.25
329.515	5332.25
329.744	5358.25
329.972	5641.25
330.201	6221.25
330.43	6708.25
330.658	6238.25
330.887	6111.25
331.115	5597.25
331.344	5192.25
331.572	5152.25
331.801	5225.25
332.03	5146.25
332.258	5106.25
332.486	5166.25
332.715	5295.25
332.943	5445.25
333.172	5705.25
333.4	5776.25
333.629	5996.25
333.857	6286.25
334.085	6652.25
334.314	7179.25
334.542	7793.25
334.771	7423.25
334.999	6200.25
335.227	5732.25
335.455	5524.25
335.684	5274.25
335.912	5200.25
336.14	5104.25
336.369	5081.25
336.597	5165.25
336.825	5006.25
337.053	4980.25
337.281	4898.25
337.51	4837.25
337.738	4841.25
337.966	4774.25
338.194	4706.25
338.422	4740.25
338.65	4613.25
338.878	4600.25
339.106	4639.25
339.334	4581.25
339.562	4472.25
339.79	4470.25
340.018	4512.25
340.246	4385.25
340.474	4468.25
340.702	4453.25
340.93	4465.25
341.158	4414.25
341.386	4423.25
341.614	4412.25
341.842	4413.25
342.07	4341.25
342.298	4352.25
342.526	4378.25
342.754	4269.25
342.981	4355.25
343.209	4516.25
343.437	4704.25
343.665	4974.25
343.893	5249.25
344.12	5182.25
344.348	5024.25
344.576	4832.25
344.804	4776.25
345.031	4599.25
345.259	4621.25
345.487	4500.25
345.714	4399.25
345.942	4311.25
346.17	4307.25
346.397	4216.25
346.625	4303.25
346.853	4242.25
347.08	4262.25
347.308	4311.25
347.535	4337.25
347.763	4335.25
347.99	4359.25
348.218	4308.25
348.445	4360.25
348.673	4270.25
348.9	4176.25
349.128	4185.25
349.355	4093.25
349.583	4149.25
349.81	4194.25
350.037	4106.25
350.265	4087.25
350.492	4058.25
350.72	4145.25
350.947	4201.25
351.174	4244.25
351.402	4250.25
351.629	4169.25
351.856	4182.25
352.083	4234.25
352.311	4239.25
352.538	4266.25
352.765	4266.25
352.992	4175.25
353.22	4170.25
353.447	4141.25
353.674	4049.25
353.901	4070.25
354.128	4024.25
354.355	4040.25
354.583	3977.25
354.81	3953.25
355.037	4003.25
355.264	4004.25
355.491	4005.25
355.718	4012.25
355.945	3979.25
356.172	4026.25
356.399	4012.25
356.626	4065.25
356.853	4052.25
357.08	3970.25
357.307	3986.25
357.534	3989.25
357.761	3982.25
357.988	3997.25
358.215	4039.25
358.441	4035.25
358.668	4047.25
358.895	4094.25
359.122	4122.25
359.349	4198.25
359.576	4300.25
359.802	4500.25
360.029	4593.25
360.256	4545.25
360.483	4383.25
360.709	4269.25
360.936	4254.25
361.163	4241.25
361.39	4257.25
361.616	4298.25
361.843	4199.25
362.07	4212.25
362.296	4273.25
362.523	4202.25
362.749	4203.25
362.976	4151.25
363.203	4213.25
363.429	4126.25
363.656	4097.25
363.882	4124.25
364.109	4092.25
364.335	4089.25
364.562	4055.25
364.788	4116.25
365.015	4111.25
365.241	4056.25
365.468	4124.25
365.694	4171.25
365.92	4171.25
366.147	4082.25
366.373	4119.25
366.599	4086.25
366.826	4079.25
367.052	4000.25
367.278	4136.25
367.505	4122.25
367.731	4161.25
367.957	4105.25
368.184	4205.25
368.41	4234.25
368.636	4280.25
368.862	4209.25
369.089	4203.25
369.315	4171.25
369.541	4097.25
369.767	4151.25
369.993	4171.25
370.219	4239.25
370.445	4249.25
370.672	4312.25
370.898	4264.25
371.124	4318.25
371.35	4319.25
371.576	4422.25
371.802	4308.25
372.028	4363.25
372.254	4344.25
372.48	4447.25
372.706	4490.25
372.932	4477.25
373.158	4498.25
373.384	4436.25
373.61	4379.25
373.835	4364.25
374.061	4430.25
374.287	4518.25
374.513	4479.25
374.739	4674.25
374.965	4809.25
375.191	4768.25
375.416	4692.25
375.642	4588.25
375.868	4556.25
376.094	4437.25
376.319	4422.25
376.545	4442.25
376.771	4368.25
376.997	4362.25
377.222	4305.25
377.448	4327.25
377.674	4297.25
377.899	4301.25
378.125	4309.25
378.35	4260.25
378.576	4287.25
378.802	4279.25
379.027	4322.25
379.253	4266.25
379.478	4280.25
379.704	4277.25
379.929	4340.25
380.155	4310.25
380.38	4340.25
380.606	4392.25
380.831	4331.25
381.057	4408.25
381.282	4361.25
381.507	4439.25
381.733	4459.25
381.958	4424.25
382.184	4510.25
382.409	4551.25
382.634	4536.25
382.86	4599.25
383.085	4682.25
383.31	4703.25
383.535	4825.25
383.761	4809.25
383.986	4878.25
384.211	5010.25
384.436	5056.25
384.662	5176.25
384.887	5152.25
385.112	5236.25
385.337	5234.25
385.562	5168.25
385.787	5265.25
386.013	5265.25
386.238	5318.25
386.463	5324.25
386.688	5310.25
386.913	5181.25
387.138	5206.25
387.363	5196.25
387.588	5109.25
387.813	5200.25
388.038	5206.25
388.263	5259.25
388.488	5227.25
388.713	5268.25
388.938	5210.25
389.163	5127.25
389.387	5186.25
389.612	5090.25
389.837	5112.25
390.062	5134.25
390.287	5164.25
390.512	5074.25
390.736	5193.25
390.961	5275.25
391.186	5347.25
391.411	5550.25
391.636	5641.25
391.86	5900.25
392.085	5879.25
392.31	5806.25
392.534	5631.25
392.759	5532.25
392.984	5438.25
393.208	5369.25
393.433	5415.25
393.658	5380.25
393.882	5379.25
394.107	5491.25
394.331	5548.25
394.556	5517.25
394.78	5524.25
395.005	5600.25
395.229	5532.25
395.454	5748.25
395.678	5862.25
395.903	5833.25
396.127	5897.25
396.352	5675.25
396.576	5515.25
396.801	5516.25
397.025	5632.25
397.249	5748.25
397.474	5916.25
397.698	5939.25
397.922	5995.25
398.147	6105.25
398.371	6162.25
398.595	6389.25
398.82	6634.25
399.044	7231.25
399.268	7935.25
399.492	9088.25
399.717	9701.25
399.941	9442.25
400.165	8759.25
400.389	8113.25
400.613	7306.25
400.837	6876.25
401.062	6659.25
401.286	6593.25
401.51	6510.25
401.734	6557.25
401.958	6641.25
402.182	6849.25
402.406	6896.25
402.63	6930.25
402.854	7103.25
403.078	7110.25
403.302	7241.25
403.526	7424.25
403.75	7472.25
403.974	7579.25
404.198	7549.25
404.422	7712.25
404.645	7662.25
404.869	7650.25
405.093	8088.25
405.317	8416.25
405.541	8376.25
405.765	7762.25
405.988	7485.25
406.212	7586.25
406.436	7701.25
406.66	7874.25
406.883	7860.25
407.107	8439.25
407.331	8914.25
407.555	9377.25
407.778	9072.25
408.002	8326.25
408.226	7932.25
408.449	7781.25
408.673	7656.25
408.896	7821.25
409.12	7995.25
409.344	7637.25
409.567	7250.25
409.791	7176.25
410.014	7121.25
410.238	7017.25
410.461	7055.25
410.685	7188.25
410.908	7238.25
411.132	7449.25
411.355	7415.25
411.578	7086.25
411.802	6937.25
412.025	6996.25
412.249	7287.25
412.472	7566.25
412.695	7943.25
412.919	7422.25
413.142	6986.25
413.365	6874.25
413.589	6782.25
413.812	6582.25
414.035	6434.25
414.258	6554.25
414.482	6594.25
414.705	6574.25
414.928	6513.25
415.151	6454.25
415.374	6411.25
415.597	6412.25
415.821	6367.25
416.044	6318.25
416.267	6355.25
416.49	6332.25
416.713	6233.25
416.936	6353.25
417.159	6432.25
417.382	6554.25
417.605	6436.25
417.828	6620.25
418.051	6741.25
418.274	6594.25
418.497	6538.25
418.72	6681.25
418.943	6623.25
419.166	7036.25
419.389	7363.25
419.611	7321.25
419.834	7174.25
420.057	7142.25
420.28	7095.25
420.503	6941.25
420.726	6929.25
420.948	6837.25
421.171	7218.25
421.394	7144.25
421.617	6708.25
421.839	6633.25
422.062	6834.25
422.285	6853.25
422.507	7507.25
422.73	7968.25
422.953	7375.25
423.175	6998.25
423.398	7139.25
423.621	7017.25
423.843	7362.25
424.066	7253.25
424.288	7177.25
424.511	7427.25
424.733	7777.25
424.956	8236.25
425.178	7705.25
425.401	7872.25
425.623	7839.25
425.846	6889.25
426.068	6737.25
426.291	6626.25
426.513	6611.25
426.735	6700.25
426.958	7184.25
427.18	7951.25
427.402	9031.25
427.625	9150.25
427.847	7945.25
428.069	7512.25
428.292	6672.25
428.514	6208.25
428.736	6062.25
428.958	6006.25
429.181	5850.25
429.403	5817.25
429.625	5962.25
429.847	6340.25
430.069	6860.25
430.292	6380.25
430.514	5824.25
430.736	5804.25
430.958	5823.25
431.18	5796.25
431.402	5729.25
431.624	5695.25
431.846	5794.25
432.068	5785.25
432.29	5872.25
432.512	5830.25
432.734	5825.25
432.956	5809.25
433.178	5828.25
433.4	5869.25
433.622	5754.25
433.844	5859.25
434.066	5790.25
434.287	5925.25
434.509	6197.25
434.731	6379.25
434.953	6496.25
435.175	6608.25
435.397	6713.25
435.618	6670.25
435.84	7049.25
436.062	7800.25
436.284	7669.25
436.505	6541.25
436.727	6257.25
436.949	6020.25
437.17	5871.25
437.392	5791.25
437.614	6017.25
437.835	6377.25
438.057	7330.25
438.278	7913.25
438.5	7937.25
438.721	8682.25
438.943	7569.25
439.165	6361.25
439.386	6231.25
439.608	6219.25
439.829	6400.25
440.05	6687.25
440.272	7016.25
440.493	6423.25
440.715	6189.25
440.936	6124.25
441.158	6187.25
441.379	6313.25
441.6	6607.25
441.822	6819.25
442.043	7276.25
442.264	8127.25
442.486	7782.25
442.707	6864.25
442.928	6778.25
443.149	6841.25
443.371	7139.25
443.592	7701.25
443.813	8592.25
444.034	8543.25
444.255	7506.25
444.476	7405.25
444.698	7503.25
444.919	7676.25
445.14	7407.25
445.361	7296.25
445.582	7365.25
445.803	7909.25
446.024	8580.25
446.245	8134.25
446.466	7369.25
446.687	6458.25
446.908	6108.25
447.129	5872.25
447.35	5683.25
447.571	5687.25
447.792	5519.25
448.013	5648.25
448.234	5893.25
448.455	6578.25
448.675	7688.25
448.896	8068.25
449.117	6647.25
449.338	6997.25
449.559	8220.25
449.779	8415.25
450	6407.25
450.221	5768.25
450.442	5601.25
450.662	5447.25
450.883	5582.25
451.104	5672.25
451.324	5464.25
451.545	5380.25
451.766	5208.25
451.986	5118.25
452.207	5139.25
452.428	5080.25
452.648	5141.25
452.869	5110.25
453.089	5183.25
453.31	5234.25
453.53	5098.25
453.751	5094.25
453.971	5127.25
454.192	5252.25
454.412	4970.25
454.633	4950.25
454.853	4929.25
455.073	4948.25
455.294	5391.25
455.514	5881.25
455.734	5346.25
455.955	4842.25
456.175	4753.25
456.395	4704.25
456.616	4679.25
456.836	4665.25
457.056	4676.25
457.276	4655.25
457.497	4809.25
457.717	4832.25
457.937	4869.25
458.157	4847.25
458.377	4985.25
458.598	5409.25
458.818	5972.25
459.038	6737.25
459.258	6571.25
459.478	5936.25
459.698	5806.25
459.918	5956.25
460.138	6114.25
460.358	6407.25
460.578	6385.25
460.798	6336.25
461.018	6447.25
461.238	6307.25
461.458	6337.25
461.678	6199.25
461.898	6394.25
462.118	6446.25
462.338	6818.25
462.558	6945.25
462.777	7238.25
462.997	7918.25
463.217	8280.25
463.437	7983.25
463.657	7462.25
463.876	7186.25
464.096	7319.25
464.316	7333.25
464.536	7326.25
464.755	7079.25
464.975	6911.25
465.195	7139.25
465.414	7021.25
465.634	6342.25
465.854	6006.25
466.073	5760.25
466.293	5604.25
466.512	5400.25
466.732	5274.25
466.951	5255.25
467.171	5359.25
467.391	5390.25
467.61	5422.25
467.829	5438.25
468.049	5464.25
468.268	5536.25
468.488	5289.25
468.707	5164.25
468.927	5144.25
469.146	5108.25
469.365	5111.25
469.585	5173.25
469.804	5341.25
470.023	5597.25
470.243	5480.25
470.462	5608.25
470.681	5733.25
470.901	5612.25
471.12	5398.25
471.339	5418.25
471.558	5405.25
471.777	5327.25
471.997	5296.25
472.216	5768.25
472.435	6456.25
472.654	5782.25
472.873	5362.25
473.092	5315.25
473.311	5210.25
473.53	5192.25
473.749	5302.25
473.968	5830.25
474.187	6701.25
474.406	6284.25
474.625	5394.25
474.844	5178.25
475.063	5124.25
475.282	5113.25
475.501	5185.25
475.72	5282.25
475.939	5384.25
476.158	5279.25
476.377	5274.25
476.596	5289.25
476.814	5464.25
477.033	5512.25
477.252	5545.25
477.471	5701.25
477.69	5768.25
477.908	5928.25
478.127	6005.25
478.346	6109.25
478.564	6209.25
478.783	6267.25
479.002	6486.25
479.22	6392.25
479.439	6552.25
479.658	6605.25
479.876	6740.25
480.095	6949.25
480.313	7318.25
480.532	7262.25
480.751	7186.25
480.969	7641.25
481.188	9034.25
481.406	8793.25
481.624	7324.25
481.843	6797.25
482.061	6524.25
482.28	6258.25
482.498	6281.25
482.717	6215.25
482.935	6101.25
483.153	5988.25
483.372	6065.25
483.59	5992.25
483.808	6059.25
484.027	5948.25
484.245	6177.25
484.463	6153.25
484.681	6242.25
484.9	6301.25
485.118	6312.25
485.336	6347.25
485.554	6351.25
485.772	6389.25
485.99	6480.25
486.209	6511.25
486.427	6499.25
486.645	6575.25
486.863	6749.25
487.081	6558.25
487.299	6618.25
487.517	6560.25
487.735	6531.25
487.953	6381.25
