Data from Circ_2003_H10_HRD10591_00010.txt Node
Date: Wed Jan 03 10:37:04 EST 2024
User: Yrep
Spectrometer: HR+D1059
Trigger mode: 1
Integration Time (sec): 1.000000E-1
Scans to average: 1
Electric dark correction enabled: true
Nonlinearity correction enabled: false
Boxcar width: 0
XAxis mode: Wavelengths
Number of Pixels in Spectrum: 2048
>>>>>Begin Spectral Data<<<<<
223.165	-23.31
223.4	-23.31
223.635	-23.31
223.869	-20.31
224.104	-16.31
224.338	-19.31
224.573	-4.31
224.808	-10.31
225.042	-8.31
225.277	-8.31
225.511	5.69
225.746	10.69
225.98	3.69
226.215	14.69
226.449	6.69
226.683	8.69
226.918	27.69
227.152	32.69
227.387	32.69
227.621	48.69
227.856	48.69
228.09	40.69
228.324	28.69
228.559	54.69
228.793	58.69
229.027	55.69
229.262	64.69
229.496	57.69
229.73	83.69
229.964	77.69
230.199	64.69
230.433	56.69
230.667	72.69
230.901	83.69
231.136	81.69
231.37	89.69
231.604	80.69
231.838	85.69
232.072	78.69
232.306	69.69
232.541	76.69
232.775	74.69
233.009	83.69
233.243	80.69
233.477	82.69
233.711	81.69
233.945	78.69
234.179	78.69
234.413	60.69
234.647	77.69
234.881	79.69
235.115	78.69
235.349	70.69
235.583	88.69
235.817	76.69
236.051	80.69
236.285	90.69
236.519	77.69
236.753	86.69
236.987	79.69
237.221	87.69
237.455	84.69
237.689	80.69
237.922	67.69
238.156	65.69
238.39	78.69
238.624	72.69
238.858	86.69
239.091	72.69
239.325	78.69
239.559	68.69
239.793	77.69
240.027	87.69
240.26	84.69
240.494	81.69
240.728	79.69
240.961	80.69
241.195	88.69
241.429	93.69
241.662	77.69
241.896	73.69
242.13	86.69
242.363	58.69
242.597	79.69
242.83	84.69
243.064	68.69
243.298	91.69
243.531	83.69
243.765	75.69
243.998	80.69
244.232	69.69
244.465	81.69
244.699	72.69
244.932	67.69
245.166	85.69
245.399	74.69
245.633	68.69
245.866	76.69
246.099	78.69
246.333	80.69
246.566	93.69
246.8	88.69
247.033	80.69
247.266	81.69
247.5	88.69
247.733	79.69
247.966	80.69
248.2	81.69
248.433	82.69
248.666	87.69
248.899	90.69
249.133	90.69
249.366	80.69
249.599	80.69
249.832	85.69
250.066	73.69
250.299	79.69
250.532	81.69
250.765	90.69
250.998	78.69
251.231	79.69
251.465	84.69
251.698	79.69
251.931	88.69
252.164	71.69
252.397	81.69
252.63	88.69
252.863	83.69
253.096	88.69
253.329	97.69
253.562	72.69
253.795	69.69
254.028	82.69
254.261	65.69
254.494	79.69
254.727	74.69
254.96	97.69
255.193	71.69
255.426	74.69
255.659	78.69
255.892	78.69
256.124	80.69
256.357	85.69
256.59	62.69
256.823	84.69
257.056	82.69
257.289	88.69
257.521	80.69
257.754	81.69
257.987	87.69
258.22	81.69
258.452	92.69
258.685	82.69
258.918	80.69
259.151	87.69
259.383	87.69
259.616	79.69
259.849	81.69
260.081	86.69
260.314	71.69
260.547	89.69
260.779	80.69
261.012	88.69
261.244	77.69
261.477	78.69
261.71	101.69
261.942	96.69
262.175	104.69
262.407	89.69
262.64	88.69
262.872	92.69
263.105	80.69
263.337	87.69
263.57	90.69
263.802	76.69
264.035	74.69
264.267	78.69
264.499	78.69
264.732	73.69
264.964	86.69
265.197	88.69
265.429	83.69
265.661	76.69
265.894	70.69
266.126	84.69
266.358	75.69
266.591	71.69
266.823	76.69
267.055	93.69
267.287	78.69
267.52	81.69
267.752	77.69
267.984	77.69
268.216	84.69
268.448	80.69
268.681	88.69
268.913	96.69
269.145	82.69
269.377	84.69
269.609	86.69
269.841	84.69
270.073	89.69
270.306	84.69
270.538	79.69
270.77	82.69
271.002	82.69
271.234	87.69
271.466	88.69
271.698	86.69
271.93	80.69
272.162	82.69
272.394	95.69
272.626	94.69
272.858	78.69
273.09	74.69
273.322	70.69
273.553	69.69
273.785	72.69
274.017	82.69
274.249	101.69
274.481	77.69
274.713	101.69
274.945	90.69
275.176	85.69
275.408	82.69
275.64	80.69
275.872	100.69
276.104	85.69
276.335	80.69
276.567	96.69
276.799	103.69
277.031	88.69
277.262	97.69
277.494	106.69
277.726	77.69
277.957	74.69
278.189	84.69
278.421	85.69
278.652	82.69
278.884	80.69
279.115	84.69
279.347	82.69
279.579	85.69
279.81	97.69
280.042	92.69
280.273	85.69
280.505	95.69
280.736	84.69
280.968	92.69
281.199	76.69
281.431	104.69
281.662	99.69
281.894	91.69
282.125	97.69
282.356	100.69
282.588	115.69
282.819	115.69
283.051	86.69
283.282	85.69
283.513	84.69
283.745	87.69
283.976	88.69
284.207	101.69
284.439	86.69
284.67	90.69
284.901	88.69
285.132	99.69
285.364	80.69
285.595	90.69
285.826	86.69
286.057	73.69
286.288	90.69
286.52	78.69
286.751	102.69
286.982	85.69
287.213	72.69
287.444	88.69
287.675	96.69
287.906	82.69
288.138	93.69
288.369	88.69
288.6	89.69
288.831	84.69
289.062	78.69
289.293	75.69
289.524	97.69
289.755	87.69
289.986	87.69
290.217	83.69
290.448	88.69
290.679	73.69
290.91	85.69
291.141	90.69
291.371	76.69
291.602	80.69
291.833	84.69
292.064	94.69
292.295	75.69
292.526	93.69
292.757	70.69
292.987	92.69
293.218	97.69
293.449	83.69
293.68	90.69
293.91	83.69
294.141	100.69
294.372	86.69
294.603	97.69
294.833	86.69
295.064	102.69
295.295	83.69
295.525	102.69
295.756	93.69
295.987	109.69
296.217	125.69
296.448	120.69
296.679	89.69
296.909	80.69
297.14	89.69
297.37	76.69
297.601	79.69
297.831	86.69
298.062	72.69
298.292	82.69
298.523	80.69
298.753	89.69
298.984	97.69
299.214	88.69
299.445	89.69
299.675	90.69
299.905	99.69
300.136	100.69
300.366	85.69
300.597	83.69
300.827	89.69
301.057	89.69
301.288	101.69
301.518	89.69
301.748	83.69
301.979	111.69
302.209	88.69
302.439	90.69
302.669	84.69
302.9	84.69
303.13	87.69
303.36	86.69
303.59	80.69
303.82	110.69
304.051	90.69
304.281	78.69
304.511	85.69
304.741	78.69
304.971	96.69
305.201	90.69
305.431	97.69
305.661	90.69
305.891	82.69
306.121	96.69
306.352	95.69
306.582	97.69
306.812	97.69
307.042	79.69
307.272	103.69
307.502	95.69
307.731	103.69
307.961	94.69
308.191	91.69
308.421	89.69
308.651	92.69
308.881	101.69
309.111	86.69
309.341	80.69
309.571	85.69
309.8	84.69
310.03	91.69
310.26	89.69
310.49	84.69
310.72	87.69
310.949	98.69
311.179	106.69
311.409	82.69
311.639	90.69
311.868	90.69
312.098	102.69
312.328	89.69
312.557	103.69
312.787	108.69
313.017	99.69
313.246	83.69
313.476	89.69
313.706	99.69
313.935	96.69
314.165	100.69
314.394	86.69
314.624	100.69
314.853	99.69
315.083	89.69
315.312	96.69
315.542	91.69
315.771	86.69
316.001	87.69
316.23	93.69
316.46	85.69
316.689	98.69
316.919	94.69
317.148	89.69
317.377	90.69
317.607	80.69
317.836	83.69
318.065	89.69
318.295	101.69
318.524	82.69
318.753	88.69
318.983	91.69
319.212	96.69
319.441	104.69
319.67	102.69
319.9	102.69
320.129	82.69
320.358	98.69
320.587	80.69
320.816	85.69
321.046	89.69
321.275	104.69
321.504	94.69
321.733	90.69
321.962	96.69
322.191	98.69
322.42	97.69
322.649	101.69
322.878	99.69
323.108	108.69
323.337	108.69
323.566	119.69
323.795	140.69
324.024	198.69
324.253	356.69
324.482	758.69
324.71	1529.69
324.939	2000.69
325.168	728.69
325.397	220.69
325.626	135.69
325.855	119.69
326.084	108.69
326.313	119.69
326.542	148.69
326.77	217.69
326.999	441.69
327.228	859.69
327.457	1538.69
327.686	1194.69
327.914	324.69
328.143	177.69
328.372	129.69
328.6	102.69
328.829	115.69
329.058	108.69
329.287	122.69
329.515	101.69
329.744	106.69
329.972	95.69
330.201	85.69
330.43	118.69
330.658	109.69
330.887	111.69
331.115	120.69
331.344	91.69
331.572	78.69
331.801	110.69
332.03	99.69
332.258	89.69
332.486	92.69
332.715	108.69
332.943	82.69
333.172	81.69
333.4	103.69
333.629	101.69
333.857	107.69
334.085	88.69
334.314	103.69
334.542	93.69
334.771	90.69
334.999	73.69
335.227	89.69
335.455	97.69
335.684	87.69
335.912	85.69
336.14	105.69
336.369	91.69
336.597	99.69
336.825	96.69
337.053	71.69
337.281	90.69
337.51	88.69
337.738	87.69
337.966	89.69
338.194	88.69
338.422	95.69
338.65	73.69
338.878	89.69
339.106	104.69
339.334	108.69
339.562	102.69
339.79	90.69
340.018	98.69
340.246	78.69
340.474	100.69
340.702	98.69
340.93	79.69
341.158	91.69
341.386	85.69
341.614	98.69
341.842	101.69
342.07	102.69
342.298	94.69
342.526	87.69
342.754	81.69
342.981	89.69
343.209	94.69
343.437	102.69
343.665	82.69
343.893	100.69
344.12	92.69
344.348	83.69
344.576	76.69
344.804	78.69
345.031	90.69
345.259	96.69
345.487	82.69
345.714	98.69
345.942	84.69
346.17	86.69
346.397	94.69
346.625	82.69
346.853	92.69
347.08	82.69
347.308	98.69
347.535	103.69
347.763	87.69
347.99	112.69
348.218	95.69
348.445	96.69
348.673	89.69
348.9	91.69
349.128	82.69
349.355	92.69
349.583	95.69
349.81	102.69
350.037	90.69
350.265	81.69
350.492	85.69
350.72	94.69
350.947	89.69
351.174	98.69
351.402	104.69
351.629	109.69
351.856	101.69
352.083	110.69
352.311	100.69
352.538	102.69
352.765	117.69
352.992	96.69
353.22	104.69
353.447	99.69
353.674	102.69
353.901	94.69
354.128	108.69
354.355	90.69
354.583	92.69
354.81	100.69
355.037	90.69
355.264	97.69
355.491	95.69
355.718	96.69
355.945	87.69
356.172	95.69
356.399	98.69
356.626	109.69
356.853	90.69
357.08	99.69
357.307	86.69
357.534	90.69
357.761	87.69
357.988	92.69
358.215	97.69
358.441	105.69
358.668	90.69
358.895	104.69
359.122	96.69
359.349	82.69
359.576	90.69
359.802	93.69
360.029	102.69
360.256	101.69
360.483	88.69
360.709	100.69
360.936	92.69
361.163	80.69
361.39	84.69
361.616	94.69
361.843	99.69
362.07	89.69
362.296	112.69
362.523	92.69
362.749	96.69
362.976	96.69
363.203	83.69
363.429	84.69
363.656	81.69
363.882	96.69
364.109	103.69
364.335	94.69
364.562	89.69
364.788	84.69
365.015	89.69
365.241	101.69
365.468	103.69
365.694	98.69
365.92	95.69
366.147	82.69
366.373	99.69
366.599	94.69
366.826	103.69
367.052	89.69
367.278	77.69
367.505	76.69
367.731	103.69
367.957	89.69
368.184	96.69
368.41	101.69
368.636	106.69
368.862	101.69
369.089	82.69
369.315	69.69
369.541	89.69
369.767	97.69
369.993	97.69
370.219	70.69
370.445	87.69
370.672	72.69
370.898	79.69
371.124	77.69
371.35	92.69
371.576	85.69
371.802	91.69
372.028	82.69
372.254	75.69
372.48	94.69
372.706	106.69
372.932	90.69
373.158	93.69
373.384	99.69
373.61	99.69
373.835	93.69
374.061	95.69
374.287	93.69
374.513	94.69
374.739	104.69
374.965	99.69
375.191	115.69
375.416	94.69
375.642	76.69
375.868	74.69
376.094	78.69
376.319	80.69
376.545	103.69
376.771	101.69
376.997	77.69
377.222	90.69
377.448	96.69
377.674	98.69
377.899	93.69
378.125	96.69
378.35	94.69
378.576	90.69
378.802	101.69
379.027	97.69
379.253	89.69
379.478	92.69
379.704	94.69
379.929	84.69
380.155	98.69
380.38	102.69
380.606	101.69
380.831	117.69
381.057	101.69
381.282	98.69
381.507	108.69
381.733	101.69
381.958	110.69
382.184	111.69
382.409	107.69
382.634	110.69
382.86	95.69
383.085	116.69
383.31	112.69
383.535	105.69
383.761	106.69
383.986	102.69
384.211	104.69
384.436	112.69
384.662	125.69
384.887	129.69
385.112	126.69
385.337	130.69
385.562	126.69
385.787	122.69
386.013	132.69
386.238	137.69
386.463	131.69
386.688	133.69
386.913	119.69
387.138	142.69
387.363	131.69
387.588	113.69
387.813	125.69
388.038	118.69
388.263	136.69
388.488	139.69
388.713	105.69
388.938	99.69
389.163	96.69
389.387	103.69
389.612	78.69
389.837	92.69
390.062	81.69
390.287	93.69
390.512	87.69
390.736	86.69
390.961	75.69
391.186	101.69
391.411	88.69
391.636	72.69
391.86	94.69
392.085	71.69
392.31	72.69
392.534	87.69
392.759	88.69
392.984	92.69
393.208	101.69
393.433	126.69
393.658	101.69
393.882	96.69
394.107	82.69
394.331	82.69
394.556	71.69
394.78	97.69
395.005	84.69
395.229	87.69
395.454	110.69
395.678	81.69
395.903	95.69
396.127	83.69
396.352	86.69
396.576	88.69
396.801	92.69
397.025	91.69
397.249	95.69
397.474	87.69
397.698	58.69
397.922	72.69
398.147	72.69
398.371	87.69
398.595	95.69
398.82	87.69
399.044	92.69
399.268	84.69
399.492	84.69
399.717	78.69
399.941	88.69
400.165	92.69
400.389	92.69
400.613	91.69
400.837	79.69
401.062	96.69
401.286	82.69
401.51	76.69
401.734	80.69
401.958	90.69
402.182	116.69
402.406	145.69
402.63	102.69
402.854	92.69
403.078	73.69
403.302	87.69
403.526	82.69
403.75	87.69
403.974	87.69
404.198	75.69
404.422	92.69
404.645	95.69
404.869	89.69
405.093	98.69
405.317	86.69
405.541	100.69
405.765	92.69
405.988	108.69
406.212	149.69
406.436	192.69
406.66	137.69
406.883	84.69
407.107	92.69
407.331	85.69
407.555	86.69
407.778	75.69
408.002	97.69
408.226	81.69
408.449	80.69
408.673	90.69
408.896	88.69
409.12	104.69
409.344	74.69
409.567	83.69
409.791	96.69
410.014	89.69
410.238	87.69
410.461	90.69
410.685	92.69
410.908	100.69
411.132	96.69
411.355	95.69
411.578	99.69
411.802	88.69
412.025	89.69
412.249	93.69
412.472	84.69
412.695	94.69
412.919	63.69
413.142	78.69
413.365	88.69
413.589	97.69
413.812	92.69
414.035	81.69
414.258	82.69
414.482	101.69
414.705	84.69
414.928	89.69
415.151	84.69
415.374	93.69
415.597	73.69
415.821	101.69
416.044	80.69
416.267	81.69
416.49	100.69
416.713	94.69
416.936	76.69
417.159	93.69
417.382	93.69
417.605	91.69
417.828	99.69
418.051	101.69
418.274	93.69
418.497	105.69
418.72	83.69
418.943	84.69
419.166	82.69
419.389	92.69
419.611	91.69
419.834	93.69
420.057	97.69
420.28	87.69
420.503	83.69
420.726	89.69
420.948	85.69
421.171	88.69
421.394	86.69
421.617	84.69
421.839	90.69
422.062	88.69
422.285	84.69
422.507	106.69
422.73	112.69
422.953	96.69
423.175	89.69
423.398	92.69
423.621	100.69
423.843	86.69
424.066	89.69
424.288	80.69
424.511	79.69
424.733	92.69
424.956	92.69
425.178	87.69
425.401	79.69
425.623	82.69
425.846	109.69
426.068	91.69
426.291	94.69
426.513	78.69
426.735	86.69
426.958	87.69
427.18	98.69
427.402	105.69
427.625	157.69
427.847	124.69
428.069	85.69
428.292	85.69
428.514	84.69
428.736	86.69
428.958	76.69
429.181	86.69
429.403	90.69
429.625	86.69
429.847	79.69
430.069	90.69
430.292	88.69
430.514	80.69
430.736	99.69
430.958	91.69
431.18	72.69
431.402	95.69
431.624	96.69
431.846	89.69
432.068	97.69
432.29	88.69
432.512	95.69
432.734	91.69
432.956	98.69
433.178	91.69
433.4	84.69
433.622	104.69
433.844	82.69
434.066	70.69
434.287	88.69
434.509	82.69
434.731	96.69
434.953	83.69
435.175	89.69
435.397	112.69
435.618	111.69
435.84	100.69
436.062	135.69
436.284	123.69
436.505	111.69
436.727	108.69
436.949	93.69
437.17	93.69
437.392	92.69
437.614	95.69
437.835	82.69
438.057	104.69
438.278	96.69
438.5	82.69
438.721	99.69
438.943	112.69
439.165	88.69
439.386	100.69
439.608	84.69
439.829	97.69
440.05	105.69
440.272	127.69
440.493	104.69
440.715	93.69
440.936	90.69
441.158	96.69
441.379	95.69
441.6	93.69
441.822	100.69
442.043	82.69
442.264	106.69
442.486	95.69
442.707	86.69
442.928	102.69
443.149	109.69
443.371	120.69
443.592	105.69
443.813	108.69
444.034	100.69
444.255	86.69
444.476	97.69
444.698	68.69
444.919	98.69
445.14	129.69
445.361	120.69
445.582	106.69
445.803	124.69
446.024	126.69
446.245	124.69
446.466	103.69
446.687	88.69
446.908	86.69
447.129	99.69
447.35	86.69
447.571	84.69
447.792	97.69
448.013	88.69
448.234	97.69
448.455	112.69
448.675	100.69
448.896	113.69
449.117	87.69
449.338	111.69
449.559	113.69
449.779	131.69
450	86.69
450.221	76.69
450.442	87.69
450.662	90.69
450.883	94.69
451.104	105.69
451.324	80.69
451.545	81.69
451.766	89.69
451.986	84.69
452.207	83.69
452.428	75.69
452.648	98.69
452.869	115.69
453.089	98.69
453.31	94.69
453.53	83.69
453.751	96.69
453.971	86.69
454.192	104.69
454.412	95.69
454.633	82.69
454.853	78.69
455.073	72.69
455.294	88.69
455.514	108.69
455.734	90.69
455.955	96.69
456.175	73.69
456.395	91.69
456.616	82.69
456.836	78.69
457.056	85.69
457.276	88.69
457.497	75.69
457.717	83.69
457.937	105.69
458.157	89.69
458.377	98.69
458.598	111.69
458.818	129.69
459.038	127.69
459.258	91.69
459.478	84.69
459.698	94.69
459.918	79.69
460.138	86.69
460.358	94.69
460.578	73.69
460.798	82.69
461.018	93.69
461.238	88.69
461.458	90.69
461.678	84.69
461.898	82.69
462.118	90.69
462.338	95.69
462.558	88.69
462.777	78.69
462.997	70.69
463.217	104.69
463.437	75.69
463.657	86.69
463.876	89.69
464.096	79.69
464.316	88.69
464.536	89.69
464.755	92.69
464.975	92.69
465.195	167.69
465.414	148.69
465.634	88.69
465.854	83.69
466.073	92.69
466.293	96.69
466.512	88.69
466.732	76.69
466.951	71.69
467.171	88.69
467.391	113.69
467.61	114.69
467.829	98.69
468.049	93.69
468.268	78.69
468.488	80.69
468.707	80.69
468.927	86.69
469.146	84.69
469.365	89.69
469.585	79.69
469.804	82.69
470.023	90.69
470.243	96.69
470.462	88.69
470.681	86.69
470.901	93.69
471.12	89.69
471.339	88.69
471.558	86.69
471.777	84.69
471.997	92.69
472.216	81.69
472.435	86.69
472.654	86.69
472.873	86.69
473.092	84.69
473.311	93.69
473.53	72.69
473.749	76.69
473.968	86.69
474.187	93.69
474.406	90.69
474.625	89.69
474.844	81.69
475.063	85.69
475.282	77.69
475.501	89.69
475.72	101.69
475.939	76.69
476.158	89.69
476.377	83.69
476.596	97.69
476.814	82.69
477.033	77.69
477.252	85.69
477.471	78.69
477.69	82.69
477.908	99.69
478.127	90.69
478.346	85.69
478.564	88.69
478.783	85.69
479.002	84.69
479.22	94.69
479.439	96.69
479.658	102.69
479.876	87.69
480.095	92.69
480.313	89.69
480.532	102.69
480.751	90.69
480.969	88.69
481.188	101.69
481.406	105.69
481.624	86.69
481.843	87.69
482.061	104.69
482.28	84.69
482.498	98.69
482.717	87.69
482.935	87.69
483.153	94.69
483.372	105.69
483.59	78.69
483.808	86.69
484.027	83.69
484.245	100.69
484.463	93.69
484.681	97.69
484.9	101.69
485.118	113.69
485.336	94.69
485.554	98.69
485.772	94.69
485.99	92.69
486.209	116.69
486.427	95.69
486.645	109.69
486.863	120.69
487.081	94.69
487.299	97.69
487.517	110.69
487.735	96.69
487.953	99.69
488.171	106.69
488.389	97.69
488.607	103.69
488.825	92.69
489.043	80.69
489.261	84.69
489.479	85.69
489.696	82.69
489.914	92.69
490.132	87.69
490.35	95.69
490.568	101.69
490.786	78.69
491.003	88.69
491.221	89.69
491.439	82.69
491.657	91.69
491.874	96.69
492.092	89.69
492.31	85.69
492.527	84.69
492.745	90.69
492.963	86.69
493.18	84.69
493.398	86.69
493.615	93.69
493.833	100.69
494.05	108.69
494.268	90.69
494.485	100.69
494.703	88.69
494.92	87.69
495.138	88.69
495.355	94.69
495.573	94.69
495.79	84.69
496.008	99.69
496.225	96.69
496.442	80.69
496.66	105.69
496.877	90.69
497.094	95.69
497.312	87.69
497.529	87.69
497.746	90.69
497.963	91.69
498.181	94.69
498.398	95.69
498.615	103.69
498.832	111.69
499.049	91.69
499.267	88.69
499.484	95.69
499.701	97.69
499.918	92.69
500.135	93.69
500.352	80.69
500.569	84.69
500.786	86.69
501.003	86.69
501.22	73.69
501.437	89.69
501.654	101.69
501.871	110.69
502.088	92.69
502.305	101.69
502.522	70.69
502.739	99.69
502.956	94.69
503.172	109.69
503.389	87.69
503.606	88.69
503.823	93.69
504.04	97.69
504.256	96.69
504.473	92.69
504.69	95.69
504.907	102.69
505.123	104.69
505.34	91.69
505.557	85.69
505.773	76.69
505.99	89.69
506.207	94.69
506.423	77.69
506.64	88.69
506.856	90.69
507.073	101.69
507.289	89.69
507.506	83.69
507.722	115.69
507.939	104.69
508.155	88.69
508.372	78.69
508.588	86.69
508.805	100.69
509.021	94.69
509.238	96.69
509.454	99.69
509.67	94.69
509.887	103.69
510.103	135.69
510.319	196.69
510.536	664.69
510.752	2033.69
510.968	580.69
511.184	149.69
511.401	109.69
511.617	94.69
511.833	95.69
512.049	95.69
512.265	81.69
512.481	86.69
512.698	89.69
512.914	94.69
513.13	102.69
513.346	109.69
513.562	93.69
513.778	92.69
513.994	94.69
514.21	100.69
514.426	110.69
514.642	124.69
514.858	113.69
515.074	144.69
515.29	360.69
515.506	1140.69
515.721	425.69
515.937	140.69
