Data from Circ_2003_H10_HRD10591_00045.txt Node
Date: Wed Jan 03 10:37:11 EST 2024
User: Yrep
Spectrometer: HR+D1059
Trigger mode: 1
Integration Time (sec): 1.000000E-1
Scans to average: 1
Electric dark correction enabled: true
Nonlinearity correction enabled: false
Boxcar width: 0
XAxis mode: Wavelengths
Number of Pixels in Spectrum: 2048
>>>>>Begin Spectral Data<<<<<
223.165	-24.69
223.4	-24.69
223.635	-24.69
223.869	-2.69
224.104	-25.69
224.338	-23.69
224.573	-23.69
224.808	-21.69
225.042	-10.69
225.277	-11.69
225.511	3.31
225.746	11.31
225.98	11.31
226.215	12.31
226.449	21.31
226.683	26.31
226.918	39.31
227.152	19.31
227.387	42.31
227.621	40.31
227.856	28.31
228.09	44.31
228.324	65.31
228.559	63.31
228.793	57.31
229.027	65.31
229.262	75.31
229.496	78.31
229.73	79.31
229.964	94.31
230.199	58.31
230.433	70.31
230.667	70.31
230.901	77.31
231.136	82.31
231.37	76.31
231.604	81.31
231.838	91.31
232.072	82.31
232.306	77.31
232.541	81.31
232.775	77.31
233.009	89.31
233.243	98.31
233.477	84.31
233.711	95.31
233.945	77.31
234.179	89.31
234.413	80.31
234.647	86.31
234.881	94.31
235.115	73.31
235.349	61.31
235.583	78.31
235.817	72.31
236.051	81.31
236.285	81.31
236.519	78.31
236.753	71.31
236.987	79.31
237.221	84.31
237.455	76.31
237.689	68.31
237.922	76.31
238.156	75.31
238.39	80.31
238.624	74.31
238.858	83.31
239.091	88.31
239.325	73.31
239.559	91.31
239.793	83.31
240.027	88.31
240.26	73.31
240.494	83.31
240.728	66.31
240.961	82.31
241.195	77.31
241.429	66.31
241.662	63.31
241.896	90.31
242.13	82.31
242.363	86.31
242.597	72.31
242.83	78.31
243.064	83.31
243.298	66.31
243.531	87.31
243.765	80.31
243.998	89.31
244.232	78.31
244.465	76.31
244.699	83.31
244.932	70.31
245.166	66.31
245.399	79.31
245.633	86.31
245.866	90.31
246.099	71.31
246.333	60.31
246.566	86.31
246.8	78.31
247.033	80.31
247.266	65.31
247.5	72.31
247.733	80.31
247.966	75.31
248.2	82.31
248.433	91.31
248.666	72.31
248.899	74.31
249.133	73.31
249.366	90.31
249.599	101.31
249.832	88.31
250.066	84.31
250.299	70.31
250.532	84.31
250.765	86.31
250.998	82.31
251.231	77.31
251.465	85.31
251.698	81.31
251.931	89.31
252.164	85.31
252.397	79.31
252.63	82.31
252.863	86.31
253.096	81.31
253.329	83.31
253.562	78.31
253.795	95.31
254.028	81.31
254.261	83.31
254.494	75.31
254.727	69.31
254.96	78.31
255.193	83.31
255.426	74.31
255.659	82.31
255.892	78.31
256.124	85.31
256.357	74.31
256.59	86.31
256.823	88.31
257.056	80.31
257.289	75.31
257.521	89.31
257.754	79.31
257.987	56.31
258.22	87.31
258.452	81.31
258.685	89.31
258.918	70.31
259.151	82.31
259.383	85.31
259.616	68.31
259.849	71.31
260.081	86.31
260.314	98.31
260.547	87.31
260.779	77.31
261.012	77.31
261.244	74.31
261.477	91.31
261.71	96.31
261.942	109.31
262.175	103.31
262.407	92.31
262.64	90.31
262.872	88.31
263.105	91.31
263.337	81.31
263.57	86.31
263.802	73.31
264.035	90.31
264.267	81.31
264.499	88.31
264.732	74.31
264.964	75.31
265.197	83.31
265.429	88.31
265.661	74.31
265.894	75.31
266.126	79.31
266.358	82.31
266.591	77.31
266.823	86.31
267.055	84.31
267.287	81.31
267.52	69.31
267.752	94.31
267.984	86.31
268.216	85.31
268.448	83.31
268.681	85.31
268.913	89.31
269.145	88.31
269.377	93.31
269.609	73.31
269.841	86.31
270.073	73.31
270.306	93.31
270.538	83.31
270.77	73.31
271.002	95.31
271.234	85.31
271.466	66.31
271.698	95.31
271.93	76.31
272.162	95.31
272.394	72.31
272.626	72.31
272.858	69.31
273.09	81.31
273.322	85.31
273.553	88.31
273.785	86.31
274.017	81.31
274.249	86.31
274.481	88.31
274.713	69.31
274.945	87.31
275.176	71.31
275.408	70.31
275.64	91.31
275.872	87.31
276.104	92.31
276.335	85.31
276.567	103.31
276.799	113.31
277.031	98.31
277.262	97.31
277.494	95.31
277.726	85.31
277.957	79.31
278.189	88.31
278.421	80.31
278.652	77.31
278.884	90.31
279.115	84.31
279.347	84.31
279.579	82.31
279.81	79.31
280.042	91.31
280.273	66.31
280.505	89.31
280.736	67.31
280.968	96.31
281.199	74.31
281.431	85.31
281.662	75.31
281.894	98.31
282.125	92.31
282.356	109.31
282.588	138.31
282.819	118.31
283.051	93.31
283.282	90.31
283.513	88.31
283.745	89.31
283.976	88.31
284.207	89.31
284.439	79.31
284.67	75.31
284.901	73.31
285.132	90.31
285.364	89.31
285.595	85.31
285.826	95.31
286.057	75.31
286.288	66.31
286.52	90.31
286.751	94.31
286.982	62.31
287.213	79.31
287.444	84.31
287.675	94.31
287.906	90.31
288.138	102.31
288.369	93.31
288.6	87.31
288.831	88.31
289.062	90.31
289.293	80.31
289.524	74.31
289.755	74.31
289.986	74.31
290.217	90.31
290.448	84.31
290.679	89.31
290.91	91.31
291.141	102.31
291.371	98.31
291.602	87.31
291.833	80.31
292.064	78.31
292.295	104.31
292.526	73.31
292.757	89.31
292.987	91.31
293.218	89.31
293.449	86.31
293.68	80.31
293.91	97.31
294.141	95.31
294.372	78.31
294.603	80.31
294.833	87.31
295.064	99.31
295.295	87.31
295.525	97.31
295.756	92.31
295.987	115.31
296.217	151.31
296.448	130.31
296.679	83.31
296.909	81.31
297.14	75.31
297.37	97.31
297.601	86.31
297.831	87.31
298.062	96.31
298.292	90.31
298.523	83.31
298.753	101.31
298.984	79.31
299.214	100.31
299.445	90.31
299.675	88.31
299.905	101.31
300.136	96.31
300.366	95.31
300.597	79.31
300.827	95.31
301.057	100.31
301.288	107.31
301.518	91.31
301.748	89.31
301.979	91.31
302.209	84.31
302.439	86.31
302.669	87.31
302.9	85.31
303.13	84.31
303.36	92.31
303.59	115.31
303.82	110.31
304.051	102.31
304.281	106.31
304.511	90.31
304.741	87.31
304.971	90.31
305.201	103.31
305.431	83.31
305.661	92.31
305.891	98.31
306.121	114.31
306.352	103.31
306.582	106.31
306.812	100.31
307.042	94.31
307.272	91.31
307.502	99.31
307.731	87.31
307.961	75.31
308.191	82.31
308.421	88.31
308.651	98.31
308.881	94.31
309.111	99.31
309.341	103.31
309.571	106.31
309.8	102.31
310.03	101.31
310.26	77.31
310.49	102.31
310.72	85.31
310.949	97.31
311.179	113.31
311.409	100.31
311.639	98.31
311.868	104.31
312.098	87.31
312.328	91.31
312.557	109.31
312.787	116.31
313.017	101.31
313.246	86.31
313.476	93.31
313.706	90.31
313.935	98.31
314.165	108.31
314.394	94.31
314.624	97.31
314.853	86.31
315.083	103.31
315.312	83.31
315.542	88.31
315.771	78.31
316.001	98.31
316.23	101.31
316.46	91.31
316.689	88.31
316.919	91.31
317.148	99.31
317.377	97.31
317.607	99.31
317.836	95.31
318.065	95.31
318.295	86.31
318.524	81.31
318.753	97.31
318.983	96.31
319.212	103.31
319.441	113.31
319.67	113.31
319.9	90.31
320.129	90.31
320.358	91.31
320.587	82.31
320.816	99.31
321.046	86.31
321.275	102.31
321.504	106.31
321.733	103.31
321.962	106.31
322.191	108.31
322.42	116.31
322.649	113.31
322.878	105.31
323.108	120.31
323.337	133.31
323.566	143.31
323.795	170.31
324.024	216.31
324.253	435.31
324.482	981.31
324.71	2061.31
324.939	2678.31
325.168	965.31
325.397	281.31
325.626	161.31
325.855	138.31
326.084	146.31
326.313	143.31
326.542	170.31
326.77	273.31
326.999	521.31
327.228	1148.31
327.457	2096.31
327.686	1620.31
327.914	409.31
328.143	214.31
328.372	145.31
328.6	115.31
328.829	122.31
329.058	122.31
329.287	124.31
329.515	95.31
329.744	102.31
329.972	109.31
330.201	126.31
330.43	123.31
330.658	125.31
330.887	148.31
331.115	100.31
331.344	101.31
331.572	94.31
331.801	98.31
332.03	106.31
332.258	99.31
332.486	90.31
332.715	92.31
332.943	92.31
333.172	90.31
333.4	93.31
333.629	103.31
333.857	131.31
334.085	110.31
334.314	107.31
334.542	128.31
334.771	119.31
334.999	99.31
335.227	106.31
335.455	97.31
335.684	101.31
335.912	102.31
336.14	96.31
336.369	104.31
336.597	99.31
336.825	101.31
337.053	79.31
337.281	88.31
337.51	88.31
337.738	88.31
337.966	102.31
338.194	97.31
338.422	91.31
338.65	99.31
338.878	103.31
339.106	91.31
339.334	89.31
339.562	94.31
339.79	79.31
340.018	102.31
340.246	86.31
340.474	91.31
340.702	75.31
340.93	81.31
341.158	94.31
341.386	93.31
341.614	94.31
341.842	80.31
342.07	102.31
342.298	100.31
342.526	85.31
342.754	93.31
342.981	87.31
343.209	98.31
343.437	113.31
343.665	103.31
343.893	96.31
344.12	89.31
344.348	93.31
344.576	94.31
344.804	85.31
345.031	98.31
345.259	109.31
345.487	94.31
345.714	89.31
345.942	90.31
346.17	96.31
346.397	82.31
346.625	95.31
346.853	88.31
347.08	87.31
347.308	99.31
347.535	90.31
347.763	99.31
347.99	91.31
348.218	102.31
348.445	113.31
348.673	100.31
348.9	102.31
349.128	85.31
349.355	86.31
349.583	99.31
349.81	90.31
350.037	96.31
350.265	105.31
350.492	88.31
350.72	101.31
350.947	104.31
351.174	102.31
351.402	111.31
351.629	99.31
351.856	103.31
352.083	101.31
352.311	100.31
352.538	99.31
352.765	99.31
352.992	116.31
353.22	106.31
353.447	110.31
353.674	103.31
353.901	101.31
354.128	101.31
354.355	91.31
354.583	100.31
354.81	90.31
355.037	102.31
355.264	96.31
355.491	85.31
355.718	100.31
355.945	81.31
356.172	79.31
356.399	99.31
356.626	87.31
356.853	89.31
357.08	97.31
357.307	102.31
357.534	87.31
357.761	84.31
357.988	106.31
358.215	93.31
358.441	95.31
358.668	93.31
358.895	82.31
359.122	94.31
359.349	99.31
359.576	91.31
359.802	91.31
360.029	114.31
360.256	107.31
360.483	95.31
360.709	96.31
360.936	93.31
361.163	105.31
361.39	89.31
361.616	93.31
361.843	79.31
362.07	87.31
362.296	99.31
362.523	85.31
362.749	81.31
362.976	84.31
363.203	98.31
363.429	73.31
363.656	88.31
363.882	94.31
364.109	79.31
364.335	88.31
364.562	93.31
364.788	105.31
365.015	103.31
365.241	96.31
365.468	103.31
365.694	105.31
365.92	103.31
366.147	98.31
366.373	97.31
366.599	81.31
366.826	86.31
367.052	95.31
367.278	81.31
367.505	95.31
367.731	110.31
367.957	97.31
368.184	77.31
368.41	95.31
368.636	86.31
368.862	119.31
369.089	114.31
369.315	84.31
369.541	83.31
369.767	103.31
369.993	93.31
370.219	88.31
370.445	79.31
370.672	89.31
370.898	97.31
371.124	87.31
371.35	79.31
371.576	95.31
371.802	98.31
372.028	90.31
372.254	76.31
372.48	87.31
372.706	89.31
372.932	86.31
373.158	90.31
373.384	96.31
373.61	95.31
373.835	88.31
374.061	80.31
374.287	78.31
374.513	91.31
374.739	73.31
374.965	75.31
375.191	88.31
375.416	80.31
375.642	98.31
375.868	86.31
376.094	90.31
376.319	83.31
376.545	81.31
376.771	95.31
376.997	105.31
377.222	98.31
377.448	96.31
377.674	94.31
377.899	82.31
378.125	90.31
378.35	81.31
378.576	100.31
378.802	94.31
379.027	97.31
379.253	88.31
379.478	101.31
379.704	91.31
379.929	103.31
380.155	117.31
380.38	100.31
380.606	91.31
380.831	100.31
381.057	97.31
381.282	90.31
381.507	99.31
381.733	103.31
381.958	82.31
382.184	96.31
382.409	86.31
382.634	96.31
382.86	100.31
383.085	103.31
383.31	103.31
383.535	99.31
383.761	101.31
383.986	96.31
384.211	105.31
384.436	93.31
384.662	104.31
384.887	115.31
385.112	109.31
385.337	98.31
385.562	107.31
385.787	112.31
386.013	122.31
386.238	116.31
386.463	116.31
386.688	114.31
386.913	126.31
387.138	100.31
387.363	90.31
387.588	109.31
387.813	105.31
388.038	104.31
388.263	125.31
388.488	119.31
388.713	114.31
388.938	96.31
389.163	88.31
389.387	102.31
389.612	81.31
389.837	87.31
390.062	99.31
390.287	95.31
390.512	99.31
390.736	94.31
390.961	94.31
391.186	94.31
391.411	98.31
391.636	82.31
391.86	89.31
392.085	82.31
392.31	95.31
392.534	81.31
392.759	89.31
392.984	81.31
393.208	86.31
393.433	94.31
393.658	102.31
393.882	92.31
394.107	71.31
394.331	89.31
394.556	81.31
394.78	80.31
395.005	79.31
395.229	97.31
395.454	92.31
395.678	70.31
395.903	91.31
396.127	84.31
396.352	88.31
396.576	85.31
396.801	96.31
397.025	107.31
397.249	82.31
397.474	91.31
397.698	85.31
397.922	81.31
398.147	91.31
398.371	77.31
398.595	90.31
398.82	88.31
399.044	87.31
399.268	80.31
399.492	74.31
399.717	94.31
399.941	89.31
400.165	100.31
400.389	89.31
400.613	84.31
400.837	78.31
401.062	86.31
401.286	73.31
401.51	84.31
401.734	95.31
401.958	99.31
402.182	128.31
402.406	167.31
402.63	123.31
402.854	101.31
403.078	90.31
403.302	83.31
403.526	85.31
403.75	79.31
403.974	89.31
404.198	94.31
404.422	86.31
404.645	82.31
404.869	96.31
405.093	101.31
405.317	92.31
405.541	91.31
405.765	103.31
405.988	128.31
406.212	189.31
406.436	247.31
406.66	161.31
406.883	102.31
407.107	104.31
407.331	113.31
407.555	114.31
407.778	103.31
408.002	78.31
408.226	80.31
408.449	87.31
408.673	100.31
408.896	96.31
409.12	103.31
409.344	82.31
409.567	91.31
409.791	87.31
410.014	106.31
410.238	88.31
410.461	103.31
410.685	102.31
410.908	83.31
411.132	96.31
411.355	90.31
411.578	95.31
411.802	96.31
412.025	96.31
412.249	93.31
412.472	86.31
412.695	91.31
412.919	90.31
413.142	88.31
413.365	77.31
413.589	91.31
413.812	97.31
414.035	101.31
414.258	89.31
414.482	94.31
414.705	93.31
414.928	84.31
415.151	82.31
415.374	98.31
415.597	95.31
415.821	93.31
416.044	85.31
416.267	79.31
416.49	94.31
416.713	83.31
416.936	87.31
417.159	84.31
417.382	87.31
417.605	77.31
417.828	99.31
418.051	90.31
418.274	89.31
418.497	83.31
418.72	81.31
418.943	91.31
419.166	78.31
419.389	85.31
419.611	85.31
419.834	88.31
420.057	68.31
420.28	72.31
420.503	77.31
420.726	97.31
420.948	85.31
421.171	75.31
421.394	100.31
421.617	96.31
421.839	92.31
422.062	88.31
422.285	102.31
422.507	102.31
422.73	92.31
422.953	97.31
423.175	99.31
423.398	82.31
423.621	100.31
423.843	75.31
424.066	91.31
424.288	66.31
424.511	97.31
424.733	100.31
424.956	90.31
425.178	105.31
425.401	97.31
425.623	102.31
425.846	94.31
426.068	94.31
426.291	90.31
426.513	103.31
426.735	100.31
426.958	96.31
427.18	105.31
427.402	141.31
427.625	179.31
427.847	135.31
428.069	110.31
428.292	83.31
428.514	87.31
428.736	103.31
428.958	90.31
429.181	88.31
429.403	98.31
429.625	101.31
429.847	91.31
430.069	79.31
430.292	93.31
430.514	86.31
430.736	90.31
430.958	86.31
431.18	80.31
431.402	79.31
431.624	91.31
431.846	90.31
432.068	91.31
432.29	77.31
432.512	91.31
432.734	88.31
432.956	86.31
433.178	97.31
433.4	101.31
433.622	89.31
433.844	82.31
434.066	99.31
434.287	88.31
434.509	92.31
434.731	102.31
434.953	83.31
435.175	72.31
435.397	81.31
435.618	95.31
435.84	107.31
436.062	126.31
436.284	109.31
436.505	99.31
436.727	98.31
436.949	83.31
437.17	81.31
437.392	97.31
437.614	95.31
437.835	109.31
438.057	122.31
438.278	105.31
438.5	116.31
438.721	126.31
438.943	104.31
439.165	87.31
439.386	93.31
439.608	82.31
439.829	79.31
440.05	104.31
440.272	135.31
440.493	106.31
440.715	96.31
440.936	96.31
441.158	93.31
441.379	84.31
441.6	80.31
441.822	95.31
442.043	84.31
442.264	97.31
442.486	99.31
442.707	97.31
442.928	113.31
443.149	127.31
443.371	120.31
443.592	104.31
443.813	121.31
444.034	101.31
444.255	97.31
444.476	88.31
444.698	94.31
444.919	89.31
445.14	131.31
445.361	120.31
445.582	119.31
445.803	141.31
446.024	140.31
446.245	144.31
446.466	105.31
446.687	93.31
446.908	80.31
447.129	98.31
447.35	82.31
447.571	82.31
447.792	91.31
448.013	103.31
448.234	107.31
448.455	110.31
448.675	105.31
448.896	118.31
449.117	98.31
449.338	85.31
449.559	107.31
449.779	135.31
450	97.31
450.221	93.31
450.442	109.31
450.662	98.31
450.883	99.31
451.104	112.31
451.324	89.31
451.545	73.31
451.766	88.31
451.986	73.31
452.207	82.31
452.428	91.31
452.648	100.31
452.869	106.31
453.089	113.31
453.31	117.31
453.53	84.31
453.751	89.31
453.971	99.31
454.192	119.31
454.412	92.31
454.633	83.31
454.853	83.31
455.073	87.31
455.294	100.31
455.514	97.31
455.734	90.31
455.955	98.31
456.175	86.31
456.395	90.31
456.616	77.31
456.836	71.31
457.056	78.31
457.276	90.31
457.497	88.31
457.717	78.31
457.937	83.31
458.157	85.31
458.377	88.31
458.598	116.31
458.818	147.31
459.038	153.31
459.258	116.31
459.478	106.31
459.698	93.31
459.918	95.31
460.138	84.31
460.358	96.31
460.578	96.31
460.798	86.31
461.018	84.31
461.238	78.31
461.458	79.31
461.678	89.31
461.898	92.31
462.118	81.31
462.338	65.31
462.558	82.31
462.777	88.31
462.997	87.31
463.217	80.31
463.437	90.31
463.657	82.31
463.876	85.31
464.096	92.31
464.316	83.31
464.536	83.31
464.755	98.31
464.975	100.31
465.195	174.31
465.414	162.31
465.634	97.31
465.854	87.31
466.073	95.31
466.293	91.31
466.512	97.31
466.732	81.31
466.951	79.31
467.171	90.31
467.391	99.31
467.61	106.31
467.829	89.31
468.049	100.31
468.268	98.31
468.488	89.31
468.707	72.31
468.927	86.31
469.146	102.31
469.365	81.31
469.585	81.31
469.804	98.31
470.023	109.31
470.243	94.31
470.462	96.31
470.681	106.31
470.901	87.31
471.12	85.31
471.339	84.31
471.558	88.31
471.777	91.31
471.997	93.31
472.216	105.31
472.435	140.31
472.654	85.31
472.873	93.31
473.092	86.31
473.311	86.31
473.53	90.31
473.749	95.31
473.968	103.31
474.187	100.31
474.406	86.31
474.625	67.31
474.844	98.31
475.063	103.31
475.282	103.31
475.501	83.31
475.72	84.31
475.939	87.31
476.158	82.31
476.377	79.31
476.596	89.31
476.814	95.31
477.033	90.31
477.252	89.31
477.471	92.31
477.69	91.31
477.908	94.31
478.127	95.31
478.346	72.31
478.564	88.31
478.783	104.31
479.002	87.31
479.22	92.31
479.439	97.31
479.658	103.31
479.876	102.31
480.095	94.31
480.313	96.31
480.532	106.31
480.751	99.31
480.969	113.31
481.188	190.31
481.406	151.31
481.624	94.31
481.843	94.31
482.061	82.31
482.28	84.31
482.498	84.31
482.717	87.31
482.935	87.31
483.153	97.31
483.372	104.31
483.59	83.31
483.808	88.31
484.027	89.31
484.245	106.31
484.463	91.31
484.681	111.31
484.9	99.31
485.118	91.31
485.336	97.31
485.554	90.31
485.772	99.31
485.99	113.31
486.209	98.31
486.427	119.31
486.645	106.31
486.863	96.31
487.081	115.31
487.299	108.31
487.517	85.31
487.735	91.31
487.953	102.31
488.171	104.31
488.389	95.31
488.607	105.31
488.825	101.31
489.043	91.31
489.261	79.31
489.479	90.31
489.696	89.31
489.914	85.31
490.132	84.31
490.35	95.31
490.568	99.31
490.786	96.31
491.003	90.31
491.221	89.31
491.439	103.31
491.657	94.31
491.874	75.31
492.092	101.31
492.31	100.31
492.527	106.31
492.745	78.31
492.963	89.31
493.18	80.31
493.398	93.31
493.615	82.31
493.833	93.31
494.05	90.31
494.268	90.31
494.485	91.31
494.703	93.31
494.92	82.31
495.138	95.31
495.355	83.31
495.573	76.31
495.79	73.31
496.008	103.31
496.225	91.31
496.442	103.31
496.66	97.31
496.877	92.31
497.094	98.31
497.312	80.31
497.529	81.31
497.746	91.31
497.963	100.31
498.181	90.31
498.398	83.31
498.615	101.31
498.832	107.31
499.049	92.31
499.267	90.31
499.484	80.31
499.701	89.31
499.918	103.31
500.135	86.31
500.352	101.31
500.569	95.31
500.786	84.31
501.003	73.31
501.22	80.31
501.437	76.31
501.654	93.31
501.871	113.31
502.088	93.31
502.305	92.31
502.522	91.31
502.739	85.31
502.956	90.31
503.172	97.31
503.389	89.31
503.606	110.31
503.823	95.31
504.04	90.31
504.256	90.31
504.473	84.31
504.69	89.31
504.907	98.31
505.123	101.31
505.34	88.31
505.557	94.31
505.773	96.31
505.99	97.31
506.207	71.31
506.423	92.31
506.64	98.31
506.856	90.31
507.073	91.31
507.289	85.31
507.506	88.31
507.722	115.31
507.939	103.31
508.155	91.31
508.372	103.31
508.588	88.31
508.805	101.31
509.021	91.31
509.238	80.31
509.454	105.31
509.67	111.31
509.887	115.31
510.103	132.31
510.319	233.31
510.536	874.31
510.752	2911.31
510.968	809.31
511.184	167.31
511.401	105.31
511.617	92.31
511.833	102.31
512.049	88.31
512.265	97.31
512.481	100.31
512.698	84.31
512.914	85.31
513.13	103.31
513.346	92.31
513.562	91.31
513.778	99.31
513.994	96.31
514.21	100.31
514.426	126.31
514.642	131.31
514.858	111.31
515.074	165.31
515.29	474.31
