Data from Circ_2003_H10_HRD10591_00002.txt Node
Date: Wed Jan 03 10:37:03 EST 2024
User: Yrep
Spectrometer: HR+D1059
Trigger mode: 1
Integration Time (sec): 1.000000E-1
Scans to average: 1
Electric dark correction enabled: true
Nonlinearity correction enabled: false
Boxcar width: 0
XAxis mode: Wavelengths
Number of Pixels in Spectrum: 2048
>>>>>Begin Spectral Data<<<<<
223.165	-4.44
223.4	-4.44
223.635	-4.44
223.869	-18.44
224.104	-10.44
224.338	5.56
224.573	-15.44
224.808	-19.44
225.042	-11.44
225.277	0.56
225.511	-16.44
225.746	1.56
225.98	9.56
226.215	26.56
226.449	11.56
226.683	4.56
226.918	9.56
227.152	26.56
227.387	26.56
227.621	33.56
227.856	52.56
228.09	59.56
228.324	46.56
228.559	61.56
228.793	72.56
229.027	55.56
229.262	60.56
229.496	68.56
229.73	61.56
229.964	75.56
230.199	60.56
230.433	70.56
230.667	81.56
230.901	83.56
231.136	90.56
231.37	87.56
231.604	80.56
231.838	77.56
232.072	80.56
232.306	92.56
232.541	68.56
232.775	81.56
233.009	72.56
233.243	76.56
233.477	80.56
233.711	87.56
233.945	73.56
234.179	79.56
234.413	68.56
234.647	75.56
234.881	83.56
235.115	81.56
235.349	82.56
235.583	76.56
235.817	71.56
236.051	80.56
236.285	75.56
236.519	73.56
236.753	81.56
236.987	76.56
237.221	64.56
237.455	87.56
237.689	69.56
237.922	73.56
238.156	72.56
238.39	73.56
238.624	74.56
238.858	80.56
239.091	75.56
239.325	81.56
239.559	82.56
239.793	81.56
240.027	81.56
240.26	75.56
240.494	72.56
240.728	69.56
240.961	70.56
241.195	82.56
241.429	54.56
241.662	72.56
241.896	75.56
242.13	83.56
242.363	67.56
242.597	66.56
242.83	85.56
243.064	79.56
243.298	76.56
243.531	62.56
243.765	92.56
243.998	80.56
244.232	81.56
244.465	78.56
244.699	82.56
244.932	78.56
245.166	67.56
245.399	85.56
245.633	84.56
245.866	65.56
246.099	81.56
246.333	81.56
246.566	77.56
246.8	89.56
247.033	79.56
247.266	65.56
247.5	61.56
247.733	85.56
247.966	76.56
248.2	81.56
248.433	72.56
248.666	71.56
248.899	89.56
249.133	75.56
249.366	104.56
249.599	76.56
249.832	86.56
250.066	75.56
250.299	81.56
250.532	91.56
250.765	84.56
250.998	60.56
251.231	82.56
251.465	76.56
251.698	73.56
251.931	71.56
252.164	82.56
252.397	76.56
252.63	72.56
252.863	67.56
253.096	75.56
253.329	81.56
253.562	95.56
253.795	79.56
254.028	77.56
254.261	69.56
254.494	75.56
254.727	76.56
254.96	68.56
255.193	94.56
255.426	77.56
255.659	85.56
255.892	86.56
256.124	81.56
256.357	72.56
256.59	76.56
256.823	86.56
257.056	85.56
257.289	92.56
257.521	76.56
257.754	82.56
257.987	80.56
258.22	66.56
258.452	72.56
258.685	78.56
258.918	93.56
259.151	83.56
259.383	78.56
259.616	77.56
259.849	83.56
260.081	96.56
260.314	79.56
260.547	80.56
260.779	77.56
261.012	88.56
261.244	87.56
261.477	75.56
261.71	80.56
261.942	95.56
262.175	100.56
262.407	78.56
262.64	73.56
262.872	92.56
263.105	82.56
263.337	91.56
263.57	88.56
263.802	77.56
264.035	85.56
264.267	94.56
264.499	79.56
264.732	75.56
264.964	78.56
265.197	77.56
265.429	79.56
265.661	71.56
265.894	78.56
266.126	79.56
266.358	83.56
266.591	71.56
266.823	77.56
267.055	70.56
267.287	79.56
267.52	77.56
267.752	72.56
267.984	95.56
268.216	90.56
268.448	78.56
268.681	83.56
268.913	86.56
269.145	85.56
269.377	96.56
269.609	71.56
269.841	78.56
270.073	78.56
270.306	74.56
270.538	77.56
270.77	87.56
271.002	95.56
271.234	93.56
271.466	86.56
271.698	85.56
271.93	83.56
272.162	83.56
272.394	88.56
272.626	76.56
272.858	61.56
273.09	97.56
273.322	91.56
273.553	87.56
273.785	64.56
274.017	81.56
274.249	89.56
274.481	65.56
274.713	94.56
274.945	82.56
275.176	79.56
275.408	93.56
275.64	84.56
275.872	89.56
276.104	76.56
276.335	88.56
276.567	73.56
276.799	87.56
277.031	95.56
277.262	80.56
277.494	84.56
277.726	77.56
277.957	70.56
278.189	80.56
278.421	90.56
278.652	69.56
278.884	87.56
279.115	79.56
279.347	96.56
279.579	85.56
279.81	80.56
280.042	76.56
280.273	80.56
280.505	81.56
280.736	88.56
280.968	85.56
281.199	81.56
281.431	82.56
281.662	86.56
281.894	83.56
282.125	91.56
282.356	93.56
282.588	124.56
282.819	101.56
283.051	86.56
283.282	85.56
283.513	88.56
283.745	91.56
283.976	84.56
284.207	70.56
284.439	71.56
284.67	88.56
284.901	81.56
285.132	83.56
285.364	96.56
285.595	82.56
285.826	87.56
286.057	91.56
286.288	88.56
286.52	88.56
286.751	101.56
286.982	82.56
287.213	83.56
287.444	85.56
287.675	90.56
287.906	88.56
288.138	97.56
288.369	86.56
288.6	84.56
288.831	79.56
289.062	82.56
289.293	96.56
289.524	79.56
289.755	89.56
289.986	77.56
290.217	88.56
290.448	84.56
290.679	75.56
290.91	87.56
291.141	85.56
291.371	75.56
291.602	95.56
291.833	95.56
292.064	78.56
292.295	89.56
292.526	75.56
292.757	94.56
292.987	87.56
293.218	81.56
293.449	74.56
293.68	77.56
293.91	77.56
294.141	92.56
294.372	91.56
294.603	83.56
294.833	94.56
295.064	81.56
295.295	87.56
295.525	89.56
295.756	100.56
295.987	91.56
296.217	118.56
296.448	103.56
296.679	80.56
296.909	100.56
297.14	72.56
297.37	88.56
297.601	85.56
297.831	89.56
298.062	86.56
298.292	85.56
298.523	95.56
298.753	97.56
298.984	87.56
299.214	69.56
299.445	87.56
299.675	93.56
299.905	95.56
300.136	88.56
300.366	95.56
300.597	94.56
300.827	99.56
301.057	89.56
301.288	87.56
301.518	99.56
301.748	84.56
301.979	94.56
302.209	86.56
302.439	92.56
302.669	87.56
302.9	72.56
303.13	93.56
303.36	94.56
303.59	86.56
303.82	86.56
304.051	88.56
304.281	76.56
304.511	96.56
304.741	76.56
304.971	91.56
305.201	91.56
305.431	73.56
305.661	80.56
305.891	92.56
306.121	104.56
306.352	94.56
306.582	110.56
306.812	93.56
307.042	88.56
307.272	82.56
307.502	95.56
307.731	92.56
307.961	81.56
308.191	85.56
308.421	88.56
308.651	81.56
308.881	90.56
309.111	98.56
309.341	87.56
309.571	93.56
309.8	79.56
310.03	80.56
310.26	98.56
310.49	76.56
310.72	81.56
310.949	94.56
311.179	84.56
311.409	86.56
311.639	88.56
311.868	93.56
312.098	94.56
312.328	92.56
312.557	91.56
312.787	89.56
313.017	92.56
313.246	86.56
313.476	92.56
313.706	85.56
313.935	95.56
314.165	95.56
314.394	94.56
314.624	84.56
314.853	86.56
315.083	93.56
315.312	85.56
315.542	81.56
315.771	85.56
316.001	88.56
316.23	86.56
316.46	102.56
316.689	75.56
316.919	76.56
317.148	93.56
317.377	81.56
317.607	106.56
317.836	82.56
318.065	74.56
318.295	77.56
318.524	95.56
318.753	93.56
318.983	90.56
319.212	89.56
319.441	99.56
319.67	111.56
319.9	82.56
320.129	89.56
320.358	91.56
320.587	80.56
320.816	100.56
321.046	102.56
321.275	100.56
321.504	83.56
321.733	84.56
321.962	100.56
322.191	97.56
322.42	102.56
322.649	101.56
322.878	100.56
323.108	106.56
323.337	117.56
323.566	109.56
323.795	143.56
324.024	179.56
324.253	335.56
324.482	692.56
324.71	1401.56
324.939	1795.56
325.168	672.56
325.397	207.56
325.626	136.56
325.855	107.56
326.084	113.56
326.313	120.56
326.542	124.56
326.77	187.56
326.999	374.56
327.228	775.56
327.457	1408.56
327.686	1123.56
327.914	309.56
328.143	165.56
328.372	107.56
328.6	105.56
328.829	89.56
329.058	110.56
329.287	112.56
329.515	102.56
329.744	100.56
329.972	109.56
330.201	92.56
330.43	107.56
330.658	101.56
330.887	104.56
331.115	111.56
331.344	89.56
331.572	95.56
331.801	99.56
332.03	87.56
332.258	88.56
332.486	101.56
332.715	83.56
332.943	89.56
333.172	94.56
333.4	89.56
333.629	89.56
333.857	102.56
334.085	105.56
334.314	95.56
334.542	85.56
334.771	90.56
334.999	90.56
335.227	89.56
335.455	82.56
335.684	96.56
335.912	94.56
336.14	101.56
336.369	81.56
336.597	93.56
336.825	84.56
337.053	84.56
337.281	97.56
337.51	88.56
337.738	87.56
337.966	90.56
338.194	91.56
338.422	83.56
338.65	99.56
338.878	81.56
339.106	88.56
339.334	84.56
339.562	88.56
339.79	88.56
340.018	98.56
340.246	80.56
340.474	84.56
340.702	95.56
340.93	104.56
341.158	88.56
341.386	82.56
341.614	96.56
341.842	79.56
342.07	83.56
342.298	79.56
342.526	90.56
342.754	85.56
342.981	74.56
343.209	79.56
343.437	92.56
343.665	92.56
343.893	91.56
344.12	89.56
344.348	80.56
344.576	92.56
344.804	79.56
345.031	74.56
345.259	95.56
345.487	104.56
345.714	88.56
345.942	89.56
346.17	73.56
346.397	92.56
346.625	84.56
346.853	94.56
347.08	105.56
347.308	92.56
347.535	110.56
347.763	95.56
347.99	88.56
348.218	92.56
348.445	97.56
348.673	100.56
348.9	88.56
349.128	92.56
349.355	101.56
349.583	80.56
349.81	101.56
350.037	105.56
350.265	91.56
350.492	92.56
350.72	87.56
350.947	107.56
351.174	96.56
351.402	103.56
351.629	105.56
351.856	98.56
352.083	76.56
352.311	113.56
352.538	91.56
352.765	108.56
352.992	103.56
353.22	108.56
353.447	100.56
353.674	109.56
353.901	94.56
354.128	102.56
354.355	95.56
354.583	98.56
354.81	95.56
355.037	91.56
355.264	107.56
355.491	104.56
355.718	88.56
355.945	111.56
356.172	101.56
356.399	89.56
356.626	100.56
356.853	96.56
357.08	100.56
357.307	98.56
357.534	82.56
357.761	101.56
357.988	95.56
358.215	112.56
358.441	94.56
358.668	102.56
358.895	97.56
359.122	96.56
359.349	87.56
359.576	88.56
359.802	85.56
360.029	89.56
360.256	104.56
360.483	90.56
360.709	84.56
360.936	81.56
361.163	99.56
361.39	78.56
361.616	87.56
361.843	88.56
362.07	93.56
362.296	78.56
362.523	91.56
362.749	84.56
362.976	72.56
363.203	94.56
363.429	98.56
363.656	91.56
363.882	95.56
364.109	69.56
364.335	90.56
364.562	85.56
364.788	85.56
365.015	86.56
365.241	80.56
365.468	88.56
365.694	94.56
365.92	86.56
366.147	84.56
366.373	85.56
366.599	80.56
366.826	79.56
367.052	77.56
367.278	76.56
367.505	79.56
367.731	90.56
367.957	75.56
368.184	86.56
368.41	110.56
368.636	86.56
368.862	97.56
369.089	92.56
369.315	90.56
369.541	86.56
369.767	95.56
369.993	101.56
370.219	89.56
370.445	102.56
370.672	80.56
370.898	89.56
371.124	91.56
371.35	102.56
371.576	86.56
371.802	100.56
372.028	89.56
372.254	99.56
372.48	101.56
372.706	92.56
372.932	94.56
373.158	91.56
373.384	84.56
373.61	88.56
373.835	99.56
374.061	82.56
374.287	87.56
374.513	94.56
374.739	87.56
374.965	87.56
375.191	84.56
375.416	96.56
375.642	78.56
375.868	87.56
376.094	85.56
376.319	93.56
376.545	81.56
376.771	82.56
376.997	86.56
377.222	108.56
377.448	97.56
377.674	92.56
377.899	95.56
378.125	103.56
378.35	102.56
378.576	99.56
378.802	94.56
379.027	93.56
379.253	106.56
379.478	98.56
379.704	105.56
379.929	103.56
380.155	100.56
380.38	111.56
380.606	94.56
380.831	104.56
381.057	117.56
381.282	107.56
381.507	101.56
381.733	104.56
381.958	102.56
382.184	123.56
382.409	96.56
382.634	112.56
382.86	115.56
383.085	140.56
383.31	120.56
383.535	123.56
383.761	133.56
383.986	114.56
384.211	127.56
384.436	133.56
384.662	126.56
384.887	130.56
385.112	140.56
385.337	145.56
385.562	159.56
385.787	134.56
386.013	149.56
386.238	149.56
386.463	146.56
386.688	144.56
386.913	146.56
387.138	135.56
387.363	120.56
387.588	110.56
387.813	116.56
388.038	160.56
388.263	159.56
388.488	152.56
388.713	119.56
388.938	91.56
389.163	94.56
389.387	90.56
389.612	77.56
389.837	91.56
390.062	94.56
390.287	98.56
390.512	91.56
390.736	92.56
390.961	114.56
391.186	89.56
391.411	83.56
391.636	93.56
391.86	92.56
392.085	91.56
392.31	78.56
392.534	87.56
392.759	86.56
392.984	96.56
393.208	90.56
393.433	104.56
393.658	102.56
393.882	91.56
394.107	81.56
394.331	89.56
394.556	78.56
394.78	81.56
395.005	83.56
395.229	80.56
395.454	89.56
395.678	97.56
395.903	77.56
396.127	99.56
396.352	86.56
396.576	87.56
396.801	100.56
397.025	102.56
397.249	93.56
397.474	76.56
397.698	80.56
397.922	91.56
398.147	87.56
398.371	72.56
398.595	79.56
398.82	77.56
399.044	91.56
399.268	72.56
399.492	89.56
399.717	86.56
399.941	87.56
400.165	92.56
400.389	78.56
400.613	83.56
400.837	89.56
401.062	81.56
401.286	93.56
401.51	92.56
401.734	97.56
401.958	94.56
402.182	100.56
402.406	137.56
402.63	76.56
402.854	89.56
403.078	92.56
403.302	74.56
403.526	89.56
403.75	88.56
403.974	75.56
404.198	80.56
404.422	81.56
404.645	76.56
404.869	91.56
405.093	96.56
405.317	87.56
405.541	76.56
405.765	77.56
405.988	104.56
406.212	136.56
406.436	171.56
406.66	121.56
406.883	97.56
407.107	79.56
407.331	68.56
407.555	91.56
407.778	96.56
408.002	79.56
408.226	92.56
408.449	87.56
408.673	93.56
408.896	81.56
409.12	96.56
409.344	101.56
409.567	89.56
409.791	95.56
410.014	99.56
410.238	86.56
410.461	83.56
410.685	87.56
410.908	89.56
411.132	94.56
411.355	89.56
411.578	85.56
411.802	100.56
412.025	96.56
412.249	90.56
412.472	78.56
412.695	86.56
412.919	84.56
413.142	95.56
413.365	84.56
413.589	79.56
413.812	92.56
414.035	100.56
414.258	97.56
414.482	81.56
414.705	78.56
414.928	86.56
415.151	96.56
415.374	96.56
415.597	102.56
415.821	84.56
416.044	78.56
416.267	77.56
416.49	84.56
416.713	83.56
416.936	88.56
417.159	85.56
417.382	78.56
417.605	95.56
417.828	82.56
418.051	87.56
418.274	91.56
418.497	82.56
418.72	87.56
418.943	87.56
419.166	88.56
419.389	114.56
419.611	91.56
419.834	93.56
420.057	88.56
420.28	77.56
420.503	78.56
420.726	70.56
420.948	79.56
421.171	90.56
421.394	97.56
421.617	101.56
421.839	81.56
422.062	93.56
422.285	90.56
422.507	106.56
422.73	113.56
422.953	87.56
423.175	86.56
423.398	99.56
423.621	90.56
423.843	72.56
424.066	80.56
424.288	93.56
424.511	80.56
424.733	91.56
424.956	106.56
425.178	91.56
425.401	103.56
425.623	87.56
425.846	99.56
426.068	92.56
426.291	89.56
426.513	74.56
426.735	96.56
426.958	99.56
427.18	95.56
427.402	107.56
427.625	128.56
427.847	98.56
428.069	93.56
428.292	95.56
428.514	83.56
428.736	83.56
428.958	82.56
429.181	80.56
429.403	78.56
429.625	76.56
429.847	76.56
430.069	94.56
430.292	99.56
430.514	85.56
430.736	81.56
430.958	83.56
431.18	83.56
431.402	78.56
431.624	85.56
431.846	78.56
432.068	82.56
432.29	87.56
432.512	74.56
432.734	101.56
432.956	91.56
433.178	102.56
433.4	93.56
433.622	98.56
433.844	84.56
434.066	93.56
434.287	87.56
434.509	98.56
434.731	97.56
434.953	88.56
435.175	89.56
435.397	91.56
435.618	93.56
435.84	110.56
436.062	100.56
436.284	92.56
436.505	95.56
436.727	96.56
436.949	89.56
437.17	92.56
437.392	69.56
437.614	93.56
437.835	95.56
438.057	105.56
438.278	105.56
438.5	84.56
438.721	102.56
438.943	99.56
439.165	86.56
439.386	87.56
439.608	98.56
439.829	101.56
440.05	111.56
440.272	127.56
440.493	78.56
440.715	81.56
440.936	84.56
441.158	95.56
441.379	83.56
441.6	99.56
441.822	91.56
442.043	87.56
442.264	78.56
442.486	97.56
442.707	91.56
442.928	95.56
443.149	110.56
443.371	101.56
443.592	102.56
443.813	104.56
444.034	93.56
444.255	95.56
444.476	80.56
444.698	85.56
444.919	82.56
445.14	127.56
445.361	104.56
445.582	99.56
445.803	123.56
446.024	116.56
446.245	115.56
446.466	102.56
446.687	93.56
446.908	87.56
447.129	89.56
447.35	84.56
447.571	81.56
447.792	86.56
448.013	94.56
448.234	112.56
448.455	93.56
448.675	98.56
448.896	110.56
449.117	96.56
449.338	91.56
449.559	128.56
449.779	108.56
450	82.56
450.221	63.56
450.442	85.56
450.662	91.56
450.883	99.56
451.104	109.56
451.324	94.56
451.545	92.56
451.766	81.56
451.986	90.56
452.207	82.56
452.428	99.56
452.648	90.56
452.869	101.56
453.089	94.56
453.31	108.56
453.53	93.56
453.751	95.56
453.971	98.56
454.192	104.56
454.412	81.56
454.633	86.56
454.853	78.56
455.073	88.56
455.294	92.56
455.514	88.56
455.734	88.56
455.955	91.56
456.175	86.56
456.395	81.56
456.616	86.56
456.836	85.56
457.056	64.56
457.276	85.56
457.497	70.56
457.717	78.56
457.937	76.56
458.157	83.56
458.377	95.56
458.598	98.56
458.818	115.56
459.038	133.56
459.258	95.56
459.478	93.56
459.698	77.56
459.918	82.56
460.138	81.56
460.358	72.56
460.578	84.56
460.798	88.56
461.018	89.56
461.238	93.56
461.458	84.56
461.678	79.56
461.898	82.56
462.118	84.56
462.338	81.56
462.558	82.56
462.777	79.56
462.997	72.56
463.217	92.56
463.437	78.56
463.657	77.56
463.876	76.56
464.096	95.56
464.316	106.56
464.536	93.56
464.755	77.56
464.975	98.56
465.195	119.56
465.414	128.56
465.634	84.56
465.854	98.56
466.073	92.56
466.293	68.56
466.512	77.56
466.732	87.56
466.951	100.56
467.171	88.56
467.391	70.56
467.61	72.56
467.829	91.56
468.049	91.56
468.268	88.56
468.488	84.56
468.707	93.56
468.927	92.56
469.146	85.56
469.365	78.56
469.585	97.56
469.804	88.56
470.023	87.56
470.243	96.56
470.462	78.56
470.681	95.56
470.901	89.56
471.12	96.56
471.339	70.56
471.558	88.56
471.777	93.56
471.997	85.56
472.216	82.56
472.435	85.56
472.654	78.56
472.873	83.56
473.092	80.56
473.311	91.56
473.53	92.56
473.749	88.56
473.968	87.56
474.187	106.56
474.406	80.56
474.625	92.56
474.844	91.56
475.063	78.56
475.282	79.56
475.501	105.56
475.72	93.56
475.939	75.56
476.158	96.56
476.377	82.56
476.596	75.56
476.814	86.56
477.033	71.56
477.252	85.56
477.471	89.56
477.69	88.56
477.908	89.56
478.127	97.56
478.346	99.56
478.564	88.56
478.783	87.56
479.002	84.56
479.22	92.56
479.439	93.56
479.658	81.56
479.876	80.56
480.095	95.56
480.313	82.56
480.532	88.56
480.751	88.56
480.969	97.56
481.188	87.56
481.406	101.56
481.624	100.56
481.843	85.56
482.061	95.56
482.28	89.56
482.498	98.56
482.717	93.56
482.935	77.56
483.153	93.56
483.372	94.56
483.59	85.56
483.808	86.56
484.027	84.56
484.245	87.56
484.463	103.56
484.681	88.56
484.9	105.56
485.118	100.56
485.336	88.56
485.554	100.56
485.772	104.56
485.99	106.56
486.209	110.56
486.427	105.56
486.645	107.56
486.863	110.56
487.081	94.56
487.299	99.56
487.517	92.56
487.735	95.56
487.953	98.56
488.171	90.56
488.389	104.56
488.607	111.56
488.825	99.56
489.043	77.56
489.261	84.56
489.479	87.56
489.696	80.56
489.914	99.56
490.132	88.56
490.35	99.56
490.568	78.56
490.786	96.56
491.003	88.56
491.221	86.56
491.439	92.56
491.657	90.56
491.874	91.56
492.092	86.56
492.31	89.56
492.527	89.56
492.745	94.56
492.963	99.56
493.18	66.56
493.398	85.56
493.615	93.56
493.833	80.56
494.05	83.56
494.268	86.56
494.485	73.56
494.703	78.56
494.92	83.56
495.138	75.56
495.355	91.56
495.573	90.56
495.79	81.56
496.008	106.56
496.225	95.56
496.442	96.56
496.66	93.56
496.877	85.56
497.094	95.56
497.312	104.56
497.529	71.56
497.746	86.56
497.963	99.56
498.181	86.56
498.398	84.56
498.615	86.56
498.832	91.56
499.049	97.56
499.267	84.56
499.484	89.56
499.701	81.56
499.918	95.56
500.135	101.56
500.352	92.56
500.569	78.56
500.786	98.56
501.003	94.56
501.22	92.56
501.437	87.56
501.654	93.56
501.871	103.56
502.088	98.56
502.305	100.56
502.522	80.56
502.739	96.56
502.956	88.56
503.172	91.56
503.389	87.56
503.606	87.56
503.823	95.56
504.04	80.56
504.256	83.56
504.473	85.56
504.69	89.56
504.907	86.56
505.123	100.56
505.34	83.56
505.557	91.56
505.773	99.56
505.99	87.56
506.207	99.56
506.423	80.56
506.64	89.56
506.856	88.56
507.073	77.56
507.289	75.56
507.506	99.56
507.722	93.56
507.939	88.56
508.155	100.56
508.372	95.56
508.588	98.56
508.805	93.56
509.021	80.56
509.238	84.56
509.454	87.56
509.67	98.56
509.887	110.56
510.103	126.56
510.319	179.56
510.536	567.56
510.752	1752.56
510.968	511.56
511.184	137.56
511.401	105.56
511.617	86.56
511.833	70.56
512.049	95.56
512.265	93.56
512.481	84.56
512.698	88.56
512.914	90.56
513.13	103.56
513.346	85.56
513.562	85.56
513.778	98.56
513.994	91.56
514.21	97.56
514.426	112.56
514.642	113.56
514.858	112.56
515.074	130.56
515.29	307.56
515.506	947.56
515.721	368.56
515.937	129.56
516.153	107.56
516.369	86.56
516.585	88.56
516.801	89.56
