Data from Circ_2003_H10_HRD10591_00003.txt Node
Date: Wed Jan 03 10:37:03 EST 2024
User: Yrep
Spectrometer: HR+D1059
Trigger mode: 1
Integration Time (sec): 1.000000E-1
Scans to average: 1
Electric dark correction enabled: true
Nonlinearity correction enabled: false
Boxcar width: 0
XAxis mode: Wavelengths
Number of Pixels in Spectrum: 2048
>>>>>Begin Spectral Data<<<<<
223.165	-25.12
223.4	-25.12
223.635	-25.12
223.869	-11.12
224.104	-31.12
224.338	-17.12
224.573	-11.12
224.808	-11.12
225.042	-12.12
225.277	-10.12
225.511	-6.12
225.746	5.88
225.98	11.88
226.215	18.88
226.449	21.88
226.683	21.88
226.918	27.88
227.152	26.88
227.387	51.88
227.621	28.88
227.856	37.88
228.09	60.88
228.324	43.88
228.559	68.88
228.793	61.88
229.027	73.88
229.262	80.88
229.496	73.88
229.73	75.88
229.964	68.88
230.199	86.88
230.433	63.88
230.667	84.88
230.901	85.88
231.136	74.88
231.37	83.88
231.604	72.88
231.838	76.88
232.072	85.88
232.306	96.88
232.541	80.88
232.775	75.88
233.009	90.88
233.243	69.88
233.477	72.88
233.711	89.88
233.945	81.88
234.179	83.88
234.413	87.88
234.647	76.88
234.881	88.88
235.115	81.88
235.349	73.88
235.583	77.88
235.817	87.88
236.051	83.88
236.285	76.88
236.519	77.88
236.753	87.88
236.987	75.88
237.221	76.88
237.455	80.88
237.689	77.88
237.922	71.88
238.156	73.88
238.39	85.88
238.624	76.88
238.858	84.88
239.091	68.88
239.325	75.88
239.559	89.88
239.793	80.88
240.027	79.88
240.26	87.88
240.494	87.88
240.728	64.88
240.961	73.88
241.195	82.88
241.429	93.88
241.662	83.88
241.896	88.88
242.13	73.88
242.363	80.88
242.597	90.88
242.83	69.88
243.064	79.88
243.298	86.88
243.531	76.88
243.765	84.88
243.998	68.88
244.232	77.88
244.465	87.88
244.699	85.88
244.932	82.88
245.166	76.88
245.399	88.88
245.633	88.88
245.866	90.88
246.099	80.88
246.333	80.88
246.566	75.88
246.8	77.88
247.033	93.88
247.266	85.88
247.5	72.88
247.733	81.88
247.966	91.88
248.2	91.88
248.433	76.88
248.666	76.88
248.899	71.88
249.133	98.88
249.366	104.88
249.599	76.88
249.832	85.88
250.066	82.88
250.299	81.88
250.532	80.88
250.765	83.88
250.998	84.88
251.231	84.88
251.465	72.88
251.698	77.88
251.931	91.88
252.164	76.88
252.397	83.88
252.63	71.88
252.863	77.88
253.096	98.88
253.329	83.88
253.562	89.88
253.795	80.88
254.028	81.88
254.261	69.88
254.494	82.88
254.727	87.88
254.96	79.88
255.193	79.88
255.426	95.88
255.659	91.88
255.892	91.88
256.124	88.88
256.357	69.88
256.59	87.88
256.823	75.88
257.056	75.88
257.289	66.88
257.521	88.88
257.754	87.88
257.987	92.88
258.22	83.88
258.452	83.88
258.685	85.88
258.918	83.88
259.151	83.88
259.383	82.88
259.616	92.88
259.849	75.88
260.081	83.88
260.314	78.88
260.547	66.88
260.779	76.88
261.012	79.88
261.244	92.88
261.477	92.88
261.71	102.88
261.942	100.88
262.175	106.88
262.407	100.88
262.64	79.88
262.872	75.88
263.105	87.88
263.337	85.88
263.57	84.88
263.802	90.88
264.035	81.88
264.267	80.88
264.499	81.88
264.732	68.88
264.964	96.88
265.197	79.88
265.429	77.88
265.661	89.88
265.894	87.88
266.126	88.88
266.358	94.88
266.591	87.88
266.823	88.88
267.055	93.88
267.287	82.88
267.52	82.88
267.752	63.88
267.984	82.88
268.216	85.88
268.448	80.88
268.681	77.88
268.913	71.88
269.145	83.88
269.377	83.88
269.609	88.88
269.841	88.88
270.073	88.88
270.306	83.88
270.538	73.88
270.77	79.88
271.002	91.88
271.234	80.88
271.466	104.88
271.698	81.88
271.93	73.88
272.162	82.88
272.394	81.88
272.626	89.88
272.858	87.88
273.09	86.88
273.322	81.88
273.553	86.88
273.785	76.88
274.017	74.88
274.249	85.88
274.481	88.88
274.713	89.88
274.945	89.88
275.176	86.88
275.408	79.88
275.64	84.88
275.872	78.88
276.104	84.88
276.335	102.88
276.567	92.88
276.799	100.88
277.031	97.88
277.262	78.88
277.494	83.88
277.726	70.88
277.957	93.88
278.189	93.88
278.421	85.88
278.652	98.88
278.884	86.88
279.115	91.88
279.347	96.88
279.579	95.88
279.81	77.88
280.042	88.88
280.273	79.88
280.505	79.88
280.736	90.88
280.968	84.88
281.199	80.88
281.431	81.88
281.662	87.88
281.894	81.88
282.125	100.88
282.356	105.88
282.588	115.88
282.819	110.88
283.051	93.88
283.282	85.88
283.513	90.88
283.745	83.88
283.976	85.88
284.207	84.88
284.439	93.88
284.67	95.88
284.901	87.88
285.132	87.88
285.364	91.88
285.595	96.88
285.826	97.88
286.057	103.88
286.288	82.88
286.52	90.88
286.751	78.88
286.982	84.88
287.213	77.88
287.444	93.88
287.675	86.88
287.906	93.88
288.138	93.88
288.369	97.88
288.6	91.88
288.831	79.88
289.062	87.88
289.293	85.88
289.524	87.88
289.755	101.88
289.986	89.88
290.217	91.88
290.448	92.88
290.679	89.88
290.91	92.88
291.141	88.88
291.371	98.88
291.602	85.88
291.833	88.88
292.064	97.88
292.295	83.88
292.526	90.88
292.757	102.88
292.987	80.88
293.218	102.88
293.449	86.88
293.68	91.88
293.91	70.88
294.141	93.88
294.372	90.88
294.603	88.88
294.833	83.88
295.064	83.88
295.295	93.88
295.525	99.88
295.756	99.88
295.987	122.88
296.217	133.88
296.448	105.88
296.679	99.88
296.909	87.88
297.14	82.88
297.37	101.88
297.601	106.88
297.831	97.88
298.062	104.88
298.292	90.88
298.523	78.88
298.753	93.88
298.984	101.88
299.214	101.88
299.445	91.88
299.675	90.88
299.905	99.88
300.136	85.88
300.366	101.88
300.597	102.88
300.827	93.88
301.057	99.88
301.288	93.88
301.518	92.88
301.748	85.88
301.979	103.88
302.209	102.88
302.439	91.88
302.669	88.88
302.9	86.88
303.13	94.88
303.36	105.88
303.59	110.88
303.82	94.88
304.051	91.88
304.281	84.88
304.511	97.88
304.741	92.88
304.971	88.88
305.201	94.88
305.431	84.88
305.661	99.88
305.891	85.88
306.121	83.88
306.352	98.88
306.582	101.88
306.812	98.88
307.042	86.88
307.272	83.88
307.502	90.88
307.731	93.88
307.961	97.88
308.191	103.88
308.421	101.88
308.651	104.88
308.881	101.88
309.111	100.88
309.341	94.88
309.571	100.88
309.8	98.88
310.03	77.88
310.26	97.88
310.49	85.88
310.72	108.88
310.949	103.88
311.179	98.88
311.409	94.88
311.639	80.88
311.868	87.88
312.098	96.88
312.328	109.88
312.557	111.88
312.787	102.88
313.017	99.88
313.246	109.88
313.476	79.88
313.706	96.88
313.935	113.88
314.165	80.88
314.394	82.88
314.624	102.88
314.853	98.88
315.083	97.88
315.312	92.88
315.542	89.88
315.771	91.88
316.001	104.88
316.23	85.88
316.46	92.88
316.689	90.88
316.919	92.88
317.148	96.88
317.377	102.88
317.607	105.88
317.836	93.88
318.065	83.88
318.295	93.88
318.524	93.88
318.753	99.88
318.983	97.88
319.212	95.88
319.441	90.88
319.67	107.88
319.9	96.88
320.129	87.88
320.358	81.88
320.587	98.88
320.816	100.88
321.046	89.88
321.275	91.88
321.504	90.88
321.733	100.88
321.962	95.88
322.191	81.88
322.42	108.88
322.649	107.88
322.878	126.88
323.108	116.88
323.337	123.88
323.566	128.88
323.795	138.88
324.024	185.88
324.253	347.88
324.482	687.88
324.71	1409.88
324.939	1814.88
325.168	687.88
325.397	211.88
325.626	144.88
325.855	124.88
326.084	130.88
326.313	128.88
326.542	128.88
326.77	211.88
326.999	392.88
327.228	829.88
327.457	1413.88
327.686	1153.88
327.914	314.88
328.143	170.88
328.372	127.88
328.6	110.88
328.829	104.88
329.058	118.88
329.287	108.88
329.515	120.88
329.744	93.88
329.972	85.88
330.201	93.88
330.43	97.88
330.658	112.88
330.887	127.88
331.115	105.88
331.344	96.88
331.572	105.88
331.801	100.88
332.03	84.88
332.258	89.88
332.486	92.88
332.715	95.88
332.943	87.88
333.172	98.88
333.4	101.88
333.629	100.88
333.857	111.88
334.085	108.88
334.314	90.88
334.542	96.88
334.771	98.88
334.999	106.88
335.227	97.88
335.455	107.88
335.684	93.88
335.912	105.88
336.14	92.88
336.369	113.88
336.597	105.88
336.825	103.88
337.053	92.88
337.281	89.88
337.51	95.88
337.738	96.88
337.966	93.88
338.194	84.88
338.422	105.88
338.65	99.88
338.878	104.88
339.106	100.88
339.334	100.88
339.562	88.88
339.79	84.88
340.018	98.88
340.246	97.88
340.474	108.88
340.702	90.88
340.93	109.88
341.158	102.88
341.386	86.88
341.614	91.88
341.842	105.88
342.07	76.88
342.298	74.88
342.526	91.88
342.754	101.88
342.981	97.88
343.209	76.88
343.437	104.88
343.665	86.88
343.893	98.88
344.12	83.88
344.348	80.88
344.576	75.88
344.804	92.88
345.031	97.88
345.259	100.88
345.487	89.88
345.714	87.88
345.942	93.88
346.17	81.88
346.397	93.88
346.625	96.88
346.853	94.88
347.08	104.88
347.308	102.88
347.535	103.88
347.763	98.88
347.99	89.88
348.218	95.88
348.445	90.88
348.673	103.88
348.9	106.88
349.128	88.88
349.355	104.88
349.583	92.88
349.81	108.88
350.037	90.88
350.265	92.88
350.492	86.88
350.72	97.88
350.947	103.88
351.174	104.88
351.402	111.88
351.629	109.88
351.856	102.88
352.083	106.88
352.311	106.88
352.538	90.88
352.765	101.88
352.992	93.88
353.22	106.88
353.447	92.88
353.674	105.88
353.901	96.88
354.128	114.88
354.355	92.88
354.583	104.88
354.81	93.88
355.037	98.88
355.264	92.88
355.491	87.88
355.718	97.88
355.945	102.88
356.172	85.88
356.399	101.88
356.626	99.88
356.853	93.88
357.08	100.88
357.307	94.88
357.534	87.88
357.761	92.88
357.988	95.88
358.215	98.88
358.441	108.88
358.668	107.88
358.895	87.88
359.122	108.88
359.349	109.88
359.576	106.88
359.802	94.88
360.029	109.88
360.256	90.88
360.483	105.88
360.709	89.88
360.936	102.88
361.163	101.88
361.39	85.88
361.616	82.88
361.843	97.88
362.07	89.88
362.296	96.88
362.523	93.88
362.749	81.88
362.976	84.88
363.203	99.88
363.429	83.88
363.656	82.88
363.882	93.88
364.109	95.88
364.335	98.88
364.562	87.88
364.788	88.88
365.015	94.88
365.241	109.88
365.468	101.88
365.694	92.88
365.92	87.88
366.147	95.88
366.373	85.88
366.599	106.88
366.826	97.88
367.052	83.88
367.278	80.88
367.505	92.88
367.731	91.88
367.957	103.88
368.184	90.88
368.41	87.88
368.636	88.88
368.862	99.88
369.089	106.88
369.315	86.88
369.541	101.88
369.767	106.88
369.993	92.88
370.219	113.88
370.445	85.88
370.672	93.88
370.898	95.88
371.124	91.88
371.35	102.88
371.576	95.88
371.802	86.88
372.028	87.88
372.254	83.88
372.48	94.88
372.706	108.88
372.932	96.88
373.158	89.88
373.384	85.88
373.61	90.88
373.835	84.88
374.061	83.88
374.287	88.88
374.513	98.88
374.739	90.88
374.965	82.88
375.191	99.88
375.416	100.88
375.642	81.88
375.868	93.88
376.094	89.88
376.319	89.88
376.545	94.88
376.771	89.88
376.997	111.88
377.222	99.88
377.448	92.88
377.674	95.88
377.899	104.88
378.125	97.88
378.35	112.88
378.576	96.88
378.802	104.88
379.027	107.88
379.253	105.88
379.478	111.88
379.704	103.88
379.929	88.88
380.155	96.88
380.38	97.88
380.606	110.88
380.831	100.88
381.057	120.88
381.282	103.88
381.507	113.88
381.733	108.88
381.958	117.88
382.184	125.88
382.409	124.88
382.634	112.88
382.86	115.88
383.085	127.88
383.31	119.88
383.535	116.88
383.761	130.88
383.986	122.88
384.211	117.88
384.436	123.88
384.662	129.88
384.887	144.88
385.112	140.88
385.337	131.88
385.562	132.88
385.787	140.88
386.013	144.88
386.238	151.88
386.463	152.88
386.688	153.88
386.913	137.88
387.138	149.88
387.363	132.88
387.588	123.88
387.813	117.88
388.038	143.88
388.263	164.88
388.488	155.88
388.713	116.88
388.938	111.88
389.163	93.88
389.387	96.88
389.612	92.88
389.837	90.88
390.062	98.88
390.287	87.88
390.512	89.88
390.736	98.88
390.961	104.88
391.186	91.88
391.411	107.88
391.636	78.88
391.86	71.88
392.085	93.88
392.31	86.88
392.534	92.88
392.759	90.88
392.984	105.88
393.208	113.88
393.433	133.88
393.658	125.88
393.882	92.88
394.107	97.88
394.331	99.88
394.556	93.88
394.78	90.88
395.005	90.88
395.229	98.88
395.454	92.88
395.678	85.88
395.903	93.88
396.127	77.88
396.352	99.88
396.576	90.88
396.801	98.88
397.025	120.88
397.249	104.88
397.474	101.88
397.698	94.88
397.922	101.88
398.147	89.88
398.371	89.88
398.595	101.88
398.82	84.88
399.044	76.88
399.268	92.88
399.492	97.88
399.717	88.88
399.941	95.88
400.165	79.88
400.389	87.88
400.613	95.88
400.837	96.88
401.062	90.88
401.286	76.88
401.51	76.88
401.734	88.88
401.958	89.88
402.182	106.88
402.406	125.88
402.63	105.88
402.854	74.88
403.078	86.88
403.302	88.88
403.526	86.88
403.75	77.88
403.974	84.88
404.198	87.88
404.422	85.88
404.645	98.88
404.869	84.88
405.093	103.88
405.317	99.88
405.541	91.88
405.765	79.88
405.988	118.88
406.212	149.88
406.436	176.88
406.66	132.88
406.883	106.88
407.107	78.88
407.331	86.88
407.555	85.88
407.778	99.88
408.002	99.88
408.226	86.88
408.449	92.88
408.673	74.88
408.896	103.88
409.12	100.88
409.344	98.88
409.567	96.88
409.791	103.88
410.014	95.88
410.238	98.88
410.461	85.88
410.685	99.88
410.908	108.88
411.132	104.88
411.355	105.88
411.578	104.88
411.802	97.88
412.025	105.88
412.249	107.88
412.472	82.88
412.695	82.88
412.919	99.88
413.142	100.88
413.365	96.88
413.589	101.88
413.812	107.88
414.035	103.88
414.258	86.88
414.482	85.88
414.705	88.88
414.928	99.88
415.151	103.88
415.374	85.88
415.597	96.88
415.821	101.88
416.044	88.88
416.267	97.88
416.49	92.88
416.713	85.88
416.936	85.88
417.159	93.88
417.382	103.88
417.605	109.88
417.828	109.88
418.051	103.88
418.274	102.88
418.497	91.88
418.72	83.88
418.943	77.88
419.166	99.88
419.389	101.88
419.611	94.88
419.834	103.88
420.057	90.88
420.28	74.88
420.503	95.88
420.726	98.88
420.948	86.88
421.171	97.88
421.394	98.88
421.617	107.88
421.839	84.88
422.062	94.88
422.285	72.88
422.507	102.88
422.73	122.88
422.953	109.88
423.175	88.88
423.398	92.88
423.621	86.88
423.843	93.88
424.066	102.88
424.288	95.88
424.511	98.88
424.733	88.88
424.956	99.88
425.178	100.88
425.401	104.88
425.623	103.88
425.846	103.88
426.068	97.88
426.291	87.88
426.513	103.88
426.735	96.88
426.958	88.88
427.18	102.88
427.402	116.88
427.625	136.88
427.847	122.88
428.069	100.88
428.292	103.88
428.514	86.88
428.736	91.88
428.958	96.88
429.181	96.88
429.403	88.88
429.625	93.88
429.847	89.88
430.069	95.88
430.292	91.88
430.514	89.88
430.736	81.88
430.958	100.88
431.18	86.88
431.402	94.88
431.624	92.88
431.846	80.88
432.068	92.88
432.29	81.88
432.512	83.88
432.734	95.88
432.956	89.88
433.178	95.88
433.4	102.88
433.622	89.88
433.844	85.88
434.066	104.88
434.287	98.88
434.509	92.88
434.731	84.88
434.953	94.88
435.175	100.88
435.397	103.88
435.618	91.88
435.84	101.88
436.062	113.88
436.284	98.88
436.505	110.88
436.727	98.88
436.949	98.88
437.17	89.88
437.392	83.88
437.614	89.88
437.835	106.88
438.057	112.88
438.278	113.88
438.5	109.88
438.721	100.88
438.943	89.88
439.165	100.88
439.386	88.88
439.608	97.88
439.829	93.88
440.05	110.88
440.272	128.88
440.493	99.88
440.715	88.88
440.936	87.88
441.158	77.88
441.379	83.88
441.6	94.88
441.822	91.88
442.043	98.88
442.264	103.88
442.486	96.88
442.707	91.88
442.928	90.88
443.149	114.88
443.371	117.88
443.592	107.88
443.813	112.88
444.034	99.88
444.255	101.88
444.476	78.88
444.698	87.88
444.919	77.88
445.14	138.88
445.361	112.88
445.582	118.88
445.803	125.88
446.024	120.88
446.245	131.88
446.466	116.88
446.687	83.88
446.908	87.88
447.129	98.88
447.35	85.88
447.571	87.88
447.792	84.88
448.013	98.88
448.234	97.88
448.455	99.88
448.675	100.88
448.896	106.88
449.117	103.88
449.338	86.88
449.559	112.88
449.779	116.88
450	96.88
450.221	77.88
450.442	95.88
450.662	92.88
450.883	104.88
451.104	102.88
451.324	91.88
451.545	84.88
451.766	93.88
451.986	79.88
452.207	85.88
452.428	87.88
452.648	103.88
452.869	105.88
453.089	109.88
453.31	115.88
453.53	93.88
453.751	89.88
453.971	93.88
454.192	104.88
454.412	103.88
454.633	79.88
454.853	75.88
455.073	89.88
455.294	87.88
455.514	96.88
455.734	90.88
455.955	90.88
456.175	82.88
456.395	81.88
456.616	83.88
456.836	71.88
457.056	90.88
457.276	82.88
457.497	89.88
457.717	89.88
457.937	90.88
458.157	97.88
458.377	97.88
458.598	95.88
458.818	106.88
459.038	140.88
459.258	102.88
459.478	100.88
459.698	89.88
459.918	85.88
460.138	102.88
460.358	89.88
460.578	87.88
460.798	87.88
461.018	85.88
461.238	81.88
461.458	91.88
461.678	90.88
461.898	84.88
462.118	89.88
462.338	98.88
462.558	86.88
462.777	85.88
462.997	85.88
463.217	69.88
463.437	87.88
463.657	81.88
463.876	82.88
464.096	91.88
464.316	76.88
464.536	92.88
464.755	83.88
464.975	91.88
465.195	133.88
465.414	137.88
465.634	102.88
465.854	98.88
466.073	90.88
466.293	84.88
466.512	87.88
466.732	91.88
466.951	80.88
467.171	92.88
467.391	91.88
467.61	99.88
467.829	94.88
468.049	91.88
468.268	86.88
468.488	75.88
468.707	85.88
468.927	97.88
469.146	80.88
469.365	93.88
469.585	86.88
469.804	90.88
470.023	90.88
470.243	89.88
470.462	101.88
470.681	116.88
470.901	92.88
471.12	91.88
471.339	80.88
471.558	85.88
471.777	91.88
471.997	96.88
472.216	83.88
472.435	95.88
472.654	92.88
472.873	89.88
473.092	87.88
473.311	96.88
473.53	84.88
473.749	68.88
473.968	91.88
474.187	100.88
474.406	92.88
474.625	81.88
474.844	88.88
475.063	91.88
475.282	89.88
475.501	94.88
475.72	91.88
475.939	87.88
476.158	91.88
476.377	91.88
476.596	98.88
476.814	92.88
477.033	85.88
477.252	103.88
477.471	78.88
477.69	94.88
477.908	92.88
478.127	107.88
478.346	89.88
478.564	92.88
478.783	92.88
479.002	77.88
479.22	90.88
479.439	92.88
479.658	113.88
479.876	98.88
480.095	97.88
480.313	89.88
480.532	82.88
480.751	84.88
480.969	92.88
481.188	97.88
481.406	96.88
481.624	80.88
481.843	92.88
482.061	90.88
482.28	92.88
482.498	84.88
482.717	95.88
482.935	90.88
483.153	107.88
483.372	89.88
483.59	88.88
483.808	90.88
484.027	100.88
484.245	88.88
484.463	97.88
484.681	107.88
484.9	90.88
485.118	100.88
485.336	108.88
485.554	104.88
485.772	114.88
485.99	124.88
486.209	120.88
486.427	109.88
486.645	115.88
486.863	116.88
487.081	103.88
487.299	111.88
487.517	93.88
487.735	100.88
487.953	93.88
488.171	97.88
488.389	83.88
488.607	93.88
488.825	87.88
489.043	97.88
489.261	86.88
489.479	84.88
489.696	92.88
489.914	88.88
490.132	82.88
490.35	90.88
490.568	95.88
490.786	91.88
491.003	76.88
491.221	92.88
491.439	86.88
491.657	81.88
491.874	88.88
492.092	85.88
492.31	102.88
492.527	88.88
492.745	88.88
492.963	79.88
493.18	92.88
493.398	90.88
493.615	103.88
493.833	98.88
494.05	90.88
494.268	85.88
494.485	84.88
494.703	90.88
494.92	75.88
495.138	81.88
495.355	92.88
495.573	105.88
495.79	84.88
496.008	97.88
496.225	102.88
496.442	86.88
496.66	85.88
496.877	81.88
497.094	91.88
497.312	105.88
497.529	77.88
497.746	89.88
497.963	83.88
498.181	84.88
498.398	89.88
498.615	115.88
498.832	105.88
499.049	101.88
499.267	76.88
499.484	88.88
499.701	87.88
499.918	103.88
500.135	86.88
500.352	88.88
500.569	89.88
500.786	96.88
501.003	88.88
501.22	95.88
501.437	89.88
501.654	79.88
501.871	107.88
502.088	99.88
502.305	91.88
502.522	86.88
502.739	76.88
502.956	84.88
503.172	95.88
503.389	88.88
503.606	111.88
503.823	83.88
504.04	89.88
504.256	102.88
504.473	92.88
504.69	88.88
504.907	96.88
505.123	96.88
505.34	109.88
505.557	99.88
505.773	89.88
505.99	92.88
506.207	98.88
506.423	82.88
506.64	84.88
506.856	82.88
507.073	99.88
507.289	94.88
507.506	95.88
507.722	103.88
507.939	97.88
508.155	96.88
508.372	93.88
508.588	104.88
508.805	80.88
509.021	100.88
509.238	102.88
509.454	86.88
509.67	105.88
509.887	87.88
510.103	121.88
510.319	178.88
510.536	626.88
510.752	1889.88
510.968	553.88
511.184	144.88
511.401	102.88
511.617	104.88
511.833	106.88
512.049	84.88
512.265	87.88
512.481	77.88
512.698	99.88
512.914	97.88
513.13	87.88
513.346	90.88
513.562	81.88
513.778	114.88
513.994	88.88
514.21	114.88
514.426	106.88
514.642	121.88
514.858	120.88
