Data from Circ_2003_H10_HRD10591_00049.txt Node
Date: Wed Jan 03 10:37:12 EST 2024
User: Yrep
Spectrometer: HR+D1059
Trigger mode: 1
Integration Time (sec): 1.000000E-1
Scans to average: 1
Electric dark correction enabled: true
Nonlinearity correction enabled: false
Boxcar width: 0
XAxis mode: Wavelengths
Number of Pixels in Spectrum: 2048
>>>>>Begin Spectral Data<<<<<
223.165	-23.62
223.4	-23.62
223.635	-23.62
223.869	-14.62
224.104	-18.62
224.338	-13.62
224.573	-13.62
224.808	-11.62
225.042	-14.62
225.277	-16.62
225.511	6.38
225.746	17.38
225.98	8.38
226.215	16.38
226.449	26.38
226.683	13.38
226.918	14.38
227.152	24.38
227.387	36.38
227.621	47.38
227.856	43.38
228.09	37.38
228.324	62.38
228.559	54.38
228.793	60.38
229.027	62.38
229.262	64.38
229.496	76.38
229.73	62.38
229.964	74.38
230.199	89.38
230.433	79.38
230.667	92.38
230.901	82.38
231.136	78.38
231.37	87.38
231.604	62.38
231.838	79.38
232.072	87.38
232.306	77.38
232.541	75.38
232.775	64.38
233.009	60.38
233.243	80.38
233.477	65.38
233.711	77.38
233.945	82.38
234.179	84.38
234.413	81.38
234.647	75.38
234.881	73.38
235.115	65.38
235.349	73.38
235.583	81.38
235.817	88.38
236.051	68.38
236.285	77.38
236.519	75.38
236.753	68.38
236.987	81.38
237.221	87.38
237.455	88.38
237.689	80.38
237.922	68.38
238.156	75.38
238.39	75.38
238.624	78.38
238.858	74.38
239.091	72.38
239.325	78.38
239.559	73.38
239.793	73.38
240.027	72.38
240.26	63.38
240.494	79.38
240.728	70.38
240.961	81.38
241.195	92.38
241.429	62.38
241.662	66.38
241.896	78.38
242.13	69.38
242.363	68.38
242.597	79.38
242.83	84.38
243.064	81.38
243.298	78.38
243.531	76.38
243.765	67.38
243.998	76.38
244.232	67.38
244.465	77.38
244.699	78.38
244.932	80.38
245.166	88.38
245.399	77.38
245.633	70.38
245.866	62.38
246.099	66.38
246.333	72.38
246.566	70.38
246.8	74.38
247.033	69.38
247.266	71.38
247.5	72.38
247.733	70.38
247.966	70.38
248.2	73.38
248.433	65.38
248.666	67.38
248.899	92.38
249.133	92.38
249.366	82.38
249.599	95.38
249.832	69.38
250.066	67.38
250.299	82.38
250.532	68.38
250.765	89.38
250.998	73.38
251.231	63.38
251.465	89.38
251.698	90.38
251.931	77.38
252.164	71.38
252.397	82.38
252.63	65.38
252.863	81.38
253.096	85.38
253.329	85.38
253.562	95.38
253.795	78.38
254.028	73.38
254.261	72.38
254.494	67.38
254.727	67.38
254.96	97.38
255.193	87.38
255.426	79.38
255.659	76.38
255.892	77.38
256.124	65.38
256.357	73.38
256.59	84.38
256.823	88.38
257.056	90.38
257.289	81.38
257.521	104.38
257.754	89.38
257.987	81.38
258.22	77.38
258.452	67.38
258.685	68.38
258.918	83.38
259.151	70.38
259.383	75.38
259.616	62.38
259.849	81.38
260.081	72.38
260.314	84.38
260.547	69.38
260.779	76.38
261.012	78.38
261.244	65.38
261.477	82.38
261.71	94.38
261.942	91.38
262.175	113.38
262.407	89.38
262.64	81.38
262.872	77.38
263.105	82.38
263.337	73.38
263.57	79.38
263.802	97.38
264.035	73.38
264.267	84.38
264.499	78.38
264.732	69.38
264.964	71.38
265.197	84.38
265.429	85.38
265.661	70.38
265.894	93.38
266.126	70.38
266.358	79.38
266.591	71.38
266.823	76.38
267.055	78.38
267.287	69.38
267.52	73.38
267.752	80.38
267.984	74.38
268.216	70.38
268.448	86.38
268.681	73.38
268.913	83.38
269.145	82.38
269.377	79.38
269.609	77.38
269.841	73.38
270.073	84.38
270.306	81.38
270.538	84.38
270.77	79.38
271.002	72.38
271.234	78.38
271.466	80.38
271.698	86.38
271.93	75.38
272.162	70.38
272.394	90.38
272.626	81.38
272.858	76.38
273.09	92.38
273.322	82.38
273.553	75.38
273.785	92.38
274.017	80.38
274.249	90.38
274.481	74.38
274.713	76.38
274.945	84.38
275.176	86.38
275.408	98.38
275.64	75.38
275.872	84.38
276.104	85.38
276.335	85.38
276.567	78.38
276.799	102.38
277.031	105.38
277.262	96.38
277.494	81.38
277.726	81.38
277.957	66.38
278.189	78.38
278.421	79.38
278.652	81.38
278.884	87.38
279.115	82.38
279.347	93.38
279.579	78.38
279.81	93.38
280.042	66.38
280.273	69.38
280.505	87.38
280.736	67.38
280.968	64.38
281.199	79.38
281.431	82.38
281.662	93.38
281.894	87.38
282.125	89.38
282.356	114.38
282.588	119.38
282.819	98.38
283.051	95.38
283.282	84.38
283.513	89.38
283.745	82.38
283.976	87.38
284.207	74.38
284.439	76.38
284.67	80.38
284.901	78.38
285.132	85.38
285.364	105.38
285.595	81.38
285.826	91.38
286.057	102.38
286.288	87.38
286.52	86.38
286.751	87.38
286.982	77.38
287.213	82.38
287.444	96.38
287.675	82.38
287.906	83.38
288.138	88.38
288.369	91.38
288.6	95.38
288.831	98.38
289.062	85.38
289.293	79.38
289.524	83.38
289.755	85.38
289.986	91.38
290.217	81.38
290.448	81.38
290.679	67.38
290.91	83.38
291.141	82.38
291.371	82.38
291.602	85.38
291.833	96.38
292.064	85.38
292.295	88.38
292.526	75.38
292.757	89.38
292.987	83.38
293.218	95.38
293.449	77.38
293.68	77.38
293.91	78.38
294.141	81.38
294.372	89.38
294.603	82.38
294.833	83.38
295.064	86.38
295.295	87.38
295.525	86.38
295.756	105.38
295.987	118.38
296.217	125.38
296.448	127.38
296.679	80.38
296.909	86.38
297.14	95.38
297.37	93.38
297.601	86.38
297.831	96.38
298.062	82.38
298.292	90.38
298.523	85.38
298.753	82.38
298.984	93.38
299.214	83.38
299.445	89.38
299.675	101.38
299.905	93.38
300.136	96.38
300.366	82.38
300.597	78.38
300.827	90.38
301.057	79.38
301.288	100.38
301.518	94.38
301.748	88.38
301.979	111.38
302.209	92.38
302.439	71.38
302.669	78.38
302.9	84.38
303.13	92.38
303.36	101.38
303.59	96.38
303.82	83.38
304.051	90.38
304.281	94.38
304.511	72.38
304.741	78.38
304.971	93.38
305.201	94.38
305.431	84.38
305.661	86.38
305.891	83.38
306.121	88.38
306.352	83.38
306.582	81.38
306.812	88.38
307.042	73.38
307.272	101.38
307.502	99.38
307.731	89.38
307.961	70.38
308.191	89.38
308.421	79.38
308.651	94.38
308.881	80.38
309.111	88.38
309.341	93.38
309.571	100.38
309.8	90.38
310.03	95.38
310.26	91.38
310.49	102.38
310.72	91.38
310.949	99.38
311.179	99.38
311.409	101.38
311.639	105.38
311.868	85.38
312.098	77.38
312.328	99.38
312.557	87.38
312.787	74.38
313.017	86.38
313.246	81.38
313.476	83.38
313.706	93.38
313.935	98.38
314.165	98.38
314.394	90.38
314.624	87.38
314.853	98.38
315.083	80.38
315.312	84.38
315.542	102.38
315.771	81.38
316.001	93.38
316.23	80.38
316.46	74.38
316.689	79.38
316.919	91.38
317.148	105.38
317.377	110.38
317.607	94.38
317.836	96.38
318.065	87.38
318.295	89.38
318.524	82.38
318.753	81.38
318.983	81.38
319.212	87.38
319.441	94.38
319.67	97.38
319.9	84.38
320.129	83.38
320.358	67.38
320.587	103.38
320.816	92.38
321.046	93.38
321.275	98.38
321.504	83.38
321.733	89.38
321.962	83.38
322.191	92.38
322.42	87.38
322.649	104.38
322.878	96.38
323.108	112.38
323.337	121.38
323.566	121.38
323.795	142.38
324.024	183.38
324.253	349.38
324.482	703.38
324.71	1428.38
324.939	1902.38
325.168	693.38
325.397	227.38
325.626	145.38
325.855	110.38
326.084	119.38
326.313	106.38
326.542	137.38
326.77	217.38
326.999	424.38
327.228	790.38
327.457	1459.38
327.686	1182.38
327.914	305.38
328.143	181.38
328.372	127.38
328.6	113.38
328.829	116.38
329.058	115.38
329.287	107.38
329.515	104.38
329.744	101.38
329.972	120.38
330.201	109.38
330.43	126.38
330.658	118.38
330.887	113.38
331.115	94.38
331.344	91.38
331.572	101.38
331.801	110.38
332.03	96.38
332.258	88.38
332.486	76.38
332.715	82.38
332.943	100.38
333.172	83.38
333.4	101.38
333.629	105.38
333.857	113.38
334.085	94.38
334.314	108.38
334.542	126.38
334.771	125.38
334.999	96.38
335.227	92.38
335.455	82.38
335.684	106.38
335.912	97.38
336.14	92.38
336.369	85.38
336.597	110.38
336.825	95.38
337.053	89.38
337.281	91.38
337.51	78.38
337.738	84.38
337.966	91.38
338.194	87.38
338.422	89.38
338.65	84.38
338.878	86.38
339.106	90.38
339.334	92.38
339.562	82.38
339.79	94.38
340.018	82.38
340.246	79.38
340.474	93.38
340.702	98.38
340.93	87.38
341.158	90.38
341.386	96.38
341.614	88.38
341.842	91.38
342.07	104.38
342.298	103.38
342.526	80.38
342.754	88.38
342.981	88.38
343.209	79.38
343.437	97.38
343.665	86.38
343.893	85.38
344.12	72.38
344.348	80.38
344.576	95.38
344.804	108.38
345.031	99.38
345.259	90.38
345.487	89.38
345.714	98.38
345.942	104.38
346.17	102.38
346.397	79.38
346.625	72.38
346.853	88.38
347.08	83.38
347.308	82.38
347.535	92.38
347.763	93.38
347.99	83.38
348.218	89.38
348.445	99.38
348.673	84.38
348.9	102.38
349.128	92.38
349.355	91.38
349.583	83.38
349.81	81.38
350.037	72.38
350.265	87.38
350.492	77.38
350.72	97.38
350.947	96.38
351.174	109.38
351.402	104.38
351.629	101.38
351.856	101.38
352.083	92.38
352.311	92.38
352.538	107.38
352.765	110.38
352.992	122.38
353.22	102.38
353.447	104.38
353.674	100.38
353.901	98.38
354.128	105.38
354.355	92.38
354.583	86.38
354.81	109.38
355.037	86.38
355.264	95.38
355.491	89.38
355.718	89.38
355.945	100.38
356.172	101.38
356.399	87.38
356.626	92.38
356.853	86.38
357.08	84.38
357.307	81.38
357.534	84.38
357.761	91.38
357.988	100.38
358.215	92.38
358.441	89.38
358.668	79.38
358.895	87.38
359.122	90.38
359.349	83.38
359.576	86.38
359.802	89.38
360.029	96.38
360.256	114.38
360.483	95.38
360.709	89.38
360.936	86.38
361.163	101.38
361.39	98.38
361.616	87.38
361.843	82.38
362.07	92.38
362.296	76.38
362.523	86.38
362.749	88.38
362.976	93.38
363.203	89.38
363.429	85.38
363.656	96.38
363.882	91.38
364.109	87.38
364.335	84.38
364.562	87.38
364.788	77.38
365.015	80.38
365.241	93.38
365.468	100.38
365.694	104.38
365.92	81.38
366.147	93.38
366.373	76.38
366.599	83.38
366.826	87.38
367.052	89.38
367.278	97.38
367.505	86.38
367.731	89.38
367.957	82.38
368.184	86.38
368.41	100.38
368.636	104.38
368.862	114.38
369.089	100.38
369.315	83.38
369.541	100.38
369.767	87.38
369.993	90.38
370.219	78.38
370.445	93.38
370.672	88.38
370.898	86.38
371.124	98.38
371.35	87.38
371.576	85.38
371.802	88.38
372.028	95.38
372.254	94.38
372.48	84.38
372.706	93.38
372.932	89.38
373.158	81.38
373.384	96.38
373.61	76.38
373.835	71.38
374.061	85.38
374.287	87.38
374.513	102.38
374.739	90.38
374.965	85.38
375.191	96.38
375.416	98.38
375.642	79.38
375.868	90.38
376.094	82.38
376.319	89.38
376.545	80.38
376.771	90.38
376.997	88.38
377.222	93.38
377.448	98.38
377.674	93.38
377.899	94.38
378.125	83.38
378.35	103.38
378.576	81.38
378.802	92.38
379.027	93.38
379.253	93.38
379.478	93.38
379.704	88.38
379.929	104.38
380.155	89.38
380.38	90.38
380.606	97.38
380.831	89.38
381.057	81.38
381.282	82.38
381.507	83.38
381.733	82.38
381.958	106.38
382.184	104.38
382.409	100.38
382.634	101.38
382.86	112.38
383.085	101.38
383.31	93.38
383.535	111.38
383.761	104.38
383.986	100.38
384.211	104.38
384.436	101.38
384.662	108.38
384.887	106.38
385.112	106.38
385.337	103.38
385.562	112.38
385.787	105.38
386.013	110.38
386.238	126.38
386.463	104.38
386.688	115.38
386.913	103.38
387.138	90.38
387.363	105.38
387.588	96.38
387.813	102.38
388.038	102.38
388.263	103.38
388.488	104.38
388.713	89.38
388.938	93.38
389.163	96.38
389.387	94.38
389.612	93.38
389.837	83.38
390.062	84.38
390.287	95.38
390.512	82.38
390.736	85.38
390.961	74.38
391.186	77.38
391.411	90.38
391.636	94.38
391.86	89.38
392.085	90.38
392.31	96.38
392.534	84.38
392.759	83.38
392.984	84.38
393.208	95.38
393.433	94.38
393.658	95.38
393.882	98.38
394.107	90.38
394.331	89.38
394.556	80.38
394.78	96.38
395.005	100.38
395.229	83.38
395.454	88.38
395.678	84.38
395.903	93.38
396.127	93.38
396.352	93.38
396.576	88.38
396.801	81.38
397.025	95.38
397.249	89.38
397.474	96.38
397.698	82.38
397.922	94.38
398.147	87.38
398.371	79.38
398.595	88.38
398.82	87.38
399.044	74.38
399.268	84.38
399.492	83.38
399.717	95.38
399.941	85.38
400.165	93.38
400.389	96.38
400.613	88.38
400.837	89.38
401.062	80.38
401.286	93.38
401.51	78.38
401.734	74.38
401.958	96.38
402.182	114.38
402.406	125.38
402.63	104.38
402.854	83.38
403.078	86.38
403.302	82.38
403.526	81.38
403.75	80.38
403.974	72.38
404.198	83.38
404.422	92.38
404.645	93.38
404.869	95.38
405.093	97.38
405.317	105.38
405.541	89.38
405.765	105.38
405.988	106.38
406.212	142.38
406.436	200.38
406.66	124.38
406.883	97.38
407.107	78.38
407.331	97.38
407.555	97.38
407.778	110.38
408.002	95.38
408.226	93.38
408.449	100.38
408.673	79.38
408.896	85.38
409.12	87.38
409.344	87.38
409.567	84.38
409.791	85.38
410.014	101.38
410.238	90.38
410.461	84.38
410.685	78.38
410.908	105.38
411.132	101.38
411.355	91.38
411.578	80.38
411.802	74.38
412.025	89.38
412.249	96.38
412.472	84.38
412.695	84.38
412.919	85.38
413.142	75.38
413.365	88.38
413.589	83.38
413.812	88.38
414.035	99.38
414.258	93.38
414.482	91.38
414.705	86.38
414.928	101.38
415.151	84.38
415.374	100.38
415.597	106.38
415.821	87.38
416.044	86.38
416.267	100.38
416.49	80.38
416.713	100.38
416.936	94.38
417.159	80.38
417.382	85.38
417.605	70.38
417.828	88.38
418.051	85.38
418.274	88.38
418.497	96.38
418.72	92.38
418.943	85.38
419.166	82.38
419.389	100.38
419.611	88.38
419.834	90.38
420.057	93.38
420.28	78.38
420.503	102.38
420.726	79.38
420.948	82.38
421.171	94.38
421.394	78.38
421.617	89.38
421.839	80.38
422.062	100.38
422.285	97.38
422.507	83.38
422.73	88.38
422.953	93.38
423.175	98.38
423.398	84.38
423.621	99.38
423.843	88.38
424.066	76.38
424.288	92.38
424.511	94.38
424.733	91.38
424.956	103.38
425.178	108.38
425.401	104.38
425.623	85.38
425.846	93.38
426.068	85.38
426.291	85.38
426.513	95.38
426.735	93.38
426.958	90.38
427.18	91.38
427.402	129.38
427.625	157.38
427.847	114.38
428.069	94.38
428.292	82.38
428.514	98.38
428.736	95.38
428.958	73.38
429.181	89.38
429.403	86.38
429.625	86.38
429.847	77.38
430.069	89.38
430.292	89.38
430.514	89.38
430.736	82.38
430.958	90.38
431.18	84.38
431.402	93.38
431.624	76.38
431.846	94.38
432.068	85.38
432.29	83.38
432.512	73.38
432.734	95.38
432.956	98.38
433.178	83.38
433.4	106.38
433.622	78.38
433.844	95.38
434.066	89.38
434.287	97.38
434.509	96.38
434.731	97.38
434.953	71.38
435.175	82.38
435.397	93.38
435.618	84.38
435.84	96.38
436.062	119.38
436.284	108.38
436.505	103.38
436.727	93.38
436.949	89.38
437.17	76.38
437.392	94.38
437.614	97.38
437.835	102.38
438.057	94.38
438.278	98.38
438.5	100.38
438.721	105.38
438.943	106.38
439.165	88.38
439.386	97.38
439.608	100.38
439.829	98.38
440.05	104.38
440.272	128.38
440.493	91.38
440.715	87.38
440.936	86.38
441.158	80.38
441.379	85.38
441.6	91.38
441.822	106.38
442.043	82.38
442.264	90.38
442.486	86.38
442.707	87.38
442.928	109.38
443.149	114.38
443.371	115.38
443.592	102.38
443.813	86.38
444.034	108.38
444.255	89.38
444.476	94.38
444.698	93.38
444.919	102.38
445.14	126.38
445.361	115.38
445.582	117.38
445.803	113.38
446.024	113.38
446.245	126.38
446.466	111.38
446.687	92.38
446.908	95.38
447.129	103.38
447.35	78.38
447.571	89.38
447.792	94.38
448.013	92.38
448.234	93.38
448.455	105.38
448.675	89.38
448.896	105.38
449.117	84.38
449.338	104.38
449.559	131.38
449.779	128.38
450	86.38
450.221	89.38
450.442	82.38
450.662	87.38
450.883	87.38
451.104	115.38
451.324	89.38
451.545	95.38
451.766	87.38
451.986	93.38
452.207	101.38
452.428	97.38
452.648	97.38
452.869	98.38
453.089	103.38
453.31	111.38
453.53	82.38
453.751	100.38
453.971	87.38
454.192	107.38
454.412	77.38
454.633	84.38
454.853	84.38
455.073	89.38
455.294	92.38
455.514	89.38
455.734	93.38
455.955	86.38
456.175	84.38
456.395	84.38
456.616	82.38
456.836	77.38
457.056	87.38
457.276	78.38
457.497	76.38
457.717	85.38
457.937	84.38
458.157	83.38
458.377	78.38
458.598	98.38
458.818	114.38
459.038	142.38
459.258	119.38
459.478	94.38
459.698	69.38
459.918	96.38
460.138	80.38
460.358	85.38
460.578	103.38
460.798	97.38
461.018	89.38
461.238	81.38
461.458	79.38
461.678	78.38
461.898	85.38
462.118	90.38
462.338	92.38
462.558	87.38
462.777	84.38
462.997	73.38
463.217	78.38
463.437	76.38
463.657	83.38
463.876	90.38
464.096	80.38
464.316	86.38
464.536	97.38
464.755	89.38
464.975	96.38
465.195	124.38
465.414	137.38
465.634	103.38
465.854	98.38
466.073	83.38
466.293	90.38
466.512	87.38
466.732	87.38
466.951	75.38
467.171	97.38
467.391	80.38
467.61	101.38
467.829	111.38
468.049	107.38
468.268	103.38
468.488	99.38
468.707	90.38
468.927	87.38
469.146	95.38
469.365	85.38
469.585	84.38
469.804	92.38
470.023	93.38
470.243	87.38
470.462	101.38
470.681	105.38
470.901	87.38
471.12	94.38
471.339	89.38
471.558	88.38
471.777	85.38
471.997	88.38
472.216	98.38
472.435	136.38
472.654	103.38
472.873	88.38
473.092	85.38
473.311	89.38
473.53	84.38
473.749	76.38
473.968	93.38
474.187	92.38
474.406	82.38
474.625	88.38
474.844	86.38
475.063	88.38
475.282	82.38
475.501	88.38
475.72	90.38
475.939	89.38
476.158	87.38
476.377	89.38
476.596	89.38
476.814	79.38
477.033	88.38
477.252	81.38
477.471	92.38
477.69	70.38
477.908	76.38
478.127	100.38
478.346	82.38
478.564	87.38
478.783	92.38
479.002	85.38
479.22	100.38
479.439	96.38
479.658	89.38
479.876	90.38
480.095	86.38
480.313	96.38
480.532	94.38
480.751	101.38
480.969	103.38
481.188	192.38
481.406	158.38
481.624	107.38
481.843	87.38
482.061	79.38
482.28	89.38
482.498	86.38
482.717	80.38
482.935	86.38
483.153	91.38
483.372	92.38
483.59	88.38
483.808	75.38
484.027	86.38
484.245	89.38
484.463	102.38
484.681	90.38
484.9	88.38
485.118	95.38
485.336	98.38
485.554	85.38
485.772	106.38
485.99	96.38
486.209	98.38
486.427	82.38
486.645	104.38
486.863	122.38
487.081	97.38
487.299	93.38
487.517	96.38
487.735	112.38
487.953	103.38
488.171	89.38
488.389	77.38
488.607	99.38
488.825	82.38
489.043	84.38
489.261	83.38
489.479	73.38
489.696	89.38
489.914	78.38
490.132	92.38
490.35	84.38
490.568	100.38
490.786	79.38
491.003	84.38
491.221	86.38
491.439	93.38
491.657	91.38
491.874	78.38
492.092	85.38
492.31	94.38
492.527	100.38
492.745	80.38
492.963	96.38
493.18	90.38
493.398	99.38
493.615	109.38
493.833	96.38
494.05	91.38
494.268	69.38
494.485	88.38
494.703	97.38
494.92	88.38
495.138	89.38
495.355	95.38
495.573	82.38
495.79	92.38
496.008	87.38
496.225	100.38
496.442	84.38
496.66	86.38
496.877	96.38
497.094	91.38
497.312	91.38
497.529	92.38
497.746	80.38
497.963	86.38
498.181	98.38
498.398	90.38
498.615	115.38
498.832	92.38
499.049	96.38
499.267	89.38
499.484	89.38
499.701	76.38
499.918	90.38
500.135	94.38
500.352	83.38
500.569	80.38
500.786	87.38
501.003	98.38
501.22	84.38
501.437	89.38
501.654	99.38
501.871	94.38
502.088	95.38
502.305	72.38
502.522	80.38
502.739	79.38
502.956	75.38
503.172	81.38
503.389	96.38
503.606	97.38
503.823	91.38
504.04	102.38
504.256	91.38
504.473	97.38
504.69	88.38
504.907	84.38
505.123	85.38
505.34	83.38
505.557	94.38
505.773	84.38
505.99	90.38
506.207	69.38
506.423	76.38
506.64	85.38
506.856	97.38
507.073	80.38
507.289	105.38
507.506	98.38
507.722	104.38
507.939	106.38
508.155	104.38
508.372	98.38
508.588	89.38
508.805	96.38
509.021	108.38
509.238	99.38
509.454	93.38
509.67	99.38
509.887	106.38
510.103	120.38
510.319	197.38
510.536	678.38
510.752	2143.38
510.968	617.38
511.184	160.38
511.401	112.38
511.617	90.38
511.833	93.38
512.049	84.38
512.265	89.38
512.481	97.38
512.698	107.38
512.914	86.38
513.13	89.38
513.346	87.38
513.562	97.38
513.778	93.38
513.994	91.38
514.21	103.38
514.426	103.38
514.642	115.38
514.858	113.38
515.074	150.38
515.29	377.38
515.506	1235.38
515.721	464.38
515.937	135.38
516.153	94.38
516.369	82.38
