Data from Circ_2003_H10_HRD10591_00001.txt Node
Date: Wed Jan 03 10:37:02 EST 2024
User: Yrep
Spectrometer: HR+D1059
Trigger mode: 1
Integration Time (sec): 1.000000E-1
Scans to average: 1
Electric dark correction enabled: true
Nonlinearity correction enabled: false
Boxcar width: 0
XAxis mode: Wavelengths
Number of Pixels in Spectrum: 2048
>>>>>Begin Spectral Data<<<<<
223.165	-14.56
223.4	-14.56
223.635	-14.56
223.869	-1.56
224.104	-26.56
224.338	-13.56
224.573	-17.56
224.808	-13.56
225.042	-16.56
225.277	-13.56
225.511	16.44
225.746	9.44
225.98	2.44
226.215	13.44
226.449	13.44
226.683	11.44
226.918	28.44
227.152	22.44
227.387	27.44
227.621	25.44
227.856	42.44
228.09	46.44
228.324	43.44
228.559	70.44
228.793	58.44
229.027	57.44
229.262	72.44
229.496	63.44
229.73	86.44
229.964	79.44
230.199	78.44
230.433	72.44
230.667	84.44
230.901	64.44
231.136	74.44
231.37	82.44
231.604	84.44
231.838	87.44
232.072	83.44
232.306	84.44
232.541	78.44
232.775	82.44
233.009	87.44
233.243	75.44
233.477	76.44
233.711	91.44
233.945	82.44
234.179	77.44
234.413	72.44
234.647	71.44
234.881	76.44
235.115	74.44
235.349	82.44
235.583	82.44
235.817	81.44
236.051	69.44
236.285	71.44
236.519	88.44
236.753	75.44
236.987	75.44
237.221	78.44
237.455	75.44
237.689	75.44
237.922	75.44
238.156	71.44
238.39	83.44
238.624	79.44
238.858	73.44
239.091	71.44
239.325	94.44
239.559	79.44
239.793	76.44
240.027	84.44
240.26	79.44
240.494	74.44
240.728	74.44
240.961	86.44
241.195	74.44
241.429	92.44
241.662	81.44
241.896	90.44
242.13	80.44
242.363	72.44
242.597	79.44
242.83	67.44
243.064	85.44
243.298	80.44
243.531	78.44
243.765	84.44
243.998	81.44
244.232	85.44
244.465	70.44
244.699	74.44
244.932	81.44
245.166	80.44
245.399	82.44
245.633	66.44
245.866	72.44
246.099	67.44
246.333	79.44
246.566	78.44
246.8	69.44
247.033	84.44
247.266	92.44
247.5	82.44
247.733	75.44
247.966	92.44
248.2	88.44
248.433	69.44
248.666	82.44
248.899	78.44
249.133	89.44
249.366	89.44
249.599	94.44
249.832	66.44
250.066	91.44
250.299	92.44
250.532	87.44
250.765	77.44
250.998	76.44
251.231	82.44
251.465	70.44
251.698	87.44
251.931	86.44
252.164	80.44
252.397	96.44
252.63	73.44
252.863	69.44
253.096	76.44
253.329	82.44
253.562	90.44
253.795	70.44
254.028	72.44
254.261	79.44
254.494	77.44
254.727	82.44
254.96	93.44
255.193	88.44
255.426	75.44
255.659	82.44
255.892	72.44
256.124	79.44
256.357	75.44
256.59	88.44
256.823	86.44
257.056	87.44
257.289	81.44
257.521	83.44
257.754	80.44
257.987	91.44
258.22	81.44
258.452	86.44
258.685	77.44
258.918	75.44
259.151	91.44
259.383	89.44
259.616	98.44
259.849	84.44
260.081	91.44
260.314	84.44
260.547	74.44
260.779	81.44
261.012	84.44
261.244	78.44
261.477	76.44
261.71	90.44
261.942	99.44
262.175	124.44
262.407	89.44
262.64	78.44
262.872	74.44
263.105	78.44
263.337	88.44
263.57	84.44
263.802	88.44
264.035	80.44
264.267	82.44
264.499	87.44
264.732	88.44
264.964	90.44
265.197	79.44
265.429	76.44
265.661	83.44
265.894	74.44
266.126	86.44
266.358	86.44
266.591	103.44
266.823	93.44
267.055	69.44
267.287	80.44
267.52	81.44
267.752	79.44
267.984	80.44
268.216	92.44
268.448	77.44
268.681	80.44
268.913	72.44
269.145	92.44
269.377	87.44
269.609	101.44
269.841	94.44
270.073	82.44
270.306	81.44
270.538	95.44
270.77	82.44
271.002	77.44
271.234	82.44
271.466	90.44
271.698	69.44
271.93	74.44
272.162	83.44
272.394	85.44
272.626	81.44
272.858	98.44
273.09	86.44
273.322	83.44
273.553	87.44
273.785	92.44
274.017	91.44
274.249	93.44
274.481	85.44
274.713	85.44
274.945	78.44
275.176	85.44
275.408	82.44
275.64	95.44
275.872	87.44
276.104	84.44
276.335	84.44
276.567	88.44
276.799	99.44
277.031	98.44
277.262	91.44
277.494	91.44
277.726	88.44
277.957	80.44
278.189	93.44
278.421	78.44
278.652	91.44
278.884	74.44
279.115	85.44
279.347	83.44
279.579	84.44
279.81	95.44
280.042	90.44
280.273	94.44
280.505	92.44
280.736	82.44
280.968	86.44
281.199	102.44
281.431	80.44
281.662	72.44
281.894	99.44
282.125	96.44
282.356	109.44
282.588	123.44
282.819	118.44
283.051	90.44
283.282	84.44
283.513	82.44
283.745	86.44
283.976	89.44
284.207	86.44
284.439	94.44
284.67	97.44
284.901	82.44
285.132	87.44
285.364	88.44
285.595	86.44
285.826	83.44
286.057	90.44
286.288	84.44
286.52	85.44
286.751	84.44
286.982	79.44
287.213	82.44
287.444	94.44
287.675	76.44
287.906	85.44
288.138	89.44
288.369	85.44
288.6	76.44
288.831	100.44
289.062	81.44
289.293	82.44
289.524	88.44
289.755	102.44
289.986	92.44
290.217	91.44
290.448	89.44
290.679	87.44
290.91	87.44
291.141	90.44
291.371	70.44
291.602	85.44
291.833	86.44
292.064	84.44
292.295	83.44
292.526	85.44
292.757	85.44
292.987	98.44
293.218	88.44
293.449	99.44
293.68	95.44
293.91	88.44
294.141	81.44
294.372	98.44
294.603	78.44
294.833	82.44
295.064	88.44
295.295	70.44
295.525	79.44
295.756	95.44
295.987	99.44
296.217	104.44
296.448	88.44
296.679	86.44
296.909	74.44
297.14	83.44
297.37	91.44
297.601	79.44
297.831	96.44
298.062	98.44
298.292	98.44
298.523	97.44
298.753	85.44
298.984	89.44
299.214	80.44
299.445	88.44
299.675	96.44
299.905	100.44
300.136	94.44
300.366	83.44
300.597	99.44
300.827	94.44
301.057	87.44
301.288	99.44
301.518	100.44
301.748	88.44
301.979	91.44
302.209	91.44
302.439	81.44
302.669	88.44
302.9	87.44
303.13	99.44
303.36	90.44
303.59	89.44
303.82	92.44
304.051	102.44
304.281	86.44
304.511	84.44
304.741	90.44
304.971	78.44
305.201	94.44
305.431	85.44
305.661	80.44
305.891	90.44
306.121	111.44
306.352	98.44
306.582	106.44
306.812	97.44
307.042	84.44
307.272	89.44
307.502	87.44
307.731	71.44
307.961	92.44
308.191	78.44
308.421	105.44
308.651	104.44
308.881	103.44
309.111	107.44
309.341	96.44
309.571	102.44
309.8	91.44
310.03	110.44
310.26	97.44
310.49	85.44
310.72	94.44
310.949	94.44
311.179	96.44
311.409	82.44
311.639	84.44
311.868	106.44
312.098	88.44
312.328	95.44
312.557	101.44
312.787	105.44
313.017	91.44
313.246	96.44
313.476	80.44
313.706	87.44
313.935	106.44
314.165	98.44
314.394	101.44
314.624	116.44
314.853	108.44
315.083	90.44
315.312	87.44
315.542	81.44
315.771	84.44
316.001	82.44
316.23	96.44
316.46	94.44
316.689	73.44
316.919	101.44
317.148	85.44
317.377	82.44
317.607	83.44
317.836	91.44
318.065	96.44
318.295	91.44
318.524	94.44
318.753	96.44
318.983	86.44
319.212	87.44
319.441	100.44
319.67	96.44
319.9	100.44
320.129	84.44
320.358	96.44
320.587	96.44
320.816	107.44
321.046	95.44
321.275	103.44
321.504	103.44
321.733	108.44
321.962	97.44
322.191	122.44
322.42	110.44
322.649	113.44
322.878	112.44
323.108	96.44
323.337	112.44
323.566	112.44
323.795	145.44
324.024	168.44
324.253	327.44
324.482	686.44
324.71	1387.44
324.939	1830.44
325.168	699.44
325.397	216.44
325.626	137.44
325.855	128.44
326.084	127.44
326.313	129.44
326.542	154.44
326.77	198.44
326.999	404.44
327.228	798.44
327.457	1418.44
327.686	1159.44
327.914	320.44
328.143	170.44
328.372	136.44
328.6	116.44
328.829	112.44
329.058	115.44
329.287	117.44
329.515	87.44
329.744	101.44
329.972	99.44
330.201	87.44
330.43	90.44
330.658	110.44
330.887	132.44
331.115	107.44
331.344	105.44
331.572	90.44
331.801	96.44
332.03	92.44
332.258	94.44
332.486	102.44
332.715	94.44
332.943	99.44
333.172	79.44
333.4	94.44
333.629	101.44
333.857	92.44
334.085	114.44
334.314	84.44
334.542	87.44
334.771	92.44
334.999	82.44
335.227	86.44
335.455	85.44
335.684	83.44
335.912	109.44
336.14	107.44
336.369	118.44
336.597	107.44
336.825	83.44
337.053	90.44
337.281	84.44
337.51	88.44
337.738	95.44
337.966	92.44
338.194	99.44
338.422	106.44
338.65	96.44
338.878	95.44
339.106	106.44
339.334	95.44
339.562	81.44
339.79	104.44
340.018	98.44
340.246	93.44
340.474	106.44
340.702	86.44
340.93	95.44
341.158	106.44
341.386	94.44
341.614	101.44
341.842	106.44
342.07	88.44
342.298	94.44
342.526	107.44
342.754	75.44
342.981	80.44
343.209	88.44
343.437	102.44
343.665	82.44
343.893	105.44
344.12	78.44
344.348	97.44
344.576	94.44
344.804	102.44
345.031	101.44
345.259	89.44
345.487	102.44
345.714	104.44
345.942	106.44
346.17	95.44
346.397	94.44
346.625	106.44
346.853	89.44
347.08	100.44
347.308	93.44
347.535	93.44
347.763	84.44
347.99	89.44
348.218	118.44
348.445	102.44
348.673	95.44
348.9	102.44
349.128	84.44
349.355	94.44
349.583	99.44
349.81	98.44
350.037	100.44
350.265	96.44
350.492	89.44
350.72	106.44
350.947	90.44
351.174	107.44
351.402	99.44
351.629	99.44
351.856	95.44
352.083	96.44
352.311	96.44
352.538	107.44
352.765	121.44
352.992	129.44
353.22	105.44
353.447	110.44
353.674	109.44
353.901	98.44
354.128	97.44
354.355	94.44
354.583	107.44
354.81	106.44
355.037	112.44
355.264	106.44
355.491	107.44
355.718	92.44
355.945	89.44
356.172	110.44
356.399	119.44
356.626	120.44
356.853	96.44
357.08	88.44
357.307	102.44
357.534	97.44
357.761	105.44
357.988	101.44
358.215	104.44
358.441	112.44
358.668	115.44
358.895	99.44
359.122	89.44
359.349	93.44
359.576	104.44
359.802	98.44
360.029	89.44
360.256	106.44
360.483	88.44
360.709	84.44
360.936	88.44
361.163	79.44
361.39	89.44
361.616	111.44
361.843	96.44
362.07	102.44
362.296	96.44
362.523	78.44
362.749	89.44
362.976	98.44
363.203	92.44
363.429	86.44
363.656	88.44
363.882	91.44
364.109	86.44
364.335	95.44
364.562	92.44
364.788	86.44
365.015	91.44
365.241	96.44
365.468	113.44
365.694	108.44
365.92	95.44
366.147	93.44
366.373	93.44
366.599	94.44
366.826	78.44
367.052	95.44
367.278	92.44
367.505	94.44
367.731	87.44
367.957	91.44
368.184	96.44
368.41	95.44
368.636	101.44
368.862	98.44
369.089	92.44
369.315	96.44
369.541	94.44
369.767	83.44
369.993	96.44
370.219	101.44
370.445	87.44
370.672	81.44
370.898	86.44
371.124	96.44
371.35	91.44
371.576	75.44
371.802	85.44
372.028	78.44
372.254	90.44
372.48	83.44
372.706	90.44
372.932	84.44
373.158	86.44
373.384	92.44
373.61	95.44
373.835	95.44
374.061	100.44
374.287	89.44
374.513	86.44
374.739	103.44
374.965	85.44
375.191	92.44
375.416	96.44
375.642	100.44
375.868	96.44
376.094	95.44
376.319	90.44
376.545	110.44
376.771	110.44
376.997	98.44
377.222	102.44
377.448	91.44
377.674	101.44
377.899	98.44
378.125	103.44
378.35	95.44
378.576	100.44
378.802	87.44
379.027	103.44
379.253	93.44
379.478	105.44
379.704	120.44
379.929	131.44
380.155	99.44
380.38	105.44
380.606	121.44
380.831	92.44
381.057	121.44
381.282	114.44
381.507	115.44
381.733	129.44
381.958	124.44
382.184	128.44
382.409	112.44
382.634	125.44
382.86	133.44
383.085	141.44
383.31	140.44
383.535	127.44
383.761	126.44
383.986	126.44
384.211	127.44
384.436	120.44
384.662	127.44
384.887	146.44
385.112	152.44
385.337	161.44
385.562	147.44
385.787	176.44
386.013	162.44
386.238	150.44
386.463	142.44
386.688	148.44
386.913	153.44
387.138	159.44
387.363	142.44
387.588	126.44
387.813	135.44
388.038	156.44
388.263	167.44
388.488	167.44
388.713	124.44
388.938	103.44
389.163	99.44
389.387	101.44
389.612	92.44
389.837	100.44
390.062	103.44
390.287	97.44
390.512	89.44
390.736	98.44
390.961	87.44
391.186	92.44
391.411	83.44
391.636	97.44
391.86	90.44
392.085	89.44
392.31	88.44
392.534	75.44
392.759	74.44
392.984	106.44
393.208	103.44
393.433	132.44
393.658	116.44
393.882	97.44
394.107	89.44
394.331	86.44
394.556	87.44
394.78	107.44
395.005	103.44
395.229	82.44
395.454	80.44
395.678	95.44
395.903	94.44
396.127	89.44
396.352	96.44
396.576	102.44
396.801	99.44
397.025	92.44
397.249	101.44
397.474	97.44
397.698	102.44
397.922	102.44
398.147	91.44
398.371	85.44
398.595	94.44
398.82	101.44
399.044	112.44
399.268	82.44
399.492	83.44
399.717	108.44
399.941	96.44
400.165	96.44
400.389	92.44
400.613	91.44
400.837	90.44
401.062	89.44
401.286	91.44
401.51	89.44
401.734	94.44
401.958	99.44
402.182	119.44
402.406	142.44
402.63	113.44
402.854	93.44
403.078	55.44
403.302	100.44
403.526	100.44
403.75	92.44
403.974	83.44
404.198	83.44
404.422	92.44
404.645	95.44
404.869	91.44
405.093	94.44
405.317	102.44
405.541	102.44
405.765	92.44
405.988	132.44
406.212	145.44
406.436	168.44
406.66	149.44
406.883	97.44
407.107	98.44
407.331	90.44
407.555	104.44
407.778	83.44
408.002	84.44
408.226	80.44
408.449	86.44
408.673	89.44
408.896	93.44
409.12	103.44
409.344	86.44
409.567	92.44
409.791	100.44
410.014	106.44
410.238	82.44
410.461	83.44
410.685	94.44
410.908	91.44
411.132	108.44
411.355	93.44
411.578	100.44
411.802	99.44
412.025	89.44
412.249	90.44
412.472	86.44
412.695	110.44
412.919	105.44
413.142	108.44
413.365	93.44
413.589	91.44
413.812	102.44
414.035	97.44
414.258	87.44
414.482	91.44
414.705	101.44
414.928	113.44
415.151	103.44
415.374	103.44
415.597	104.44
415.821	91.44
416.044	95.44
416.267	97.44
416.49	92.44
416.713	84.44
416.936	89.44
417.159	78.44
417.382	81.44
417.605	108.44
417.828	80.44
418.051	96.44
418.274	79.44
418.497	99.44
418.72	96.44
418.943	111.44
419.166	96.44
419.389	90.44
419.611	100.44
419.834	97.44
420.057	84.44
420.28	90.44
420.503	95.44
420.726	86.44
420.948	83.44
421.171	81.44
421.394	92.44
421.617	82.44
421.839	89.44
422.062	89.44
422.285	108.44
422.507	113.44
422.73	129.44
422.953	102.44
423.175	95.44
423.398	90.44
423.621	92.44
423.843	104.44
424.066	72.44
424.288	83.44
424.511	97.44
424.733	115.44
424.956	106.44
425.178	108.44
425.401	91.44
425.623	89.44
425.846	93.44
426.068	95.44
426.291	91.44
426.513	88.44
426.735	82.44
426.958	98.44
427.18	103.44
427.402	124.44
427.625	150.44
427.847	111.44
428.069	106.44
428.292	93.44
428.514	89.44
428.736	98.44
428.958	90.44
429.181	94.44
429.403	82.44
429.625	85.44
429.847	92.44
430.069	102.44
430.292	95.44
430.514	80.44
430.736	94.44
430.958	88.44
431.18	98.44
431.402	85.44
431.624	83.44
431.846	87.44
432.068	97.44
432.29	88.44
432.512	93.44
432.734	86.44
432.956	76.44
433.178	91.44
433.4	110.44
433.622	88.44
433.844	87.44
434.066	98.44
434.287	103.44
434.509	96.44
434.731	94.44
434.953	80.44
435.175	79.44
435.397	89.44
435.618	92.44
435.84	104.44
436.062	113.44
436.284	113.44
436.505	108.44
436.727	111.44
436.949	91.44
437.17	99.44
437.392	91.44
437.614	86.44
437.835	99.44
438.057	116.44
438.278	107.44
438.5	94.44
438.721	110.44
438.943	98.44
439.165	86.44
439.386	94.44
439.608	106.44
439.829	89.44
440.05	129.44
440.272	122.44
440.493	94.44
440.715	79.44
440.936	90.44
441.158	89.44
441.379	90.44
441.6	97.44
441.822	93.44
442.043	102.44
442.264	92.44
442.486	103.44
442.707	88.44
442.928	102.44
443.149	116.44
443.371	115.44
443.592	103.44
443.813	99.44
444.034	94.44
444.255	90.44
444.476	80.44
444.698	79.44
444.919	75.44
445.14	130.44
445.361	117.44
445.582	114.44
445.803	118.44
446.024	110.44
446.245	114.44
446.466	95.44
446.687	89.44
446.908	100.44
447.129	99.44
447.35	89.44
447.571	90.44
447.792	91.44
448.013	95.44
448.234	86.44
448.455	106.44
448.675	113.44
448.896	92.44
449.117	105.44
449.338	110.44
449.559	115.44
449.779	119.44
450	82.44
450.221	80.44
450.442	97.44
450.662	94.44
450.883	103.44
451.104	108.44
451.324	94.44
451.545	105.44
451.766	88.44
451.986	96.44
452.207	97.44
452.428	104.44
452.648	94.44
452.869	105.44
453.089	104.44
453.31	112.44
453.53	89.44
453.751	91.44
453.971	87.44
454.192	96.44
454.412	97.44
454.633	81.44
454.853	84.44
455.073	93.44
455.294	88.44
455.514	102.44
455.734	86.44
455.955	89.44
456.175	70.44
456.395	72.44
456.616	99.44
456.836	91.44
457.056	96.44
457.276	93.44
457.497	87.44
457.717	86.44
457.937	88.44
458.157	84.44
458.377	83.44
458.598	98.44
458.818	119.44
459.038	119.44
459.258	101.44
459.478	85.44
459.698	89.44
459.918	88.44
460.138	68.44
460.358	89.44
460.578	93.44
460.798	86.44
461.018	101.44
461.238	77.44
461.458	75.44
461.678	83.44
461.898	95.44
462.118	74.44
462.338	92.44
462.558	100.44
462.777	104.44
462.997	94.44
463.217	83.44
463.437	70.44
463.657	88.44
463.876	78.44
464.096	86.44
464.316	95.44
464.536	79.44
464.755	79.44
464.975	99.44
465.195	142.44
465.414	129.44
465.634	94.44
465.854	100.44
466.073	100.44
466.293	83.44
466.512	86.44
466.732	88.44
466.951	92.44
467.171	89.44
467.391	70.44
467.61	79.44
467.829	90.44
468.049	87.44
468.268	99.44
468.488	91.44
468.707	82.44
468.927	100.44
469.146	81.44
469.365	81.44
469.585	82.44
469.804	96.44
470.023	86.44
470.243	93.44
470.462	112.44
470.681	103.44
470.901	82.44
471.12	90.44
471.339	95.44
471.558	91.44
471.777	80.44
471.997	101.44
472.216	91.44
472.435	93.44
472.654	81.44
472.873	87.44
473.092	82.44
473.311	98.44
473.53	82.44
473.749	85.44
473.968	90.44
474.187	103.44
474.406	96.44
474.625	98.44
474.844	91.44
475.063	83.44
475.282	94.44
475.501	85.44
475.72	88.44
475.939	71.44
476.158	103.44
476.377	91.44
476.596	92.44
476.814	97.44
477.033	99.44
477.252	94.44
477.471	87.44
477.69	104.44
477.908	87.44
478.127	85.44
478.346	100.44
478.564	93.44
478.783	110.44
479.002	91.44
479.22	93.44
479.439	88.44
479.658	113.44
479.876	87.44
480.095	70.44
480.313	83.44
480.532	83.44
480.751	87.44
480.969	90.44
481.188	80.44
481.406	107.44
481.624	90.44
481.843	92.44
482.061	86.44
482.28	98.44
482.498	90.44
482.717	93.44
482.935	90.44
483.153	101.44
483.372	100.44
483.59	94.44
483.808	91.44
484.027	102.44
484.245	91.44
484.463	78.44
484.681	100.44
484.9	90.44
485.118	103.44
485.336	103.44
485.554	106.44
485.772	108.44
485.99	105.44
486.209	115.44
486.427	105.44
486.645	118.44
486.863	116.44
487.081	108.44
487.299	95.44
487.517	106.44
487.735	100.44
487.953	86.44
488.171	94.44
488.389	102.44
488.607	102.44
488.825	96.44
489.043	86.44
489.261	107.44
489.479	88.44
489.696	97.44
489.914	93.44
490.132	85.44
490.35	93.44
490.568	88.44
490.786	105.44
491.003	89.44
491.221	88.44
491.439	87.44
491.657	87.44
491.874	87.44
492.092	82.44
492.31	98.44
492.527	90.44
492.745	79.44
492.963	92.44
493.18	96.44
493.398	105.44
493.615	90.44
493.833	88.44
494.05	99.44
494.268	80.44
494.485	80.44
494.703	92.44
494.92	95.44
495.138	90.44
495.355	81.44
495.573	88.44
495.79	86.44
496.008	98.44
496.225	97.44
496.442	79.44
496.66	96.44
496.877	85.44
497.094	92.44
497.312	88.44
497.529	96.44
497.746	98.44
497.963	89.44
498.181	98.44
498.398	108.44
498.615	106.44
498.832	107.44
499.049	92.44
499.267	87.44
499.484	85.44
499.701	91.44
499.918	84.44
500.135	95.44
500.352	82.44
500.569	78.44
500.786	80.44
501.003	107.44
501.22	91.44
501.437	88.44
501.654	79.44
501.871	99.44
502.088	93.44
502.305	74.44
502.522	89.44
502.739	101.44
502.956	80.44
503.172	94.44
503.389	99.44
503.606	104.44
503.823	92.44
504.04	90.44
504.256	91.44
504.473	92.44
504.69	95.44
504.907	96.44
505.123	75.44
505.34	82.44
505.557	86.44
505.773	100.44
505.99	86.44
506.207	81.44
506.423	89.44
506.64	87.44
506.856	90.44
507.073	83.44
507.289	98.44
507.506	90.44
507.722	88.44
507.939	96.44
508.155	92.44
508.372	102.44
508.588	90.44
508.805	90.44
509.021	95.44
509.238	99.44
509.454	84.44
509.67	108.44
509.887	92.44
510.103	133.44
510.319	200.44
510.536	605.44
510.752	1798.44
510.968	528.44
511.184	140.44
511.401	108.44
511.617	105.44
511.833	86.44
512.049	99.44
512.265	93.44
512.481	94.44
512.698	89.44
512.914	90.44
513.13	97.44
513.346	87.44
513.562	106.44
513.778	97.44
513.994	97.44
514.21	95.44
514.426	113.44
514.642	116.44
514.858	112.44
515.074	138.44
