Data from Circ_2003_H10_HRD10591_00035.txt Node
Date: Wed Jan 03 10:37:09 EST 2024
User: Yrep
Spectrometer: HR+D1059
Trigger mode: 1
Integration Time (sec): 1.000000E-1
Scans to average: 1
Electric dark correction enabled: true
Nonlinearity correction enabled: false
Boxcar width: 0
XAxis mode: Wavelengths
Number of Pixels in Spectrum: 2048
>>>>>Begin Spectral Data<<<<<
223.165	-22.5
223.4	-22.5
223.635	-22.5
223.869	-10.5
224.104	-11.5
224.338	-0.5
224.573	-13.5
224.808	-13.5
225.042	-4.5
225.277	-1.5
225.511	-13.5
225.746	-3.5
225.98	1.5
226.215	9.5
226.449	9.5
226.683	21.5
226.918	14.5
227.152	38.5
227.387	29.5
227.621	46.5
227.856	41.5
228.09	50.5
228.324	48.5
228.559	63.5
228.793	63.5
229.027	63.5
229.262	65.5
229.496	67.5
229.73	70.5
229.964	66.5
230.199	65.5
230.433	67.5
230.667	74.5
230.901	76.5
231.136	63.5
231.37	71.5
231.604	74.5
231.838	86.5
232.072	81.5
232.306	80.5
232.541	79.5
232.775	86.5
233.009	86.5
233.243	68.5
233.477	65.5
233.711	88.5
233.945	80.5
234.179	79.5
234.413	84.5
234.647	77.5
234.881	92.5
235.115	74.5
235.349	85.5
235.583	97.5
235.817	82.5
236.051	76.5
236.285	81.5
236.519	87.5
236.753	77.5
236.987	80.5
237.221	68.5
237.455	89.5
237.689	72.5
237.922	69.5
238.156	72.5
238.39	66.5
238.624	68.5
238.858	71.5
239.091	73.5
239.325	83.5
239.559	83.5
239.793	66.5
240.027	71.5
240.26	86.5
240.494	70.5
240.728	62.5
240.961	69.5
241.195	65.5
241.429	70.5
241.662	70.5
241.896	85.5
242.13	73.5
242.363	77.5
242.597	72.5
242.83	76.5
243.064	66.5
243.298	87.5
243.531	67.5
243.765	84.5
243.998	86.5
244.232	66.5
244.465	81.5
244.699	81.5
244.932	77.5
245.166	63.5
245.399	81.5
245.633	79.5
245.866	76.5
246.099	67.5
246.333	66.5
246.566	86.5
246.8	88.5
247.033	77.5
247.266	82.5
247.5	85.5
247.733	81.5
247.966	60.5
248.2	79.5
248.433	78.5
248.666	71.5
248.899	83.5
249.133	73.5
249.366	98.5
249.599	90.5
249.832	81.5
250.066	83.5
250.299	83.5
250.532	81.5
250.765	85.5
250.998	86.5
251.231	90.5
251.465	87.5
251.698	74.5
251.931	68.5
252.164	73.5
252.397	93.5
252.63	76.5
252.863	70.5
253.096	83.5
253.329	88.5
253.562	83.5
253.795	87.5
254.028	79.5
254.261	73.5
254.494	82.5
254.727	88.5
254.96	93.5
255.193	80.5
255.426	86.5
255.659	77.5
255.892	84.5
256.124	71.5
256.357	76.5
256.59	78.5
256.823	84.5
257.056	95.5
257.289	93.5
257.521	79.5
257.754	97.5
257.987	87.5
258.22	84.5
258.452	84.5
258.685	75.5
258.918	93.5
259.151	74.5
259.383	81.5
259.616	79.5
259.849	80.5
260.081	71.5
260.314	90.5
260.547	77.5
260.779	69.5
261.012	100.5
261.244	86.5
261.477	93.5
261.71	96.5
261.942	109.5
262.175	104.5
262.407	92.5
262.64	87.5
262.872	80.5
263.105	79.5
263.337	83.5
263.57	84.5
263.802	82.5
264.035	76.5
264.267	87.5
264.499	73.5
264.732	82.5
264.964	83.5
265.197	80.5
265.429	86.5
265.661	85.5
265.894	73.5
266.126	90.5
266.358	81.5
266.591	70.5
266.823	74.5
267.055	88.5
267.287	85.5
267.52	96.5
267.752	86.5
267.984	72.5
268.216	83.5
268.448	78.5
268.681	87.5
268.913	85.5
269.145	71.5
269.377	89.5
269.609	88.5
269.841	75.5
270.073	97.5
270.306	95.5
270.538	82.5
270.77	68.5
271.002	87.5
271.234	86.5
271.466	88.5
271.698	87.5
271.93	89.5
272.162	87.5
272.394	85.5
272.626	82.5
272.858	81.5
273.09	89.5
273.322	84.5
273.553	76.5
273.785	86.5
274.017	90.5
274.249	82.5
274.481	69.5
274.713	75.5
274.945	86.5
275.176	80.5
275.408	80.5
275.64	93.5
275.872	91.5
276.104	79.5
276.335	88.5
276.567	99.5
276.799	104.5
277.031	99.5
277.262	79.5
277.494	100.5
277.726	90.5
277.957	69.5
278.189	89.5
278.421	101.5
278.652	88.5
278.884	86.5
279.115	91.5
279.347	80.5
279.579	97.5
279.81	98.5
280.042	87.5
280.273	93.5
280.505	85.5
280.736	87.5
280.968	97.5
281.199	88.5
281.431	79.5
281.662	81.5
281.894	78.5
282.125	90.5
282.356	120.5
282.588	136.5
282.819	101.5
283.051	94.5
283.282	83.5
283.513	82.5
283.745	78.5
283.976	81.5
284.207	80.5
284.439	89.5
284.67	83.5
284.901	81.5
285.132	78.5
285.364	89.5
285.595	82.5
285.826	85.5
286.057	100.5
286.288	73.5
286.52	84.5
286.751	65.5
286.982	95.5
287.213	82.5
287.444	99.5
287.675	89.5
287.906	93.5
288.138	94.5
288.369	99.5
288.6	93.5
288.831	96.5
289.062	95.5
289.293	76.5
289.524	89.5
289.755	88.5
289.986	90.5
290.217	86.5
290.448	81.5
290.679	92.5
290.91	79.5
291.141	88.5
291.371	83.5
291.602	82.5
291.833	77.5
292.064	85.5
292.295	87.5
292.526	93.5
292.757	87.5
292.987	103.5
293.218	88.5
293.449	92.5
293.68	86.5
293.91	83.5
294.141	81.5
294.372	82.5
294.603	83.5
294.833	77.5
295.064	89.5
295.295	89.5
295.525	96.5
295.756	91.5
295.987	104.5
296.217	128.5
296.448	119.5
296.679	97.5
296.909	88.5
297.14	87.5
297.37	78.5
297.601	79.5
297.831	87.5
298.062	104.5
298.292	86.5
298.523	101.5
298.753	86.5
298.984	104.5
299.214	88.5
299.445	85.5
299.675	119.5
299.905	101.5
300.136	92.5
300.366	87.5
300.597	96.5
300.827	86.5
301.057	93.5
301.288	112.5
301.518	111.5
301.748	89.5
301.979	88.5
302.209	86.5
302.439	87.5
302.669	92.5
302.9	88.5
303.13	86.5
303.36	94.5
303.59	101.5
303.82	118.5
304.051	101.5
304.281	92.5
304.511	94.5
304.741	84.5
304.971	90.5
305.201	87.5
305.431	84.5
305.661	79.5
305.891	79.5
306.121	94.5
306.352	103.5
306.582	105.5
306.812	94.5
307.042	88.5
307.272	81.5
307.502	86.5
307.731	100.5
307.961	81.5
308.191	93.5
308.421	91.5
308.651	104.5
308.881	89.5
309.111	91.5
309.341	96.5
309.571	100.5
309.8	94.5
310.03	97.5
310.26	96.5
310.49	96.5
310.72	97.5
310.949	104.5
311.179	113.5
311.409	92.5
311.639	97.5
311.868	90.5
312.098	101.5
312.328	95.5
312.557	93.5
312.787	106.5
313.017	113.5
313.246	86.5
313.476	94.5
313.706	93.5
313.935	77.5
314.165	98.5
314.394	91.5
314.624	103.5
314.853	90.5
315.083	89.5
315.312	97.5
315.542	84.5
315.771	89.5
316.001	95.5
316.23	89.5
316.46	90.5
316.689	89.5
316.919	101.5
317.148	98.5
317.377	97.5
317.607	105.5
317.836	94.5
318.065	100.5
318.295	81.5
318.524	91.5
318.753	93.5
318.983	88.5
319.212	94.5
319.441	103.5
319.67	104.5
319.9	88.5
320.129	82.5
320.358	109.5
320.587	100.5
320.816	94.5
321.046	93.5
321.275	105.5
321.504	103.5
321.733	97.5
321.962	104.5
322.191	91.5
322.42	116.5
322.649	109.5
322.878	103.5
323.108	120.5
323.337	120.5
323.566	141.5
323.795	136.5
324.024	205.5
324.253	400.5
324.482	869.5
324.71	1804.5
324.939	2355.5
325.168	837.5
325.397	257.5
325.626	139.5
325.855	124.5
326.084	138.5
326.313	134.5
326.542	160.5
326.77	232.5
326.999	479.5
327.228	987.5
327.457	1839.5
327.686	1425.5
327.914	391.5
328.143	181.5
328.372	138.5
328.6	122.5
328.829	119.5
329.058	117.5
329.287	108.5
329.515	113.5
329.744	103.5
329.972	107.5
330.201	100.5
330.43	114.5
330.658	126.5
330.887	143.5
331.115	126.5
331.344	104.5
331.572	100.5
331.801	94.5
332.03	93.5
332.258	102.5
332.486	95.5
332.715	95.5
332.943	96.5
333.172	97.5
333.4	90.5
333.629	108.5
333.857	115.5
334.085	92.5
334.314	98.5
334.542	91.5
334.771	121.5
334.999	102.5
335.227	103.5
335.455	94.5
335.684	96.5
335.912	89.5
336.14	95.5
336.369	100.5
336.597	101.5
336.825	105.5
337.053	95.5
337.281	93.5
337.51	92.5
337.738	89.5
337.966	102.5
338.194	95.5
338.422	95.5
338.65	87.5
338.878	79.5
339.106	89.5
339.334	97.5
339.562	103.5
339.79	89.5
340.018	76.5
340.246	91.5
340.474	98.5
340.702	99.5
340.93	98.5
341.158	86.5
341.386	84.5
341.614	96.5
341.842	78.5
342.07	94.5
342.298	94.5
342.526	84.5
342.754	83.5
342.981	102.5
343.209	92.5
343.437	93.5
343.665	86.5
343.893	101.5
344.12	97.5
344.348	81.5
344.576	81.5
344.804	99.5
345.031	94.5
345.259	83.5
345.487	96.5
345.714	100.5
345.942	96.5
346.17	90.5
346.397	89.5
346.625	99.5
346.853	101.5
347.08	94.5
347.308	96.5
347.535	89.5
347.763	95.5
347.99	94.5
348.218	108.5
348.445	93.5
348.673	104.5
348.9	96.5
349.128	93.5
349.355	93.5
349.583	87.5
349.81	87.5
350.037	81.5
350.265	81.5
350.492	82.5
350.72	92.5
350.947	103.5
351.174	94.5
351.402	110.5
351.629	95.5
351.856	99.5
352.083	90.5
352.311	107.5
352.538	111.5
352.765	103.5
352.992	94.5
353.22	111.5
353.447	97.5
353.674	110.5
353.901	95.5
354.128	92.5
354.355	105.5
354.583	102.5
354.81	92.5
355.037	97.5
355.264	85.5
355.491	81.5
355.718	88.5
355.945	93.5
356.172	99.5
356.399	100.5
356.626	103.5
356.853	102.5
357.08	84.5
357.307	103.5
357.534	87.5
357.761	84.5
357.988	103.5
358.215	99.5
358.441	90.5
358.668	92.5
358.895	82.5
359.122	88.5
359.349	91.5
359.576	89.5
359.802	94.5
360.029	106.5
360.256	102.5
360.483	92.5
360.709	111.5
360.936	88.5
361.163	100.5
361.39	93.5
361.616	88.5
361.843	90.5
362.07	104.5
362.296	96.5
362.523	97.5
362.749	81.5
362.976	97.5
363.203	97.5
363.429	91.5
363.656	80.5
363.882	90.5
364.109	101.5
364.335	106.5
364.562	89.5
364.788	92.5
365.015	97.5
365.241	101.5
365.468	114.5
365.694	100.5
365.92	99.5
366.147	93.5
366.373	76.5
366.599	90.5
366.826	90.5
367.052	89.5
367.278	91.5
367.505	83.5
367.731	87.5
367.957	91.5
368.184	94.5
368.41	99.5
368.636	97.5
368.862	114.5
369.089	101.5
369.315	90.5
369.541	92.5
369.767	98.5
369.993	90.5
370.219	86.5
370.445	90.5
370.672	86.5
370.898	72.5
371.124	97.5
371.35	88.5
371.576	85.5
371.802	81.5
372.028	82.5
372.254	90.5
372.48	93.5
372.706	82.5
372.932	94.5
373.158	72.5
373.384	94.5
373.61	88.5
373.835	93.5
374.061	92.5
374.287	77.5
374.513	108.5
374.739	89.5
374.965	85.5
375.191	93.5
375.416	84.5
375.642	101.5
375.868	84.5
376.094	89.5
376.319	82.5
376.545	97.5
376.771	86.5
376.997	96.5
377.222	91.5
377.448	85.5
377.674	83.5
377.899	76.5
378.125	86.5
378.35	107.5
378.576	82.5
378.802	99.5
379.027	87.5
379.253	95.5
379.478	97.5
379.704	101.5
379.929	93.5
380.155	99.5
380.38	95.5
380.606	99.5
380.831	97.5
381.057	106.5
381.282	81.5
381.507	100.5
381.733	120.5
381.958	112.5
382.184	93.5
382.409	108.5
382.634	106.5
382.86	98.5
383.085	105.5
383.31	101.5
383.535	108.5
383.761	95.5
383.986	99.5
384.211	100.5
384.436	102.5
384.662	107.5
384.887	106.5
385.112	115.5
385.337	95.5
385.562	105.5
385.787	110.5
386.013	125.5
386.238	125.5
386.463	111.5
386.688	109.5
386.913	111.5
387.138	108.5
387.363	105.5
387.588	89.5
387.813	93.5
388.038	105.5
388.263	106.5
388.488	119.5
388.713	102.5
388.938	97.5
389.163	94.5
389.387	93.5
389.612	97.5
389.837	86.5
390.062	85.5
390.287	108.5
390.512	112.5
390.736	94.5
390.961	92.5
391.186	102.5
391.411	85.5
391.636	99.5
391.86	98.5
392.085	95.5
392.31	67.5
392.534	94.5
392.759	76.5
392.984	98.5
393.208	78.5
393.433	97.5
393.658	94.5
393.882	89.5
394.107	85.5
394.331	81.5
394.556	88.5
394.78	86.5
395.005	73.5
395.229	81.5
395.454	88.5
395.678	96.5
395.903	85.5
396.127	80.5
396.352	88.5
396.576	87.5
396.801	102.5
397.025	102.5
397.249	63.5
397.474	96.5
397.698	95.5
397.922	86.5
398.147	75.5
398.371	88.5
398.595	81.5
398.82	95.5
399.044	80.5
399.268	70.5
399.492	90.5
399.717	89.5
399.941	105.5
400.165	100.5
400.389	80.5
400.613	87.5
400.837	85.5
401.062	77.5
401.286	89.5
401.51	99.5
401.734	79.5
401.958	100.5
402.182	142.5
402.406	158.5
402.63	111.5
402.854	89.5
403.078	96.5
403.302	89.5
403.526	92.5
403.75	87.5
403.974	84.5
404.198	97.5
404.422	87.5
404.645	72.5
404.869	89.5
405.093	95.5
405.317	107.5
405.541	108.5
405.765	105.5
405.988	106.5
406.212	167.5
406.436	217.5
406.66	144.5
406.883	102.5
407.107	82.5
407.331	93.5
407.555	102.5
407.778	86.5
408.002	90.5
408.226	83.5
408.449	81.5
408.673	75.5
408.896	86.5
409.12	93.5
409.344	97.5
409.567	91.5
409.791	90.5
410.014	78.5
410.238	108.5
410.461	87.5
410.685	100.5
410.908	102.5
411.132	114.5
411.355	94.5
411.578	103.5
411.802	97.5
412.025	85.5
412.249	102.5
412.472	90.5
412.695	95.5
412.919	88.5
413.142	77.5
413.365	81.5
413.589	102.5
413.812	85.5
414.035	98.5
414.258	74.5
414.482	90.5
414.705	85.5
414.928	82.5
415.151	82.5
415.374	86.5
415.597	89.5
415.821	87.5
416.044	92.5
416.267	77.5
416.49	82.5
416.713	78.5
416.936	97.5
417.159	95.5
417.382	90.5
417.605	94.5
417.828	87.5
418.051	103.5
418.274	90.5
418.497	86.5
418.72	79.5
418.943	89.5
419.166	86.5
419.389	93.5
419.611	92.5
419.834	94.5
420.057	90.5
420.28	88.5
420.503	83.5
420.726	80.5
420.948	88.5
421.171	79.5
421.394	90.5
421.617	103.5
421.839	88.5
422.062	90.5
422.285	86.5
422.507	92.5
422.73	111.5
422.953	101.5
423.175	76.5
423.398	103.5
423.621	89.5
423.843	61.5
424.066	80.5
424.288	84.5
424.511	86.5
424.733	97.5
424.956	101.5
425.178	85.5
425.401	87.5
425.623	95.5
425.846	99.5
426.068	86.5
426.291	86.5
426.513	90.5
426.735	90.5
426.958	94.5
427.18	106.5
427.402	127.5
427.625	151.5
427.847	131.5
428.069	111.5
428.292	88.5
428.514	80.5
428.736	79.5
428.958	78.5
429.181	96.5
429.403	87.5
429.625	86.5
429.847	106.5
430.069	98.5
430.292	100.5
430.514	82.5
430.736	84.5
430.958	80.5
431.18	85.5
431.402	89.5
431.624	79.5
431.846	82.5
432.068	73.5
432.29	83.5
432.512	78.5
432.734	96.5
432.956	84.5
433.178	98.5
433.4	97.5
433.622	100.5
433.844	93.5
434.066	81.5
434.287	90.5
434.509	91.5
434.731	92.5
434.953	97.5
435.175	95.5
435.397	76.5
435.618	97.5
435.84	101.5
436.062	109.5
436.284	104.5
436.505	104.5
436.727	87.5
436.949	79.5
437.17	68.5
437.392	82.5
437.614	84.5
437.835	102.5
438.057	113.5
438.278	100.5
438.5	96.5
438.721	117.5
438.943	101.5
439.165	77.5
439.386	101.5
439.608	84.5
439.829	107.5
440.05	121.5
440.272	132.5
440.493	104.5
440.715	85.5
440.936	85.5
441.158	104.5
441.379	55.5
441.6	94.5
441.822	100.5
442.043	89.5
442.264	92.5
442.486	94.5
442.707	94.5
442.928	100.5
443.149	127.5
443.371	119.5
443.592	108.5
443.813	91.5
444.034	86.5
444.255	95.5
444.476	89.5
444.698	98.5
444.919	85.5
445.14	145.5
445.361	119.5
445.582	121.5
445.803	127.5
446.024	131.5
446.245	130.5
446.466	105.5
446.687	83.5
446.908	81.5
447.129	79.5
447.35	93.5
447.571	90.5
447.792	91.5
448.013	101.5
448.234	103.5
448.455	111.5
448.675	121.5
448.896	107.5
449.117	102.5
449.338	102.5
449.559	126.5
449.779	130.5
450	90.5
450.221	86.5
450.442	91.5
450.662	102.5
450.883	111.5
451.104	103.5
451.324	94.5
451.545	84.5
451.766	86.5
451.986	96.5
452.207	91.5
452.428	90.5
452.648	87.5
452.869	87.5
453.089	94.5
453.31	108.5
453.53	99.5
453.751	81.5
453.971	99.5
454.192	112.5
454.412	104.5
454.633	90.5
454.853	94.5
455.073	88.5
455.294	86.5
455.514	96.5
455.734	98.5
455.955	87.5
456.175	78.5
456.395	88.5
456.616	95.5
456.836	77.5
457.056	76.5
457.276	85.5
457.497	93.5
457.717	92.5
457.937	104.5
458.157	85.5
458.377	97.5
458.598	104.5
458.818	129.5
459.038	148.5
459.258	91.5
459.478	82.5
459.698	85.5
459.918	92.5
460.138	80.5
460.358	75.5
460.578	95.5
460.798	83.5
461.018	95.5
461.238	85.5
461.458	93.5
461.678	85.5
461.898	76.5
462.118	81.5
462.338	93.5
462.558	94.5
462.777	75.5
462.997	86.5
463.217	93.5
463.437	83.5
463.657	80.5
463.876	83.5
464.096	93.5
464.316	90.5
464.536	91.5
464.755	94.5
464.975	102.5
465.195	164.5
465.414	154.5
465.634	92.5
465.854	88.5
466.073	83.5
466.293	74.5
466.512	80.5
466.732	80.5
466.951	80.5
467.171	85.5
467.391	90.5
467.61	83.5
467.829	105.5
468.049	86.5
468.268	96.5
468.488	93.5
468.707	82.5
468.927	84.5
469.146	71.5
469.365	102.5
469.585	91.5
469.804	98.5
470.023	83.5
470.243	105.5
470.462	104.5
470.681	103.5
470.901	90.5
471.12	81.5
471.339	94.5
471.558	74.5
471.777	77.5
471.997	82.5
472.216	101.5
472.435	110.5
472.654	89.5
472.873	75.5
473.092	83.5
473.311	87.5
473.53	93.5
473.749	79.5
473.968	97.5
474.187	96.5
474.406	109.5
474.625	88.5
474.844	84.5
475.063	92.5
475.282	80.5
475.501	79.5
475.72	84.5
475.939	76.5
476.158	81.5
476.377	84.5
476.596	86.5
476.814	92.5
477.033	77.5
477.252	81.5
477.471	83.5
477.69	79.5
477.908	84.5
478.127	85.5
478.346	102.5
478.564	100.5
478.783	90.5
479.002	73.5
479.22	85.5
479.439	95.5
479.658	94.5
479.876	82.5
480.095	95.5
480.313	84.5
480.532	86.5
480.751	96.5
480.969	99.5
481.188	153.5
481.406	132.5
481.624	102.5
481.843	88.5
482.061	89.5
482.28	90.5
482.498	95.5
482.717	96.5
482.935	102.5
483.153	85.5
483.372	97.5
483.59	88.5
483.808	88.5
484.027	79.5
484.245	93.5
484.463	92.5
484.681	109.5
484.9	95.5
485.118	108.5
485.336	91.5
485.554	100.5
485.772	105.5
485.99	102.5
486.209	97.5
486.427	98.5
486.645	100.5
486.863	113.5
487.081	98.5
487.299	90.5
487.517	88.5
487.735	75.5
487.953	95.5
488.171	91.5
488.389	101.5
488.607	100.5
488.825	103.5
489.043	90.5
489.261	88.5
489.479	86.5
489.696	70.5
489.914	82.5
490.132	96.5
490.35	94.5
490.568	97.5
490.786	94.5
491.003	89.5
491.221	80.5
491.439	75.5
491.657	96.5
491.874	96.5
492.092	85.5
492.31	83.5
492.527	85.5
492.745	97.5
492.963	80.5
493.18	88.5
493.398	97.5
493.615	96.5
493.833	85.5
494.05	89.5
494.268	89.5
494.485	97.5
494.703	94.5
494.92	91.5
495.138	88.5
495.355	101.5
495.573	74.5
495.79	83.5
496.008	92.5
496.225	85.5
496.442	77.5
496.66	91.5
496.877	78.5
497.094	91.5
497.312	90.5
497.529	93.5
497.746	102.5
497.963	104.5
498.181	85.5
498.398	94.5
498.615	94.5
498.832	109.5
499.049	93.5
499.267	96.5
499.484	74.5
499.701	85.5
499.918	95.5
500.135	82.5
500.352	99.5
500.569	92.5
500.786	89.5
501.003	88.5
501.22	91.5
501.437	91.5
501.654	81.5
501.871	103.5
502.088	83.5
502.305	80.5
502.522	80.5
502.739	84.5
502.956	94.5
503.172	85.5
503.389	90.5
503.606	84.5
503.823	89.5
504.04	110.5
504.256	100.5
504.473	88.5
504.69	97.5
504.907	89.5
505.123	86.5
505.34	88.5
505.557	92.5
505.773	88.5
505.99	105.5
506.207	92.5
506.423	71.5
506.64	83.5
506.856	79.5
507.073	88.5
507.289	100.5
507.506	97.5
507.722	116.5
507.939	103.5
508.155	88.5
508.372	85.5
508.588	98.5
508.805	114.5
509.021	109.5
509.238	92.5
509.454	99.5
509.67	96.5
509.887	105.5
510.103	140.5
510.319	225.5
510.536	763.5
510.752	2548.5
510.968	720.5
511.184	153.5
511.401	107.5
511.617	82.5
511.833	83.5
512.049	98.5
512.265	90.5
512.481	102.5
512.698	90.5
512.914	84.5
513.13	93.5
513.346	92.5
513.562	83.5
513.778	97.5
513.994	89.5
514.21	110.5
514.426	126.5
514.642	146.5
514.858	122.5
515.074	156.5
515.29	455.5
515.506	1497.5
515.721	554.5
515.937	153.5
516.153	109.5
516.369	95.5
516.585	97.5
516.801	91.5
517.016	100.5
517.232	82.5
517.448	83.5
517.664	105.5
517.879	105.5
518.095	90.5
518.311	92.5
518.527	77.5
518.742	93.5
518.958	82.5
519.173	94.5
519.389	104.5
519.605	94.5
519.82	95.5
520.036	96.5
520.251	112.5
520.467	113.5
520.682	89.5
520.898	106.5
521.113	101.5
521.329	128.5
521.544	205.5
521.76	558.5
521.975	2468.5
522.19	1486.5
522.406	316.5
522.621	133.5
522.836	110.5
523.052	96.5
523.267	87.5
523.482	98.5
523.698	102.5
523.913	116.5
524.128	111.5
524.343	94.5
524.559	97.5
524.774	80.5
524.989	100.5
525.204	96.5
525.419	87.5
525.634	92.5
525.849	90.5
526.064	80.5
526.28	91.5
526.495	97.5
526.71	87.5
526.925	82.5
527.14	95.5
527.355	90.5
527.57	92.5
527.785	88.5
527.999	101.5
528.214	100.5
528.429	89.5
528.644	80.5
528.859	88.5
529.074	92.5
529.289	109.5
529.503	160.5
529.718	100.5
529.933	91.5
530.148	87.5
530.363	90.5
530.577	103.5
530.792	87.5
531.007	96.5
531.221	99.5
531.436	94.5
531.651	102.5
531.865	99.5
532.08	99.5
532.295	97.5
532.509	90.5
532.724	88.5
532.938	95.5
533.153	95.5
533.367	85.5
533.582	84.5
533.796	79.5
534.011	100.5
534.225	85.5
534.44	76.5
534.654	98.5
534.868	99.5
535.083	84.5
535.297	106.5
