Data from Circ_2003_H10_HRD10591_00052.txt Node
Date: Wed Jan 03 10:37:13 EST 2024
User: Yrep
Spectrometer: HR+D1059
Trigger mode: 1
Integration Time (sec): 1.000000E-1
Scans to average: 1
Electric dark correction enabled: true
Nonlinearity correction enabled: false
Boxcar width: 0
XAxis mode: Wavelengths
Number of Pixels in Spectrum: 2048
>>>>>Begin Spectral Data<<<<<
223.165	-25.12
223.4	-25.12
223.635	-25.12
223.869	-12.12
224.104	-25.12
224.338	-16.12
224.573	-14.12
224.808	-21.12
225.042	-11.12
225.277	-9.12
225.511	-4.12
225.746	11.88
225.98	12.88
226.215	22.88
226.449	3.88
226.683	13.88
226.918	31.88
227.152	40.88
227.387	22.88
227.621	16.88
227.856	30.88
228.09	35.88
228.324	54.88
228.559	51.88
228.793	51.88
229.027	55.88
229.262	75.88
229.496	72.88
229.73	81.88
229.964	90.88
230.199	95.88
230.433	64.88
230.667	79.88
230.901	79.88
231.136	83.88
231.37	80.88
231.604	62.88
231.838	78.88
232.072	76.88
232.306	74.88
232.541	83.88
232.775	94.88
233.009	67.88
233.243	77.88
233.477	75.88
233.711	78.88
233.945	83.88
234.179	75.88
234.413	79.88
234.647	75.88
234.881	69.88
235.115	76.88
235.349	80.88
235.583	83.88
235.817	70.88
236.051	76.88
236.285	77.88
236.519	77.88
236.753	78.88
236.987	66.88
237.221	80.88
237.455	85.88
237.689	82.88
237.922	98.88
238.156	88.88
238.39	70.88
238.624	67.88
238.858	66.88
239.091	71.88
239.325	76.88
239.559	95.88
239.793	72.88
240.027	84.88
240.26	66.88
240.494	81.88
240.728	83.88
240.961	77.88
241.195	68.88
241.429	63.88
241.662	73.88
241.896	70.88
242.13	69.88
242.363	75.88
242.597	76.88
242.83	73.88
243.064	63.88
243.298	72.88
243.531	84.88
243.765	76.88
243.998	70.88
244.232	66.88
244.465	71.88
244.699	84.88
244.932	69.88
245.166	76.88
245.399	78.88
245.633	77.88
245.866	80.88
246.099	73.88
246.333	79.88
246.566	72.88
246.8	80.88
247.033	69.88
247.266	73.88
247.5	71.88
247.733	68.88
247.966	76.88
248.2	83.88
248.433	74.88
248.666	73.88
248.899	76.88
249.133	94.88
249.366	87.88
249.599	89.88
249.832	92.88
250.066	72.88
250.299	78.88
250.532	83.88
250.765	91.88
250.998	80.88
251.231	79.88
251.465	79.88
251.698	79.88
251.931	84.88
252.164	68.88
252.397	78.88
252.63	70.88
252.863	71.88
253.096	68.88
253.329	78.88
253.562	84.88
253.795	85.88
254.028	77.88
254.261	83.88
254.494	79.88
254.727	84.88
254.96	70.88
255.193	80.88
255.426	71.88
255.659	72.88
255.892	82.88
256.124	68.88
256.357	68.88
256.59	83.88
256.823	84.88
257.056	86.88
257.289	75.88
257.521	65.88
257.754	74.88
257.987	86.88
258.22	73.88
258.452	80.88
258.685	89.88
258.918	81.88
259.151	83.88
259.383	84.88
259.616	85.88
259.849	79.88
260.081	82.88
260.314	76.88
260.547	78.88
260.779	80.88
261.012	75.88
261.244	79.88
261.477	75.88
261.71	83.88
261.942	97.88
262.175	104.88
262.407	76.88
262.64	84.88
262.872	93.88
263.105	70.88
263.337	70.88
263.57	79.88
263.802	82.88
264.035	70.88
264.267	83.88
264.499	74.88
264.732	72.88
264.964	99.88
265.197	87.88
265.429	73.88
265.661	84.88
265.894	77.88
266.126	92.88
266.358	77.88
266.591	82.88
266.823	85.88
267.055	80.88
267.287	80.88
267.52	74.88
267.752	74.88
267.984	67.88
268.216	84.88
268.448	69.88
268.681	69.88
268.913	93.88
269.145	83.88
269.377	75.88
269.609	79.88
269.841	80.88
270.073	77.88
270.306	71.88
270.538	72.88
270.77	77.88
271.002	72.88
271.234	80.88
271.466	68.88
271.698	75.88
271.93	77.88
272.162	81.88
272.394	95.88
272.626	85.88
272.858	65.88
273.09	94.88
273.322	86.88
273.553	81.88
273.785	78.88
274.017	88.88
274.249	85.88
274.481	75.88
274.713	72.88
274.945	75.88
275.176	70.88
275.408	92.88
275.64	74.88
275.872	90.88
276.104	86.88
276.335	88.88
276.567	92.88
276.799	96.88
277.031	98.88
277.262	84.88
277.494	82.88
277.726	74.88
277.957	78.88
278.189	85.88
278.421	77.88
278.652	72.88
278.884	70.88
279.115	81.88
279.347	84.88
279.579	86.88
279.81	81.88
280.042	83.88
280.273	85.88
280.505	73.88
280.736	89.88
280.968	72.88
281.199	76.88
281.431	75.88
281.662	67.88
281.894	90.88
282.125	98.88
282.356	124.88
282.588	135.88
282.819	116.88
283.051	78.88
283.282	79.88
283.513	90.88
283.745	82.88
283.976	91.88
284.207	73.88
284.439	86.88
284.67	78.88
284.901	75.88
285.132	82.88
285.364	87.88
285.595	79.88
285.826	72.88
286.057	81.88
286.288	71.88
286.52	74.88
286.751	72.88
286.982	75.88
287.213	81.88
287.444	82.88
287.675	77.88
287.906	86.88
288.138	80.88
288.369	98.88
288.6	80.88
288.831	98.88
289.062	89.88
289.293	84.88
289.524	94.88
289.755	90.88
289.986	79.88
290.217	92.88
290.448	76.88
290.679	94.88
290.91	83.88
291.141	80.88
291.371	74.88
291.602	79.88
291.833	86.88
292.064	83.88
292.295	83.88
292.526	88.88
292.757	95.88
292.987	82.88
293.218	81.88
293.449	86.88
293.68	78.88
293.91	76.88
294.141	90.88
294.372	83.88
294.603	95.88
294.833	86.88
295.064	75.88
295.295	76.88
295.525	95.88
295.756	102.88
295.987	117.88
296.217	131.88
296.448	118.88
296.679	88.88
296.909	64.88
297.14	82.88
297.37	88.88
297.601	82.88
297.831	90.88
298.062	78.88
298.292	82.88
298.523	71.88
298.753	85.88
298.984	88.88
299.214	75.88
299.445	99.88
299.675	82.88
299.905	92.88
300.136	99.88
300.366	86.88
300.597	91.88
300.827	82.88
301.057	96.88
301.288	80.88
301.518	88.88
301.748	84.88
301.979	90.88
302.209	83.88
302.439	93.88
302.669	79.88
302.9	87.88
303.13	84.88
303.36	91.88
303.59	101.88
303.82	96.88
304.051	88.88
304.281	106.88
304.511	76.88
304.741	77.88
304.971	76.88
305.201	87.88
305.431	84.88
305.661	85.88
305.891	87.88
306.121	93.88
306.352	99.88
306.582	103.88
306.812	86.88
307.042	87.88
307.272	97.88
307.502	92.88
307.731	88.88
307.961	82.88
308.191	93.88
308.421	83.88
308.651	96.88
308.881	85.88
309.111	81.88
309.341	93.88
309.571	92.88
309.8	93.88
310.03	71.88
310.26	88.88
310.49	95.88
310.72	92.88
310.949	100.88
311.179	85.88
311.409	97.88
311.639	84.88
311.868	76.88
312.098	98.88
312.328	81.88
312.557	99.88
312.787	88.88
313.017	99.88
313.246	77.88
313.476	87.88
313.706	84.88
313.935	95.88
314.165	106.88
314.394	84.88
314.624	97.88
314.853	99.88
315.083	101.88
315.312	82.88
315.542	72.88
315.771	82.88
316.001	77.88
316.23	76.88
316.46	83.88
316.689	91.88
316.919	104.88
317.148	81.88
317.377	93.88
317.607	85.88
317.836	92.88
318.065	93.88
318.295	88.88
318.524	92.88
318.753	86.88
318.983	87.88
319.212	103.88
319.441	100.88
319.67	92.88
319.9	98.88
320.129	96.88
320.358	81.88
320.587	97.88
320.816	102.88
321.046	102.88
321.275	97.88
321.504	108.88
321.733	106.88
321.962	98.88
322.191	104.88
322.42	98.88
322.649	94.88
322.878	119.88
323.108	125.88
323.337	129.88
323.566	125.88
323.795	149.88
324.024	221.88
324.253	387.88
324.482	846.88
324.71	1748.88
324.939	2274.88
325.168	817.88
325.397	228.88
325.626	126.88
325.855	135.88
326.084	118.88
326.313	152.88
326.542	151.88
326.77	213.88
326.999	484.88
327.228	966.88
327.457	1744.88
327.686	1386.88
327.914	371.88
328.143	204.88
328.372	156.88
328.6	113.88
328.829	104.88
329.058	122.88
329.287	126.88
329.515	114.88
329.744	102.88
329.972	113.88
330.201	126.88
330.43	132.88
330.658	138.88
330.887	123.88
331.115	118.88
331.344	102.88
331.572	94.88
331.801	92.88
332.03	95.88
332.258	106.88
332.486	86.88
332.715	96.88
332.943	80.88
333.172	80.88
333.4	81.88
333.629	110.88
333.857	123.88
334.085	113.88
334.314	123.88
334.542	154.88
334.771	156.88
334.999	98.88
335.227	102.88
335.455	93.88
335.684	88.88
335.912	90.88
336.14	98.88
336.369	100.88
336.597	95.88
336.825	86.88
337.053	83.88
337.281	94.88
337.51	76.88
337.738	85.88
337.966	88.88
338.194	97.88
338.422	96.88
338.65	99.88
338.878	83.88
339.106	79.88
339.334	95.88
339.562	86.88
339.79	92.88
340.018	83.88
340.246	97.88
340.474	85.88
340.702	97.88
340.93	89.88
341.158	74.88
341.386	90.88
341.614	106.88
341.842	93.88
342.07	98.88
342.298	99.88
342.526	89.88
342.754	84.88
342.981	75.88
343.209	65.88
343.437	93.88
343.665	76.88
343.893	82.88
344.12	83.88
344.348	98.88
344.576	87.88
344.804	88.88
345.031	100.88
345.259	82.88
345.487	84.88
345.714	85.88
345.942	92.88
346.17	86.88
346.397	100.88
346.625	100.88
346.853	98.88
347.08	96.88
347.308	92.88
347.535	101.88
347.763	89.88
347.99	98.88
348.218	95.88
348.445	101.88
348.673	106.88
348.9	92.88
349.128	91.88
349.355	89.88
349.583	82.88
349.81	95.88
350.037	85.88
350.265	92.88
350.492	88.88
350.72	98.88
350.947	100.88
351.174	100.88
351.402	109.88
351.629	103.88
351.856	126.88
352.083	94.88
352.311	83.88
352.538	101.88
352.765	106.88
352.992	122.88
353.22	95.88
353.447	90.88
353.674	106.88
353.901	85.88
354.128	80.88
354.355	83.88
354.583	90.88
354.81	103.88
355.037	88.88
355.264	88.88
355.491	93.88
355.718	76.88
355.945	85.88
356.172	92.88
356.399	92.88
356.626	87.88
356.853	83.88
357.08	84.88
357.307	87.88
357.534	93.88
357.761	77.88
357.988	98.88
358.215	90.88
358.441	76.88
358.668	89.88
358.895	92.88
359.122	99.88
359.349	86.88
359.576	95.88
359.802	99.88
360.029	104.88
360.256	109.88
360.483	84.88
360.709	94.88
360.936	91.88
361.163	98.88
361.39	88.88
361.616	74.88
361.843	80.88
362.07	95.88
362.296	104.88
362.523	102.88
362.749	88.88
362.976	108.88
363.203	98.88
363.429	88.88
363.656	89.88
363.882	87.88
364.109	88.88
364.335	88.88
364.562	81.88
364.788	92.88
365.015	90.88
365.241	92.88
365.468	118.88
365.694	113.88
365.92	90.88
366.147	92.88
366.373	72.88
366.599	75.88
366.826	83.88
367.052	87.88
367.278	94.88
367.505	83.88
367.731	84.88
367.957	96.88
368.184	93.88
368.41	89.88
368.636	107.88
368.862	118.88
369.089	110.88
369.315	98.88
369.541	79.88
369.767	102.88
369.993	97.88
370.219	85.88
370.445	83.88
370.672	72.88
370.898	78.88
371.124	89.88
371.35	92.88
371.576	77.88
371.802	88.88
372.028	60.88
372.254	90.88
372.48	95.88
372.706	89.88
372.932	81.88
373.158	82.88
373.384	91.88
373.61	96.88
373.835	95.88
374.061	87.88
374.287	78.88
374.513	85.88
374.739	90.88
374.965	97.88
375.191	80.88
375.416	89.88
375.642	86.88
375.868	102.88
376.094	96.88
376.319	87.88
376.545	87.88
376.771	79.88
376.997	84.88
377.222	99.88
377.448	97.88
377.674	99.88
377.899	85.88
378.125	96.88
378.35	78.88
378.576	89.88
378.802	98.88
379.027	92.88
379.253	107.88
379.478	81.88
379.704	82.88
379.929	89.88
380.155	76.88
380.38	91.88
380.606	76.88
380.831	90.88
381.057	97.88
381.282	102.88
381.507	110.88
381.733	113.88
381.958	92.88
382.184	94.88
382.409	102.88
382.634	90.88
382.86	84.88
383.085	103.88
383.31	81.88
383.535	93.88
383.761	93.88
383.986	104.88
384.211	93.88
384.436	93.88
384.662	104.88
384.887	100.88
385.112	107.88
385.337	109.88
385.562	99.88
385.787	107.88
386.013	101.88
386.238	92.88
386.463	103.88
386.688	83.88
386.913	97.88
387.138	86.88
387.363	89.88
387.588	102.88
387.813	104.88
388.038	109.88
388.263	108.88
388.488	100.88
388.713	98.88
388.938	88.88
389.163	87.88
389.387	100.88
389.612	93.88
389.837	96.88
390.062	84.88
390.287	74.88
390.512	86.88
390.736	84.88
390.961	89.88
391.186	101.88
391.411	95.88
391.636	84.88
391.86	95.88
392.085	88.88
392.31	83.88
392.534	94.88
392.759	90.88
392.984	96.88
393.208	82.88
393.433	99.88
393.658	97.88
393.882	75.88
394.107	81.88
394.331	83.88
394.556	76.88
394.78	86.88
395.005	90.88
395.229	82.88
395.454	88.88
395.678	77.88
395.903	76.88
396.127	84.88
396.352	85.88
396.576	97.88
396.801	98.88
397.025	90.88
397.249	87.88
397.474	89.88
397.698	91.88
397.922	83.88
398.147	76.88
398.371	86.88
398.595	79.88
398.82	85.88
399.044	98.88
399.268	96.88
399.492	89.88
399.717	95.88
399.941	86.88
400.165	89.88
400.389	87.88
400.613	79.88
400.837	85.88
401.062	97.88
401.286	93.88
401.51	83.88
401.734	102.88
401.958	101.88
402.182	127.88
402.406	164.88
402.63	114.88
402.854	103.88
403.078	91.88
403.302	88.88
403.526	95.88
403.75	88.88
403.974	78.88
404.198	87.88
404.422	91.88
404.645	81.88
404.869	91.88
405.093	93.88
405.317	96.88
405.541	88.88
405.765	86.88
405.988	102.88
406.212	163.88
406.436	240.88
406.66	136.88
406.883	109.88
407.107	99.88
407.331	82.88
407.555	81.88
407.778	88.88
408.002	91.88
408.226	92.88
408.449	80.88
408.673	81.88
408.896	95.88
409.12	111.88
409.344	92.88
409.567	82.88
409.791	95.88
410.014	72.88
410.238	84.88
410.461	90.88
410.685	95.88
410.908	90.88
411.132	107.88
411.355	92.88
411.578	88.88
411.802	84.88
412.025	86.88
412.249	84.88
412.472	94.88
412.695	88.88
412.919	94.88
413.142	94.88
413.365	82.88
413.589	67.88
413.812	86.88
414.035	92.88
414.258	87.88
414.482	85.88
414.705	87.88
414.928	72.88
415.151	95.88
415.374	94.88
415.597	74.88
415.821	77.88
416.044	80.88
416.267	83.88
416.49	76.88
416.713	87.88
416.936	87.88
417.159	94.88
417.382	91.88
417.605	77.88
417.828	92.88
418.051	82.88
418.274	82.88
418.497	82.88
418.72	86.88
418.943	85.88
419.166	95.88
419.389	85.88
419.611	84.88
419.834	76.88
420.057	81.88
420.28	79.88
420.503	72.88
420.726	80.88
420.948	68.88
421.171	84.88
421.394	92.88
421.617	82.88
421.839	96.88
422.062	79.88
422.285	81.88
422.507	96.88
422.73	91.88
422.953	90.88
423.175	85.88
423.398	98.88
423.621	80.88
423.843	83.88
424.066	93.88
424.288	82.88
424.511	99.88
424.733	108.88
424.956	86.88
425.178	100.88
425.401	87.88
425.623	100.88
425.846	99.88
426.068	88.88
426.291	86.88
426.513	77.88
426.735	90.88
426.958	96.88
427.18	92.88
427.402	131.88
427.625	176.88
427.847	129.88
428.069	105.88
428.292	96.88
428.514	94.88
428.736	92.88
428.958	97.88
429.181	81.88
429.403	83.88
429.625	95.88
429.847	79.88
430.069	94.88
430.292	79.88
430.514	75.88
430.736	99.88
430.958	97.88
431.18	97.88
431.402	86.88
431.624	80.88
431.846	99.88
432.068	106.88
432.29	84.88
432.512	88.88
432.734	90.88
432.956	98.88
433.178	104.88
433.4	84.88
433.622	90.88
433.844	93.88
434.066	95.88
434.287	89.88
434.509	90.88
434.731	76.88
434.953	84.88
435.175	98.88
435.397	85.88
435.618	98.88
435.84	92.88
436.062	109.88
436.284	114.88
436.505	94.88
436.727	97.88
436.949	82.88
437.17	89.88
437.392	81.88
437.614	85.88
437.835	98.88
438.057	105.88
438.278	84.88
438.5	102.88
438.721	118.88
438.943	98.88
439.165	88.88
439.386	90.88
439.608	80.88
439.829	107.88
440.05	115.88
440.272	132.88
440.493	85.88
440.715	84.88
440.936	69.88
441.158	88.88
441.379	92.88
441.6	92.88
441.822	87.88
442.043	87.88
442.264	106.88
442.486	97.88
442.707	82.88
442.928	103.88
443.149	126.88
443.371	117.88
443.592	104.88
443.813	100.88
444.034	105.88
444.255	88.88
444.476	98.88
444.698	79.88
444.919	82.88
445.14	123.88
445.361	118.88
445.582	116.88
445.803	116.88
446.024	128.88
446.245	116.88
446.466	117.88
446.687	78.88
446.908	97.88
447.129	94.88
447.35	90.88
447.571	78.88
447.792	83.88
448.013	96.88
448.234	108.88
448.455	94.88
448.675	116.88
448.896	120.88
449.117	85.88
449.338	107.88
449.559	116.88
449.779	132.88
450	93.88
450.221	67.88
450.442	75.88
450.662	101.88
450.883	87.88
451.104	99.88
451.324	92.88
451.545	89.88
451.766	97.88
451.986	84.88
452.207	84.88
452.428	90.88
452.648	89.88
452.869	109.88
453.089	117.88
453.31	117.88
453.53	84.88
453.751	90.88
453.971	107.88
454.192	102.88
454.412	74.88
454.633	81.88
454.853	76.88
455.073	67.88
455.294	83.88
455.514	86.88
455.734	86.88
455.955	91.88
456.175	94.88
456.395	86.88
456.616	97.88
456.836	74.88
457.056	86.88
457.276	87.88
457.497	84.88
457.717	79.88
457.937	87.88
458.157	80.88
458.377	90.88
458.598	95.88
458.818	138.88
459.038	150.88
459.258	104.88
459.478	86.88
459.698	84.88
459.918	89.88
460.138	87.88
460.358	87.88
460.578	80.88
460.798	78.88
461.018	77.88
461.238	82.88
461.458	91.88
461.678	92.88
461.898	99.88
462.118	82.88
462.338	95.88
462.558	85.88
462.777	73.88
462.997	95.88
463.217	79.88
463.437	91.88
463.657	83.88
463.876	94.88
464.096	86.88
464.316	82.88
464.536	81.88
464.755	85.88
464.975	97.88
465.195	166.88
465.414	164.88
465.634	88.88
465.854	100.88
466.073	67.88
466.293	72.88
466.512	82.88
466.732	76.88
466.951	82.88
467.171	95.88
467.391	83.88
467.61	104.88
467.829	98.88
468.049	103.88
468.268	107.88
468.488	99.88
468.707	97.88
468.927	79.88
469.146	98.88
469.365	79.88
469.585	84.88
469.804	96.88
470.023	105.88
470.243	80.88
470.462	93.88
470.681	95.88
470.901	80.88
471.12	84.88
471.339	88.88
471.558	88.88
471.777	76.88
471.997	77.88
472.216	115.88
472.435	151.88
472.654	87.88
472.873	73.88
473.092	83.88
473.311	87.88
473.53	75.88
473.749	82.88
473.968	106.88
474.187	93.88
474.406	97.88
474.625	87.88
474.844	87.88
475.063	91.88
475.282	97.88
475.501	92.88
475.72	90.88
475.939	85.88
476.158	89.88
476.377	95.88
476.596	91.88
476.814	84.88
477.033	69.88
477.252	98.88
477.471	78.88
477.69	76.88
477.908	81.88
478.127	80.88
478.346	94.88
478.564	87.88
478.783	99.88
479.002	100.88
479.22	86.88
479.439	80.88
479.658	97.88
479.876	79.88
480.095	78.88
480.313	82.88
480.532	87.88
480.751	93.88
480.969	108.88
481.188	230.88
481.406	168.88
481.624	93.88
481.843	95.88
482.061	89.88
482.28	85.88
482.498	76.88
482.717	98.88
482.935	82.88
483.153	85.88
483.372	80.88
483.59	92.88
483.808	90.88
484.027	103.88
484.245	96.88
484.463	81.88
484.681	76.88
484.9	92.88
485.118	90.88
485.336	96.88
485.554	75.88
485.772	102.88
485.99	94.88
486.209	106.88
486.427	106.88
486.645	107.88
486.863	98.88
487.081	107.88
487.299	99.88
487.517	96.88
487.735	88.88
487.953	98.88
488.171	83.88
488.389	82.88
488.607	96.88
488.825	86.88
489.043	91.88
489.261	76.88
489.479	79.88
489.696	83.88
489.914	80.88
490.132	81.88
490.35	91.88
490.568	93.88
490.786	98.88
491.003	82.88
491.221	88.88
491.439	86.88
491.657	92.88
491.874	81.88
492.092	85.88
492.31	86.88
492.527	93.88
492.745	84.88
492.963	103.88
493.18	92.88
493.398	82.88
493.615	87.88
493.833	91.88
494.05	85.88
494.268	95.88
494.485	88.88
494.703	86.88
494.92	85.88
495.138	83.88
495.355	76.88
495.573	106.88
495.79	84.88
496.008	91.88
496.225	87.88
496.442	76.88
496.66	86.88
496.877	98.88
497.094	78.88
497.312	78.88
497.529	78.88
497.746	88.88
497.963	80.88
498.181	84.88
498.398	97.88
498.615	96.88
498.832	104.88
499.049	88.88
499.267	95.88
499.484	79.88
499.701	97.88
499.918	86.88
500.135	83.88
500.352	90.88
500.569	98.88
500.786	86.88
501.003	94.88
501.22	87.88
501.437	76.88
501.654	78.88
501.871	98.88
502.088	95.88
502.305	83.88
502.522	99.88
502.739	86.88
502.956	82.88
503.172	84.88
503.389	94.88
503.606	108.88
503.823	99.88
504.04	84.88
504.256	84.88
504.473	89.88
504.69	96.88
504.907	87.88
505.123	81.88
505.34	84.88
505.557	83.88
505.773	79.88
505.99	78.88
506.207	85.88
506.423	93.88
506.64	79.88
506.856	92.88
507.073	90.88
507.289	91.88
507.506	105.88
507.722	117.88
507.939	111.88
508.155	99.88
508.372	100.88
508.588	90.88
508.805	88.88
509.021	96.88
509.238	97.88
509.454	70.88
509.67	97.88
509.887	101.88
510.103	129.88
510.319	215.88
510.536	856.88
510.752	2805.88
510.968	733.88
511.184	172.88
511.401	108.88
511.617	82.88
511.833	84.88
512.049	86.88
512.265	98.88
512.481	83.88
512.698	92.88
512.914	85.88
513.13	84.88
513.346	71.88
513.562	94.88
513.778	106.88
513.994	104.88
514.21	107.88
514.426	106.88
514.642	135.88
514.858	130.88
515.074	175.88
515.29	487.88
515.506	1621.88
515.721	595.88
515.937	163.88
516.153	110.88
516.369	100.88
516.585	96.88
516.801	93.88
