Data from Circ_2003_H10_HRD10591_00034.txt Node
Date: Wed Jan 03 10:37:09 EST 2024
User: Yrep
Spectrometer: HR+D1059
Trigger mode: 1
Integration Time (sec): 1.000000E-1
Scans to average: 1
Electric dark correction enabled: true
Nonlinearity correction enabled: false
Boxcar width: 0
XAxis mode: Wavelengths
Number of Pixels in Spectrum: 2048
>>>>>Begin Spectral Data<<<<<
223.165	-9.5
223.4	-9.5
223.635	-9.5
223.869	-8.5
224.104	-10.5
224.338	-22.5
224.573	-18.5
224.808	-10.5
225.042	-10.5
225.277	5.5
225.511	-6.5
225.746	10.5
225.98	6.5
226.215	2.5
226.449	24.5
226.683	18.5
226.918	14.5
227.152	14.5
227.387	38.5
227.621	44.5
227.856	41.5
228.09	32.5
228.324	55.5
228.559	56.5
228.793	58.5
229.027	48.5
229.262	74.5
229.496	83.5
229.73	67.5
229.964	76.5
230.199	63.5
230.433	77.5
230.667	77.5
230.901	84.5
231.136	82.5
231.37	73.5
231.604	76.5
231.838	88.5
232.072	84.5
232.306	81.5
232.541	67.5
232.775	80.5
233.009	82.5
233.243	82.5
233.477	90.5
233.711	71.5
233.945	70.5
234.179	76.5
234.413	81.5
234.647	79.5
234.881	80.5
235.115	74.5
235.349	68.5
235.583	85.5
235.817	85.5
236.051	77.5
236.285	66.5
236.519	79.5
236.753	87.5
236.987	74.5
237.221	72.5
237.455	93.5
237.689	82.5
237.922	80.5
238.156	76.5
238.39	75.5
238.624	72.5
238.858	80.5
239.091	80.5
239.325	60.5
239.559	81.5
239.793	73.5
240.027	82.5
240.26	70.5
240.494	77.5
240.728	77.5
240.961	83.5
241.195	60.5
241.429	68.5
241.662	65.5
241.896	73.5
242.13	69.5
242.363	89.5
242.597	72.5
242.83	79.5
243.064	80.5
243.298	81.5
243.531	75.5
243.765	71.5
243.998	105.5
244.232	85.5
244.465	88.5
244.699	84.5
244.932	96.5
245.166	68.5
245.399	82.5
245.633	74.5
245.866	78.5
246.099	68.5
246.333	72.5
246.566	89.5
246.8	88.5
247.033	81.5
247.266	74.5
247.5	76.5
247.733	80.5
247.966	80.5
248.2	90.5
248.433	75.5
248.666	82.5
248.899	84.5
249.133	75.5
249.366	93.5
249.599	89.5
249.832	77.5
250.066	73.5
250.299	76.5
250.532	71.5
250.765	83.5
250.998	85.5
251.231	86.5
251.465	72.5
251.698	82.5
251.931	76.5
252.164	82.5
252.397	66.5
252.63	74.5
252.863	86.5
253.096	84.5
253.329	81.5
253.562	89.5
253.795	78.5
254.028	85.5
254.261	71.5
254.494	78.5
254.727	70.5
254.96	67.5
255.193	71.5
255.426	88.5
255.659	70.5
255.892	78.5
256.124	89.5
256.357	78.5
256.59	82.5
256.823	88.5
257.056	84.5
257.289	84.5
257.521	78.5
257.754	89.5
257.987	71.5
258.22	97.5
258.452	86.5
258.685	78.5
258.918	68.5
259.151	89.5
259.383	73.5
259.616	75.5
259.849	79.5
260.081	77.5
260.314	69.5
260.547	84.5
260.779	90.5
261.012	99.5
261.244	78.5
261.477	83.5
261.71	108.5
261.942	95.5
262.175	105.5
262.407	85.5
262.64	84.5
262.872	83.5
263.105	87.5
263.337	86.5
263.57	90.5
263.802	86.5
264.035	80.5
264.267	80.5
264.499	79.5
264.732	77.5
264.964	81.5
265.197	76.5
265.429	92.5
265.661	91.5
265.894	79.5
266.126	79.5
266.358	83.5
266.591	82.5
266.823	86.5
267.055	87.5
267.287	85.5
267.52	81.5
267.752	90.5
267.984	84.5
268.216	75.5
268.448	86.5
268.681	79.5
268.913	84.5
269.145	83.5
269.377	87.5
269.609	80.5
269.841	81.5
270.073	78.5
270.306	68.5
270.538	78.5
270.77	84.5
271.002	78.5
271.234	81.5
271.466	76.5
271.698	85.5
271.93	80.5
272.162	79.5
272.394	81.5
272.626	80.5
272.858	82.5
273.09	97.5
273.322	84.5
273.553	85.5
273.785	81.5
274.017	85.5
274.249	85.5
274.481	83.5
274.713	87.5
274.945	79.5
275.176	85.5
275.408	72.5
275.64	93.5
275.872	68.5
276.104	80.5
276.335	98.5
276.567	84.5
276.799	103.5
277.031	86.5
277.262	84.5
277.494	77.5
277.726	84.5
277.957	89.5
278.189	90.5
278.421	90.5
278.652	71.5
278.884	89.5
279.115	88.5
279.347	85.5
279.579	90.5
279.81	82.5
280.042	79.5
280.273	85.5
280.505	102.5
280.736	94.5
280.968	88.5
281.199	85.5
281.431	89.5
281.662	79.5
281.894	89.5
282.125	94.5
282.356	111.5
282.588	125.5
282.819	96.5
283.051	87.5
283.282	76.5
283.513	78.5
283.745	84.5
283.976	70.5
284.207	86.5
284.439	84.5
284.67	75.5
284.901	93.5
285.132	80.5
285.364	95.5
285.595	74.5
285.826	71.5
286.057	82.5
286.288	79.5
286.52	85.5
286.751	78.5
286.982	91.5
287.213	84.5
287.444	91.5
287.675	90.5
287.906	89.5
288.138	93.5
288.369	87.5
288.6	95.5
288.831	94.5
289.062	87.5
289.293	90.5
289.524	97.5
289.755	87.5
289.986	96.5
290.217	76.5
290.448	89.5
290.679	78.5
290.91	88.5
291.141	82.5
291.371	106.5
291.602	74.5
291.833	90.5
292.064	90.5
292.295	89.5
292.526	79.5
292.757	89.5
292.987	81.5
293.218	78.5
293.449	82.5
293.68	87.5
293.91	75.5
294.141	86.5
294.372	90.5
294.603	81.5
294.833	89.5
295.064	79.5
295.295	76.5
295.525	94.5
295.756	113.5
295.987	103.5
296.217	133.5
296.448	118.5
296.679	87.5
296.909	69.5
297.14	91.5
297.37	87.5
297.601	87.5
297.831	89.5
298.062	79.5
298.292	74.5
298.523	88.5
298.753	94.5
298.984	85.5
299.214	89.5
299.445	90.5
299.675	91.5
299.905	81.5
300.136	96.5
300.366	87.5
300.597	89.5
300.827	87.5
301.057	95.5
301.288	91.5
301.518	69.5
301.748	92.5
301.979	98.5
302.209	85.5
302.439	90.5
302.669	94.5
302.9	93.5
303.13	85.5
303.36	97.5
303.59	88.5
303.82	96.5
304.051	80.5
304.281	87.5
304.511	84.5
304.741	90.5
304.971	91.5
305.201	78.5
305.431	61.5
305.661	80.5
305.891	87.5
306.121	93.5
306.352	101.5
306.582	101.5
306.812	100.5
307.042	99.5
307.272	87.5
307.502	110.5
307.731	88.5
307.961	76.5
308.191	78.5
308.421	90.5
308.651	91.5
308.881	86.5
309.111	84.5
309.341	92.5
309.571	98.5
309.8	94.5
310.03	95.5
310.26	79.5
310.49	85.5
310.72	91.5
310.949	101.5
311.179	96.5
311.409	85.5
311.639	95.5
311.868	94.5
312.098	101.5
312.328	82.5
312.557	98.5
312.787	105.5
313.017	87.5
313.246	109.5
313.476	84.5
313.706	82.5
313.935	92.5
314.165	87.5
314.394	104.5
314.624	100.5
314.853	88.5
315.083	92.5
315.312	91.5
315.542	98.5
315.771	85.5
316.001	85.5
316.23	88.5
316.46	87.5
316.689	100.5
316.919	86.5
317.148	95.5
317.377	94.5
317.607	84.5
317.836	87.5
318.065	72.5
318.295	86.5
318.524	74.5
318.753	96.5
318.983	97.5
319.212	96.5
319.441	111.5
319.67	117.5
319.9	91.5
320.129	72.5
320.358	84.5
320.587	87.5
320.816	88.5
321.046	94.5
321.275	84.5
321.504	94.5
321.733	99.5
321.962	101.5
322.191	104.5
322.42	99.5
322.649	99.5
322.878	122.5
323.108	103.5
323.337	107.5
323.566	134.5
323.795	138.5
324.024	194.5
324.253	345.5
324.482	785.5
324.71	1617.5
324.939	2074.5
325.168	775.5
325.397	235.5
325.626	164.5
325.855	122.5
326.084	129.5
326.313	122.5
326.542	156.5
326.77	235.5
326.999	432.5
327.228	911.5
327.457	1621.5
327.686	1291.5
327.914	362.5
328.143	178.5
328.372	140.5
328.6	114.5
328.829	114.5
329.058	111.5
329.287	113.5
329.515	104.5
329.744	94.5
329.972	98.5
330.201	112.5
330.43	111.5
330.658	116.5
330.887	141.5
331.115	118.5
331.344	109.5
331.572	97.5
331.801	98.5
332.03	94.5
332.258	82.5
332.486	88.5
332.715	94.5
332.943	90.5
333.172	74.5
333.4	92.5
333.629	91.5
333.857	88.5
334.085	117.5
334.314	100.5
334.542	110.5
334.771	102.5
334.999	92.5
335.227	98.5
335.455	90.5
335.684	98.5
335.912	97.5
336.14	99.5
336.369	97.5
336.597	85.5
336.825	101.5
337.053	94.5
337.281	91.5
337.51	91.5
337.738	90.5
337.966	89.5
338.194	90.5
338.422	90.5
338.65	83.5
338.878	90.5
339.106	86.5
339.334	85.5
339.562	85.5
339.79	83.5
340.018	86.5
340.246	93.5
340.474	106.5
340.702	79.5
340.93	76.5
341.158	95.5
341.386	93.5
341.614	98.5
341.842	94.5
342.07	79.5
342.298	94.5
342.526	76.5
342.754	83.5
342.981	85.5
343.209	86.5
343.437	103.5
343.665	96.5
343.893	87.5
344.12	107.5
344.348	94.5
344.576	95.5
344.804	98.5
345.031	94.5
345.259	101.5
345.487	97.5
345.714	78.5
345.942	96.5
346.17	90.5
346.397	88.5
346.625	91.5
346.853	89.5
347.08	82.5
347.308	97.5
347.535	97.5
347.763	109.5
347.99	101.5
348.218	88.5
348.445	108.5
348.673	94.5
348.9	99.5
349.128	97.5
349.355	104.5
349.583	91.5
349.81	93.5
350.037	86.5
350.265	93.5
350.492	90.5
350.72	94.5
350.947	107.5
351.174	90.5
351.402	92.5
351.629	100.5
351.856	106.5
352.083	82.5
352.311	103.5
352.538	106.5
352.765	101.5
352.992	109.5
353.22	105.5
353.447	103.5
353.674	86.5
353.901	96.5
354.128	98.5
354.355	105.5
354.583	111.5
354.81	100.5
355.037	106.5
355.264	76.5
355.491	92.5
355.718	81.5
355.945	96.5
356.172	80.5
356.399	101.5
356.626	97.5
356.853	93.5
357.08	89.5
357.307	101.5
357.534	62.5
357.761	88.5
357.988	101.5
358.215	97.5
358.441	86.5
358.668	89.5
358.895	86.5
359.122	90.5
359.349	74.5
359.576	73.5
359.802	108.5
360.029	116.5
360.256	93.5
360.483	105.5
360.709	104.5
360.936	102.5
361.163	84.5
361.39	93.5
361.616	96.5
361.843	82.5
362.07	84.5
362.296	85.5
362.523	84.5
362.749	85.5
362.976	89.5
363.203	95.5
363.429	88.5
363.656	95.5
363.882	73.5
364.109	96.5
364.335	91.5
364.562	93.5
364.788	99.5
365.015	96.5
365.241	78.5
365.468	90.5
365.694	101.5
365.92	86.5
366.147	84.5
366.373	91.5
366.599	86.5
366.826	84.5
367.052	88.5
367.278	101.5
367.505	90.5
367.731	82.5
367.957	88.5
368.184	93.5
368.41	100.5
368.636	87.5
368.862	96.5
369.089	96.5
369.315	101.5
369.541	90.5
369.767	106.5
369.993	86.5
370.219	88.5
370.445	84.5
370.672	87.5
370.898	88.5
371.124	98.5
371.35	88.5
371.576	84.5
371.802	84.5
372.028	98.5
372.254	87.5
372.48	85.5
372.706	85.5
372.932	84.5
373.158	89.5
373.384	75.5
373.61	89.5
373.835	84.5
374.061	95.5
374.287	96.5
374.513	85.5
374.739	73.5
374.965	79.5
375.191	75.5
375.416	82.5
375.642	90.5
375.868	87.5
376.094	97.5
376.319	76.5
376.545	86.5
376.771	90.5
376.997	96.5
377.222	88.5
377.448	100.5
377.674	87.5
377.899	82.5
378.125	92.5
378.35	92.5
378.576	91.5
378.802	90.5
379.027	80.5
379.253	98.5
379.478	94.5
379.704	86.5
379.929	91.5
380.155	88.5
380.38	97.5
380.606	103.5
380.831	82.5
381.057	101.5
381.282	92.5
381.507	90.5
381.733	80.5
381.958	98.5
382.184	111.5
382.409	96.5
382.634	109.5
382.86	98.5
383.085	94.5
383.31	95.5
383.535	101.5
383.761	111.5
383.986	98.5
384.211	104.5
384.436	106.5
384.662	97.5
384.887	102.5
385.112	96.5
385.337	116.5
385.562	121.5
385.787	104.5
386.013	116.5
386.238	121.5
386.463	119.5
386.688	112.5
386.913	110.5
387.138	119.5
387.363	99.5
387.588	99.5
387.813	99.5
388.038	104.5
388.263	136.5
388.488	123.5
388.713	97.5
388.938	84.5
389.163	99.5
389.387	97.5
389.612	100.5
389.837	89.5
390.062	92.5
390.287	94.5
390.512	90.5
390.736	82.5
390.961	88.5
391.186	79.5
391.411	102.5
391.636	102.5
391.86	82.5
392.085	93.5
392.31	92.5
392.534	79.5
392.759	94.5
392.984	83.5
393.208	90.5
393.433	104.5
393.658	101.5
393.882	90.5
394.107	80.5
394.331	83.5
394.556	84.5
394.78	90.5
395.005	75.5
395.229	83.5
395.454	85.5
395.678	83.5
395.903	99.5
396.127	89.5
396.352	72.5
396.576	87.5
396.801	98.5
397.025	90.5
397.249	77.5
397.474	86.5
397.698	81.5
397.922	86.5
398.147	87.5
398.371	103.5
398.595	84.5
398.82	90.5
399.044	74.5
399.268	80.5
399.492	85.5
399.717	87.5
399.941	89.5
400.165	90.5
400.389	89.5
400.613	90.5
400.837	95.5
401.062	83.5
401.286	86.5
401.51	76.5
401.734	96.5
401.958	100.5
402.182	114.5
402.406	127.5
402.63	119.5
402.854	100.5
403.078	78.5
403.302	86.5
403.526	92.5
403.75	101.5
403.974	69.5
404.198	94.5
404.422	94.5
404.645	106.5
404.869	84.5
405.093	96.5
405.317	98.5
405.541	94.5
405.765	104.5
405.988	110.5
406.212	176.5
406.436	211.5
406.66	136.5
406.883	92.5
407.107	88.5
407.331	82.5
407.555	101.5
407.778	89.5
408.002	89.5
408.226	90.5
408.449	92.5
408.673	81.5
408.896	90.5
409.12	101.5
409.344	88.5
409.567	97.5
409.791	104.5
410.014	89.5
410.238	83.5
410.461	85.5
410.685	96.5
410.908	99.5
411.132	108.5
411.355	99.5
411.578	89.5
411.802	89.5
412.025	71.5
412.249	78.5
412.472	91.5
412.695	100.5
412.919	100.5
413.142	87.5
413.365	89.5
413.589	87.5
413.812	100.5
414.035	81.5
414.258	97.5
414.482	79.5
414.705	91.5
414.928	71.5
415.151	97.5
415.374	95.5
415.597	91.5
415.821	93.5
416.044	89.5
416.267	100.5
416.49	90.5
416.713	89.5
416.936	98.5
417.159	97.5
417.382	105.5
417.605	85.5
417.828	105.5
418.051	102.5
418.274	86.5
418.497	88.5
418.72	79.5
418.943	78.5
419.166	83.5
419.389	100.5
419.611	77.5
419.834	81.5
420.057	77.5
420.28	85.5
420.503	85.5
420.726	79.5
420.948	91.5
421.171	94.5
421.394	98.5
421.617	89.5
421.839	82.5
422.062	92.5
422.285	88.5
422.507	95.5
422.73	102.5
422.953	106.5
423.175	96.5
423.398	75.5
423.621	94.5
423.843	79.5
424.066	101.5
424.288	101.5
424.511	85.5
424.733	98.5
424.956	97.5
425.178	101.5
425.401	105.5
425.623	89.5
425.846	97.5
426.068	98.5
426.291	90.5
426.513	94.5
426.735	109.5
426.958	72.5
427.18	117.5
427.402	118.5
427.625	150.5
427.847	118.5
428.069	99.5
428.292	83.5
428.514	83.5
428.736	78.5
428.958	73.5
429.181	96.5
429.403	88.5
429.625	82.5
429.847	70.5
430.069	89.5
430.292	88.5
430.514	78.5
430.736	80.5
430.958	82.5
431.18	86.5
431.402	84.5
431.624	93.5
431.846	72.5
432.068	86.5
432.29	88.5
432.512	97.5
432.734	100.5
432.956	86.5
433.178	84.5
433.4	102.5
433.622	100.5
433.844	88.5
434.066	101.5
434.287	75.5
434.509	85.5
434.731	92.5
434.953	87.5
435.175	78.5
435.397	89.5
435.618	89.5
435.84	109.5
436.062	101.5
436.284	132.5
436.505	94.5
436.727	85.5
436.949	97.5
437.17	72.5
437.392	88.5
437.614	87.5
437.835	103.5
438.057	108.5
438.278	112.5
438.5	109.5
438.721	100.5
438.943	90.5
439.165	90.5
439.386	97.5
439.608	98.5
439.829	88.5
440.05	129.5
440.272	140.5
440.493	83.5
440.715	83.5
440.936	90.5
441.158	87.5
441.379	89.5
441.6	93.5
441.822	102.5
442.043	91.5
442.264	90.5
442.486	87.5
442.707	90.5
442.928	106.5
443.149	119.5
443.371	106.5
443.592	107.5
443.813	112.5
444.034	110.5
444.255	85.5
444.476	89.5
444.698	71.5
444.919	86.5
445.14	140.5
445.361	121.5
445.582	93.5
445.803	117.5
446.024	126.5
446.245	117.5
446.466	114.5
446.687	85.5
446.908	94.5
447.129	86.5
447.35	78.5
447.571	88.5
447.792	105.5
448.013	100.5
448.234	94.5
448.455	93.5
448.675	104.5
448.896	99.5
449.117	82.5
449.338	102.5
449.559	114.5
449.779	114.5
450	98.5
450.221	83.5
450.442	88.5
450.662	84.5
450.883	102.5
451.104	97.5
451.324	90.5
451.545	98.5
451.766	83.5
451.986	94.5
452.207	82.5
452.428	96.5
452.648	93.5
452.869	105.5
453.089	106.5
453.31	108.5
453.53	113.5
453.751	85.5
453.971	105.5
454.192	96.5
454.412	92.5
454.633	89.5
454.853	90.5
455.073	88.5
455.294	77.5
455.514	88.5
455.734	90.5
455.955	81.5
456.175	90.5
456.395	93.5
456.616	93.5
456.836	68.5
457.056	97.5
457.276	87.5
457.497	86.5
457.717	97.5
457.937	94.5
458.157	76.5
458.377	105.5
458.598	98.5
458.818	147.5
459.038	150.5
459.258	99.5
459.478	89.5
459.698	98.5
459.918	77.5
460.138	85.5
460.358	81.5
460.578	81.5
460.798	100.5
461.018	86.5
461.238	90.5
461.458	92.5
461.678	92.5
461.898	89.5
462.118	76.5
462.338	89.5
462.558	76.5
462.777	74.5
462.997	86.5
463.217	83.5
463.437	85.5
463.657	80.5
463.876	87.5
464.096	91.5
464.316	87.5
464.536	105.5
464.755	98.5
464.975	89.5
465.195	152.5
465.414	150.5
465.634	92.5
465.854	91.5
466.073	93.5
466.293	78.5
466.512	87.5
466.732	81.5
466.951	94.5
467.171	94.5
467.391	92.5
467.61	96.5
467.829	93.5
468.049	89.5
468.268	93.5
468.488	80.5
468.707	77.5
468.927	78.5
469.146	96.5
469.365	80.5
469.585	83.5
469.804	92.5
470.023	93.5
470.243	99.5
470.462	88.5
470.681	105.5
470.901	90.5
471.12	88.5
471.339	86.5
471.558	75.5
471.777	87.5
471.997	86.5
472.216	99.5
472.435	120.5
472.654	81.5
472.873	94.5
473.092	84.5
473.311	82.5
473.53	81.5
473.749	80.5
473.968	84.5
474.187	92.5
474.406	91.5
474.625	95.5
474.844	85.5
475.063	90.5
475.282	80.5
475.501	80.5
475.72	84.5
475.939	70.5
476.158	86.5
476.377	93.5
476.596	80.5
476.814	91.5
477.033	88.5
477.252	85.5
477.471	72.5
477.69	82.5
477.908	77.5
478.127	79.5
478.346	73.5
478.564	100.5
478.783	88.5
479.002	75.5
479.22	93.5
479.439	98.5
479.658	103.5
479.876	92.5
480.095	79.5
480.313	85.5
480.532	76.5
480.751	83.5
480.969	94.5
481.188	140.5
481.406	111.5
481.624	82.5
481.843	80.5
482.061	88.5
482.28	78.5
482.498	95.5
482.717	98.5
482.935	100.5
483.153	103.5
483.372	84.5
483.59	86.5
483.808	96.5
484.027	85.5
484.245	84.5
484.463	88.5
484.681	87.5
484.9	84.5
485.118	85.5
485.336	98.5
485.554	104.5
485.772	111.5
485.99	106.5
486.209	105.5
486.427	109.5
486.645	109.5
486.863	113.5
487.081	100.5
487.299	105.5
487.517	84.5
487.735	89.5
487.953	93.5
488.171	112.5
488.389	99.5
488.607	104.5
488.825	90.5
489.043	82.5
489.261	89.5
489.479	80.5
489.696	85.5
489.914	86.5
490.132	94.5
490.35	84.5
490.568	86.5
490.786	96.5
491.003	79.5
491.221	97.5
491.439	104.5
491.657	81.5
491.874	92.5
492.092	83.5
492.31	82.5
492.527	87.5
492.745	83.5
492.963	70.5
493.18	89.5
493.398	91.5
493.615	125.5
493.833	90.5
494.05	82.5
494.268	90.5
494.485	92.5
494.703	86.5
494.92	82.5
495.138	109.5
495.355	110.5
495.573	104.5
495.79	88.5
496.008	91.5
496.225	92.5
496.442	89.5
496.66	87.5
496.877	77.5
497.094	88.5
497.312	95.5
497.529	93.5
497.746	81.5
497.963	96.5
498.181	88.5
498.398	96.5
498.615	102.5
498.832	109.5
499.049	87.5
499.267	90.5
499.484	83.5
499.701	83.5
499.918	89.5
500.135	76.5
500.352	90.5
500.569	101.5
500.786	87.5
501.003	90.5
501.22	89.5
501.437	86.5
501.654	85.5
501.871	105.5
502.088	96.5
502.305	99.5
502.522	106.5
502.739	80.5
502.956	88.5
503.172	89.5
503.389	96.5
503.606	102.5
503.823	94.5
504.04	85.5
504.256	96.5
504.473	114.5
504.69	95.5
504.907	85.5
505.123	87.5
505.34	107.5
505.557	76.5
505.773	92.5
505.99	90.5
506.207	90.5
506.423	96.5
506.64	74.5
506.856	100.5
507.073	76.5
507.289	91.5
507.506	104.5
507.722	102.5
507.939	112.5
508.155	115.5
508.372	99.5
508.588	100.5
508.805	96.5
509.021	99.5
509.238	105.5
509.454	88.5
509.67	89.5
509.887	106.5
510.103	114.5
510.319	212.5
510.536	770.5
510.752	2372.5
510.968	664.5
511.184	147.5
511.401	110.5
511.617	89.5
511.833	104.5
512.049	105.5
512.265	68.5
512.481	78.5
512.698	88.5
512.914	79.5
513.13	79.5
513.346	87.5
513.562	94.5
513.778	89.5
513.994	92.5
514.21	91.5
514.426	119.5
514.642	102.5
514.858	134.5
515.074	161.5
515.29	410.5
515.506	1320.5
515.721	479.5
515.937	152.5
516.153	103.5
516.369	90.5
516.585	85.5
516.801	91.5
517.016	103.5
517.232	96.5
517.448	101.5
517.664	97.5
517.879	97.5
518.095	90.5
518.311	73.5
518.527	89.5
518.742	98.5
518.958	97.5
519.173	98.5
519.389	91.5
519.605	90.5
519.82	97.5
520.036	112.5
520.251	116.5
520.467	111.5
520.682	104.5
520.898	88.5
521.113	100.5
521.329	122.5
521.544	181.5
521.76	522.5
521.975	2228.5
522.19	1378.5
522.406	290.5
522.621	126.5
522.836	105.5
523.052	92.5
523.267	89.5
523.482	77.5
523.698	105.5
523.913	116.5
524.128	89.5
524.343	88.5
524.559	80.5
524.774	82.5
524.989	96.5
525.204	97.5
525.419	104.5
525.634	92.5
525.849	81.5
526.064	88.5
526.28	107.5
526.495	82.5
526.71	105.5
526.925	80.5
527.14	93.5
527.355	80.5
527.57	71.5
527.785	80.5
527.999	78.5
528.214	83.5
528.429	90.5
528.644	89.5
528.859	91.5
529.074	96.5
529.289	123.5
529.503	151.5
529.718	111.5
529.933	86.5
530.148	83.5
530.363	78.5
530.577	92.5
530.792	82.5
531.007	85.5
531.221	93.5
531.436	100.5
531.651	96.5
531.865	95.5
532.08	81.5
532.295	109.5
532.509	91.5
532.724	96.5
532.938	97.5
533.153	105.5
533.367	86.5
533.582	85.5
533.796	86.5
534.011	82.5
534.225	88.5
534.44	84.5
534.654	95.5
534.868	96.5
535.083	96.5
535.297	93.5
535.511	98.5
535.726	102.5
535.94	79.5
