Data from Circ_2003_H10_HRD10591_00009.txt Node
Date: Wed Jan 03 10:37:04 EST 2024
User: Yrep
Spectrometer: HR+D1059
Trigger mode: 1
Integration Time (sec): 1.000000E-1
Scans to average: 1
Electric dark correction enabled: true
Nonlinearity correction enabled: false
Boxcar width: 0
XAxis mode: Wavelengths
Number of Pixels in Spectrum: 2048
>>>>>Begin Spectral Data<<<<<
223.165	-26.5
223.4	-26.5
223.635	-26.5
223.869	-9.5
224.104	-30.5
224.338	-17.5
224.573	-15.5
224.808	-11.5
225.042	-5.5
225.277	-11.5
225.511	9.5
225.746	2.5
225.98	11.5
226.215	11.5
226.449	7.5
226.683	29.5
226.918	19.5
227.152	36.5
227.387	38.5
227.621	51.5
227.856	58.5
228.09	47.5
228.324	55.5
228.559	60.5
228.793	62.5
229.027	58.5
229.262	63.5
229.496	68.5
229.73	86.5
229.964	80.5
230.199	70.5
230.433	71.5
230.667	80.5
230.901	83.5
231.136	78.5
231.37	99.5
231.604	84.5
231.838	83.5
232.072	90.5
232.306	91.5
232.541	76.5
232.775	90.5
233.009	77.5
233.243	73.5
233.477	93.5
233.711	91.5
233.945	72.5
234.179	88.5
234.413	71.5
234.647	82.5
234.881	87.5
235.115	91.5
235.349	83.5
235.583	81.5
235.817	78.5
236.051	77.5
236.285	78.5
236.519	84.5
236.753	82.5
236.987	84.5
237.221	82.5
237.455	100.5
237.689	87.5
237.922	84.5
238.156	78.5
238.39	74.5
238.624	69.5
238.858	75.5
239.091	80.5
239.325	79.5
239.559	87.5
239.793	64.5
240.027	66.5
240.26	68.5
240.494	76.5
240.728	74.5
240.961	65.5
241.195	80.5
241.429	91.5
241.662	73.5
241.896	84.5
242.13	82.5
242.363	70.5
242.597	60.5
242.83	75.5
243.064	81.5
243.298	78.5
243.531	69.5
243.765	87.5
243.998	79.5
244.232	79.5
244.465	89.5
244.699	85.5
244.932	88.5
245.166	92.5
245.399	76.5
245.633	73.5
245.866	88.5
246.099	72.5
246.333	78.5
246.566	88.5
246.8	53.5
247.033	84.5
247.266	76.5
247.5	71.5
247.733	76.5
247.966	85.5
248.2	78.5
248.433	66.5
248.666	87.5
248.899	68.5
249.133	83.5
249.366	84.5
249.599	92.5
249.832	71.5
250.066	76.5
250.299	80.5
250.532	72.5
250.765	80.5
250.998	78.5
251.231	86.5
251.465	69.5
251.698	82.5
251.931	85.5
252.164	96.5
252.397	82.5
252.63	74.5
252.863	75.5
253.096	82.5
253.329	90.5
253.562	90.5
253.795	75.5
254.028	91.5
254.261	87.5
254.494	74.5
254.727	71.5
254.96	73.5
255.193	86.5
255.426	75.5
255.659	97.5
255.892	90.5
256.124	90.5
256.357	65.5
256.59	76.5
256.823	81.5
257.056	88.5
257.289	74.5
257.521	75.5
257.754	78.5
257.987	92.5
258.22	73.5
258.452	92.5
258.685	83.5
258.918	75.5
259.151	91.5
259.383	89.5
259.616	68.5
259.849	74.5
260.081	85.5
260.314	86.5
260.547	84.5
260.779	76.5
261.012	80.5
261.244	79.5
261.477	100.5
261.71	92.5
261.942	107.5
262.175	106.5
262.407	96.5
262.64	82.5
262.872	83.5
263.105	78.5
263.337	82.5
263.57	99.5
263.802	81.5
264.035	84.5
264.267	83.5
264.499	74.5
264.732	75.5
264.964	97.5
265.197	80.5
265.429	82.5
265.661	75.5
265.894	91.5
266.126	82.5
266.358	93.5
266.591	96.5
266.823	90.5
267.055	87.5
267.287	97.5
267.52	96.5
267.752	81.5
267.984	98.5
268.216	78.5
268.448	99.5
268.681	79.5
268.913	79.5
269.145	84.5
269.377	86.5
269.609	87.5
269.841	79.5
270.073	89.5
270.306	83.5
270.538	99.5
270.77	93.5
271.002	70.5
271.234	87.5
271.466	77.5
271.698	78.5
271.93	90.5
272.162	83.5
272.394	67.5
272.626	68.5
272.858	103.5
273.09	72.5
273.322	100.5
273.553	106.5
273.785	88.5
274.017	85.5
274.249	94.5
274.481	82.5
274.713	81.5
274.945	81.5
275.176	70.5
275.408	73.5
275.64	86.5
275.872	98.5
276.104	89.5
276.335	78.5
276.567	85.5
276.799	109.5
277.031	97.5
277.262	73.5
277.494	96.5
277.726	86.5
277.957	97.5
278.189	92.5
278.421	93.5
278.652	86.5
278.884	91.5
279.115	78.5
279.347	81.5
279.579	77.5
279.81	83.5
280.042	84.5
280.273	90.5
280.505	90.5
280.736	81.5
280.968	70.5
281.199	82.5
281.431	73.5
281.662	84.5
281.894	106.5
282.125	92.5
282.356	113.5
282.588	124.5
282.819	104.5
283.051	79.5
283.282	97.5
283.513	87.5
283.745	78.5
283.976	88.5
284.207	93.5
284.439	91.5
284.67	89.5
284.901	81.5
285.132	74.5
285.364	94.5
285.595	86.5
285.826	85.5
286.057	86.5
286.288	76.5
286.52	85.5
286.751	75.5
286.982	72.5
287.213	89.5
287.444	89.5
287.675	91.5
287.906	81.5
288.138	73.5
288.369	85.5
288.6	84.5
288.831	81.5
289.062	88.5
289.293	82.5
289.524	91.5
289.755	94.5
289.986	98.5
290.217	83.5
290.448	91.5
290.679	79.5
290.91	85.5
291.141	92.5
291.371	82.5
291.602	79.5
291.833	85.5
292.064	85.5
292.295	81.5
292.526	93.5
292.757	78.5
292.987	82.5
293.218	91.5
293.449	86.5
293.68	96.5
293.91	78.5
294.141	82.5
294.372	98.5
294.603	93.5
294.833	86.5
295.064	77.5
295.295	90.5
295.525	84.5
295.756	98.5
295.987	98.5
296.217	130.5
296.448	97.5
296.679	105.5
296.909	78.5
297.14	95.5
297.37	90.5
297.601	86.5
297.831	94.5
298.062	92.5
298.292	89.5
298.523	95.5
298.753	81.5
298.984	83.5
299.214	98.5
299.445	97.5
299.675	88.5
299.905	89.5
300.136	102.5
300.366	92.5
300.597	104.5
300.827	92.5
301.057	99.5
301.288	93.5
301.518	84.5
301.748	82.5
301.979	89.5
302.209	95.5
302.439	95.5
302.669	80.5
302.9	94.5
303.13	81.5
303.36	78.5
303.59	103.5
303.82	107.5
304.051	93.5
304.281	86.5
304.511	94.5
304.741	95.5
304.971	85.5
305.201	87.5
305.431	90.5
305.661	88.5
305.891	95.5
306.121	91.5
306.352	78.5
306.582	88.5
306.812	89.5
307.042	91.5
307.272	91.5
307.502	103.5
307.731	88.5
307.961	87.5
308.191	103.5
308.421	89.5
308.651	91.5
308.881	85.5
309.111	87.5
309.341	111.5
309.571	89.5
309.8	97.5
310.03	80.5
310.26	84.5
310.49	89.5
310.72	106.5
310.949	99.5
311.179	90.5
311.409	103.5
311.639	100.5
311.868	81.5
312.098	94.5
312.328	88.5
312.557	91.5
312.787	94.5
313.017	121.5
313.246	93.5
313.476	98.5
313.706	89.5
313.935	91.5
314.165	82.5
314.394	87.5
314.624	89.5
314.853	90.5
315.083	88.5
315.312	88.5
315.542	91.5
315.771	96.5
316.001	86.5
316.23	86.5
316.46	75.5
316.689	87.5
316.919	80.5
317.148	88.5
317.377	98.5
317.607	79.5
317.836	84.5
318.065	88.5
318.295	94.5
318.524	80.5
318.753	97.5
318.983	96.5
319.212	92.5
319.441	78.5
319.67	100.5
319.9	91.5
320.129	92.5
320.358	89.5
320.587	90.5
320.816	107.5
321.046	97.5
321.275	95.5
321.504	90.5
321.733	102.5
321.962	89.5
322.191	95.5
322.42	96.5
322.649	98.5
322.878	99.5
323.108	103.5
323.337	114.5
323.566	140.5
323.795	133.5
324.024	187.5
324.253	369.5
324.482	769.5
324.71	1521.5
324.939	1977.5
325.168	729.5
325.397	218.5
325.626	135.5
325.855	123.5
326.084	123.5
326.313	131.5
326.542	143.5
326.77	211.5
326.999	447.5
327.228	868.5
327.457	1603.5
327.686	1233.5
327.914	327.5
328.143	178.5
328.372	146.5
328.6	114.5
328.829	108.5
329.058	121.5
329.287	123.5
329.515	101.5
329.744	107.5
329.972	85.5
330.201	90.5
330.43	103.5
330.658	108.5
330.887	116.5
331.115	102.5
331.344	98.5
331.572	114.5
331.801	102.5
332.03	108.5
332.258	90.5
332.486	88.5
332.715	101.5
332.943	91.5
333.172	94.5
333.4	97.5
333.629	104.5
333.857	100.5
334.085	102.5
334.314	92.5
334.542	108.5
334.771	90.5
334.999	81.5
335.227	89.5
335.455	108.5
335.684	105.5
335.912	103.5
336.14	105.5
336.369	93.5
336.597	95.5
336.825	98.5
337.053	97.5
337.281	91.5
337.51	95.5
337.738	76.5
337.966	101.5
338.194	107.5
338.422	90.5
338.65	89.5
338.878	79.5
339.106	75.5
339.334	81.5
339.562	93.5
339.79	88.5
340.018	84.5
340.246	91.5
340.474	105.5
340.702	99.5
340.93	89.5
341.158	103.5
341.386	101.5
341.614	99.5
341.842	101.5
342.07	80.5
342.298	86.5
342.526	86.5
342.754	87.5
342.981	91.5
343.209	85.5
343.437	102.5
343.665	99.5
343.893	87.5
344.12	94.5
344.348	89.5
344.576	98.5
344.804	100.5
345.031	94.5
345.259	83.5
345.487	98.5
345.714	109.5
345.942	89.5
346.17	91.5
346.397	79.5
346.625	101.5
346.853	78.5
347.08	89.5
347.308	94.5
347.535	97.5
347.763	89.5
347.99	107.5
348.218	102.5
348.445	97.5
348.673	99.5
348.9	103.5
349.128	87.5
349.355	88.5
349.583	84.5
349.81	102.5
350.037	92.5
350.265	89.5
350.492	93.5
350.72	91.5
350.947	98.5
351.174	107.5
351.402	110.5
351.629	98.5
351.856	92.5
352.083	95.5
352.311	86.5
352.538	106.5
352.765	93.5
352.992	116.5
353.22	116.5
353.447	98.5
353.674	106.5
353.901	92.5
354.128	111.5
354.355	106.5
354.583	93.5
354.81	101.5
355.037	94.5
355.264	90.5
355.491	108.5
355.718	101.5
355.945	96.5
356.172	90.5
356.399	90.5
356.626	90.5
356.853	93.5
357.08	94.5
357.307	94.5
357.534	85.5
357.761	104.5
357.988	98.5
358.215	110.5
358.441	97.5
358.668	96.5
358.895	97.5
359.122	86.5
359.349	93.5
359.576	82.5
359.802	97.5
360.029	114.5
360.256	90.5
360.483	90.5
360.709	95.5
360.936	94.5
361.163	103.5
361.39	87.5
361.616	94.5
361.843	88.5
362.07	92.5
362.296	83.5
362.523	92.5
362.749	83.5
362.976	83.5
363.203	95.5
363.429	90.5
363.656	96.5
363.882	95.5
364.109	102.5
364.335	84.5
364.562	93.5
364.788	99.5
365.015	83.5
365.241	99.5
365.468	108.5
365.694	101.5
365.92	110.5
366.147	81.5
366.373	73.5
366.599	95.5
366.826	95.5
367.052	93.5
367.278	93.5
367.505	105.5
367.731	109.5
367.957	111.5
368.184	99.5
368.41	93.5
368.636	104.5
368.862	119.5
369.089	94.5
369.315	91.5
369.541	85.5
369.767	91.5
369.993	104.5
370.219	92.5
370.445	90.5
370.672	83.5
370.898	95.5
371.124	102.5
371.35	92.5
371.576	90.5
371.802	90.5
372.028	81.5
372.254	80.5
372.48	78.5
372.706	82.5
372.932	95.5
373.158	94.5
373.384	88.5
373.61	98.5
373.835	88.5
374.061	91.5
374.287	89.5
374.513	90.5
374.739	97.5
374.965	97.5
375.191	104.5
375.416	97.5
375.642	91.5
375.868	88.5
376.094	77.5
376.319	100.5
376.545	98.5
376.771	98.5
376.997	100.5
377.222	88.5
377.448	88.5
377.674	95.5
377.899	96.5
378.125	93.5
378.35	104.5
378.576	99.5
378.802	107.5
379.027	102.5
379.253	102.5
379.478	104.5
379.704	108.5
379.929	96.5
380.155	96.5
380.38	99.5
380.606	104.5
380.831	110.5
381.057	92.5
381.282	100.5
381.507	107.5
381.733	107.5
381.958	113.5
382.184	109.5
382.409	107.5
382.634	113.5
382.86	90.5
383.085	115.5
383.31	127.5
383.535	107.5
383.761	105.5
383.986	111.5
384.211	112.5
384.436	120.5
384.662	119.5
384.887	130.5
385.112	134.5
385.337	120.5
385.562	116.5
385.787	115.5
386.013	149.5
386.238	145.5
386.463	136.5
386.688	137.5
386.913	128.5
387.138	134.5
387.363	126.5
387.588	112.5
387.813	107.5
388.038	133.5
388.263	158.5
388.488	155.5
388.713	129.5
388.938	99.5
389.163	102.5
389.387	97.5
389.612	99.5
389.837	94.5
390.062	107.5
390.287	88.5
390.512	90.5
390.736	82.5
390.961	100.5
391.186	81.5
391.411	95.5
391.636	87.5
391.86	77.5
392.085	85.5
392.31	85.5
392.534	76.5
392.759	77.5
392.984	105.5
393.208	95.5
393.433	113.5
393.658	111.5
393.882	79.5
394.107	84.5
394.331	97.5
394.556	84.5
394.78	98.5
395.005	101.5
395.229	80.5
395.454	89.5
395.678	94.5
395.903	85.5
396.127	90.5
396.352	97.5
396.576	89.5
396.801	102.5
397.025	97.5
397.249	92.5
397.474	97.5
397.698	96.5
397.922	71.5
398.147	82.5
398.371	94.5
398.595	80.5
398.82	75.5
399.044	93.5
399.268	91.5
399.492	83.5
399.717	102.5
399.941	89.5
400.165	83.5
400.389	88.5
400.613	82.5
400.837	103.5
401.062	86.5
401.286	81.5
401.51	95.5
401.734	89.5
401.958	101.5
402.182	116.5
402.406	149.5
402.63	123.5
402.854	90.5
403.078	80.5
403.302	97.5
403.526	68.5
403.75	84.5
403.974	87.5
404.198	75.5
404.422	82.5
404.645	87.5
404.869	96.5
405.093	98.5
405.317	104.5
405.541	96.5
405.765	93.5
405.988	104.5
406.212	157.5
406.436	190.5
406.66	135.5
406.883	97.5
407.107	102.5
407.331	87.5
407.555	82.5
407.778	86.5
408.002	83.5
408.226	99.5
408.449	97.5
408.673	84.5
408.896	89.5
409.12	100.5
409.344	74.5
409.567	95.5
409.791	96.5
410.014	101.5
410.238	92.5
410.461	92.5
410.685	103.5
410.908	94.5
411.132	80.5
411.355	94.5
411.578	92.5
411.802	78.5
412.025	105.5
412.249	96.5
412.472	81.5
412.695	86.5
412.919	71.5
413.142	70.5
413.365	97.5
413.589	79.5
413.812	87.5
414.035	99.5
414.258	97.5
414.482	88.5
414.705	102.5
414.928	100.5
415.151	98.5
415.374	104.5
415.597	90.5
415.821	86.5
416.044	96.5
416.267	95.5
416.49	86.5
416.713	93.5
416.936	88.5
417.159	82.5
417.382	98.5
417.605	99.5
417.828	109.5
418.051	91.5
418.274	93.5
418.497	68.5
418.72	87.5
418.943	93.5
419.166	89.5
419.389	104.5
419.611	111.5
419.834	90.5
420.057	92.5
420.28	99.5
420.503	74.5
420.726	89.5
420.948	98.5
421.171	81.5
421.394	85.5
421.617	84.5
421.839	91.5
422.062	79.5
422.285	97.5
422.507	98.5
422.73	118.5
422.953	99.5
423.175	98.5
423.398	82.5
423.621	87.5
423.843	75.5
424.066	84.5
424.288	84.5
424.511	93.5
424.733	90.5
424.956	85.5
425.178	104.5
425.401	85.5
425.623	98.5
425.846	103.5
426.068	85.5
426.291	81.5
426.513	86.5
426.735	95.5
426.958	98.5
427.18	86.5
427.402	133.5
427.625	143.5
427.847	129.5
428.069	88.5
428.292	95.5
428.514	83.5
428.736	74.5
428.958	79.5
429.181	75.5
429.403	94.5
429.625	84.5
429.847	98.5
430.069	99.5
430.292	87.5
430.514	97.5
430.736	78.5
430.958	81.5
431.18	104.5
431.402	74.5
431.624	89.5
431.846	88.5
432.068	87.5
432.29	68.5
432.512	94.5
432.734	81.5
432.956	92.5
433.178	97.5
433.4	87.5
433.622	97.5
433.844	99.5
434.066	99.5
434.287	90.5
434.509	92.5
434.731	92.5
434.953	95.5
435.175	88.5
435.397	90.5
435.618	94.5
435.84	102.5
436.062	106.5
436.284	95.5
436.505	98.5
436.727	93.5
436.949	104.5
437.17	83.5
437.392	80.5
437.614	84.5
437.835	100.5
438.057	99.5
438.278	97.5
438.5	103.5
438.721	120.5
438.943	92.5
439.165	84.5
439.386	95.5
439.608	97.5
439.829	92.5
440.05	116.5
440.272	130.5
440.493	99.5
440.715	78.5
440.936	95.5
441.158	99.5
441.379	91.5
441.6	87.5
441.822	90.5
442.043	90.5
442.264	94.5
442.486	96.5
442.707	97.5
442.928	98.5
443.149	92.5
443.371	115.5
443.592	110.5
443.813	108.5
444.034	106.5
444.255	89.5
444.476	81.5
444.698	83.5
444.919	74.5
445.14	137.5
445.361	121.5
445.582	101.5
445.803	110.5
446.024	117.5
446.245	106.5
446.466	87.5
446.687	83.5
446.908	84.5
447.129	91.5
447.35	87.5
447.571	81.5
447.792	90.5
448.013	100.5
448.234	95.5
448.455	97.5
448.675	90.5
448.896	104.5
449.117	100.5
449.338	99.5
449.559	117.5
449.779	106.5
450	94.5
450.221	90.5
450.442	91.5
450.662	88.5
450.883	102.5
451.104	117.5
451.324	95.5
451.545	99.5
451.766	79.5
451.986	92.5
452.207	90.5
452.428	96.5
452.648	98.5
452.869	100.5
453.089	98.5
453.31	94.5
453.53	92.5
453.751	91.5
453.971	105.5
454.192	94.5
454.412	85.5
454.633	92.5
454.853	84.5
455.073	74.5
455.294	100.5
455.514	93.5
455.734	86.5
455.955	82.5
456.175	87.5
456.395	91.5
456.616	88.5
456.836	81.5
457.056	81.5
457.276	96.5
457.497	82.5
457.717	91.5
457.937	79.5
458.157	83.5
458.377	86.5
458.598	96.5
458.818	137.5
459.038	130.5
459.258	95.5
459.478	87.5
459.698	78.5
459.918	88.5
460.138	88.5
460.358	75.5
460.578	98.5
460.798	87.5
461.018	94.5
461.238	89.5
461.458	65.5
461.678	92.5
461.898	81.5
462.118	89.5
462.338	91.5
462.558	108.5
462.777	80.5
462.997	88.5
463.217	80.5
463.437	86.5
463.657	95.5
463.876	78.5
464.096	84.5
464.316	100.5
464.536	91.5
464.755	73.5
464.975	98.5
465.195	144.5
465.414	134.5
465.634	100.5
465.854	90.5
466.073	86.5
466.293	74.5
466.512	80.5
466.732	90.5
466.951	91.5
467.171	86.5
467.391	85.5
467.61	83.5
467.829	98.5
468.049	92.5
468.268	92.5
468.488	83.5
468.707	82.5
468.927	88.5
469.146	78.5
469.365	87.5
469.585	96.5
469.804	101.5
470.023	95.5
470.243	90.5
470.462	90.5
470.681	91.5
470.901	91.5
471.12	99.5
471.339	92.5
471.558	83.5
471.777	89.5
471.997	98.5
472.216	100.5
472.435	89.5
472.654	71.5
472.873	82.5
473.092	81.5
473.311	89.5
473.53	83.5
473.749	89.5
473.968	94.5
474.187	87.5
474.406	85.5
474.625	86.5
474.844	89.5
475.063	96.5
475.282	93.5
475.501	90.5
475.72	99.5
475.939	90.5
476.158	87.5
476.377	89.5
476.596	86.5
476.814	80.5
477.033	97.5
477.252	95.5
477.471	79.5
477.69	87.5
477.908	102.5
478.127	92.5
478.346	78.5
478.564	83.5
478.783	79.5
479.002	90.5
479.22	86.5
479.439	108.5
479.658	106.5
479.876	97.5
480.095	80.5
480.313	96.5
480.532	94.5
480.751	85.5
480.969	107.5
481.188	98.5
481.406	104.5
481.624	96.5
481.843	85.5
482.061	89.5
482.28	86.5
482.498	90.5
482.717	75.5
482.935	75.5
483.153	102.5
483.372	93.5
483.59	77.5
483.808	79.5
484.027	88.5
484.245	91.5
484.463	90.5
484.681	94.5
484.9	95.5
485.118	89.5
485.336	121.5
485.554	110.5
485.772	106.5
485.99	103.5
486.209	108.5
486.427	110.5
486.645	113.5
486.863	123.5
487.081	104.5
487.299	104.5
487.517	95.5
487.735	99.5
487.953	89.5
488.171	97.5
488.389	86.5
488.607	92.5
488.825	88.5
489.043	94.5
489.261	105.5
489.479	96.5
489.696	95.5
489.914	83.5
490.132	93.5
490.35	100.5
490.568	100.5
490.786	87.5
491.003	92.5
491.221	90.5
491.439	95.5
491.657	90.5
491.874	72.5
492.092	91.5
492.31	91.5
492.527	77.5
492.745	92.5
492.963	96.5
493.18	88.5
493.398	95.5
493.615	103.5
493.833	100.5
494.05	89.5
494.268	102.5
494.485	93.5
494.703	80.5
494.92	92.5
495.138	93.5
495.355	82.5
495.573	87.5
495.79	104.5
496.008	95.5
496.225	98.5
496.442	105.5
496.66	93.5
496.877	99.5
497.094	94.5
497.312	79.5
497.529	91.5
497.746	79.5
497.963	86.5
498.181	88.5
498.398	103.5
498.615	111.5
498.832	87.5
499.049	99.5
499.267	90.5
499.484	88.5
499.701	96.5
499.918	102.5
500.135	83.5
500.352	91.5
500.569	98.5
500.786	97.5
501.003	95.5
501.22	71.5
501.437	90.5
501.654	89.5
501.871	103.5
502.088	83.5
502.305	84.5
502.522	81.5
502.739	98.5
502.956	87.5
503.172	91.5
503.389	72.5
503.606	92.5
503.823	99.5
504.04	103.5
504.256	95.5
504.473	91.5
504.69	107.5
504.907	108.5
505.123	91.5
505.34	70.5
505.557	102.5
505.773	96.5
505.99	90.5
506.207	102.5
506.423	88.5
506.64	91.5
506.856	94.5
507.073	112.5
507.289	99.5
507.506	92.5
507.722	114.5
507.939	104.5
508.155	92.5
508.372	94.5
508.588	77.5
508.805	81.5
509.021	87.5
509.238	111.5
509.454	94.5
509.67	100.5
509.887	113.5
510.103	134.5
510.319	182.5
510.536	650.5
510.752	2029.5
510.968	578.5
511.184	138.5
511.401	108.5
511.617	102.5
511.833	89.5
512.049	91.5
512.265	90.5
512.481	84.5
512.698	87.5
512.914	88.5
513.13	103.5
513.346	98.5
513.562	89.5
513.778	90.5
513.994	116.5
514.21	96.5
514.426	100.5
514.642	112.5
514.858	101.5
515.074	150.5
515.29	332.5
515.506	1123.5
515.721	433.5
515.937	148.5
516.153	94.5
516.369	101.5
516.585	83.5
516.801	99.5
517.016	112.5
517.232	96.5
517.448	88.5
517.664	77.5
517.879	79.5
518.095	88.5
518.311	89.5
518.527	94.5
518.742	101.5
518.958	97.5
519.173	91.5
519.389	99.5
519.605	98.5
519.82	100.5
520.036	101.5
520.251	113.5
520.467	96.5
520.682	92.5
520.898	98.5
521.113	109.5
521.329	137.5
521.544	157.5
521.76	442.5
521.975	1807.5
522.19	1132.5
522.406	251.5
522.621	106.5
522.836	108.5
523.052	105.5
523.267	88.5
523.482	109.5
523.698	89.5
523.913	118.5
524.128	86.5
524.343	90.5
524.559	97.5
524.774	106.5
524.989	99.5
525.204	106.5
525.419	111.5
525.634	95.5
525.849	81.5
526.064	93.5
526.28	89.5
526.495	98.5
526.71	88.5
526.925	91.5
527.14	86.5
527.355	94.5
527.57	89.5
527.785	98.5
527.999	78.5
528.214	90.5
528.429	103.5
528.644	91.5
528.859	81.5
529.074	99.5
529.289	121.5
529.503	134.5
529.718	91.5
529.933	78.5
530.148	78.5
530.363	92.5
530.577	82.5
530.792	81.5
531.007	99.5
531.221	99.5
531.436	93.5
531.651	83.5
531.865	83.5
532.08	98.5
532.295	91.5
532.509	93.5
532.724	87.5
532.938	92.5
533.153	106.5
533.367	87.5
533.582	90.5
533.796	91.5
534.011	90.5
534.225	108.5
534.44	81.5
534.654	92.5
534.868	86.5
535.083	99.5
535.297	94.5
535.511	99.5
535.726	91.5
