Data from Circ_2003_H10_HRD10591_00021.txt Node
Date: Wed Jan 03 10:37:06 EST 2024
User: Yrep
Spectrometer: HR+D1059
Trigger mode: 1
Integration Time (sec): 1.000000E-1
Scans to average: 1
Electric dark correction enabled: true
Nonlinearity correction enabled: false
Boxcar width: 0
XAxis mode: Wavelengths
Number of Pixels in Spectrum: 2048
>>>>>Begin Spectral Data<<<<<
223.165	-3.12
223.4	-3.12
223.635	-3.12
223.869	-25.12
224.104	-27.12
224.338	-21.12
224.573	-24.12
224.808	-9.12
225.042	3.88
225.277	-21.12
225.511	4.88
225.746	3.88
225.98	10.88
226.215	17.88
226.449	13.88
226.683	11.88
226.918	32.88
227.152	30.88
227.387	39.88
227.621	55.88
227.856	48.88
228.09	45.88
228.324	43.88
228.559	54.88
228.793	65.88
229.027	46.88
229.262	67.88
229.496	79.88
229.73	82.88
229.964	87.88
230.199	76.88
230.433	78.88
230.667	82.88
230.901	82.88
231.136	67.88
231.37	68.88
231.604	79.88
231.838	87.88
232.072	69.88
232.306	76.88
232.541	74.88
232.775	79.88
233.009	86.88
233.243	80.88
233.477	69.88
233.711	78.88
233.945	90.88
234.179	84.88
234.413	81.88
234.647	62.88
234.881	75.88
235.115	79.88
235.349	76.88
235.583	66.88
235.817	66.88
236.051	76.88
236.285	63.88
236.519	75.88
236.753	72.88
236.987	81.88
237.221	77.88
237.455	76.88
237.689	88.88
237.922	76.88
238.156	82.88
238.39	72.88
238.624	53.88
238.858	92.88
239.091	75.88
239.325	81.88
239.559	71.88
239.793	77.88
240.027	70.88
240.26	61.88
240.494	82.88
240.728	65.88
240.961	77.88
241.195	98.88
241.429	77.88
241.662	71.88
241.896	76.88
242.13	73.88
242.363	76.88
242.597	63.88
242.83	82.88
243.064	88.88
243.298	77.88
243.531	77.88
243.765	73.88
243.998	87.88
244.232	82.88
244.465	78.88
244.699	74.88
244.932	80.88
245.166	68.88
245.399	88.88
245.633	83.88
245.866	69.88
246.099	73.88
246.333	70.88
246.566	74.88
246.8	61.88
247.033	78.88
247.266	80.88
247.5	71.88
247.733	86.88
247.966	89.88
248.2	69.88
248.433	76.88
248.666	67.88
248.899	65.88
249.133	95.88
249.366	92.88
249.599	106.88
249.832	93.88
250.066	74.88
250.299	79.88
250.532	81.88
250.765	80.88
250.998	74.88
251.231	65.88
251.465	85.88
251.698	69.88
251.931	80.88
252.164	78.88
252.397	81.88
252.63	80.88
252.863	75.88
253.096	66.88
253.329	79.88
253.562	81.88
253.795	68.88
254.028	83.88
254.261	74.88
254.494	82.88
254.727	73.88
254.96	88.88
255.193	76.88
255.426	80.88
255.659	89.88
255.892	75.88
256.124	67.88
256.357	77.88
256.59	82.88
256.823	83.88
257.056	94.88
257.289	82.88
257.521	64.88
257.754	80.88
257.987	82.88
258.22	90.88
258.452	81.88
258.685	89.88
258.918	69.88
259.151	74.88
259.383	65.88
259.616	81.88
259.849	85.88
260.081	73.88
260.314	87.88
260.547	74.88
260.779	78.88
261.012	90.88
261.244	87.88
261.477	96.88
261.71	94.88
261.942	101.88
262.175	115.88
262.407	88.88
262.64	85.88
262.872	76.88
263.105	65.88
263.337	72.88
263.57	76.88
263.802	74.88
264.035	99.88
264.267	84.88
264.499	85.88
264.732	81.88
264.964	73.88
265.197	92.88
265.429	87.88
265.661	68.88
265.894	81.88
266.126	97.88
266.358	73.88
266.591	83.88
266.823	80.88
267.055	80.88
267.287	90.88
267.52	70.88
267.752	94.88
267.984	76.88
268.216	82.88
268.448	79.88
268.681	72.88
268.913	89.88
269.145	77.88
269.377	89.88
269.609	83.88
269.841	85.88
270.073	69.88
270.306	82.88
270.538	82.88
270.77	75.88
271.002	82.88
271.234	83.88
271.466	97.88
271.698	85.88
271.93	98.88
272.162	82.88
272.394	66.88
272.626	75.88
272.858	71.88
273.09	87.88
273.322	84.88
273.553	80.88
273.785	76.88
274.017	77.88
274.249	82.88
274.481	80.88
274.713	88.88
274.945	72.88
275.176	86.88
275.408	88.88
275.64	72.88
275.872	75.88
276.104	87.88
276.335	85.88
276.567	99.88
276.799	96.88
277.031	92.88
277.262	85.88
277.494	81.88
277.726	78.88
277.957	84.88
278.189	91.88
278.421	70.88
278.652	84.88
278.884	86.88
279.115	80.88
279.347	81.88
279.579	90.88
279.81	92.88
280.042	80.88
280.273	93.88
280.505	84.88
280.736	93.88
280.968	89.88
281.199	78.88
281.431	72.88
281.662	95.88
281.894	94.88
282.125	103.88
282.356	109.88
282.588	146.88
282.819	105.88
283.051	88.88
283.282	87.88
283.513	84.88
283.745	76.88
283.976	84.88
284.207	87.88
284.439	70.88
284.67	99.88
284.901	89.88
285.132	80.88
285.364	86.88
285.595	86.88
285.826	79.88
286.057	84.88
286.288	77.88
286.52	83.88
286.751	81.88
286.982	63.88
287.213	80.88
287.444	83.88
287.675	80.88
287.906	83.88
288.138	82.88
288.369	96.88
288.6	94.88
288.831	92.88
289.062	86.88
289.293	81.88
289.524	89.88
289.755	72.88
289.986	78.88
290.217	81.88
290.448	88.88
290.679	88.88
290.91	92.88
291.141	88.88
291.371	88.88
291.602	88.88
291.833	78.88
292.064	96.88
292.295	82.88
292.526	85.88
292.757	85.88
292.987	100.88
293.218	83.88
293.449	85.88
293.68	87.88
293.91	96.88
294.141	95.88
294.372	84.88
294.603	96.88
294.833	90.88
295.064	98.88
295.295	82.88
295.525	88.88
295.756	110.88
295.987	121.88
296.217	148.88
296.448	142.88
296.679	88.88
296.909	77.88
297.14	88.88
297.37	79.88
297.601	79.88
297.831	81.88
298.062	82.88
298.292	99.88
298.523	96.88
298.753	74.88
298.984	91.88
299.214	88.88
299.445	86.88
299.675	87.88
299.905	92.88
300.136	84.88
300.366	66.88
300.597	101.88
300.827	90.88
301.057	84.88
301.288	96.88
301.518	72.88
301.748	79.88
301.979	96.88
302.209	101.88
302.439	76.88
302.669	87.88
302.9	95.88
303.13	95.88
303.36	90.88
303.59	100.88
303.82	108.88
304.051	83.88
304.281	89.88
304.511	89.88
304.741	85.88
304.971	95.88
305.201	85.88
305.431	91.88
305.661	98.88
305.891	96.88
306.121	100.88
306.352	99.88
306.582	104.88
306.812	94.88
307.042	90.88
307.272	79.88
307.502	92.88
307.731	95.88
307.961	82.88
308.191	81.88
308.421	87.88
308.651	68.88
308.881	77.88
309.111	86.88
309.341	98.88
309.571	100.88
309.8	91.88
310.03	96.88
310.26	99.88
310.49	103.88
310.72	92.88
310.949	96.88
311.179	99.88
311.409	82.88
311.639	96.88
311.868	95.88
312.098	88.88
312.328	80.88
312.557	101.88
312.787	88.88
313.017	108.88
313.246	79.88
313.476	88.88
313.706	95.88
313.935	79.88
314.165	85.88
314.394	99.88
314.624	93.88
314.853	97.88
315.083	96.88
315.312	93.88
315.542	100.88
315.771	78.88
316.001	91.88
316.23	89.88
316.46	74.88
316.689	95.88
316.919	89.88
317.148	102.88
317.377	86.88
317.607	103.88
317.836	91.88
318.065	80.88
318.295	88.88
318.524	97.88
318.753	87.88
318.983	90.88
319.212	100.88
319.441	107.88
319.67	125.88
319.9	92.88
320.129	84.88
320.358	90.88
320.587	84.88
320.816	96.88
321.046	108.88
321.275	103.88
321.504	95.88
321.733	83.88
321.962	104.88
322.191	86.88
322.42	88.88
322.649	101.88
322.878	113.88
323.108	92.88
323.337	117.88
323.566	110.88
323.795	151.88
324.024	193.88
324.253	420.88
324.482	887.88
324.71	1854.88
324.939	2344.88
325.168	877.88
325.397	246.88
325.626	139.88
325.855	117.88
326.084	112.88
326.313	135.88
326.542	164.88
326.77	224.88
326.999	477.88
327.228	996.88
327.457	1810.88
327.686	1449.88
327.914	373.88
328.143	192.88
328.372	154.88
328.6	119.88
328.829	116.88
329.058	121.88
329.287	121.88
329.515	114.88
329.744	106.88
329.972	110.88
330.201	112.88
330.43	114.88
330.658	118.88
330.887	142.88
331.115	125.88
331.344	95.88
331.572	90.88
331.801	113.88
332.03	111.88
332.258	92.88
332.486	90.88
332.715	79.88
332.943	82.88
333.172	102.88
333.4	107.88
333.629	106.88
333.857	124.88
334.085	107.88
334.314	96.88
334.542	102.88
334.771	95.88
334.999	104.88
335.227	84.88
335.455	101.88
335.684	101.88
335.912	95.88
336.14	107.88
336.369	107.88
336.597	99.88
336.825	93.88
337.053	99.88
337.281	95.88
337.51	90.88
337.738	89.88
337.966	100.88
338.194	86.88
338.422	83.88
338.65	93.88
338.878	82.88
339.106	88.88
339.334	97.88
339.562	93.88
339.79	111.88
340.018	98.88
340.246	98.88
340.474	95.88
340.702	97.88
340.93	96.88
341.158	91.88
341.386	103.88
341.614	92.88
341.842	87.88
342.07	87.88
342.298	93.88
342.526	81.88
342.754	81.88
342.981	89.88
343.209	90.88
343.437	100.88
343.665	89.88
343.893	65.88
344.12	94.88
344.348	96.88
344.576	95.88
344.804	88.88
345.031	84.88
345.259	98.88
345.487	94.88
345.714	88.88
345.942	99.88
346.17	102.88
346.397	85.88
346.625	97.88
346.853	95.88
347.08	94.88
347.308	86.88
347.535	85.88
347.763	99.88
347.99	95.88
348.218	107.88
348.445	111.88
348.673	96.88
348.9	90.88
349.128	99.88
349.355	84.88
349.583	81.88
349.81	111.88
350.037	100.88
350.265	98.88
350.492	97.88
350.72	100.88
350.947	96.88
351.174	102.88
351.402	109.88
351.629	118.88
351.856	104.88
352.083	95.88
352.311	97.88
352.538	95.88
352.765	110.88
352.992	94.88
353.22	101.88
353.447	113.88
353.674	103.88
353.901	96.88
354.128	94.88
354.355	109.88
354.583	100.88
354.81	109.88
355.037	100.88
355.264	99.88
355.491	88.88
355.718	79.88
355.945	107.88
356.172	108.88
356.399	93.88
356.626	93.88
356.853	94.88
357.08	95.88
357.307	96.88
357.534	107.88
357.761	103.88
357.988	109.88
358.215	97.88
358.441	93.88
358.668	106.88
358.895	81.88
359.122	86.88
359.349	98.88
359.576	72.88
359.802	101.88
360.029	100.88
360.256	119.88
360.483	101.88
360.709	94.88
360.936	97.88
361.163	94.88
361.39	81.88
361.616	89.88
361.843	87.88
362.07	94.88
362.296	88.88
362.523	77.88
362.749	89.88
362.976	72.88
363.203	79.88
363.429	94.88
363.656	105.88
363.882	94.88
364.109	95.88
364.335	90.88
364.562	86.88
364.788	81.88
365.015	95.88
365.241	90.88
365.468	98.88
365.694	97.88
365.92	92.88
366.147	86.88
366.373	99.88
366.599	87.88
366.826	85.88
367.052	90.88
367.278	94.88
367.505	84.88
367.731	88.88
367.957	105.88
368.184	82.88
368.41	103.88
368.636	97.88
368.862	121.88
369.089	104.88
369.315	77.88
369.541	84.88
369.767	83.88
369.993	92.88
370.219	84.88
370.445	88.88
370.672	76.88
370.898	78.88
371.124	83.88
371.35	93.88
371.576	93.88
371.802	85.88
372.028	97.88
372.254	94.88
372.48	93.88
372.706	76.88
372.932	74.88
373.158	81.88
373.384	82.88
373.61	88.88
373.835	91.88
374.061	105.88
374.287	81.88
374.513	98.88
374.739	86.88
374.965	80.88
375.191	99.88
375.416	91.88
375.642	93.88
375.868	89.88
376.094	101.88
376.319	86.88
376.545	89.88
376.771	94.88
376.997	84.88
377.222	99.88
377.448	81.88
377.674	96.88
377.899	93.88
378.125	84.88
378.35	80.88
378.576	83.88
378.802	85.88
379.027	89.88
379.253	99.88
379.478	84.88
379.704	97.88
379.929	76.88
380.155	104.88
380.38	89.88
380.606	91.88
380.831	97.88
381.057	82.88
381.282	90.88
381.507	90.88
381.733	89.88
381.958	83.88
382.184	96.88
382.409	106.88
382.634	121.88
382.86	103.88
383.085	109.88
383.31	106.88
383.535	106.88
383.761	105.88
383.986	102.88
384.211	113.88
384.436	103.88
384.662	100.88
384.887	106.88
385.112	115.88
385.337	114.88
385.562	111.88
385.787	112.88
386.013	119.88
386.238	127.88
386.463	108.88
386.688	115.88
386.913	122.88
387.138	127.88
387.363	121.88
387.588	105.88
387.813	100.88
388.038	112.88
388.263	129.88
388.488	116.88
388.713	95.88
388.938	101.88
389.163	91.88
389.387	96.88
389.612	91.88
389.837	84.88
390.062	94.88
390.287	88.88
390.512	100.88
390.736	98.88
390.961	93.88
391.186	89.88
391.411	90.88
391.636	76.88
391.86	81.88
392.085	72.88
392.31	92.88
392.534	89.88
392.759	98.88
392.984	83.88
393.208	96.88
393.433	87.88
393.658	101.88
393.882	90.88
394.107	84.88
394.331	89.88
394.556	98.88
394.78	66.88
395.005	93.88
395.229	96.88
395.454	81.88
395.678	69.88
395.903	84.88
396.127	78.88
396.352	93.88
396.576	88.88
396.801	93.88
397.025	83.88
397.249	90.88
397.474	96.88
397.698	83.88
397.922	98.88
398.147	81.88
398.371	81.88
398.595	88.88
398.82	102.88
399.044	93.88
399.268	84.88
399.492	84.88
399.717	87.88
399.941	88.88
400.165	86.88
400.389	93.88
400.613	80.88
400.837	88.88
401.062	85.88
401.286	89.88
401.51	88.88
401.734	79.88
401.958	93.88
402.182	118.88
402.406	165.88
402.63	128.88
402.854	100.88
403.078	96.88
403.302	83.88
403.526	81.88
403.75	85.88
403.974	90.88
404.198	93.88
404.422	86.88
404.645	85.88
404.869	93.88
405.093	86.88
405.317	75.88
405.541	103.88
405.765	95.88
405.988	121.88
406.212	169.88
406.436	229.88
406.66	150.88
406.883	97.88
407.107	87.88
407.331	90.88
407.555	92.88
407.778	95.88
408.002	95.88
408.226	96.88
408.449	88.88
408.673	84.88
408.896	94.88
409.12	91.88
409.344	79.88
409.567	93.88
409.791	89.88
410.014	93.88
410.238	92.88
410.461	100.88
410.685	102.88
410.908	99.88
411.132	99.88
411.355	95.88
411.578	107.88
411.802	73.88
412.025	85.88
412.249	81.88
412.472	79.88
412.695	93.88
412.919	100.88
413.142	87.88
413.365	82.88
413.589	91.88
413.812	101.88
414.035	99.88
414.258	93.88
414.482	94.88
414.705	88.88
414.928	93.88
415.151	83.88
415.374	84.88
415.597	84.88
415.821	86.88
416.044	83.88
416.267	82.88
416.49	90.88
416.713	98.88
416.936	86.88
417.159	82.88
417.382	86.88
417.605	96.88
417.828	90.88
418.051	76.88
418.274	89.88
418.497	85.88
418.72	92.88
418.943	88.88
419.166	90.88
419.389	90.88
419.611	84.88
419.834	93.88
420.057	98.88
420.28	75.88
420.503	85.88
420.726	89.88
420.948	80.88
421.171	106.88
421.394	89.88
421.617	96.88
421.839	76.88
422.062	79.88
422.285	101.88
422.507	91.88
422.73	117.88
422.953	91.88
423.175	89.88
423.398	95.88
423.621	99.88
423.843	84.88
424.066	80.88
424.288	90.88
424.511	89.88
424.733	87.88
424.956	100.88
425.178	104.88
425.401	101.88
425.623	103.88
425.846	94.88
426.068	94.88
426.291	80.88
426.513	95.88
426.735	85.88
426.958	103.88
427.18	92.88
427.402	137.88
427.625	161.88
427.847	121.88
428.069	102.88
428.292	100.88
428.514	77.88
428.736	75.88
428.958	98.88
429.181	80.88
429.403	87.88
429.625	96.88
429.847	77.88
430.069	95.88
430.292	87.88
430.514	89.88
430.736	81.88
430.958	78.88
431.18	82.88
431.402	71.88
431.624	84.88
431.846	81.88
432.068	76.88
432.29	80.88
432.512	82.88
432.734	78.88
432.956	98.88
433.178	82.88
433.4	86.88
433.622	90.88
433.844	85.88
434.066	97.88
434.287	73.88
434.509	80.88
434.731	96.88
434.953	89.88
435.175	85.88
435.397	80.88
435.618	83.88
435.84	100.88
436.062	126.88
436.284	111.88
436.505	91.88
436.727	98.88
436.949	93.88
437.17	81.88
437.392	86.88
437.614	93.88
437.835	99.88
438.057	111.88
438.278	100.88
438.5	105.88
438.721	115.88
438.943	109.88
439.165	74.88
439.386	75.88
439.608	97.88
439.829	79.88
440.05	117.88
440.272	129.88
440.493	90.88
440.715	95.88
440.936	91.88
441.158	88.88
441.379	94.88
441.6	87.88
441.822	75.88
442.043	74.88
442.264	96.88
442.486	95.88
442.707	72.88
442.928	107.88
443.149	126.88
443.371	131.88
443.592	101.88
443.813	119.88
444.034	88.88
444.255	90.88
444.476	72.88
444.698	68.88
444.919	90.88
445.14	130.88
445.361	125.88
445.582	116.88
445.803	128.88
446.024	126.88
446.245	126.88
446.466	106.88
446.687	84.88
446.908	83.88
447.129	90.88
447.35	91.88
447.571	97.88
447.792	84.88
448.013	85.88
448.234	93.88
448.455	102.88
448.675	109.88
448.896	90.88
449.117	104.88
449.338	104.88
449.559	112.88
449.779	117.88
450	94.88
450.221	73.88
450.442	82.88
450.662	95.88
450.883	107.88
451.104	98.88
451.324	106.88
451.545	89.88
451.766	73.88
451.986	85.88
452.207	91.88
452.428	96.88
452.648	96.88
452.869	112.88
453.089	113.88
453.31	121.88
453.53	92.88
453.751	87.88
453.971	106.88
454.192	107.88
454.412	81.88
454.633	90.88
454.853	93.88
455.073	90.88
455.294	74.88
455.514	98.88
455.734	87.88
455.955	78.88
456.175	76.88
456.395	87.88
456.616	83.88
456.836	70.88
457.056	85.88
457.276	84.88
457.497	96.88
457.717	96.88
457.937	83.88
458.157	70.88
458.377	92.88
458.598	106.88
458.818	148.88
459.038	158.88
459.258	129.88
459.478	87.88
459.698	98.88
459.918	94.88
460.138	85.88
460.358	86.88
460.578	79.88
460.798	93.88
461.018	82.88
461.238	86.88
461.458	89.88
461.678	79.88
461.898	84.88
462.118	101.88
462.338	109.88
462.558	105.88
462.777	71.88
462.997	93.88
463.217	87.88
463.437	73.88
463.657	97.88
463.876	70.88
464.096	79.88
464.316	81.88
464.536	81.88
464.755	93.88
464.975	88.88
465.195	162.88
465.414	156.88
465.634	103.88
465.854	78.88
466.073	88.88
466.293	96.88
466.512	85.88
466.732	83.88
466.951	68.88
467.171	86.88
467.391	88.88
467.61	98.88
467.829	99.88
468.049	76.88
468.268	88.88
468.488	92.88
468.707	94.88
468.927	87.88
469.146	78.88
469.365	89.88
469.585	80.88
469.804	96.88
470.023	89.88
470.243	83.88
470.462	96.88
470.681	100.88
470.901	91.88
471.12	89.88
471.339	88.88
471.558	82.88
471.777	85.88
471.997	78.88
472.216	85.88
472.435	97.88
472.654	86.88
472.873	81.88
473.092	95.88
473.311	107.88
473.53	103.88
473.749	79.88
473.968	93.88
474.187	93.88
474.406	77.88
474.625	87.88
474.844	88.88
475.063	83.88
475.282	67.88
475.501	79.88
475.72	76.88
475.939	83.88
476.158	88.88
476.377	72.88
476.596	86.88
476.814	91.88
477.033	79.88
477.252	83.88
477.471	97.88
477.69	79.88
477.908	83.88
478.127	102.88
478.346	88.88
478.564	89.88
478.783	91.88
479.002	78.88
479.22	93.88
479.439	97.88
479.658	92.88
479.876	81.88
480.095	96.88
480.313	100.88
480.532	90.88
480.751	84.88
480.969	105.88
481.188	104.88
481.406	100.88
481.624	89.88
481.843	71.88
482.061	82.88
482.28	95.88
482.498	82.88
482.717	98.88
482.935	87.88
483.153	76.88
483.372	90.88
483.59	94.88
483.808	93.88
484.027	94.88
484.245	79.88
484.463	86.88
484.681	94.88
484.9	80.88
485.118	95.88
485.336	98.88
485.554	103.88
485.772	86.88
485.99	108.88
486.209	105.88
486.427	114.88
486.645	109.88
486.863	115.88
487.081	111.88
487.299	91.88
487.517	99.88
487.735	89.88
487.953	76.88
488.171	80.88
488.389	101.88
488.607	92.88
488.825	88.88
489.043	72.88
489.261	77.88
489.479	87.88
489.696	83.88
489.914	92.88
490.132	97.88
490.35	91.88
490.568	87.88
490.786	93.88
491.003	101.88
491.221	84.88
491.439	77.88
491.657	81.88
491.874	84.88
492.092	76.88
492.31	85.88
492.527	81.88
492.745	79.88
492.963	96.88
493.18	84.88
493.398	87.88
493.615	105.88
493.833	86.88
494.05	88.88
494.268	80.88
494.485	93.88
494.703	78.88
494.92	87.88
495.138	72.88
495.355	84.88
495.573	84.88
495.79	92.88
496.008	97.88
496.225	88.88
496.442	92.88
496.66	91.88
496.877	89.88
497.094	72.88
497.312	78.88
497.529	92.88
497.746	89.88
497.963	72.88
498.181	86.88
498.398	97.88
498.615	106.88
498.832	118.88
499.049	84.88
499.267	80.88
499.484	92.88
499.701	80.88
499.918	76.88
500.135	93.88
500.352	83.88
500.569	73.88
500.786	88.88
501.003	86.88
501.22	95.88
501.437	91.88
501.654	84.88
501.871	102.88
502.088	97.88
502.305	88.88
502.522	80.88
502.739	79.88
502.956	80.88
503.172	85.88
503.389	86.88
503.606	99.88
503.823	96.88
504.04	96.88
504.256	65.88
504.473	88.88
504.69	85.88
504.907	89.88
505.123	87.88
505.34	88.88
505.557	79.88
505.773	89.88
505.99	90.88
506.207	84.88
506.423	79.88
506.64	89.88
506.856	90.88
507.073	82.88
507.289	80.88
507.506	103.88
507.722	111.88
507.939	108.88
508.155	94.88
508.372	96.88
508.588	84.88
508.805	92.88
509.021	89.88
509.238	109.88
509.454	100.88
509.67	98.88
509.887	117.88
510.103	142.88
510.319	201.88
510.536	826.88
510.752	2681.88
510.968	756.88
511.184	160.88
511.401	101.88
511.617	97.88
511.833	92.88
512.049	97.88
512.265	80.88
512.481	92.88
512.698	90.88
512.914	96.88
513.13	98.88
513.346	91.88
513.562	86.88
513.778	95.88
513.994	101.88
514.21	93.88
514.426	115.88
514.642	145.88
514.858	119.88
515.074	174.88
515.29	481.88
515.506	1560.88
515.721	546.88
515.937	150.88
516.153	104.88
516.369	98.88
