Data from Circ_2003_H10_HRD10591_00093.txt Node
Date: Wed Jan 03 10:37:21 EST 2024
User: Yrep
Spectrometer: HR+D1059
Trigger mode: 1
Integration Time (sec): 1.000000E-1
Scans to average: 1
Electric dark correction enabled: true
Nonlinearity correction enabled: false
Boxcar width: 0
XAxis mode: Wavelengths
Number of Pixels in Spectrum: 2048
>>>>>Begin Spectral Data<<<<<
223.165	-22.94
223.4	-22.94
223.635	-22.94
223.869	-4.94
224.104	-9.94
224.338	-21.94
224.573	-14.94
224.808	-8.94
225.042	-7.94
225.277	-10.94
225.511	-15.94
225.746	5.06
225.98	0.06
226.215	15.06
226.449	14.06
226.683	32.06
226.918	19.06
227.152	33.06
227.387	47.06
227.621	39.06
227.856	61.06
228.09	58.06
228.324	59.06
228.559	57.06
228.793	52.06
229.027	64.06
229.262	67.06
229.496	69.06
229.73	69.06
229.964	74.06
230.199	79.06
230.433	73.06
230.667	85.06
230.901	85.06
231.136	80.06
231.37	77.06
231.604	79.06
231.838	82.06
232.072	86.06
232.306	98.06
232.541	91.06
232.775	86.06
233.009	79.06
233.243	87.06
233.477	74.06
233.711	72.06
233.945	89.06
234.179	91.06
234.413	86.06
234.647	81.06
234.881	85.06
235.115	80.06
235.349	86.06
235.583	80.06
235.817	74.06
236.051	79.06
236.285	81.06
236.519	87.06
236.753	84.06
236.987	73.06
237.221	75.06
237.455	84.06
237.689	84.06
237.922	73.06
238.156	77.06
238.39	77.06
238.624	74.06
238.858	71.06
239.091	72.06
239.325	78.06
239.559	75.06
239.793	93.06
240.027	70.06
240.26	83.06
240.494	78.06
240.728	69.06
240.961	75.06
241.195	77.06
241.429	74.06
241.662	76.06
241.896	73.06
242.13	81.06
242.363	75.06
242.597	72.06
242.83	79.06
243.064	62.06
243.298	75.06
243.531	83.06
243.765	79.06
243.998	70.06
244.232	87.06
244.465	93.06
244.699	75.06
244.932	61.06
245.166	71.06
245.399	93.06
245.633	96.06
245.866	90.06
246.099	67.06
246.333	98.06
246.566	72.06
246.8	70.06
247.033	87.06
247.266	83.06
247.5	78.06
247.733	83.06
247.966	75.06
248.2	66.06
248.433	91.06
248.666	79.06
248.899	82.06
249.133	96.06
249.366	109.06
249.599	99.06
249.832	86.06
250.066	87.06
250.299	85.06
250.532	77.06
250.765	71.06
250.998	81.06
251.231	90.06
251.465	73.06
251.698	65.06
251.931	83.06
252.164	70.06
252.397	77.06
252.63	85.06
252.863	94.06
253.096	79.06
253.329	89.06
253.562	71.06
253.795	73.06
254.028	84.06
254.261	69.06
254.494	80.06
254.727	79.06
254.96	87.06
255.193	73.06
255.426	93.06
255.659	82.06
255.892	91.06
256.124	92.06
256.357	81.06
256.59	71.06
256.823	73.06
257.056	85.06
257.289	68.06
257.521	79.06
257.754	82.06
257.987	79.06
258.22	94.06
258.452	85.06
258.685	79.06
258.918	81.06
259.151	88.06
259.383	86.06
259.616	86.06
259.849	96.06
260.081	77.06
260.314	88.06
260.547	88.06
260.779	71.06
261.012	87.06
261.244	85.06
261.477	95.06
261.71	92.06
261.942	109.06
262.175	100.06
262.407	84.06
262.64	83.06
262.872	86.06
263.105	83.06
263.337	82.06
263.57	82.06
263.802	82.06
264.035	83.06
264.267	72.06
264.499	89.06
264.732	80.06
264.964	83.06
265.197	83.06
265.429	96.06
265.661	90.06
265.894	78.06
266.126	95.06
266.358	79.06
266.591	76.06
266.823	88.06
267.055	93.06
267.287	91.06
267.52	79.06
267.752	78.06
267.984	78.06
268.216	75.06
268.448	89.06
268.681	76.06
268.913	73.06
269.145	92.06
269.377	88.06
269.609	84.06
269.841	85.06
270.073	78.06
270.306	96.06
270.538	82.06
270.77	87.06
271.002	92.06
271.234	93.06
271.466	83.06
271.698	85.06
271.93	96.06
272.162	81.06
272.394	80.06
272.626	74.06
272.858	88.06
273.09	73.06
273.322	77.06
273.553	79.06
273.785	82.06
274.017	89.06
274.249	102.06
274.481	84.06
274.713	72.06
274.945	80.06
275.176	91.06
275.408	90.06
275.64	81.06
275.872	85.06
276.104	88.06
276.335	77.06
276.567	99.06
276.799	97.06
277.031	93.06
277.262	82.06
277.494	86.06
277.726	86.06
277.957	89.06
278.189	84.06
278.421	90.06
278.652	63.06
278.884	78.06
279.115	77.06
279.347	83.06
279.579	91.06
279.81	91.06
280.042	95.06
280.273	96.06
280.505	92.06
280.736	78.06
280.968	84.06
281.199	99.06
281.431	84.06
281.662	83.06
281.894	106.06
282.125	95.06
282.356	114.06
282.588	143.06
282.819	102.06
283.051	93.06
283.282	94.06
283.513	89.06
283.745	97.06
283.976	80.06
284.207	74.06
284.439	75.06
284.67	90.06
284.901	84.06
285.132	91.06
285.364	84.06
285.595	90.06
285.826	86.06
286.057	87.06
286.288	82.06
286.52	95.06
286.751	88.06
286.982	101.06
287.213	86.06
287.444	92.06
287.675	101.06
287.906	82.06
288.138	102.06
288.369	89.06
288.6	87.06
288.831	92.06
289.062	82.06
289.293	84.06
289.524	85.06
289.755	85.06
289.986	83.06
290.217	91.06
290.448	87.06
290.679	85.06
290.91	90.06
291.141	74.06
291.371	79.06
291.602	97.06
291.833	87.06
292.064	103.06
292.295	90.06
292.526	87.06
292.757	98.06
292.987	76.06
293.218	92.06
293.449	79.06
293.68	98.06
293.91	77.06
294.141	95.06
294.372	84.06
294.603	83.06
294.833	95.06
295.064	94.06
295.295	85.06
295.525	89.06
295.756	99.06
295.987	129.06
296.217	161.06
296.448	117.06
296.679	91.06
296.909	90.06
297.14	95.06
297.37	82.06
297.601	84.06
297.831	80.06
298.062	96.06
298.292	72.06
298.523	91.06
298.753	85.06
298.984	96.06
299.214	97.06
299.445	88.06
299.675	82.06
299.905	82.06
300.136	97.06
300.366	82.06
300.597	85.06
300.827	99.06
301.057	107.06
301.288	89.06
301.518	104.06
301.748	102.06
301.979	96.06
302.209	92.06
302.439	95.06
302.669	85.06
302.9	91.06
303.13	101.06
303.36	95.06
303.59	105.06
303.82	110.06
304.051	93.06
304.281	93.06
304.511	91.06
304.741	82.06
304.971	94.06
305.201	94.06
305.431	74.06
305.661	96.06
305.891	85.06
306.121	89.06
306.352	105.06
306.582	98.06
306.812	77.06
307.042	97.06
307.272	92.06
307.502	99.06
307.731	92.06
307.961	95.06
308.191	88.06
308.421	88.06
308.651	90.06
308.881	85.06
309.111	74.06
309.341	86.06
309.571	94.06
309.8	91.06
310.03	78.06
310.26	100.06
310.49	98.06
310.72	97.06
310.949	89.06
311.179	100.06
311.409	103.06
311.639	87.06
311.868	91.06
312.098	97.06
312.328	94.06
312.557	88.06
312.787	111.06
313.017	95.06
313.246	92.06
313.476	106.06
313.706	85.06
313.935	95.06
314.165	94.06
314.394	94.06
314.624	90.06
314.853	94.06
315.083	83.06
315.312	88.06
315.542	91.06
315.771	100.06
316.001	92.06
316.23	84.06
316.46	81.06
316.689	92.06
316.919	97.06
317.148	97.06
317.377	97.06
317.607	98.06
317.836	98.06
318.065	93.06
318.295	83.06
318.524	73.06
318.753	92.06
318.983	93.06
319.212	109.06
319.441	120.06
319.67	113.06
319.9	104.06
320.129	97.06
320.358	91.06
320.587	95.06
320.816	105.06
321.046	101.06
321.275	93.06
321.504	87.06
321.733	95.06
321.962	89.06
322.191	83.06
322.42	108.06
322.649	104.06
322.878	102.06
323.108	117.06
323.337	127.06
323.566	120.06
323.795	154.06
324.024	219.06
324.253	421.06
324.482	888.06
324.71	1915.06
324.939	2498.06
325.168	887.06
325.397	260.06
325.626	153.06
325.855	131.06
326.084	139.06
326.313	144.06
326.542	170.06
326.77	252.06
326.999	486.06
327.228	1039.06
327.457	1927.06
327.686	1501.06
327.914	394.06
328.143	211.06
328.372	173.06
328.6	126.06
328.829	114.06
329.058	133.06
329.287	114.06
329.515	114.06
329.744	121.06
329.972	123.06
330.201	164.06
330.43	189.06
330.658	133.06
330.887	138.06
331.115	132.06
331.344	109.06
331.572	119.06
331.801	100.06
332.03	86.06
332.258	101.06
332.486	105.06
332.715	100.06
332.943	86.06
333.172	99.06
333.4	102.06
333.629	107.06
333.857	125.06
334.085	143.06
334.314	169.06
334.542	235.06
334.771	206.06
334.999	115.06
335.227	102.06
335.455	90.06
335.684	110.06
335.912	87.06
336.14	92.06
336.369	89.06
336.597	100.06
336.825	90.06
337.053	95.06
337.281	98.06
337.51	95.06
337.738	86.06
337.966	93.06
338.194	96.06
338.422	89.06
338.65	103.06
338.878	82.06
339.106	91.06
339.334	104.06
339.562	87.06
339.79	96.06
340.018	103.06
340.246	90.06
340.474	87.06
340.702	86.06
340.93	82.06
341.158	88.06
341.386	101.06
341.614	89.06
341.842	88.06
342.07	84.06
342.298	97.06
342.526	84.06
342.754	88.06
342.981	82.06
343.209	91.06
343.437	101.06
343.665	88.06
343.893	95.06
344.12	92.06
344.348	90.06
344.576	79.06
344.804	93.06
345.031	88.06
345.259	93.06
345.487	96.06
345.714	87.06
345.942	107.06
346.17	89.06
346.397	91.06
346.625	85.06
346.853	87.06
347.08	92.06
347.308	83.06
347.535	101.06
347.763	110.06
347.99	100.06
348.218	88.06
348.445	100.06
348.673	97.06
348.9	88.06
349.128	108.06
349.355	108.06
349.583	86.06
349.81	105.06
350.037	91.06
350.265	94.06
350.492	97.06
350.72	97.06
350.947	80.06
351.174	102.06
351.402	112.06
351.629	97.06
351.856	91.06
352.083	93.06
352.311	88.06
352.538	108.06
352.765	100.06
352.992	104.06
353.22	113.06
353.447	123.06
353.674	99.06
353.901	113.06
354.128	94.06
354.355	99.06
354.583	101.06
354.81	107.06
355.037	87.06
355.264	90.06
355.491	83.06
355.718	88.06
355.945	82.06
356.172	95.06
356.399	95.06
356.626	82.06
356.853	91.06
357.08	79.06
357.307	91.06
357.534	91.06
357.761	96.06
357.988	81.06
358.215	92.06
358.441	98.06
358.668	105.06
358.895	105.06
359.122	94.06
359.349	86.06
359.576	104.06
359.802	94.06
360.029	101.06
360.256	113.06
360.483	104.06
360.709	92.06
360.936	98.06
361.163	90.06
361.39	87.06
361.616	87.06
361.843	97.06
362.07	82.06
362.296	100.06
362.523	100.06
362.749	91.06
362.976	86.06
363.203	102.06
363.429	110.06
363.656	95.06
363.882	95.06
364.109	99.06
364.335	97.06
364.562	94.06
364.788	87.06
365.015	90.06
365.241	98.06
365.468	110.06
365.694	97.06
365.92	100.06
366.147	78.06
366.373	87.06
366.599	87.06
366.826	96.06
367.052	81.06
367.278	98.06
367.505	109.06
367.731	80.06
367.957	98.06
368.184	86.06
368.41	91.06
368.636	106.06
368.862	116.06
369.089	103.06
369.315	105.06
369.541	87.06
369.767	81.06
369.993	96.06
370.219	97.06
370.445	87.06
370.672	90.06
370.898	71.06
371.124	81.06
371.35	93.06
371.576	100.06
371.802	88.06
372.028	93.06
372.254	87.06
372.48	77.06
372.706	96.06
372.932	99.06
373.158	91.06
373.384	84.06
373.61	92.06
373.835	91.06
374.061	86.06
374.287	70.06
374.513	100.06
374.739	86.06
374.965	80.06
375.191	80.06
375.416	97.06
375.642	90.06
375.868	92.06
376.094	91.06
376.319	93.06
376.545	90.06
376.771	107.06
376.997	97.06
377.222	96.06
377.448	85.06
377.674	85.06
377.899	97.06
378.125	87.06
378.35	87.06
378.576	87.06
378.802	94.06
379.027	88.06
379.253	92.06
379.478	85.06
379.704	89.06
379.929	98.06
380.155	86.06
380.38	86.06
380.606	100.06
380.831	83.06
381.057	94.06
381.282	96.06
381.507	85.06
381.733	85.06
381.958	96.06
382.184	76.06
382.409	89.06
382.634	102.06
382.86	89.06
383.085	89.06
383.31	82.06
383.535	84.06
383.761	98.06
383.986	103.06
384.211	94.06
384.436	100.06
384.662	80.06
384.887	94.06
385.112	99.06
385.337	99.06
385.562	95.06
385.787	106.06
386.013	119.06
386.238	124.06
386.463	105.06
386.688	104.06
386.913	92.06
387.138	105.06
387.363	114.06
387.588	106.06
387.813	94.06
388.038	96.06
388.263	104.06
388.488	106.06
388.713	99.06
388.938	89.06
389.163	95.06
389.387	94.06
389.612	82.06
389.837	95.06
390.062	102.06
390.287	96.06
390.512	94.06
390.736	87.06
390.961	81.06
391.186	90.06
391.411	95.06
391.636	101.06
391.86	93.06
392.085	81.06
392.31	87.06
392.534	85.06
392.759	88.06
392.984	81.06
393.208	81.06
393.433	92.06
393.658	84.06
393.882	90.06
394.107	90.06
394.331	78.06
394.556	76.06
394.78	79.06
395.005	91.06
395.229	73.06
395.454	94.06
395.678	100.06
395.903	87.06
396.127	83.06
396.352	97.06
396.576	85.06
396.801	90.06
397.025	86.06
397.249	95.06
397.474	81.06
397.698	91.06
397.922	98.06
398.147	85.06
398.371	93.06
398.595	83.06
398.82	77.06
399.044	77.06
399.268	74.06
399.492	86.06
399.717	88.06
399.941	75.06
400.165	98.06
400.389	89.06
400.613	78.06
400.837	94.06
401.062	90.06
401.286	91.06
401.51	84.06
401.734	83.06
401.958	86.06
402.182	126.06
402.406	163.06
402.63	120.06
402.854	95.06
403.078	91.06
403.302	99.06
403.526	92.06
403.75	102.06
403.974	88.06
404.198	97.06
404.422	93.06
404.645	87.06
404.869	84.06
405.093	93.06
405.317	93.06
405.541	100.06
405.765	89.06
405.988	128.06
406.212	159.06
406.436	207.06
406.66	133.06
406.883	98.06
407.107	90.06
407.331	83.06
407.555	99.06
407.778	92.06
408.002	87.06
408.226	88.06
408.449	98.06
408.673	82.06
408.896	73.06
409.12	91.06
409.344	89.06
409.567	99.06
409.791	91.06
410.014	87.06
410.238	106.06
410.461	92.06
410.685	91.06
410.908	94.06
411.132	95.06
411.355	86.06
411.578	90.06
411.802	91.06
412.025	90.06
412.249	90.06
412.472	91.06
412.695	98.06
412.919	94.06
413.142	100.06
413.365	88.06
413.589	88.06
413.812	90.06
414.035	84.06
414.258	85.06
414.482	98.06
414.705	94.06
414.928	66.06
415.151	96.06
415.374	95.06
415.597	85.06
415.821	91.06
416.044	85.06
416.267	97.06
416.49	95.06
416.713	91.06
416.936	86.06
417.159	106.06
417.382	81.06
417.605	87.06
417.828	96.06
418.051	77.06
418.274	84.06
418.497	93.06
418.72	84.06
418.943	91.06
419.166	85.06
419.389	78.06
419.611	85.06
419.834	103.06
420.057	84.06
420.28	92.06
420.503	92.06
420.726	93.06
420.948	95.06
421.171	96.06
421.394	81.06
421.617	93.06
421.839	88.06
422.062	93.06
422.285	107.06
422.507	97.06
422.73	91.06
422.953	97.06
423.175	87.06
423.398	106.06
423.621	89.06
423.843	83.06
424.066	98.06
424.288	90.06
424.511	86.06
424.733	78.06
424.956	101.06
425.178	88.06
425.401	107.06
425.623	102.06
425.846	71.06
426.068	82.06
426.291	88.06
426.513	86.06
426.735	90.06
426.958	91.06
427.18	105.06
427.402	127.06
427.625	163.06
427.847	139.06
428.069	121.06
428.292	98.06
428.514	85.06
428.736	76.06
428.958	87.06
429.181	85.06
429.403	99.06
429.625	83.06
429.847	98.06
430.069	96.06
430.292	87.06
430.514	81.06
430.736	93.06
430.958	95.06
431.18	96.06
431.402	80.06
431.624	83.06
431.846	87.06
432.068	102.06
432.29	92.06
432.512	90.06
432.734	95.06
432.956	91.06
433.178	96.06
433.4	105.06
433.622	99.06
433.844	91.06
434.066	83.06
434.287	83.06
434.509	89.06
434.731	82.06
434.953	89.06
435.175	82.06
435.397	77.06
435.618	88.06
435.84	99.06
436.062	113.06
436.284	108.06
436.505	101.06
436.727	105.06
436.949	86.06
437.17	93.06
437.392	90.06
437.614	95.06
437.835	109.06
438.057	84.06
438.278	97.06
438.5	93.06
438.721	116.06
438.943	104.06
439.165	87.06
439.386	80.06
439.608	95.06
439.829	92.06
440.05	118.06
440.272	141.06
440.493	109.06
440.715	81.06
440.936	90.06
441.158	89.06
441.379	81.06
441.6	87.06
441.822	84.06
442.043	90.06
442.264	89.06
442.486	90.06
442.707	95.06
442.928	107.06
443.149	115.06
443.371	114.06
443.592	96.06
443.813	99.06
444.034	81.06
444.255	97.06
444.476	92.06
444.698	97.06
444.919	77.06
445.14	118.06
445.361	121.06
445.582	129.06
445.803	139.06
446.024	125.06
446.245	126.06
446.466	108.06
446.687	89.06
446.908	92.06
447.129	91.06
447.35	85.06
447.571	94.06
447.792	107.06
448.013	120.06
448.234	107.06
448.455	100.06
448.675	103.06
448.896	112.06
449.117	102.06
449.338	89.06
449.559	112.06
449.779	130.06
450	97.06
450.221	99.06
450.442	86.06
450.662	83.06
450.883	110.06
451.104	113.06
451.324	104.06
451.545	72.06
451.766	90.06
451.986	72.06
452.207	89.06
452.428	96.06
452.648	108.06
452.869	99.06
453.089	99.06
453.31	119.06
453.53	89.06
453.751	90.06
453.971	100.06
454.192	107.06
454.412	83.06
454.633	97.06
454.853	86.06
455.073	83.06
455.294	100.06
455.514	97.06
455.734	86.06
455.955	82.06
456.175	97.06
456.395	91.06
456.616	97.06
456.836	101.06
457.056	85.06
457.276	91.06
457.497	82.06
457.717	84.06
457.937	89.06
458.157	105.06
458.377	93.06
458.598	99.06
458.818	142.06
459.038	141.06
459.258	102.06
459.478	99.06
459.698	82.06
459.918	103.06
460.138	91.06
460.358	96.06
460.578	74.06
460.798	79.06
461.018	83.06
461.238	70.06
461.458	87.06
461.678	82.06
461.898	81.06
462.118	98.06
462.338	80.06
462.558	90.06
462.777	87.06
462.997	88.06
463.217	102.06
463.437	102.06
463.657	82.06
463.876	84.06
464.096	90.06
464.316	101.06
464.536	89.06
464.755	92.06
464.975	93.06
465.195	170.06
465.414	156.06
465.634	93.06
465.854	99.06
466.073	86.06
466.293	89.06
466.512	96.06
466.732	89.06
466.951	87.06
467.171	87.06
467.391	97.06
467.61	109.06
467.829	102.06
468.049	120.06
468.268	154.06
468.488	83.06
468.707	90.06
468.927	77.06
469.146	87.06
469.365	75.06
469.585	86.06
469.804	113.06
470.023	101.06
470.243	90.06
470.462	91.06
470.681	104.06
470.901	87.06
471.12	97.06
471.339	75.06
471.558	99.06
471.777	97.06
471.997	111.06
472.216	180.06
472.435	293.06
472.654	143.06
472.873	87.06
473.092	79.06
473.311	100.06
473.53	89.06
473.749	98.06
473.968	102.06
474.187	99.06
474.406	101.06
474.625	98.06
474.844	97.06
475.063	90.06
475.282	95.06
475.501	83.06
475.72	87.06
475.939	89.06
476.158	83.06
476.377	81.06
476.596	82.06
476.814	85.06
477.033	95.06
477.252	88.06
477.471	87.06
477.69	94.06
477.908	91.06
478.127	101.06
478.346	86.06
478.564	97.06
478.783	96.06
479.002	88.06
479.22	99.06
479.439	105.06
479.658	106.06
479.876	94.06
480.095	94.06
480.313	96.06
480.532	96.06
480.751	107.06
480.969	174.06
481.188	498.06
481.406	317.06
481.624	118.06
481.843	96.06
482.061	83.06
482.28	84.06
482.498	90.06
482.717	96.06
482.935	103.06
483.153	84.06
483.372	101.06
483.59	98.06
483.808	86.06
484.027	77.06
484.245	95.06
484.463	94.06
484.681	98.06
484.9	97.06
485.118	99.06
485.336	94.06
485.554	96.06
485.772	90.06
485.99	95.06
486.209	99.06
486.427	96.06
486.645	118.06
486.863	101.06
487.081	98.06
487.299	98.06
487.517	100.06
487.735	77.06
487.953	96.06
488.171	99.06
488.389	98.06
488.607	97.06
488.825	104.06
489.043	94.06
489.261	96.06
489.479	97.06
489.696	97.06
489.914	87.06
490.132	98.06
490.35	105.06
490.568	87.06
490.786	100.06
491.003	90.06
491.221	96.06
491.439	102.06
491.657	88.06
491.874	89.06
492.092	101.06
492.31	88.06
492.527	79.06
492.745	91.06
492.963	89.06
493.18	79.06
493.398	78.06
493.615	94.06
493.833	84.06
494.05	97.06
494.268	90.06
494.485	82.06
494.703	94.06
494.92	103.06
495.138	95.06
495.355	87.06
495.573	92.06
495.79	99.06
496.008	85.06
496.225	98.06
496.442	94.06
496.66	100.06
496.877	98.06
497.094	85.06
497.312	84.06
497.529	83.06
497.746	91.06
497.963	90.06
498.181	106.06
498.398	103.06
498.615	110.06
498.832	96.06
499.049	94.06
499.267	89.06
499.484	97.06
499.701	78.06
499.918	80.06
500.135	90.06
500.352	89.06
500.569	91.06
500.786	88.06
501.003	78.06
501.22	93.06
501.437	90.06
501.654	92.06
501.871	113.06
502.088	94.06
502.305	90.06
502.522	90.06
502.739	90.06
502.956	98.06
503.172	97.06
503.389	90.06
503.606	109.06
503.823	100.06
504.04	101.06
504.256	95.06
504.473	81.06
504.69	86.06
504.907	111.06
505.123	83.06
505.34	90.06
505.557	80.06
505.773	92.06
505.99	91.06
506.207	93.06
506.423	74.06
506.64	86.06
506.856	85.06
507.073	87.06
507.289	99.06
507.506	89.06
507.722	112.06
507.939	114.06
508.155	111.06
508.372	98.06
508.588	86.06
508.805	101.06
509.021	111.06
509.238	107.06
509.454	98.06
509.67	106.06
509.887	104.06
510.103	121.06
510.319	208.06
510.536	750.06
510.752	2476.06
510.968	689.06
511.184	157.06
511.401	103.06
511.617	112.06
511.833	86.06
512.049	91.06
512.265	91.06
512.481	96.06
512.698	83.06
512.914	91.06
513.13	94.06
513.346	99.06
513.562	105.06
513.778	108.06
513.994	97.06
514.21	89.06
514.426	108.06
514.642	143.06
514.858	124.06
515.074	159.06
515.29	438.06
515.506	1430.06
515.721	536.06
515.937	137.06
