Data from Circ_2003_H10_HRD10591_00068.txt Node
Date: Wed Jan 03 10:37:16 EST 2024
User: Yrep
Spectrometer: HR+D1059
Trigger mode: 1
Integration Time (sec): 1.000000E-1
Scans to average: 1
Electric dark correction enabled: true
Nonlinearity correction enabled: false
Boxcar width: 0
XAxis mode: Wavelengths
Number of Pixels in Spectrum: 2048
>>>>>Begin Spectral Data<<<<<
223.165	-17.06
223.4	-17.06
223.635	-17.06
223.869	-27.06
224.104	-26.06
224.338	-25.06
224.573	-19.06
224.808	-2.06
225.042	-5.06
225.277	1.94
225.511	7.94
225.746	0.94
225.98	9.94
226.215	3.94
226.449	15.94
226.683	23.94
226.918	32.94
227.152	23.94
227.387	38.94
227.621	44.94
227.856	36.94
228.09	40.94
228.324	38.94
228.559	71.94
228.793	60.94
229.027	70.94
229.262	84.94
229.496	62.94
229.73	90.94
229.964	78.94
230.199	60.94
230.433	82.94
230.667	94.94
230.901	77.94
231.136	67.94
231.37	83.94
231.604	77.94
231.838	84.94
232.072	73.94
232.306	86.94
232.541	88.94
232.775	86.94
233.009	99.94
233.243	88.94
233.477	88.94
233.711	85.94
233.945	88.94
234.179	85.94
234.413	86.94
234.647	83.94
234.881	74.94
235.115	76.94
235.349	93.94
235.583	71.94
235.817	84.94
236.051	76.94
236.285	75.94
236.519	72.94
236.753	84.94
236.987	76.94
237.221	82.94
237.455	80.94
237.689	83.94
237.922	80.94
238.156	83.94
238.39	85.94
238.624	93.94
238.858	77.94
239.091	78.94
239.325	81.94
239.559	80.94
239.793	75.94
240.027	88.94
240.26	73.94
240.494	76.94
240.728	75.94
240.961	86.94
241.195	76.94
241.429	90.94
241.662	85.94
241.896	89.94
242.13	87.94
242.363	74.94
242.597	73.94
242.83	74.94
243.064	69.94
243.298	80.94
243.531	86.94
243.765	93.94
243.998	93.94
244.232	81.94
244.465	83.94
244.699	75.94
244.932	86.94
245.166	78.94
245.399	85.94
245.633	84.94
245.866	85.94
246.099	85.94
246.333	79.94
246.566	83.94
246.8	81.94
247.033	98.94
247.266	82.94
247.5	72.94
247.733	89.94
247.966	86.94
248.2	70.94
248.433	89.94
248.666	77.94
248.899	90.94
249.133	90.94
249.366	77.94
249.599	86.94
249.832	91.94
250.066	75.94
250.299	88.94
250.532	84.94
250.765	90.94
250.998	83.94
251.231	93.94
251.465	78.94
251.698	81.94
251.931	73.94
252.164	82.94
252.397	72.94
252.63	76.94
252.863	95.94
253.096	92.94
253.329	81.94
253.562	87.94
253.795	76.94
254.028	86.94
254.261	74.94
254.494	91.94
254.727	75.94
254.96	90.94
255.193	73.94
255.426	85.94
255.659	91.94
255.892	85.94
256.124	73.94
256.357	83.94
256.59	77.94
256.823	80.94
257.056	77.94
257.289	88.94
257.521	92.94
257.754	75.94
257.987	81.94
258.22	89.94
258.452	80.94
258.685	70.94
258.918	77.94
259.151	82.94
259.383	92.94
259.616	89.94
259.849	91.94
260.081	94.94
260.314	81.94
260.547	94.94
260.779	95.94
261.012	84.94
261.244	76.94
261.477	87.94
261.71	92.94
261.942	100.94
262.175	112.94
262.407	86.94
262.64	88.94
262.872	84.94
263.105	92.94
263.337	77.94
263.57	78.94
263.802	95.94
264.035	86.94
264.267	68.94
264.499	78.94
264.732	83.94
264.964	91.94
265.197	90.94
265.429	94.94
265.661	86.94
265.894	85.94
266.126	71.94
266.358	102.94
266.591	95.94
266.823	96.94
267.055	101.94
267.287	99.94
267.52	87.94
267.752	78.94
267.984	84.94
268.216	86.94
268.448	87.94
268.681	89.94
268.913	86.94
269.145	91.94
269.377	89.94
269.609	78.94
269.841	80.94
270.073	84.94
270.306	73.94
270.538	83.94
270.77	84.94
271.002	83.94
271.234	90.94
271.466	90.94
271.698	84.94
271.93	93.94
272.162	84.94
272.394	72.94
272.626	95.94
272.858	86.94
273.09	77.94
273.322	109.94
273.553	81.94
273.785	82.94
274.017	90.94
274.249	83.94
274.481	88.94
274.713	81.94
274.945	79.94
275.176	99.94
275.408	97.94
275.64	94.94
275.872	75.94
276.104	86.94
276.335	95.94
276.567	82.94
276.799	93.94
277.031	105.94
277.262	89.94
277.494	90.94
277.726	84.94
277.957	85.94
278.189	84.94
278.421	88.94
278.652	79.94
278.884	85.94
279.115	70.94
279.347	89.94
279.579	88.94
279.81	98.94
280.042	76.94
280.273	87.94
280.505	74.94
280.736	91.94
280.968	82.94
281.199	89.94
281.431	74.94
281.662	97.94
281.894	113.94
282.125	109.94
282.356	115.94
282.588	138.94
282.819	115.94
283.051	107.94
283.282	86.94
283.513	92.94
283.745	81.94
283.976	92.94
284.207	91.94
284.439	113.94
284.67	97.94
284.901	76.94
285.132	97.94
285.364	78.94
285.595	90.94
285.826	85.94
286.057	84.94
286.288	76.94
286.52	71.94
286.751	89.94
286.982	90.94
287.213	70.94
287.444	89.94
287.675	101.94
287.906	87.94
288.138	92.94
288.369	87.94
288.6	94.94
288.831	93.94
289.062	93.94
289.293	81.94
289.524	91.94
289.755	80.94
289.986	84.94
290.217	99.94
290.448	97.94
290.679	88.94
290.91	82.94
291.141	87.94
291.371	97.94
291.602	83.94
291.833	81.94
292.064	93.94
292.295	85.94
292.526	84.94
292.757	98.94
292.987	84.94
293.218	86.94
293.449	88.94
293.68	87.94
293.91	98.94
294.141	75.94
294.372	90.94
294.603	98.94
294.833	88.94
295.064	93.94
295.295	80.94
295.525	91.94
295.756	96.94
295.987	117.94
296.217	134.94
296.448	107.94
296.679	86.94
296.909	92.94
297.14	91.94
297.37	97.94
297.601	84.94
297.831	85.94
298.062	87.94
298.292	87.94
298.523	83.94
298.753	89.94
298.984	81.94
299.214	84.94
299.445	84.94
299.675	88.94
299.905	94.94
300.136	94.94
300.366	85.94
300.597	85.94
300.827	113.94
301.057	93.94
301.288	91.94
301.518	91.94
301.748	83.94
301.979	113.94
302.209	100.94
302.439	82.94
302.669	99.94
302.9	80.94
303.13	78.94
303.36	90.94
303.59	88.94
303.82	116.94
304.051	89.94
304.281	87.94
304.511	88.94
304.741	89.94
304.971	83.94
305.201	84.94
305.431	93.94
305.661	94.94
305.891	82.94
306.121	82.94
306.352	86.94
306.582	107.94
306.812	88.94
307.042	100.94
307.272	84.94
307.502	114.94
307.731	96.94
307.961	93.94
308.191	102.94
308.421	103.94
308.651	84.94
308.881	106.94
309.111	103.94
309.341	100.94
309.571	103.94
309.8	89.94
310.03	108.94
310.26	99.94
310.49	77.94
310.72	91.94
310.949	97.94
311.179	103.94
311.409	92.94
311.639	93.94
311.868	93.94
312.098	114.94
312.328	93.94
312.557	88.94
312.787	86.94
313.017	110.94
313.246	94.94
313.476	102.94
313.706	82.94
313.935	88.94
314.165	102.94
314.394	102.94
314.624	107.94
314.853	97.94
315.083	85.94
315.312	98.94
315.542	81.94
315.771	94.94
316.001	105.94
316.23	94.94
316.46	83.94
316.689	89.94
316.919	93.94
317.148	90.94
317.377	98.94
317.607	93.94
317.836	100.94
318.065	82.94
318.295	83.94
318.524	95.94
318.753	98.94
318.983	91.94
319.212	98.94
319.441	103.94
319.67	105.94
319.9	107.94
320.129	88.94
320.358	84.94
320.587	98.94
320.816	88.94
321.046	100.94
321.275	103.94
321.504	97.94
321.733	96.94
321.962	116.94
322.191	97.94
322.42	103.94
322.649	104.94
322.878	109.94
323.108	103.94
323.337	119.94
323.566	134.94
323.795	154.94
324.024	194.94
324.253	396.94
324.482	808.94
324.71	1696.94
324.939	2192.94
325.168	792.94
325.397	252.94
325.626	146.94
325.855	141.94
326.084	138.94
326.313	147.94
326.542	151.94
326.77	221.94
326.999	458.94
327.228	939.94
327.457	1721.94
327.686	1334.94
327.914	380.94
328.143	214.94
328.372	166.94
328.6	128.94
328.829	113.94
329.058	122.94
329.287	134.94
329.515	116.94
329.744	106.94
329.972	111.94
330.201	141.94
330.43	153.94
330.658	134.94
330.887	118.94
331.115	108.94
331.344	104.94
331.572	98.94
331.801	113.94
332.03	102.94
332.258	83.94
332.486	93.94
332.715	86.94
332.943	94.94
333.172	98.94
333.4	90.94
333.629	105.94
333.857	122.94
334.085	134.94
334.314	110.94
334.542	154.94
334.771	156.94
334.999	100.94
335.227	102.94
335.455	74.94
335.684	89.94
335.912	111.94
336.14	106.94
336.369	103.94
336.597	97.94
336.825	88.94
337.053	102.94
337.281	82.94
337.51	91.94
337.738	93.94
337.966	95.94
338.194	92.94
338.422	75.94
338.65	95.94
338.878	89.94
339.106	91.94
339.334	103.94
339.562	97.94
339.79	97.94
340.018	102.94
340.246	88.94
340.474	93.94
340.702	96.94
340.93	115.94
341.158	108.94
341.386	92.94
341.614	113.94
341.842	98.94
342.07	96.94
342.298	93.94
342.526	96.94
342.754	88.94
342.981	75.94
343.209	89.94
343.437	100.94
343.665	82.94
343.893	86.94
344.12	94.94
344.348	94.94
344.576	87.94
344.804	109.94
345.031	92.94
345.259	84.94
345.487	87.94
345.714	85.94
345.942	92.94
346.17	107.94
346.397	111.94
346.625	101.94
346.853	99.94
347.08	88.94
347.308	102.94
347.535	105.94
347.763	93.94
347.99	105.94
348.218	84.94
348.445	100.94
348.673	94.94
348.9	93.94
349.128	95.94
349.355	96.94
349.583	99.94
349.81	101.94
350.037	103.94
350.265	97.94
350.492	89.94
350.72	83.94
350.947	99.94
351.174	101.94
351.402	104.94
351.629	97.94
351.856	114.94
352.083	94.94
352.311	100.94
352.538	108.94
352.765	85.94
352.992	100.94
353.22	109.94
353.447	110.94
353.674	89.94
353.901	102.94
354.128	98.94
354.355	99.94
354.583	105.94
354.81	111.94
355.037	92.94
355.264	98.94
355.491	95.94
355.718	92.94
355.945	101.94
356.172	86.94
356.399	98.94
356.626	89.94
356.853	99.94
357.08	104.94
357.307	110.94
357.534	110.94
357.761	88.94
357.988	86.94
358.215	100.94
358.441	82.94
358.668	94.94
358.895	97.94
359.122	115.94
359.349	96.94
359.576	90.94
359.802	98.94
360.029	102.94
360.256	111.94
360.483	87.94
360.709	80.94
360.936	91.94
361.163	84.94
361.39	90.94
361.616	96.94
361.843	86.94
362.07	90.94
362.296	102.94
362.523	88.94
362.749	71.94
362.976	102.94
363.203	102.94
363.429	90.94
363.656	95.94
363.882	105.94
364.109	94.94
364.335	100.94
364.562	91.94
364.788	93.94
365.015	85.94
365.241	104.94
365.468	104.94
365.694	106.94
365.92	87.94
366.147	92.94
366.373	84.94
366.599	93.94
366.826	94.94
367.052	96.94
367.278	94.94
367.505	89.94
367.731	97.94
367.957	99.94
368.184	89.94
368.41	94.94
368.636	115.94
368.862	110.94
369.089	97.94
369.315	101.94
369.541	84.94
369.767	93.94
369.993	97.94
370.219	89.94
370.445	90.94
370.672	82.94
370.898	98.94
371.124	88.94
371.35	83.94
371.576	91.94
371.802	58.94
372.028	80.94
372.254	78.94
372.48	93.94
372.706	83.94
372.932	84.94
373.158	102.94
373.384	98.94
373.61	83.94
373.835	92.94
374.061	92.94
374.287	98.94
374.513	76.94
374.739	89.94
374.965	92.94
375.191	97.94
375.416	93.94
375.642	109.94
375.868	93.94
376.094	97.94
376.319	91.94
376.545	83.94
376.771	105.94
376.997	100.94
377.222	92.94
377.448	88.94
377.674	99.94
377.899	82.94
378.125	93.94
378.35	105.94
378.576	104.94
378.802	96.94
379.027	94.94
379.253	77.94
379.478	83.94
379.704	98.94
379.929	92.94
380.155	98.94
380.38	104.94
380.606	93.94
380.831	94.94
381.057	92.94
381.282	103.94
381.507	92.94
381.733	100.94
381.958	109.94
382.184	111.94
382.409	92.94
382.634	99.94
382.86	106.94
383.085	97.94
383.31	111.94
383.535	102.94
383.761	101.94
383.986	103.94
384.211	112.94
384.436	88.94
384.662	104.94
384.887	101.94
385.112	117.94
385.337	108.94
385.562	94.94
385.787	92.94
386.013	105.94
386.238	105.94
386.463	106.94
386.688	115.94
386.913	121.94
387.138	98.94
387.363	117.94
387.588	102.94
387.813	115.94
388.038	102.94
388.263	109.94
388.488	116.94
388.713	94.94
388.938	108.94
389.163	87.94
389.387	89.94
389.612	104.94
389.837	93.94
390.062	96.94
390.287	100.94
390.512	95.94
390.736	102.94
390.961	82.94
391.186	104.94
391.411	102.94
391.636	97.94
391.86	84.94
392.085	101.94
392.31	88.94
392.534	98.94
392.759	94.94
392.984	106.94
393.208	75.94
393.433	103.94
393.658	82.94
393.882	95.94
394.107	88.94
394.331	85.94
394.556	98.94
394.78	97.94
395.005	95.94
395.229	72.94
395.454	81.94
395.678	84.94
395.903	78.94
396.127	93.94
396.352	83.94
396.576	96.94
396.801	92.94
397.025	98.94
397.249	84.94
397.474	91.94
397.698	86.94
397.922	85.94
398.147	90.94
398.371	99.94
398.595	84.94
398.82	92.94
399.044	88.94
399.268	84.94
399.492	79.94
399.717	100.94
399.941	92.94
400.165	90.94
400.389	102.94
400.613	81.94
400.837	86.94
401.062	84.94
401.286	84.94
401.51	90.94
401.734	100.94
401.958	93.94
402.182	108.94
402.406	153.94
402.63	114.94
402.854	85.94
403.078	79.94
403.302	83.94
403.526	91.94
403.75	84.94
403.974	83.94
404.198	91.94
404.422	91.94
404.645	83.94
404.869	89.94
405.093	108.94
405.317	93.94
405.541	96.94
405.765	110.94
405.988	106.94
406.212	156.94
406.436	215.94
406.66	137.94
406.883	87.94
407.107	88.94
407.331	98.94
407.555	90.94
407.778	95.94
408.002	82.94
408.226	101.94
408.449	106.94
408.673	98.94
408.896	75.94
409.12	91.94
409.344	100.94
409.567	96.94
409.791	95.94
410.014	102.94
410.238	91.94
410.461	94.94
410.685	99.94
410.908	100.94
411.132	107.94
411.355	96.94
411.578	89.94
411.802	83.94
412.025	100.94
412.249	94.94
412.472	85.94
412.695	103.94
412.919	97.94
413.142	99.94
413.365	97.94
413.589	91.94
413.812	87.94
414.035	109.94
414.258	88.94
414.482	103.94
414.705	82.94
414.928	82.94
415.151	103.94
415.374	92.94
415.597	101.94
415.821	85.94
416.044	91.94
416.267	86.94
416.49	99.94
416.713	96.94
416.936	96.94
417.159	76.94
417.382	92.94
417.605	78.94
417.828	84.94
418.051	89.94
418.274	97.94
418.497	103.94
418.72	86.94
418.943	92.94
419.166	92.94
419.389	93.94
419.611	97.94
419.834	90.94
420.057	88.94
420.28	81.94
420.503	90.94
420.726	93.94
420.948	88.94
421.171	85.94
421.394	98.94
421.617	96.94
421.839	86.94
422.062	91.94
422.285	89.94
422.507	91.94
422.73	90.94
422.953	108.94
423.175	101.94
423.398	88.94
423.621	84.94
423.843	100.94
424.066	92.94
424.288	100.94
424.511	94.94
424.733	85.94
424.956	103.94
425.178	94.94
425.401	109.94
425.623	85.94
425.846	97.94
426.068	94.94
426.291	98.94
426.513	85.94
426.735	94.94
426.958	101.94
427.18	104.94
427.402	137.94
427.625	176.94
427.847	148.94
428.069	129.94
428.292	83.94
428.514	83.94
428.736	97.94
428.958	78.94
429.181	85.94
429.403	96.94
429.625	92.94
429.847	99.94
430.069	104.94
430.292	78.94
430.514	102.94
430.736	86.94
430.958	100.94
431.18	86.94
431.402	87.94
431.624	85.94
431.846	77.94
432.068	90.94
432.29	81.94
432.512	101.94
432.734	85.94
432.956	92.94
433.178	112.94
433.4	94.94
433.622	90.94
433.844	80.94
434.066	94.94
434.287	86.94
434.509	92.94
434.731	88.94
434.953	88.94
435.175	74.94
435.397	88.94
435.618	94.94
435.84	104.94
436.062	114.94
436.284	103.94
436.505	93.94
436.727	105.94
436.949	107.94
437.17	97.94
437.392	90.94
437.614	105.94
437.835	104.94
438.057	107.94
438.278	114.94
438.5	96.94
438.721	116.94
438.943	107.94
439.165	91.94
439.386	88.94
439.608	88.94
439.829	94.94
440.05	117.94
440.272	142.94
440.493	121.94
440.715	97.94
440.936	90.94
441.158	92.94
441.379	93.94
441.6	79.94
441.822	89.94
442.043	94.94
442.264	98.94
442.486	102.94
442.707	106.94
442.928	104.94
443.149	100.94
443.371	129.94
443.592	98.94
443.813	112.94
444.034	101.94
444.255	97.94
444.476	92.94
444.698	91.94
444.919	98.94
445.14	124.94
445.361	128.94
445.582	109.94
445.803	136.94
446.024	136.94
446.245	130.94
446.466	98.94
446.687	89.94
446.908	87.94
447.129	104.94
447.35	106.94
447.571	93.94
447.792	88.94
448.013	100.94
448.234	97.94
448.455	100.94
448.675	104.94
448.896	102.94
449.117	93.94
449.338	98.94
449.559	112.94
449.779	116.94
450	95.94
450.221	95.94
450.442	96.94
450.662	100.94
450.883	110.94
451.104	103.94
451.324	86.94
451.545	85.94
451.766	81.94
451.986	88.94
452.207	93.94
452.428	92.94
452.648	92.94
452.869	105.94
453.089	118.94
453.31	118.94
453.53	98.94
453.751	104.94
453.971	108.94
454.192	120.94
454.412	100.94
454.633	90.94
454.853	103.94
455.073	89.94
455.294	86.94
455.514	94.94
455.734	101.94
455.955	101.94
456.175	96.94
456.395	89.94
456.616	90.94
456.836	78.94
457.056	94.94
457.276	94.94
457.497	81.94
457.717	86.94
457.937	98.94
458.157	103.94
458.377	97.94
458.598	115.94
458.818	153.94
459.038	127.94
459.258	102.94
459.478	83.94
459.698	73.94
459.918	78.94
460.138	93.94
460.358	85.94
460.578	95.94
460.798	105.94
461.018	94.94
461.238	84.94
461.458	91.94
461.678	90.94
461.898	83.94
462.118	91.94
462.338	100.94
462.558	89.94
462.777	84.94
462.997	104.94
463.217	105.94
463.437	94.94
463.657	92.94
463.876	90.94
464.096	88.94
464.316	88.94
464.536	102.94
464.755	80.94
464.975	108.94
465.195	144.94
465.414	145.94
465.634	103.94
465.854	97.94
466.073	82.94
466.293	87.94
466.512	94.94
466.732	95.94
466.951	96.94
467.171	87.94
467.391	89.94
467.61	97.94
467.829	109.94
468.049	122.94
468.268	118.94
468.488	94.94
468.707	80.94
468.927	91.94
469.146	85.94
469.365	92.94
469.585	90.94
469.804	103.94
470.023	93.94
470.243	92.94
470.462	93.94
470.681	96.94
470.901	96.94
471.12	85.94
471.339	96.94
471.558	86.94
471.777	98.94
471.997	100.94
472.216	145.94
472.435	194.94
472.654	119.94
472.873	100.94
473.092	89.94
473.311	84.94
473.53	91.94
473.749	96.94
473.968	89.94
474.187	115.94
474.406	91.94
474.625	91.94
474.844	88.94
475.063	92.94
475.282	87.94
475.501	96.94
475.72	92.94
475.939	80.94
476.158	97.94
476.377	98.94
476.596	100.94
476.814	87.94
477.033	96.94
477.252	96.94
477.471	85.94
477.69	85.94
477.908	96.94
478.127	89.94
478.346	99.94
478.564	101.94
478.783	96.94
479.002	100.94
479.22	84.94
479.439	96.94
479.658	104.94
479.876	93.94
480.095	87.94
480.313	96.94
480.532	99.94
480.751	116.94
480.969	143.94
481.188	294.94
481.406	213.94
481.624	96.94
481.843	87.94
482.061	93.94
482.28	81.94
482.498	98.94
482.717	78.94
482.935	90.94
483.153	102.94
483.372	96.94
483.59	94.94
483.808	86.94
484.027	85.94
484.245	101.94
484.463	94.94
484.681	78.94
484.9	102.94
485.118	110.94
485.336	98.94
485.554	98.94
485.772	103.94
485.99	90.94
486.209	117.94
486.427	101.94
486.645	122.94
486.863	113.94
487.081	112.94
487.299	98.94
487.517	94.94
487.735	88.94
487.953	77.94
488.171	86.94
488.389	88.94
488.607	100.94
488.825	90.94
489.043	100.94
489.261	89.94
489.479	91.94
489.696	104.94
489.914	77.94
490.132	89.94
490.35	81.94
490.568	83.94
490.786	95.94
491.003	93.94
491.221	80.94
491.439	95.94
491.657	96.94
491.874	97.94
492.092	93.94
492.31	121.94
492.527	92.94
492.745	90.94
492.963	100.94
493.18	96.94
493.398	86.94
493.615	103.94
493.833	100.94
494.05	95.94
494.268	94.94
494.485	89.94
494.703	85.94
494.92	84.94
495.138	85.94
495.355	85.94
495.573	82.94
495.79	98.94
496.008	93.94
496.225	93.94
496.442	87.94
496.66	85.94
496.877	89.94
497.094	88.94
497.312	83.94
497.529	96.94
497.746	112.94
497.963	92.94
498.181	94.94
498.398	93.94
498.615	122.94
498.832	110.94
499.049	101.94
499.267	91.94
499.484	95.94
499.701	87.94
499.918	98.94
500.135	88.94
500.352	91.94
500.569	86.94
500.786	84.94
501.003	93.94
501.22	86.94
501.437	96.94
501.654	94.94
501.871	83.94
502.088	87.94
502.305	94.94
502.522	90.94
502.739	89.94
502.956	89.94
503.172	97.94
503.389	94.94
503.606	101.94
503.823	117.94
504.04	94.94
504.256	94.94
504.473	96.94
504.69	82.94
504.907	92.94
505.123	97.94
505.34	98.94
505.557	92.94
505.773	89.94
505.99	97.94
506.207	101.94
506.423	83.94
506.64	105.94
506.856	104.94
507.073	86.94
507.289	99.94
507.506	105.94
507.722	121.94
507.939	106.94
508.155	81.94
508.372	94.94
508.588	106.94
508.805	98.94
509.021	98.94
509.238	100.94
509.454	103.94
509.67	92.94
509.887	114.94
510.103	142.94
510.319	205.94
510.536	809.94
510.752	2454.94
510.968	710.94
511.184	164.94
511.401	119.94
511.617	108.94
511.833	97.94
512.049	94.94
512.265	101.94
512.481	90.94
512.698	84.94
512.914	105.94
513.13	95.94
513.346	91.94
513.562	87.94
513.778	90.94
513.994	111.94
514.21	108.94
514.426	101.94
514.642	121.94
514.858	123.94
515.074	172.94
