Data from Circ_2003_H10_HRD10591_00059.txt Node
Date: Wed Jan 03 10:37:14 EST 2024
User: Yrep
Spectrometer: HR+D1059
Trigger mode: 1
Integration Time (sec): 1.000000E-1
Scans to average: 1
Electric dark correction enabled: true
Nonlinearity correction enabled: false
Boxcar width: 0
XAxis mode: Wavelengths
Number of Pixels in Spectrum: 2048
>>>>>Begin Spectral Data<<<<<
223.165	-9.94
223.4	-9.94
223.635	-9.94
223.869	-27.94
224.104	-21.94
224.338	-18.94
224.573	-5.94
224.808	-8.94
225.042	-2.94
225.277	-10.94
225.511	-8.94
225.746	3.06
225.98	20.06
226.215	11.06
226.449	18.06
226.683	8.06
226.918	22.06
227.152	34.06
227.387	41.06
227.621	29.06
227.856	45.06
228.09	53.06
228.324	42.06
228.559	60.06
228.793	47.06
229.027	60.06
229.262	55.06
229.496	64.06
229.73	88.06
229.964	83.06
230.199	82.06
230.433	57.06
230.667	83.06
230.901	72.06
231.136	71.06
231.37	87.06
231.604	78.06
231.838	93.06
232.072	78.06
232.306	79.06
232.541	70.06
232.775	80.06
233.009	81.06
233.243	82.06
233.477	80.06
233.711	93.06
233.945	103.06
234.179	65.06
234.413	72.06
234.647	70.06
234.881	70.06
235.115	78.06
235.349	75.06
235.583	87.06
235.817	78.06
236.051	72.06
236.285	86.06
236.519	69.06
236.753	91.06
236.987	78.06
237.221	103.06
237.455	78.06
237.689	81.06
237.922	68.06
238.156	76.06
238.39	70.06
238.624	75.06
238.858	84.06
239.091	90.06
239.325	74.06
239.559	77.06
239.793	83.06
240.027	77.06
240.26	79.06
240.494	81.06
240.728	67.06
240.961	72.06
241.195	85.06
241.429	79.06
241.662	71.06
241.896	73.06
242.13	73.06
242.363	74.06
242.597	79.06
242.83	86.06
243.064	92.06
243.298	84.06
243.531	68.06
243.765	69.06
243.998	73.06
244.232	56.06
244.465	83.06
244.699	77.06
244.932	72.06
245.166	66.06
245.399	79.06
245.633	70.06
245.866	84.06
246.099	82.06
246.333	70.06
246.566	72.06
246.8	80.06
247.033	83.06
247.266	82.06
247.5	78.06
247.733	76.06
247.966	64.06
248.2	84.06
248.433	81.06
248.666	70.06
248.899	90.06
249.133	78.06
249.366	97.06
249.599	101.06
249.832	80.06
250.066	84.06
250.299	70.06
250.532	89.06
250.765	69.06
250.998	70.06
251.231	71.06
251.465	84.06
251.698	80.06
251.931	79.06
252.164	73.06
252.397	74.06
252.63	77.06
252.863	98.06
253.096	76.06
253.329	87.06
253.562	100.06
253.795	79.06
254.028	88.06
254.261	72.06
254.494	91.06
254.727	82.06
254.96	79.06
255.193	86.06
255.426	80.06
255.659	89.06
255.892	90.06
256.124	74.06
256.357	76.06
256.59	89.06
256.823	79.06
257.056	80.06
257.289	89.06
257.521	85.06
257.754	73.06
257.987	58.06
258.22	74.06
258.452	81.06
258.685	82.06
258.918	81.06
259.151	88.06
259.383	71.06
259.616	86.06
259.849	77.06
260.081	79.06
260.314	79.06
260.547	84.06
260.779	78.06
261.012	82.06
261.244	89.06
261.477	97.06
261.71	102.06
261.942	111.06
262.175	105.06
262.407	84.06
262.64	70.06
262.872	90.06
263.105	79.06
263.337	96.06
263.57	82.06
263.802	88.06
264.035	70.06
264.267	85.06
264.499	74.06
264.732	86.06
264.964	84.06
265.197	85.06
265.429	81.06
265.661	83.06
265.894	86.06
266.126	82.06
266.358	73.06
266.591	84.06
266.823	94.06
267.055	85.06
267.287	90.06
267.52	90.06
267.752	70.06
267.984	88.06
268.216	85.06
268.448	97.06
268.681	80.06
268.913	89.06
269.145	84.06
269.377	85.06
269.609	83.06
269.841	81.06
270.073	82.06
270.306	81.06
270.538	85.06
270.77	82.06
271.002	96.06
271.234	86.06
271.466	76.06
271.698	84.06
271.93	97.06
272.162	87.06
272.394	87.06
272.626	94.06
272.858	92.06
273.09	84.06
273.322	77.06
273.553	79.06
273.785	93.06
274.017	102.06
274.249	90.06
274.481	79.06
274.713	84.06
274.945	88.06
275.176	87.06
275.408	89.06
275.64	75.06
275.872	88.06
276.104	87.06
276.335	82.06
276.567	95.06
276.799	94.06
277.031	91.06
277.262	90.06
277.494	94.06
277.726	82.06
277.957	86.06
278.189	89.06
278.421	103.06
278.652	97.06
278.884	84.06
279.115	81.06
279.347	76.06
279.579	89.06
279.81	91.06
280.042	78.06
280.273	95.06
280.505	82.06
280.736	76.06
280.968	79.06
281.199	80.06
281.431	86.06
281.662	79.06
281.894	106.06
282.125	90.06
282.356	118.06
282.588	117.06
282.819	105.06
283.051	94.06
283.282	90.06
283.513	80.06
283.745	83.06
283.976	79.06
284.207	74.06
284.439	76.06
284.67	94.06
284.901	78.06
285.132	90.06
285.364	85.06
285.595	87.06
285.826	98.06
286.057	70.06
286.288	77.06
286.52	72.06
286.751	94.06
286.982	81.06
287.213	81.06
287.444	81.06
287.675	87.06
287.906	87.06
288.138	89.06
288.369	84.06
288.6	87.06
288.831	85.06
289.062	90.06
289.293	86.06
289.524	98.06
289.755	95.06
289.986	103.06
290.217	84.06
290.448	78.06
290.679	87.06
290.91	94.06
291.141	82.06
291.371	106.06
291.602	101.06
291.833	89.06
292.064	72.06
292.295	88.06
292.526	92.06
292.757	71.06
292.987	80.06
293.218	82.06
293.449	87.06
293.68	88.06
293.91	92.06
294.141	79.06
294.372	88.06
294.603	86.06
294.833	88.06
295.064	84.06
295.295	94.06
295.525	79.06
295.756	105.06
295.987	96.06
296.217	126.06
296.448	124.06
296.679	91.06
296.909	86.06
297.14	90.06
297.37	91.06
297.601	82.06
297.831	103.06
298.062	85.06
298.292	93.06
298.523	88.06
298.753	80.06
298.984	88.06
299.214	96.06
299.445	89.06
299.675	99.06
299.905	105.06
300.136	101.06
300.366	75.06
300.597	102.06
300.827	100.06
301.057	99.06
301.288	92.06
301.518	87.06
301.748	79.06
301.979	100.06
302.209	93.06
302.439	89.06
302.669	84.06
302.9	81.06
303.13	89.06
303.36	84.06
303.59	101.06
303.82	108.06
304.051	98.06
304.281	83.06
304.511	87.06
304.741	87.06
304.971	82.06
305.201	69.06
305.431	86.06
305.661	97.06
305.891	88.06
306.121	86.06
306.352	103.06
306.582	100.06
306.812	93.06
307.042	96.06
307.272	89.06
307.502	85.06
307.731	93.06
307.961	89.06
308.191	104.06
308.421	84.06
308.651	91.06
308.881	85.06
309.111	101.06
309.341	93.06
309.571	89.06
309.8	93.06
310.03	95.06
310.26	90.06
310.49	79.06
310.72	96.06
310.949	104.06
311.179	109.06
311.409	89.06
311.639	81.06
311.868	99.06
312.098	107.06
312.328	102.06
312.557	107.06
312.787	101.06
313.017	110.06
313.246	93.06
313.476	106.06
313.706	70.06
313.935	84.06
314.165	90.06
314.394	105.06
314.624	96.06
314.853	90.06
315.083	92.06
315.312	84.06
315.542	100.06
315.771	80.06
316.001	87.06
316.23	82.06
316.46	85.06
316.689	83.06
316.919	95.06
317.148	92.06
317.377	85.06
317.607	100.06
317.836	86.06
318.065	86.06
318.295	88.06
318.524	82.06
318.753	90.06
318.983	89.06
319.212	93.06
319.441	107.06
319.67	120.06
319.9	98.06
320.129	97.06
320.358	98.06
320.587	99.06
320.816	99.06
321.046	100.06
321.275	97.06
321.504	95.06
321.733	86.06
321.962	99.06
322.191	96.06
322.42	98.06
322.649	105.06
322.878	107.06
323.108	111.06
323.337	126.06
323.566	116.06
323.795	151.06
324.024	210.06
324.253	401.06
324.482	848.06
324.71	1751.06
324.939	2274.06
325.168	830.06
325.397	247.06
325.626	152.06
325.855	127.06
326.084	119.06
326.313	145.06
326.542	162.06
326.77	237.06
326.999	471.06
327.228	1003.06
327.457	1799.06
327.686	1414.06
327.914	392.06
328.143	205.06
328.372	148.06
328.6	111.06
328.829	123.06
329.058	110.06
329.287	127.06
329.515	104.06
329.744	102.06
329.972	106.06
330.201	131.06
330.43	149.06
330.658	122.06
330.887	127.06
331.115	94.06
331.344	94.06
331.572	106.06
331.801	99.06
332.03	94.06
332.258	94.06
332.486	90.06
332.715	82.06
332.943	95.06
333.172	92.06
333.4	93.06
333.629	110.06
333.857	108.06
334.085	106.06
334.314	136.06
334.542	149.06
334.771	159.06
334.999	95.06
335.227	103.06
335.455	87.06
335.684	93.06
335.912	113.06
336.14	100.06
336.369	91.06
336.597	88.06
336.825	90.06
337.053	81.06
337.281	100.06
337.51	81.06
337.738	87.06
337.966	80.06
338.194	81.06
338.422	83.06
338.65	86.06
338.878	90.06
339.106	90.06
339.334	81.06
339.562	94.06
339.79	88.06
340.018	91.06
340.246	87.06
340.474	92.06
340.702	87.06
340.93	89.06
341.158	86.06
341.386	95.06
341.614	87.06
341.842	98.06
342.07	83.06
342.298	81.06
342.526	89.06
342.754	98.06
342.981	93.06
343.209	99.06
343.437	104.06
343.665	79.06
343.893	84.06
344.12	76.06
344.348	87.06
344.576	81.06
344.804	82.06
345.031	91.06
345.259	87.06
345.487	98.06
345.714	91.06
345.942	84.06
346.17	89.06
346.397	90.06
346.625	95.06
346.853	95.06
347.08	78.06
347.308	97.06
347.535	94.06
347.763	99.06
347.99	76.06
348.218	103.06
348.445	110.06
348.673	108.06
348.9	100.06
349.128	100.06
349.355	95.06
349.583	88.06
349.81	98.06
350.037	89.06
350.265	101.06
350.492	91.06
350.72	88.06
350.947	110.06
351.174	108.06
351.402	108.06
351.629	94.06
351.856	98.06
352.083	99.06
352.311	105.06
352.538	106.06
352.765	107.06
352.992	119.06
353.22	112.06
353.447	99.06
353.674	97.06
353.901	97.06
354.128	83.06
354.355	89.06
354.583	109.06
354.81	96.06
355.037	92.06
355.264	91.06
355.491	92.06
355.718	102.06
355.945	106.06
356.172	90.06
356.399	107.06
356.626	102.06
356.853	89.06
357.08	88.06
357.307	90.06
357.534	82.06
357.761	84.06
357.988	95.06
358.215	97.06
358.441	95.06
358.668	95.06
358.895	86.06
359.122	75.06
359.349	98.06
359.576	94.06
359.802	88.06
360.029	116.06
360.256	105.06
360.483	99.06
360.709	82.06
360.936	92.06
361.163	97.06
361.39	90.06
361.616	96.06
361.843	103.06
362.07	103.06
362.296	102.06
362.523	94.06
362.749	66.06
362.976	77.06
363.203	110.06
363.429	85.06
363.656	94.06
363.882	93.06
364.109	88.06
364.335	79.06
364.562	104.06
364.788	74.06
365.015	96.06
365.241	100.06
365.468	110.06
365.694	97.06
365.92	95.06
366.147	94.06
366.373	94.06
366.599	95.06
366.826	84.06
367.052	82.06
367.278	89.06
367.505	83.06
367.731	94.06
367.957	73.06
368.184	81.06
368.41	86.06
368.636	101.06
368.862	111.06
369.089	104.06
369.315	77.06
369.541	85.06
369.767	79.06
369.993	84.06
370.219	91.06
370.445	91.06
370.672	86.06
370.898	98.06
371.124	97.06
371.35	69.06
371.576	74.06
371.802	84.06
372.028	82.06
372.254	89.06
372.48	90.06
372.706	88.06
372.932	103.06
373.158	85.06
373.384	84.06
373.61	94.06
373.835	92.06
374.061	80.06
374.287	90.06
374.513	89.06
374.739	87.06
374.965	88.06
375.191	101.06
375.416	89.06
375.642	96.06
375.868	96.06
376.094	83.06
376.319	88.06
376.545	89.06
376.771	97.06
376.997	85.06
377.222	86.06
377.448	92.06
377.674	86.06
377.899	91.06
378.125	91.06
378.35	87.06
378.576	87.06
378.802	96.06
379.027	77.06
379.253	94.06
379.478	91.06
379.704	79.06
379.929	83.06
380.155	85.06
380.38	108.06
380.606	91.06
380.831	90.06
381.057	86.06
381.282	80.06
381.507	92.06
381.733	97.06
381.958	89.06
382.184	110.06
382.409	96.06
382.634	96.06
382.86	97.06
383.085	100.06
383.31	86.06
383.535	102.06
383.761	101.06
383.986	112.06
384.211	106.06
384.436	101.06
384.662	107.06
384.887	109.06
385.112	101.06
385.337	96.06
385.562	98.06
385.787	104.06
386.013	110.06
386.238	120.06
386.463	95.06
386.688	105.06
386.913	105.06
387.138	90.06
387.363	89.06
387.588	93.06
387.813	107.06
388.038	111.06
388.263	122.06
388.488	106.06
388.713	86.06
388.938	97.06
389.163	91.06
389.387	88.06
389.612	92.06
389.837	98.06
390.062	100.06
390.287	89.06
390.512	94.06
390.736	82.06
390.961	79.06
391.186	80.06
391.411	73.06
391.636	100.06
391.86	79.06
392.085	84.06
392.31	72.06
392.534	90.06
392.759	100.06
392.984	85.06
393.208	75.06
393.433	108.06
393.658	92.06
393.882	79.06
394.107	86.06
394.331	90.06
394.556	90.06
394.78	82.06
395.005	73.06
395.229	89.06
395.454	84.06
395.678	81.06
395.903	90.06
396.127	93.06
396.352	80.06
396.576	89.06
396.801	87.06
397.025	73.06
397.249	88.06
397.474	82.06
397.698	82.06
397.922	88.06
398.147	83.06
398.371	86.06
398.595	89.06
398.82	79.06
399.044	91.06
399.268	86.06
399.492	93.06
399.717	92.06
399.941	73.06
400.165	95.06
400.389	90.06
400.613	73.06
400.837	79.06
401.062	78.06
401.286	77.06
401.51	86.06
401.734	94.06
401.958	92.06
402.182	117.06
402.406	124.06
402.63	124.06
402.854	100.06
403.078	103.06
403.302	78.06
403.526	69.06
403.75	85.06
403.974	83.06
404.198	89.06
404.422	72.06
404.645	96.06
404.869	74.06
405.093	86.06
405.317	96.06
405.541	96.06
405.765	91.06
405.988	103.06
406.212	168.06
406.436	213.06
406.66	146.06
406.883	96.06
407.107	73.06
407.331	77.06
407.555	89.06
407.778	95.06
408.002	88.06
408.226	97.06
408.449	81.06
408.673	79.06
408.896	82.06
409.12	88.06
409.344	97.06
409.567	79.06
409.791	74.06
410.014	86.06
410.238	92.06
410.461	107.06
410.685	90.06
410.908	99.06
411.132	106.06
411.355	91.06
411.578	93.06
411.802	105.06
412.025	85.06
412.249	87.06
412.472	73.06
412.695	92.06
412.919	83.06
413.142	80.06
413.365	102.06
413.589	83.06
413.812	80.06
414.035	80.06
414.258	91.06
414.482	87.06
414.705	86.06
414.928	87.06
415.151	81.06
415.374	93.06
415.597	81.06
415.821	82.06
416.044	82.06
416.267	78.06
416.49	96.06
416.713	96.06
416.936	98.06
417.159	87.06
417.382	83.06
417.605	83.06
417.828	95.06
418.051	95.06
418.274	74.06
418.497	83.06
418.72	85.06
418.943	81.06
419.166	97.06
419.389	102.06
419.611	80.06
419.834	89.06
420.057	83.06
420.28	82.06
420.503	86.06
420.726	90.06
420.948	92.06
421.171	76.06
421.394	74.06
421.617	85.06
421.839	89.06
422.062	86.06
422.285	86.06
422.507	86.06
422.73	112.06
422.953	83.06
423.175	78.06
423.398	89.06
423.621	77.06
423.843	89.06
424.066	87.06
424.288	93.06
424.511	92.06
424.733	98.06
424.956	111.06
425.178	88.06
425.401	100.06
425.623	100.06
425.846	91.06
426.068	95.06
426.291	96.06
426.513	68.06
426.735	80.06
426.958	91.06
427.18	112.06
427.402	126.06
427.625	156.06
427.847	130.06
428.069	120.06
428.292	89.06
428.514	81.06
428.736	92.06
428.958	97.06
429.181	87.06
429.403	81.06
429.625	89.06
429.847	85.06
430.069	93.06
430.292	84.06
430.514	84.06
430.736	84.06
430.958	65.06
431.18	79.06
431.402	75.06
431.624	77.06
431.846	70.06
432.068	89.06
432.29	80.06
432.512	81.06
432.734	102.06
432.956	85.06
433.178	89.06
433.4	108.06
433.622	98.06
433.844	90.06
434.066	88.06
434.287	88.06
434.509	96.06
434.731	95.06
434.953	86.06
435.175	82.06
435.397	83.06
435.618	88.06
435.84	109.06
436.062	118.06
436.284	108.06
436.505	90.06
436.727	91.06
436.949	88.06
437.17	82.06
437.392	85.06
437.614	94.06
437.835	99.06
438.057	105.06
438.278	105.06
438.5	92.06
438.721	118.06
438.943	102.06
439.165	95.06
439.386	98.06
439.608	74.06
439.829	97.06
440.05	118.06
440.272	138.06
440.493	93.06
440.715	99.06
440.936	90.06
441.158	87.06
441.379	71.06
441.6	84.06
441.822	86.06
442.043	85.06
442.264	99.06
442.486	101.06
442.707	77.06
442.928	107.06
443.149	115.06
443.371	142.06
443.592	111.06
443.813	107.06
444.034	102.06
444.255	91.06
444.476	96.06
444.698	92.06
444.919	88.06
445.14	134.06
445.361	126.06
445.582	121.06
445.803	137.06
446.024	125.06
446.245	121.06
446.466	105.06
446.687	91.06
446.908	89.06
447.129	76.06
447.35	92.06
447.571	86.06
447.792	79.06
448.013	93.06
448.234	114.06
448.455	102.06
448.675	117.06
448.896	116.06
449.117	94.06
449.338	98.06
449.559	129.06
449.779	120.06
450	97.06
450.221	102.06
450.442	96.06
450.662	102.06
450.883	93.06
451.104	97.06
451.324	99.06
451.545	80.06
451.766	85.06
451.986	87.06
452.207	78.06
452.428	71.06
452.648	94.06
452.869	108.06
453.089	102.06
453.31	104.06
453.53	98.06
453.751	94.06
453.971	88.06
454.192	102.06
454.412	82.06
454.633	104.06
454.853	87.06
455.073	92.06
455.294	84.06
455.514	90.06
455.734	79.06
455.955	83.06
456.175	83.06
456.395	78.06
456.616	81.06
456.836	81.06
457.056	76.06
457.276	96.06
457.497	95.06
457.717	71.06
457.937	80.06
458.157	79.06
458.377	81.06
458.598	105.06
458.818	134.06
459.038	132.06
459.258	100.06
459.478	96.06
459.698	89.06
459.918	75.06
460.138	76.06
460.358	85.06
460.578	100.06
460.798	88.06
461.018	86.06
461.238	85.06
461.458	73.06
461.678	81.06
461.898	99.06
462.118	90.06
462.338	101.06
462.558	81.06
462.777	82.06
462.997	83.06
463.217	80.06
463.437	86.06
463.657	78.06
463.876	90.06
464.096	92.06
464.316	79.06
464.536	87.06
464.755	94.06
464.975	100.06
465.195	142.06
465.414	142.06
465.634	89.06
465.854	72.06
466.073	90.06
466.293	93.06
466.512	96.06
466.732	103.06
466.951	82.06
467.171	79.06
467.391	87.06
467.61	97.06
467.829	96.06
468.049	112.06
468.268	110.06
468.488	80.06
468.707	76.06
468.927	73.06
469.146	76.06
469.365	86.06
469.585	85.06
469.804	87.06
470.023	91.06
470.243	86.06
470.462	85.06
470.681	102.06
470.901	95.06
471.12	69.06
471.339	94.06
471.558	82.06
471.777	89.06
471.997	90.06
472.216	124.06
472.435	170.06
472.654	108.06
472.873	89.06
473.092	79.06
473.311	91.06
473.53	79.06
473.749	80.06
473.968	88.06
474.187	102.06
474.406	90.06
474.625	84.06
474.844	93.06
475.063	94.06
475.282	72.06
475.501	88.06
475.72	84.06
475.939	73.06
476.158	92.06
476.377	82.06
476.596	89.06
476.814	89.06
477.033	84.06
477.252	81.06
477.471	72.06
477.69	65.06
477.908	99.06
478.127	92.06
478.346	91.06
478.564	88.06
478.783	81.06
479.002	94.06
479.22	78.06
479.439	80.06
479.658	102.06
479.876	90.06
480.095	80.06
480.313	89.06
480.532	76.06
480.751	92.06
480.969	129.06
481.188	280.06
481.406	191.06
481.624	88.06
481.843	82.06
482.061	81.06
482.28	87.06
482.498	104.06
482.717	87.06
482.935	100.06
483.153	85.06
483.372	96.06
483.59	79.06
483.808	80.06
484.027	105.06
484.245	81.06
484.463	93.06
484.681	92.06
484.9	81.06
485.118	87.06
485.336	88.06
485.554	99.06
485.772	97.06
485.99	102.06
486.209	113.06
486.427	102.06
486.645	105.06
486.863	101.06
487.081	93.06
487.299	103.06
487.517	101.06
487.735	93.06
487.953	89.06
488.171	103.06
488.389	95.06
488.607	85.06
488.825	98.06
489.043	88.06
489.261	89.06
489.479	88.06
489.696	86.06
489.914	96.06
490.132	95.06
490.35	88.06
490.568	78.06
490.786	103.06
491.003	90.06
491.221	99.06
491.439	96.06
491.657	100.06
491.874	96.06
492.092	93.06
492.31	85.06
492.527	63.06
492.745	83.06
492.963	84.06
493.18	76.06
493.398	98.06
493.615	96.06
493.833	89.06
494.05	82.06
494.268	92.06
494.485	82.06
494.703	74.06
494.92	94.06
495.138	72.06
495.355	100.06
495.573	95.06
495.79	90.06
496.008	100.06
496.225	89.06
496.442	67.06
496.66	84.06
496.877	89.06
497.094	85.06
497.312	96.06
497.529	80.06
497.746	98.06
497.963	84.06
498.181	80.06
498.398	85.06
498.615	103.06
498.832	112.06
499.049	95.06
499.267	89.06
499.484	96.06
499.701	104.06
499.918	93.06
500.135	87.06
500.352	90.06
500.569	90.06
500.786	96.06
501.003	82.06
501.22	94.06
501.437	100.06
501.654	96.06
501.871	96.06
502.088	101.06
502.305	102.06
502.522	89.06
502.739	103.06
502.956	88.06
503.172	85.06
503.389	96.06
503.606	104.06
503.823	98.06
504.04	74.06
504.256	78.06
504.473	88.06
504.69	101.06
504.907	93.06
505.123	102.06
505.34	91.06
505.557	99.06
505.773	88.06
505.99	81.06
506.207	82.06
506.423	100.06
506.64	91.06
506.856	95.06
507.073	89.06
507.289	90.06
507.506	100.06
507.722	117.06
507.939	110.06
508.155	100.06
508.372	85.06
508.588	91.06
508.805	96.06
509.021	90.06
509.238	93.06
509.454	90.06
509.67	94.06
509.887	111.06
510.103	132.06
510.319	212.06
510.536	729.06
510.752	2348.06
510.968	644.06
511.184	160.06
511.401	108.06
511.617	99.06
511.833	98.06
512.049	96.06
512.265	84.06
512.481	106.06
512.698	105.06
512.914	86.06
513.13	90.06
513.346	90.06
513.562	94.06
513.778	86.06
513.994	92.06
514.21	92.06
514.426	112.06
514.642	120.06
514.858	117.06
515.074	153.06
515.29	400.06
515.506	1360.06
515.721	505.06
515.937	142.06
516.153	100.06
