Data from Circ_2003_H10_HRD10591_00096.txt Node
Date: Wed Jan 03 10:37:21 EST 2024
User: Yrep
Spectrometer: HR+D1059
Trigger mode: 1
Integration Time (sec): 1.000000E-1
Scans to average: 1
Electric dark correction enabled: true
Nonlinearity correction enabled: false
Boxcar width: 0
XAxis mode: Wavelengths
Number of Pixels in Spectrum: 2048
>>>>>Begin Spectral Data<<<<<
223.165	-10.44
223.4	-10.44
223.635	-10.44
223.869	-28.44
224.104	-20.44
224.338	-18.44
224.573	-18.44
224.808	-15.44
225.042	10.56
225.277	-4.44
225.511	2.56
225.746	12.56
225.98	5.56
226.215	9.56
226.449	7.56
226.683	7.56
226.918	19.56
227.152	40.56
227.387	43.56
227.621	49.56
227.856	33.56
228.09	54.56
228.324	42.56
228.559	53.56
228.793	43.56
229.027	67.56
229.262	62.56
229.496	77.56
229.73	77.56
229.964	76.56
230.199	63.56
230.433	76.56
230.667	88.56
230.901	73.56
231.136	79.56
231.37	87.56
231.604	86.56
231.838	71.56
232.072	77.56
232.306	70.56
232.541	70.56
232.775	84.56
233.009	78.56
233.243	75.56
233.477	84.56
233.711	78.56
233.945	73.56
234.179	78.56
234.413	88.56
234.647	86.56
234.881	77.56
235.115	75.56
235.349	81.56
235.583	84.56
235.817	75.56
236.051	72.56
236.285	83.56
236.519	69.56
236.753	63.56
236.987	77.56
237.221	79.56
237.455	82.56
237.689	65.56
237.922	83.56
238.156	69.56
238.39	80.56
238.624	73.56
238.858	78.56
239.091	78.56
239.325	75.56
239.559	62.56
239.793	80.56
240.027	80.56
240.26	77.56
240.494	71.56
240.728	80.56
240.961	80.56
241.195	80.56
241.429	83.56
241.662	83.56
241.896	76.56
242.13	68.56
242.363	71.56
242.597	79.56
242.83	87.56
243.064	83.56
243.298	69.56
243.531	78.56
243.765	76.56
243.998	81.56
244.232	82.56
244.465	79.56
244.699	78.56
244.932	70.56
245.166	76.56
245.399	74.56
245.633	80.56
245.866	75.56
246.099	75.56
246.333	79.56
246.566	82.56
246.8	71.56
247.033	72.56
247.266	83.56
247.5	74.56
247.733	66.56
247.966	81.56
248.2	96.56
248.433	84.56
248.666	86.56
248.899	78.56
249.133	76.56
249.366	99.56
249.599	89.56
249.832	83.56
250.066	67.56
250.299	86.56
250.532	82.56
250.765	71.56
250.998	81.56
251.231	72.56
251.465	73.56
251.698	81.56
251.931	82.56
252.164	79.56
252.397	82.56
252.63	65.56
252.863	62.56
253.096	75.56
253.329	80.56
253.562	77.56
253.795	82.56
254.028	77.56
254.261	74.56
254.494	83.56
254.727	71.56
254.96	82.56
255.193	95.56
255.426	86.56
255.659	72.56
255.892	80.56
256.124	65.56
256.357	63.56
256.59	79.56
256.823	68.56
257.056	85.56
257.289	80.56
257.521	71.56
257.754	69.56
257.987	66.56
258.22	74.56
258.452	76.56
258.685	88.56
258.918	71.56
259.151	73.56
259.383	86.56
259.616	75.56
259.849	81.56
260.081	84.56
260.314	92.56
260.547	86.56
260.779	81.56
261.012	96.56
261.244	82.56
261.477	100.56
261.71	80.56
261.942	96.56
262.175	110.56
262.407	92.56
262.64	88.56
262.872	88.56
263.105	76.56
263.337	90.56
263.57	85.56
263.802	80.56
264.035	72.56
264.267	102.56
264.499	95.56
264.732	69.56
264.964	75.56
265.197	78.56
265.429	98.56
265.661	83.56
265.894	98.56
266.126	87.56
266.358	79.56
266.591	87.56
266.823	79.56
267.055	81.56
267.287	83.56
267.52	91.56
267.752	99.56
267.984	87.56
268.216	95.56
268.448	80.56
268.681	82.56
268.913	83.56
269.145	70.56
269.377	91.56
269.609	76.56
269.841	63.56
270.073	63.56
270.306	76.56
270.538	75.56
270.77	87.56
271.002	74.56
271.234	86.56
271.466	88.56
271.698	80.56
271.93	77.56
272.162	85.56
272.394	72.56
272.626	90.56
272.858	76.56
273.09	75.56
273.322	80.56
273.553	72.56
273.785	89.56
274.017	82.56
274.249	92.56
274.481	89.56
274.713	94.56
274.945	74.56
275.176	87.56
275.408	86.56
275.64	100.56
275.872	91.56
276.104	73.56
276.335	91.56
276.567	91.56
276.799	103.56
277.031	97.56
277.262	85.56
277.494	88.56
277.726	86.56
277.957	84.56
278.189	83.56
278.421	84.56
278.652	79.56
278.884	82.56
279.115	84.56
279.347	72.56
279.579	78.56
279.81	75.56
280.042	97.56
280.273	94.56
280.505	82.56
280.736	87.56
280.968	73.56
281.199	85.56
281.431	100.56
281.662	80.56
281.894	94.56
282.125	95.56
282.356	100.56
282.588	137.56
282.819	101.56
283.051	87.56
283.282	72.56
283.513	88.56
283.745	78.56
283.976	76.56
284.207	81.56
284.439	80.56
284.67	82.56
284.901	75.56
285.132	86.56
285.364	72.56
285.595	80.56
285.826	87.56
286.057	75.56
286.288	76.56
286.52	88.56
286.751	78.56
286.982	86.56
287.213	84.56
287.444	84.56
287.675	91.56
287.906	88.56
288.138	69.56
288.369	79.56
288.6	86.56
288.831	78.56
289.062	81.56
289.293	88.56
289.524	77.56
289.755	96.56
289.986	72.56
290.217	81.56
290.448	74.56
290.679	92.56
290.91	81.56
291.141	86.56
291.371	78.56
291.602	81.56
291.833	89.56
292.064	89.56
292.295	76.56
292.526	88.56
292.757	69.56
292.987	85.56
293.218	96.56
293.449	96.56
293.68	82.56
293.91	84.56
294.141	89.56
294.372	71.56
294.603	97.56
294.833	91.56
295.064	70.56
295.295	93.56
295.525	96.56
295.756	94.56
295.987	115.56
296.217	137.56
296.448	102.56
296.679	84.56
296.909	80.56
297.14	85.56
297.37	81.56
297.601	98.56
297.831	88.56
298.062	94.56
298.292	85.56
298.523	77.56
298.753	74.56
298.984	75.56
299.214	96.56
299.445	90.56
299.675	89.56
299.905	76.56
300.136	89.56
300.366	83.56
300.597	85.56
300.827	83.56
301.057	86.56
301.288	94.56
301.518	77.56
301.748	84.56
301.979	104.56
302.209	73.56
302.439	76.56
302.669	82.56
302.9	90.56
303.13	83.56
303.36	80.56
303.59	93.56
303.82	105.56
304.051	97.56
304.281	80.56
304.511	99.56
304.741	80.56
304.971	97.56
305.201	82.56
305.431	95.56
305.661	82.56
305.891	83.56
306.121	111.56
306.352	103.56
306.582	101.56
306.812	88.56
307.042	87.56
307.272	95.56
307.502	90.56
307.731	92.56
307.961	83.56
308.191	80.56
308.421	83.56
308.651	97.56
308.881	88.56
309.111	91.56
309.341	96.56
309.571	100.56
309.8	103.56
310.03	89.56
310.26	89.56
310.49	83.56
310.72	86.56
310.949	101.56
311.179	95.56
311.409	89.56
311.639	92.56
311.868	91.56
312.098	96.56
312.328	85.56
312.557	89.56
312.787	92.56
313.017	87.56
313.246	92.56
313.476	97.56
313.706	87.56
313.935	84.56
314.165	103.56
314.394	83.56
314.624	89.56
314.853	85.56
315.083	78.56
315.312	82.56
315.542	84.56
315.771	93.56
316.001	96.56
316.23	96.56
316.46	90.56
316.689	82.56
316.919	93.56
317.148	107.56
317.377	92.56
317.607	96.56
317.836	93.56
318.065	91.56
318.295	76.56
318.524	80.56
318.753	97.56
318.983	97.56
319.212	79.56
319.441	94.56
319.67	91.56
319.9	97.56
320.129	89.56
320.358	96.56
320.587	108.56
320.816	102.56
321.046	89.56
321.275	105.56
321.504	94.56
321.733	96.56
321.962	100.56
322.191	89.56
322.42	97.56
322.649	106.56
322.878	97.56
323.108	112.56
323.337	125.56
323.566	107.56
323.795	150.56
324.024	212.56
324.253	388.56
324.482	824.56
324.71	1680.56
324.939	2160.56
325.168	800.56
325.397	230.56
325.626	130.56
325.855	116.56
326.084	130.56
326.313	125.56
326.542	146.56
326.77	220.56
326.999	466.56
327.228	943.56
327.457	1694.56
327.686	1327.56
327.914	360.56
328.143	189.56
328.372	175.56
328.6	139.56
328.829	110.56
329.058	117.56
329.287	117.56
329.515	106.56
329.744	94.56
329.972	125.56
330.201	165.56
330.43	189.56
330.658	131.56
330.887	129.56
331.115	106.56
331.344	99.56
331.572	103.56
331.801	96.56
332.03	98.56
332.258	88.56
332.486	89.56
332.715	84.56
332.943	89.56
333.172	88.56
333.4	99.56
333.629	102.56
333.857	115.56
334.085	120.56
334.314	156.56
334.542	210.56
334.771	209.56
334.999	120.56
335.227	87.56
335.455	81.56
335.684	92.56
335.912	91.56
336.14	81.56
336.369	87.56
336.597	96.56
336.825	88.56
337.053	91.56
337.281	103.56
337.51	82.56
337.738	83.56
337.966	99.56
338.194	104.56
338.422	84.56
338.65	87.56
338.878	103.56
339.106	85.56
339.334	95.56
339.562	91.56
339.79	92.56
340.018	72.56
340.246	95.56
340.474	83.56
340.702	92.56
340.93	101.56
341.158	84.56
341.386	98.56
341.614	80.56
341.842	89.56
342.07	71.56
342.298	76.56
342.526	81.56
342.754	81.56
342.981	84.56
343.209	87.56
343.437	82.56
343.665	80.56
343.893	84.56
344.12	78.56
344.348	82.56
344.576	82.56
344.804	86.56
345.031	67.56
345.259	91.56
345.487	89.56
345.714	77.56
345.942	95.56
346.17	84.56
346.397	84.56
346.625	89.56
346.853	96.56
347.08	94.56
347.308	99.56
347.535	97.56
347.763	92.56
347.99	83.56
348.218	107.56
348.445	102.56
348.673	98.56
348.9	93.56
349.128	100.56
349.355	90.56
349.583	87.56
349.81	86.56
350.037	98.56
350.265	92.56
350.492	94.56
350.72	94.56
350.947	85.56
351.174	98.56
351.402	105.56
351.629	103.56
351.856	91.56
352.083	89.56
352.311	97.56
352.538	115.56
352.765	100.56
352.992	99.56
353.22	97.56
353.447	91.56
353.674	100.56
353.901	79.56
354.128	101.56
354.355	88.56
354.583	94.56
354.81	95.56
355.037	93.56
355.264	89.56
355.491	85.56
355.718	88.56
355.945	76.56
356.172	89.56
356.399	96.56
356.626	92.56
356.853	80.56
357.08	101.56
357.307	82.56
357.534	88.56
357.761	93.56
357.988	99.56
358.215	94.56
358.441	88.56
358.668	75.56
358.895	79.56
359.122	80.56
359.349	77.56
359.576	73.56
359.802	63.56
360.029	95.56
360.256	102.56
360.483	96.56
360.709	77.56
360.936	91.56
361.163	66.56
361.39	90.56
361.616	82.56
361.843	89.56
362.07	93.56
362.296	86.56
362.523	80.56
362.749	78.56
362.976	85.56
363.203	87.56
363.429	90.56
363.656	96.56
363.882	91.56
364.109	87.56
364.335	79.56
364.562	95.56
364.788	89.56
365.015	95.56
365.241	105.56
365.468	97.56
365.694	102.56
365.92	88.56
366.147	77.56
366.373	90.56
366.599	87.56
366.826	82.56
367.052	98.56
367.278	93.56
367.505	79.56
367.731	85.56
367.957	85.56
368.184	84.56
368.41	85.56
368.636	98.56
368.862	105.56
369.089	110.56
369.315	88.56
369.541	93.56
369.767	91.56
369.993	88.56
370.219	83.56
370.445	70.56
370.672	89.56
370.898	75.56
371.124	83.56
371.35	79.56
371.576	94.56
371.802	76.56
372.028	95.56
372.254	85.56
372.48	87.56
372.706	83.56
372.932	96.56
373.158	80.56
373.384	89.56
373.61	85.56
373.835	92.56
374.061	93.56
374.287	82.56
374.513	84.56
374.739	88.56
374.965	83.56
375.191	85.56
375.416	75.56
375.642	101.56
375.868	91.56
376.094	80.56
376.319	75.56
376.545	72.56
376.771	85.56
376.997	95.56
377.222	80.56
377.448	79.56
377.674	86.56
377.899	87.56
378.125	82.56
378.35	97.56
378.576	86.56
378.802	95.56
379.027	91.56
379.253	89.56
379.478	80.56
379.704	90.56
379.929	77.56
380.155	96.56
380.38	83.56
380.606	94.56
380.831	73.56
381.057	96.56
381.282	87.56
381.507	95.56
381.733	91.56
381.958	93.56
382.184	84.56
382.409	89.56
382.634	95.56
382.86	94.56
383.085	84.56
383.31	110.56
383.535	99.56
383.761	102.56
383.986	96.56
384.211	77.56
384.436	105.56
384.662	93.56
384.887	114.56
385.112	103.56
385.337	97.56
385.562	79.56
385.787	97.56
386.013	108.56
386.238	102.56
386.463	101.56
386.688	111.56
386.913	103.56
387.138	107.56
387.363	91.56
387.588	95.56
387.813	87.56
388.038	97.56
388.263	107.56
388.488	102.56
388.713	93.56
388.938	94.56
389.163	100.56
389.387	94.56
389.612	75.56
389.837	91.56
390.062	84.56
390.287	83.56
390.512	88.56
390.736	91.56
390.961	89.56
391.186	95.56
391.411	87.56
391.636	96.56
391.86	78.56
392.085	80.56
392.31	83.56
392.534	88.56
392.759	92.56
392.984	71.56
393.208	71.56
393.433	78.56
393.658	92.56
393.882	72.56
394.107	86.56
394.331	88.56
394.556	64.56
394.78	81.56
395.005	82.56
395.229	82.56
395.454	86.56
395.678	86.56
395.903	72.56
396.127	81.56
396.352	89.56
396.576	89.56
396.801	91.56
397.025	95.56
397.249	77.56
397.474	81.56
397.698	85.56
397.922	76.56
398.147	78.56
398.371	71.56
398.595	82.56
398.82	68.56
399.044	82.56
399.268	83.56
399.492	89.56
399.717	80.56
399.941	89.56
400.165	77.56
400.389	86.56
400.613	85.56
400.837	88.56
401.062	79.56
401.286	95.56
401.51	93.56
401.734	103.56
401.958	88.56
402.182	118.56
402.406	139.56
402.63	106.56
402.854	65.56
403.078	78.56
403.302	71.56
403.526	86.56
403.75	80.56
403.974	83.56
404.198	81.56
404.422	96.56
404.645	84.56
404.869	87.56
405.093	95.56
405.317	104.56
405.541	94.56
405.765	95.56
405.988	113.56
406.212	156.56
406.436	195.56
406.66	131.56
406.883	80.56
407.107	79.56
407.331	91.56
407.555	92.56
407.778	94.56
408.002	95.56
408.226	67.56
408.449	73.56
408.673	104.56
408.896	92.56
409.12	96.56
409.344	95.56
409.567	86.56
409.791	91.56
410.014	88.56
410.238	67.56
410.461	97.56
410.685	88.56
410.908	89.56
411.132	101.56
411.355	92.56
411.578	85.56
411.802	80.56
412.025	89.56
412.249	95.56
412.472	94.56
412.695	100.56
412.919	87.56
413.142	77.56
413.365	98.56
413.589	78.56
413.812	70.56
414.035	96.56
414.258	79.56
414.482	82.56
414.705	79.56
414.928	81.56
415.151	87.56
415.374	79.56
415.597	88.56
415.821	79.56
416.044	85.56
416.267	93.56
416.49	84.56
416.713	80.56
416.936	83.56
417.159	81.56
417.382	85.56
417.605	92.56
417.828	100.56
418.051	90.56
418.274	92.56
418.497	75.56
418.72	76.56
418.943	80.56
419.166	70.56
419.389	81.56
419.611	80.56
419.834	77.56
420.057	106.56
420.28	82.56
420.503	94.56
420.726	75.56
420.948	89.56
421.171	90.56
421.394	80.56
421.617	88.56
421.839	90.56
422.062	93.56
422.285	95.56
422.507	83.56
422.73	83.56
422.953	84.56
423.175	81.56
423.398	75.56
423.621	91.56
423.843	86.56
424.066	88.56
424.288	87.56
424.511	94.56
424.733	95.56
424.956	96.56
425.178	93.56
425.401	96.56
425.623	97.56
425.846	104.56
426.068	84.56
426.291	92.56
426.513	91.56
426.735	95.56
426.958	96.56
427.18	107.56
427.402	122.56
427.625	149.56
427.847	124.56
428.069	114.56
428.292	89.56
428.514	84.56
428.736	69.56
428.958	83.56
429.181	87.56
429.403	82.56
429.625	69.56
429.847	89.56
430.069	79.56
430.292	85.56
430.514	85.56
430.736	85.56
430.958	84.56
431.18	83.56
431.402	78.56
431.624	72.56
431.846	99.56
432.068	72.56
432.29	78.56
432.512	75.56
432.734	84.56
432.956	79.56
433.178	92.56
433.4	97.56
433.622	85.56
433.844	83.56
434.066	77.56
434.287	85.56
434.509	79.56
434.731	97.56
434.953	101.56
435.175	103.56
435.397	92.56
435.618	96.56
435.84	88.56
436.062	109.56
436.284	118.56
436.505	97.56
436.727	85.56
436.949	85.56
437.17	75.56
437.392	76.56
437.614	90.56
437.835	99.56
438.057	115.56
438.278	112.56
438.5	93.56
438.721	108.56
438.943	93.56
439.165	77.56
439.386	76.56
439.608	61.56
439.829	88.56
440.05	104.56
440.272	125.56
440.493	93.56
440.715	86.56
440.936	96.56
441.158	85.56
441.379	98.56
441.6	88.56
441.822	85.56
442.043	83.56
442.264	96.56
442.486	105.56
442.707	99.56
442.928	104.56
443.149	99.56
443.371	112.56
443.592	96.56
443.813	103.56
444.034	99.56
444.255	75.56
444.476	79.56
444.698	97.56
444.919	86.56
445.14	119.56
445.361	110.56
445.582	110.56
445.803	117.56
446.024	110.56
446.245	129.56
446.466	107.56
446.687	85.56
446.908	84.56
447.129	88.56
447.35	78.56
447.571	76.56
447.792	80.56
448.013	106.56
448.234	112.56
448.455	84.56
448.675	100.56
448.896	100.56
449.117	74.56
449.338	102.56
449.559	117.56
449.779	107.56
450	83.56
450.221	67.56
450.442	76.56
450.662	91.56
450.883	91.56
451.104	97.56
451.324	96.56
451.545	92.56
451.766	91.56
451.986	85.56
452.207	80.56
452.428	81.56
452.648	85.56
452.869	95.56
453.089	92.56
453.31	99.56
453.53	80.56
453.751	85.56
453.971	103.56
454.192	92.56
454.412	78.56
454.633	96.56
454.853	77.56
455.073	75.56
455.294	103.56
455.514	104.56
455.734	84.56
455.955	77.56
456.175	77.56
456.395	92.56
456.616	90.56
456.836	80.56
457.056	86.56
457.276	83.56
457.497	77.56
457.717	85.56
457.937	87.56
458.157	76.56
458.377	81.56
458.598	104.56
458.818	121.56
459.038	124.56
459.258	104.56
459.478	96.56
459.698	96.56
459.918	76.56
460.138	74.56
460.358	70.56
460.578	89.56
460.798	88.56
461.018	90.56
461.238	75.56
461.458	95.56
461.678	85.56
461.898	88.56
462.118	93.56
462.338	80.56
462.558	75.56
462.777	71.56
462.997	76.56
463.217	84.56
463.437	71.56
463.657	79.56
463.876	74.56
464.096	77.56
464.316	84.56
464.536	91.56
464.755	82.56
464.975	91.56
465.195	132.56
465.414	126.56
465.634	91.56
465.854	90.56
466.073	82.56
466.293	83.56
466.512	71.56
466.732	75.56
466.951	82.56
467.171	91.56
467.391	96.56
467.61	101.56
467.829	111.56
468.049	128.56
468.268	127.56
468.488	105.56
468.707	84.56
468.927	97.56
469.146	80.56
469.365	75.56
469.585	87.56
469.804	94.56
470.023	90.56
470.243	84.56
470.462	91.56
470.681	103.56
470.901	98.56
471.12	94.56
471.339	85.56
471.558	85.56
471.777	92.56
471.997	99.56
472.216	175.56
472.435	262.56
472.654	118.56
472.873	87.56
473.092	107.56
473.311	83.56
473.53	84.56
473.749	82.56
473.968	84.56
474.187	89.56
474.406	101.56
474.625	62.56
474.844	94.56
475.063	86.56
475.282	85.56
475.501	80.56
475.72	96.56
475.939	79.56
476.158	84.56
476.377	84.56
476.596	72.56
476.814	89.56
477.033	88.56
477.252	87.56
477.471	97.56
477.69	89.56
477.908	84.56
478.127	84.56
478.346	60.56
478.564	79.56
478.783	87.56
479.002	92.56
479.22	99.56
479.439	98.56
479.658	103.56
479.876	81.56
480.095	89.56
480.313	93.56
480.532	93.56
480.751	93.56
480.969	180.56
481.188	438.56
481.406	279.56
481.624	104.56
481.843	97.56
482.061	97.56
482.28	88.56
482.498	81.56
482.717	84.56
482.935	87.56
483.153	94.56
483.372	79.56
483.59	94.56
483.808	73.56
484.027	87.56
484.245	94.56
484.463	96.56
484.681	101.56
484.9	92.56
485.118	91.56
485.336	98.56
485.554	91.56
485.772	90.56
485.99	88.56
486.209	96.56
486.427	109.56
486.645	99.56
486.863	100.56
487.081	80.56
487.299	89.56
487.517	95.56
487.735	73.56
487.953	86.56
488.171	100.56
488.389	93.56
488.607	112.56
488.825	88.56
489.043	82.56
489.261	85.56
489.479	67.56
489.696	91.56
489.914	89.56
490.132	103.56
490.35	93.56
490.568	85.56
490.786	88.56
491.003	102.56
491.221	83.56
491.439	88.56
491.657	103.56
491.874	99.56
492.092	88.56
492.31	79.56
492.527	80.56
492.745	83.56
492.963	71.56
493.18	85.56
493.398	85.56
493.615	77.56
493.833	96.56
494.05	90.56
494.268	77.56
494.485	96.56
494.703	93.56
494.92	87.56
495.138	82.56
495.355	81.56
495.573	90.56
495.79	81.56
496.008	102.56
496.225	76.56
496.442	89.56
496.66	76.56
496.877	77.56
497.094	81.56
497.312	79.56
497.529	86.56
497.746	76.56
497.963	84.56
498.181	77.56
498.398	96.56
498.615	106.56
498.832	82.56
499.049	95.56
499.267	82.56
499.484	84.56
499.701	81.56
499.918	74.56
500.135	79.56
500.352	86.56
500.569	85.56
500.786	76.56
501.003	82.56
501.22	87.56
501.437	72.56
501.654	88.56
501.871	96.56
502.088	86.56
502.305	91.56
502.522	79.56
502.739	86.56
502.956	94.56
503.172	92.56
503.389	83.56
503.606	109.56
503.823	94.56
504.04	95.56
504.256	81.56
504.473	81.56
504.69	84.56
504.907	93.56
505.123	88.56
505.34	73.56
505.557	89.56
505.773	90.56
505.99	93.56
506.207	83.56
506.423	92.56
506.64	94.56
506.856	75.56
507.073	97.56
507.289	69.56
507.506	95.56
507.722	107.56
507.939	102.56
508.155	94.56
508.372	80.56
508.588	92.56
508.805	80.56
509.021	108.56
509.238	91.56
509.454	86.56
509.67	96.56
509.887	95.56
510.103	112.56
510.319	191.56
510.536	689.56
510.752	2152.56
510.968	602.56
511.184	142.56
511.401	119.56
511.617	82.56
511.833	81.56
512.049	99.56
512.265	96.56
512.481	98.56
512.698	90.56
512.914	88.56
513.13	90.56
513.346	88.56
513.562	96.56
513.778	91.56
513.994	97.56
514.21	96.56
514.426	110.56
514.642	120.56
514.858	131.56
515.074	157.56
515.29	389.56
515.506	1297.56
515.721	463.56
515.937	139.56
516.153	92.56
516.369	95.56
516.585	96.56
516.801	96.56
517.016	83.56
517.232	79.56
