Data from Circ_2003_H10_HRD10591_00024.txt Node
Date: Wed Jan 03 10:37:07 EST 2024
User: Yrep
Spectrometer: HR+D1059
Trigger mode: 1
Integration Time (sec): 1.000000E-1
Scans to average: 1
Electric dark correction enabled: true
Nonlinearity correction enabled: false
Boxcar width: 0
XAxis mode: Wavelengths
Number of Pixels in Spectrum: 2048
>>>>>Begin Spectral Data<<<<<
223.165	-8.81
223.4	-8.81
223.635	-8.81
223.869	-26.81
224.104	-15.81
224.338	-16.81
224.573	-10.81
224.808	-10.81
225.042	-3.81
225.277	-2.81
225.511	-1.81
225.746	13.19
225.98	2.19
226.215	-8.81
226.449	14.19
226.683	28.19
226.918	20.19
227.152	29.19
227.387	39.19
227.621	32.19
227.856	38.19
228.09	58.19
228.324	54.19
228.559	59.19
228.793	55.19
229.027	68.19
229.262	59.19
229.496	81.19
229.73	92.19
229.964	91.19
230.199	70.19
230.433	82.19
230.667	80.19
230.901	73.19
231.136	73.19
231.37	78.19
231.604	77.19
231.838	73.19
232.072	91.19
232.306	82.19
232.541	82.19
232.775	78.19
233.009	78.19
233.243	81.19
233.477	79.19
233.711	79.19
233.945	93.19
234.179	91.19
234.413	82.19
234.647	80.19
234.881	88.19
235.115	91.19
235.349	92.19
235.583	83.19
235.817	85.19
236.051	80.19
236.285	84.19
236.519	74.19
236.753	68.19
236.987	82.19
237.221	80.19
237.455	76.19
237.689	75.19
237.922	73.19
238.156	79.19
238.39	86.19
238.624	69.19
238.858	87.19
239.091	80.19
239.325	68.19
239.559	68.19
239.793	79.19
240.027	100.19
240.26	76.19
240.494	73.19
240.728	87.19
240.961	87.19
241.195	86.19
241.429	92.19
241.662	80.19
241.896	92.19
242.13	76.19
242.363	92.19
242.597	79.19
242.83	71.19
243.064	74.19
243.298	80.19
243.531	69.19
243.765	76.19
243.998	83.19
244.232	96.19
244.465	78.19
244.699	82.19
244.932	66.19
245.166	59.19
245.399	89.19
245.633	74.19
245.866	84.19
246.099	94.19
246.333	89.19
246.566	67.19
246.8	84.19
247.033	82.19
247.266	74.19
247.5	80.19
247.733	84.19
247.966	74.19
248.2	73.19
248.433	64.19
248.666	75.19
248.899	78.19
249.133	87.19
249.366	88.19
249.599	88.19
249.832	79.19
250.066	80.19
250.299	77.19
250.532	69.19
250.765	87.19
250.998	73.19
251.231	73.19
251.465	81.19
251.698	83.19
251.931	73.19
252.164	64.19
252.397	88.19
252.63	94.19
252.863	75.19
253.096	83.19
253.329	78.19
253.562	79.19
253.795	67.19
254.028	84.19
254.261	81.19
254.494	81.19
254.727	93.19
254.96	78.19
255.193	78.19
255.426	85.19
255.659	67.19
255.892	73.19
256.124	71.19
256.357	73.19
256.59	97.19
256.823	95.19
257.056	85.19
257.289	77.19
257.521	89.19
257.754	88.19
257.987	82.19
258.22	79.19
258.452	79.19
258.685	88.19
258.918	92.19
259.151	80.19
259.383	66.19
259.616	81.19
259.849	96.19
260.081	78.19
260.314	98.19
260.547	85.19
260.779	82.19
261.012	92.19
261.244	84.19
261.477	77.19
261.71	74.19
261.942	103.19
262.175	110.19
262.407	96.19
262.64	90.19
262.872	78.19
263.105	86.19
263.337	84.19
263.57	82.19
263.802	100.19
264.035	86.19
264.267	82.19
264.499	88.19
264.732	89.19
264.964	86.19
265.197	96.19
265.429	76.19
265.661	75.19
265.894	88.19
266.126	85.19
266.358	91.19
266.591	86.19
266.823	79.19
267.055	99.19
267.287	108.19
267.52	72.19
267.752	77.19
267.984	84.19
268.216	66.19
268.448	85.19
268.681	86.19
268.913	81.19
269.145	87.19
269.377	91.19
269.609	80.19
269.841	84.19
270.073	95.19
270.306	91.19
270.538	90.19
270.77	96.19
271.002	74.19
271.234	70.19
271.466	80.19
271.698	95.19
271.93	94.19
272.162	103.19
272.394	85.19
272.626	95.19
272.858	98.19
273.09	78.19
273.322	86.19
273.553	102.19
273.785	78.19
274.017	86.19
274.249	73.19
274.481	77.19
274.713	83.19
274.945	90.19
275.176	84.19
275.408	75.19
275.64	75.19
275.872	80.19
276.104	82.19
276.335	89.19
276.567	100.19
276.799	98.19
277.031	90.19
277.262	83.19
277.494	103.19
277.726	89.19
277.957	86.19
278.189	91.19
278.421	88.19
278.652	88.19
278.884	86.19
279.115	84.19
279.347	83.19
279.579	82.19
279.81	88.19
280.042	92.19
280.273	88.19
280.505	92.19
280.736	71.19
280.968	89.19
281.199	75.19
281.431	70.19
281.662	87.19
281.894	67.19
282.125	92.19
282.356	125.19
282.588	121.19
282.819	95.19
283.051	87.19
283.282	79.19
283.513	85.19
283.745	93.19
283.976	82.19
284.207	78.19
284.439	102.19
284.67	82.19
284.901	91.19
285.132	87.19
285.364	66.19
285.595	91.19
285.826	87.19
286.057	85.19
286.288	89.19
286.52	84.19
286.751	89.19
286.982	84.19
287.213	83.19
287.444	89.19
287.675	90.19
287.906	82.19
288.138	96.19
288.369	88.19
288.6	85.19
288.831	91.19
289.062	97.19
289.293	87.19
289.524	85.19
289.755	73.19
289.986	80.19
290.217	85.19
290.448	96.19
290.679	96.19
290.91	90.19
291.141	72.19
291.371	79.19
291.602	90.19
291.833	75.19
292.064	88.19
292.295	95.19
292.526	65.19
292.757	89.19
292.987	90.19
293.218	88.19
293.449	95.19
293.68	95.19
293.91	92.19
294.141	94.19
294.372	96.19
294.603	74.19
294.833	82.19
295.064	87.19
295.295	89.19
295.525	78.19
295.756	83.19
295.987	111.19
296.217	118.19
296.448	123.19
296.679	84.19
296.909	89.19
297.14	86.19
297.37	90.19
297.601	77.19
297.831	81.19
298.062	99.19
298.292	92.19
298.523	97.19
298.753	87.19
298.984	84.19
299.214	85.19
299.445	96.19
299.675	96.19
299.905	97.19
300.136	93.19
300.366	99.19
300.597	91.19
300.827	77.19
301.057	95.19
301.288	106.19
301.518	99.19
301.748	80.19
301.979	84.19
302.209	96.19
302.439	84.19
302.669	84.19
302.9	81.19
303.13	75.19
303.36	90.19
303.59	98.19
303.82	97.19
304.051	92.19
304.281	96.19
304.511	90.19
304.741	98.19
304.971	81.19
305.201	102.19
305.431	83.19
305.661	94.19
305.891	93.19
306.121	100.19
306.352	104.19
306.582	102.19
306.812	103.19
307.042	85.19
307.272	102.19
307.502	93.19
307.731	90.19
307.961	91.19
308.191	93.19
308.421	88.19
308.651	84.19
308.881	88.19
309.111	91.19
309.341	91.19
309.571	86.19
309.8	98.19
310.03	92.19
310.26	92.19
310.49	90.19
310.72	99.19
310.949	82.19
311.179	98.19
311.409	87.19
311.639	88.19
311.868	102.19
312.098	94.19
312.328	92.19
312.557	94.19
312.787	99.19
313.017	106.19
313.246	103.19
313.476	96.19
313.706	77.19
313.935	91.19
314.165	92.19
314.394	87.19
314.624	86.19
314.853	96.19
315.083	78.19
315.312	96.19
315.542	91.19
315.771	89.19
316.001	101.19
316.23	77.19
316.46	80.19
316.689	84.19
316.919	85.19
317.148	91.19
317.377	98.19
317.607	91.19
317.836	100.19
318.065	91.19
318.295	79.19
318.524	83.19
318.753	90.19
318.983	98.19
319.212	102.19
319.441	102.19
319.67	97.19
319.9	94.19
320.129	91.19
320.358	78.19
320.587	96.19
320.816	92.19
321.046	92.19
321.275	90.19
321.504	97.19
321.733	90.19
321.962	104.19
322.191	112.19
322.42	103.19
322.649	108.19
322.878	110.19
323.108	118.19
323.337	128.19
323.566	124.19
323.795	153.19
324.024	190.19
324.253	353.19
324.482	751.19
324.71	1555.19
324.939	2016.19
325.168	740.19
325.397	224.19
325.626	134.19
325.855	131.19
326.084	131.19
326.313	130.19
326.542	148.19
326.77	235.19
326.999	429.19
327.228	882.19
327.457	1593.19
327.686	1251.19
327.914	328.19
328.143	190.19
328.372	130.19
328.6	114.19
328.829	124.19
329.058	122.19
329.287	102.19
329.515	96.19
329.744	105.19
329.972	104.19
330.201	102.19
330.43	105.19
330.658	109.19
330.887	144.19
331.115	117.19
331.344	92.19
331.572	97.19
331.801	98.19
332.03	107.19
332.258	95.19
332.486	97.19
332.715	85.19
332.943	91.19
333.172	118.19
333.4	103.19
333.629	103.19
333.857	111.19
334.085	119.19
334.314	99.19
334.542	111.19
334.771	105.19
334.999	98.19
335.227	95.19
335.455	86.19
335.684	104.19
335.912	92.19
336.14	91.19
336.369	86.19
336.597	111.19
336.825	81.19
337.053	89.19
337.281	86.19
337.51	99.19
337.738	92.19
337.966	98.19
338.194	97.19
338.422	103.19
338.65	97.19
338.878	97.19
339.106	95.19
339.334	91.19
339.562	91.19
339.79	92.19
340.018	85.19
340.246	92.19
340.474	89.19
340.702	92.19
340.93	92.19
341.158	96.19
341.386	94.19
341.614	103.19
341.842	97.19
342.07	94.19
342.298	90.19
342.526	97.19
342.754	95.19
342.981	104.19
343.209	85.19
343.437	102.19
343.665	87.19
343.893	91.19
344.12	99.19
344.348	102.19
344.576	84.19
344.804	108.19
345.031	92.19
345.259	95.19
345.487	86.19
345.714	90.19
345.942	85.19
346.17	92.19
346.397	83.19
346.625	92.19
346.853	88.19
347.08	91.19
347.308	74.19
347.535	92.19
347.763	89.19
347.99	86.19
348.218	101.19
348.445	90.19
348.673	96.19
348.9	90.19
349.128	90.19
349.355	87.19
349.583	99.19
349.81	95.19
350.037	85.19
350.265	91.19
350.492	91.19
350.72	95.19
350.947	107.19
351.174	108.19
351.402	91.19
351.629	98.19
351.856	100.19
352.083	92.19
352.311	108.19
352.538	110.19
352.765	101.19
352.992	112.19
353.22	106.19
353.447	107.19
353.674	91.19
353.901	104.19
354.128	97.19
354.355	92.19
354.583	91.19
354.81	97.19
355.037	99.19
355.264	92.19
355.491	94.19
355.718	88.19
355.945	83.19
356.172	93.19
356.399	111.19
356.626	97.19
356.853	81.19
357.08	77.19
357.307	89.19
357.534	95.19
357.761	107.19
357.988	115.19
358.215	97.19
358.441	102.19
358.668	115.19
358.895	125.19
359.122	99.19
359.349	103.19
359.576	95.19
359.802	106.19
360.029	110.19
360.256	110.19
360.483	99.19
360.709	102.19
360.936	91.19
361.163	100.19
361.39	91.19
361.616	75.19
361.843	90.19
362.07	98.19
362.296	89.19
362.523	82.19
362.749	90.19
362.976	96.19
363.203	100.19
363.429	76.19
363.656	73.19
363.882	90.19
364.109	86.19
364.335	98.19
364.562	93.19
364.788	96.19
365.015	83.19
365.241	111.19
365.468	81.19
365.694	91.19
365.92	101.19
366.147	92.19
366.373	98.19
366.599	86.19
366.826	92.19
367.052	78.19
367.278	90.19
367.505	96.19
367.731	86.19
367.957	89.19
368.184	97.19
368.41	92.19
368.636	98.19
368.862	116.19
369.089	107.19
369.315	103.19
369.541	99.19
369.767	99.19
369.993	89.19
370.219	84.19
370.445	85.19
370.672	92.19
370.898	83.19
371.124	91.19
371.35	91.19
371.576	79.19
371.802	81.19
372.028	82.19
372.254	86.19
372.48	84.19
372.706	83.19
372.932	83.19
373.158	90.19
373.384	90.19
373.61	95.19
373.835	99.19
374.061	112.19
374.287	96.19
374.513	79.19
374.739	90.19
374.965	103.19
375.191	86.19
375.416	98.19
375.642	104.19
375.868	90.19
376.094	92.19
376.319	87.19
376.545	103.19
376.771	92.19
376.997	98.19
377.222	83.19
377.448	81.19
377.674	102.19
377.899	92.19
378.125	89.19
378.35	101.19
378.576	92.19
378.802	92.19
379.027	94.19
379.253	105.19
379.478	90.19
379.704	92.19
379.929	91.19
380.155	99.19
380.38	92.19
380.606	103.19
380.831	95.19
381.057	93.19
381.282	98.19
381.507	113.19
381.733	96.19
381.958	103.19
382.184	110.19
382.409	100.19
382.634	122.19
382.86	102.19
383.085	109.19
383.31	103.19
383.535	109.19
383.761	108.19
383.986	106.19
384.211	105.19
384.436	116.19
384.662	114.19
384.887	121.19
385.112	124.19
385.337	107.19
385.562	116.19
385.787	121.19
386.013	127.19
386.238	116.19
386.463	119.19
386.688	117.19
386.913	130.19
387.138	129.19
387.363	122.19
387.588	103.19
387.813	107.19
388.038	139.19
388.263	162.19
388.488	143.19
388.713	100.19
388.938	88.19
389.163	103.19
389.387	91.19
389.612	96.19
389.837	89.19
390.062	91.19
390.287	93.19
390.512	103.19
390.736	86.19
390.961	92.19
391.186	89.19
391.411	94.19
391.636	89.19
391.86	101.19
392.085	82.19
392.31	83.19
392.534	89.19
392.759	102.19
392.984	93.19
393.208	99.19
393.433	101.19
393.658	99.19
393.882	88.19
394.107	91.19
394.331	84.19
394.556	76.19
394.78	82.19
395.005	72.19
395.229	94.19
395.454	91.19
395.678	88.19
395.903	82.19
396.127	82.19
396.352	87.19
396.576	90.19
396.801	83.19
397.025	99.19
397.249	84.19
397.474	98.19
397.698	90.19
397.922	83.19
398.147	86.19
398.371	90.19
398.595	77.19
398.82	91.19
399.044	84.19
399.268	89.19
399.492	88.19
399.717	83.19
399.941	84.19
400.165	81.19
400.389	80.19
400.613	97.19
400.837	86.19
401.062	87.19
401.286	83.19
401.51	89.19
401.734	82.19
401.958	86.19
402.182	112.19
402.406	135.19
402.63	108.19
402.854	87.19
403.078	90.19
403.302	85.19
403.526	96.19
403.75	90.19
403.974	84.19
404.198	97.19
404.422	80.19
404.645	85.19
404.869	87.19
405.093	95.19
405.317	89.19
405.541	81.19
405.765	91.19
405.988	107.19
406.212	145.19
406.436	186.19
406.66	121.19
406.883	95.19
407.107	81.19
407.331	87.19
407.555	81.19
407.778	86.19
408.002	91.19
408.226	94.19
408.449	82.19
408.673	106.19
408.896	105.19
409.12	95.19
409.344	94.19
409.567	82.19
409.791	105.19
410.014	114.19
410.238	102.19
410.461	110.19
410.685	92.19
410.908	96.19
411.132	96.19
411.355	110.19
411.578	91.19
411.802	103.19
412.025	86.19
412.249	105.19
412.472	87.19
412.695	92.19
412.919	94.19
413.142	104.19
413.365	91.19
413.589	82.19
413.812	99.19
414.035	103.19
414.258	93.19
414.482	82.19
414.705	92.19
414.928	91.19
415.151	85.19
415.374	93.19
415.597	90.19
415.821	75.19
416.044	93.19
416.267	87.19
416.49	91.19
416.713	89.19
416.936	94.19
417.159	88.19
417.382	94.19
417.605	87.19
417.828	81.19
418.051	89.19
418.274	93.19
418.497	75.19
418.72	96.19
418.943	87.19
419.166	93.19
419.389	93.19
419.611	78.19
419.834	86.19
420.057	91.19
420.28	75.19
420.503	77.19
420.726	84.19
420.948	96.19
421.171	100.19
421.394	93.19
421.617	90.19
421.839	91.19
422.062	87.19
422.285	85.19
422.507	100.19
422.73	114.19
422.953	106.19
423.175	99.19
423.398	84.19
423.621	87.19
423.843	90.19
424.066	71.19
424.288	92.19
424.511	104.19
424.733	98.19
424.956	115.19
425.178	102.19
425.401	106.19
425.623	95.19
425.846	83.19
426.068	102.19
426.291	91.19
426.513	94.19
426.735	94.19
426.958	88.19
427.18	106.19
427.402	110.19
427.625	139.19
427.847	94.19
428.069	94.19
428.292	88.19
428.514	85.19
428.736	91.19
428.958	88.19
429.181	86.19
429.403	103.19
429.625	89.19
429.847	98.19
430.069	95.19
430.292	100.19
430.514	95.19
430.736	82.19
430.958	78.19
431.18	83.19
431.402	94.19
431.624	78.19
431.846	75.19
432.068	90.19
432.29	82.19
432.512	81.19
432.734	86.19
432.956	98.19
433.178	107.19
433.4	91.19
433.622	90.19
433.844	83.19
434.066	89.19
434.287	88.19
434.509	78.19
434.731	66.19
434.953	93.19
435.175	91.19
435.397	90.19
435.618	92.19
435.84	102.19
436.062	106.19
436.284	113.19
436.505	100.19
436.727	106.19
436.949	88.19
437.17	88.19
437.392	80.19
437.614	95.19
437.835	106.19
438.057	110.19
438.278	112.19
438.5	95.19
438.721	118.19
438.943	94.19
439.165	86.19
439.386	78.19
439.608	94.19
439.829	102.19
440.05	106.19
440.272	137.19
440.493	89.19
440.715	84.19
440.936	76.19
441.158	86.19
441.379	98.19
441.6	87.19
441.822	102.19
442.043	96.19
442.264	97.19
442.486	112.19
442.707	84.19
442.928	93.19
443.149	131.19
443.371	113.19
443.592	119.19
443.813	106.19
444.034	102.19
444.255	84.19
444.476	75.19
444.698	84.19
444.919	87.19
445.14	144.19
445.361	126.19
445.582	111.19
445.803	123.19
446.024	131.19
446.245	129.19
446.466	97.19
446.687	92.19
446.908	80.19
447.129	79.19
447.35	80.19
447.571	87.19
447.792	110.19
448.013	102.19
448.234	99.19
448.455	96.19
448.675	114.19
448.896	118.19
449.117	100.19
449.338	100.19
449.559	115.19
449.779	135.19
450	102.19
450.221	76.19
450.442	91.19
450.662	96.19
450.883	94.19
451.104	106.19
451.324	83.19
451.545	89.19
451.766	96.19
451.986	94.19
452.207	87.19
452.428	95.19
452.648	92.19
452.869	110.19
453.089	106.19
453.31	108.19
453.53	81.19
453.751	82.19
453.971	114.19
454.192	114.19
454.412	75.19
454.633	89.19
454.853	84.19
455.073	85.19
455.294	80.19
455.514	82.19
455.734	77.19
455.955	73.19
456.175	70.19
456.395	75.19
456.616	87.19
456.836	97.19
457.056	86.19
457.276	80.19
457.497	78.19
457.717	74.19
457.937	93.19
458.157	91.19
458.377	93.19
458.598	103.19
458.818	133.19
459.038	143.19
459.258	108.19
459.478	78.19
459.698	94.19
459.918	83.19
460.138	83.19
460.358	75.19
460.578	98.19
460.798	95.19
461.018	86.19
461.238	91.19
461.458	78.19
461.678	88.19
461.898	80.19
462.118	88.19
462.338	90.19
462.558	103.19
462.777	94.19
462.997	99.19
463.217	96.19
463.437	80.19
463.657	79.19
463.876	87.19
464.096	87.19
464.316	85.19
464.536	83.19
464.755	74.19
464.975	113.19
465.195	150.19
465.414	146.19
465.634	92.19
465.854	83.19
466.073	83.19
466.293	78.19
466.512	80.19
466.732	100.19
466.951	57.19
467.171	83.19
467.391	93.19
467.61	113.19
467.829	101.19
468.049	93.19
468.268	82.19
468.488	86.19
468.707	96.19
468.927	84.19
469.146	81.19
469.365	87.19
469.585	99.19
469.804	95.19
470.023	85.19
470.243	76.19
470.462	90.19
470.681	109.19
470.901	86.19
471.12	84.19
471.339	95.19
471.558	77.19
471.777	78.19
471.997	88.19
472.216	90.19
472.435	108.19
472.654	90.19
472.873	90.19
473.092	89.19
473.311	70.19
473.53	86.19
473.749	96.19
473.968	95.19
474.187	119.19
474.406	92.19
474.625	103.19
474.844	83.19
475.063	97.19
475.282	86.19
475.501	94.19
475.72	88.19
475.939	86.19
476.158	88.19
476.377	80.19
476.596	82.19
476.814	87.19
477.033	90.19
477.252	84.19
477.471	74.19
477.69	85.19
477.908	86.19
478.127	92.19
478.346	90.19
478.564	89.19
478.783	108.19
479.002	88.19
479.22	98.19
479.439	91.19
479.658	89.19
479.876	87.19
480.095	100.19
480.313	112.19
480.532	90.19
480.751	89.19
480.969	98.19
481.188	131.19
481.406	104.19
481.624	103.19
481.843	89.19
482.061	83.19
482.28	88.19
482.498	95.19
482.717	97.19
482.935	92.19
483.153	94.19
483.372	95.19
483.59	87.19
483.808	82.19
484.027	86.19
484.245	99.19
484.463	91.19
484.681	90.19
484.9	98.19
485.118	113.19
485.336	97.19
485.554	99.19
485.772	110.19
485.99	111.19
486.209	103.19
486.427	112.19
486.645	106.19
486.863	120.19
487.081	103.19
487.299	89.19
487.517	105.19
487.735	95.19
487.953	94.19
488.171	90.19
488.389	98.19
488.607	84.19
488.825	86.19
489.043	112.19
489.261	106.19
489.479	89.19
489.696	86.19
489.914	90.19
490.132	91.19
490.35	94.19
490.568	80.19
490.786	67.19
491.003	103.19
491.221	93.19
491.439	96.19
491.657	99.19
491.874	103.19
492.092	79.19
492.31	95.19
492.527	83.19
492.745	95.19
492.963	115.19
493.18	88.19
493.398	85.19
493.615	106.19
493.833	107.19
494.05	106.19
494.268	87.19
494.485	84.19
494.703	88.19
494.92	91.19
495.138	92.19
495.355	86.19
495.573	107.19
495.79	79.19
496.008	98.19
496.225	89.19
496.442	91.19
496.66	94.19
496.877	87.19
497.094	96.19
497.312	91.19
497.529	93.19
497.746	88.19
497.963	100.19
498.181	85.19
498.398	91.19
498.615	91.19
498.832	108.19
499.049	91.19
499.267	88.19
499.484	88.19
499.701	81.19
499.918	74.19
500.135	94.19
500.352	91.19
500.569	89.19
500.786	82.19
501.003	95.19
501.22	82.19
501.437	99.19
501.654	93.19
501.871	93.19
502.088	99.19
502.305	99.19
502.522	105.19
502.739	96.19
502.956	91.19
503.172	85.19
503.389	99.19
503.606	97.19
503.823	90.19
504.04	90.19
504.256	74.19
504.473	100.19
504.69	105.19
504.907	90.19
505.123	94.19
505.34	94.19
505.557	95.19
505.773	98.19
505.99	91.19
506.207	86.19
506.423	87.19
506.64	103.19
506.856	99.19
507.073	96.19
507.289	97.19
507.506	89.19
507.722	103.19
507.939	123.19
508.155	103.19
508.372	90.19
508.588	101.19
508.805	96.19
509.021	83.19
509.238	92.19
509.454	94.19
509.67	106.19
509.887	98.19
510.103	125.19
510.319	203.19
510.536	714.19
510.752	2122.19
510.968	614.19
511.184	152.19
511.401	104.19
511.617	110.19
511.833	111.19
512.049	85.19
512.265	81.19
512.481	98.19
512.698	88.19
512.914	94.19
513.13	91.19
513.346	98.19
513.562	81.19
513.778	87.19
513.994	95.19
514.21	102.19
514.426	104.19
514.642	122.19
514.858	109.19
515.074	144.19
515.29	375.19
515.506	1218.19
515.721	452.19
515.937	136.19
