Data from Circ_2003_H10_HRD10591_00027.txt Node
Date: Wed Jan 03 10:37:08 EST 2024
User: Yrep
Spectrometer: HR+D1059
Trigger mode: 1
Integration Time (sec): 1.000000E-1
Scans to average: 1
Electric dark correction enabled: true
Nonlinearity correction enabled: false
Boxcar width: 0
XAxis mode: Wavelengths
Number of Pixels in Spectrum: 2048
>>>>>Begin Spectral Data<<<<<
223.165	-20.06
223.4	-20.06
223.635	-20.06
223.869	-18.06
224.104	-10.06
224.338	-11.06
224.573	-27.06
224.808	-9.06
225.042	-19.06
225.277	-7.06
225.511	8.94
225.746	0.94
225.98	2.94
226.215	10.94
226.449	12.94
226.683	22.94
226.918	33.94
227.152	27.94
227.387	34.94
227.621	33.94
227.856	41.94
228.09	45.94
228.324	43.94
228.559	53.94
228.793	52.94
229.027	48.94
229.262	59.94
229.496	63.94
229.73	74.94
229.964	79.94
230.199	73.94
230.433	67.94
230.667	75.94
230.901	78.94
231.136	82.94
231.37	78.94
231.604	80.94
231.838	64.94
232.072	81.94
232.306	71.94
232.541	80.94
232.775	88.94
233.009	75.94
233.243	77.94
233.477	63.94
233.711	75.94
233.945	80.94
234.179	73.94
234.413	71.94
234.647	64.94
234.881	65.94
235.115	65.94
235.349	77.94
235.583	66.94
235.817	86.94
236.051	58.94
236.285	73.94
236.519	77.94
236.753	79.94
236.987	79.94
237.221	80.94
237.455	76.94
237.689	69.94
237.922	67.94
238.156	85.94
238.39	76.94
238.624	72.94
238.858	79.94
239.091	68.94
239.325	75.94
239.559	66.94
239.793	81.94
240.027	73.94
240.26	62.94
240.494	75.94
240.728	79.94
240.961	61.94
241.195	77.94
241.429	81.94
241.662	68.94
241.896	72.94
242.13	87.94
242.363	80.94
242.597	69.94
242.83	88.94
243.064	81.94
243.298	80.94
243.531	58.94
243.765	82.94
243.998	69.94
244.232	73.94
244.465	76.94
244.699	72.94
244.932	81.94
245.166	72.94
245.399	75.94
245.633	62.94
245.866	78.94
246.099	59.94
246.333	73.94
246.566	77.94
246.8	85.94
247.033	62.94
247.266	86.94
247.5	91.94
247.733	72.94
247.966	86.94
248.2	79.94
248.433	83.94
248.666	76.94
248.899	84.94
249.133	90.94
249.366	76.94
249.599	91.94
249.832	70.94
250.066	91.94
250.299	77.94
250.532	70.94
250.765	93.94
250.998	76.94
251.231	70.94
251.465	78.94
251.698	69.94
251.931	76.94
252.164	70.94
252.397	73.94
252.63	73.94
252.863	77.94
253.096	84.94
253.329	77.94
253.562	82.94
253.795	73.94
254.028	78.94
254.261	80.94
254.494	70.94
254.727	70.94
254.96	72.94
255.193	78.94
255.426	62.94
255.659	67.94
255.892	93.94
256.124	67.94
256.357	82.94
256.59	74.94
256.823	63.94
257.056	73.94
257.289	76.94
257.521	82.94
257.754	62.94
257.987	69.94
258.22	65.94
258.452	71.94
258.685	94.94
258.918	82.94
259.151	80.94
259.383	62.94
259.616	77.94
259.849	73.94
260.081	80.94
260.314	81.94
260.547	92.94
260.779	93.94
261.012	71.94
261.244	79.94
261.477	94.94
261.71	97.94
261.942	94.94
262.175	126.94
262.407	93.94
262.64	76.94
262.872	83.94
263.105	84.94
263.337	94.94
263.57	80.94
263.802	76.94
264.035	79.94
264.267	72.94
264.499	66.94
264.732	78.94
264.964	81.94
265.197	79.94
265.429	67.94
265.661	74.94
265.894	97.94
266.126	79.94
266.358	76.94
266.591	88.94
266.823	74.94
267.055	85.94
267.287	80.94
267.52	66.94
267.752	89.94
267.984	77.94
268.216	89.94
268.448	85.94
268.681	78.94
268.913	75.94
269.145	69.94
269.377	72.94
269.609	81.94
269.841	72.94
270.073	74.94
270.306	70.94
270.538	79.94
270.77	88.94
271.002	74.94
271.234	80.94
271.466	77.94
271.698	86.94
271.93	82.94
272.162	87.94
272.394	98.94
272.626	72.94
272.858	68.94
273.09	80.94
273.322	79.94
273.553	70.94
273.785	74.94
274.017	94.94
274.249	85.94
274.481	82.94
274.713	68.94
274.945	81.94
275.176	82.94
275.408	78.94
275.64	84.94
275.872	78.94
276.104	80.94
276.335	80.94
276.567	97.94
276.799	104.94
277.031	85.94
277.262	93.94
277.494	79.94
277.726	88.94
277.957	85.94
278.189	82.94
278.421	80.94
278.652	65.94
278.884	76.94
279.115	76.94
279.347	83.94
279.579	75.94
279.81	93.94
280.042	85.94
280.273	70.94
280.505	83.94
280.736	81.94
280.968	82.94
281.199	83.94
281.431	86.94
281.662	95.94
281.894	80.94
282.125	95.94
282.356	117.94
282.588	127.94
282.819	108.94
283.051	86.94
283.282	74.94
283.513	80.94
283.745	84.94
283.976	75.94
284.207	91.94
284.439	97.94
284.67	73.94
284.901	94.94
285.132	86.94
285.364	83.94
285.595	78.94
285.826	90.94
286.057	84.94
286.288	85.94
286.52	85.94
286.751	77.94
286.982	92.94
287.213	76.94
287.444	81.94
287.675	82.94
287.906	72.94
288.138	90.94
288.369	89.94
288.6	81.94
288.831	85.94
289.062	79.94
289.293	88.94
289.524	83.94
289.755	78.94
289.986	81.94
290.217	76.94
290.448	71.94
290.679	96.94
290.91	70.94
291.141	81.94
291.371	84.94
291.602	76.94
291.833	72.94
292.064	85.94
292.295	89.94
292.526	88.94
292.757	74.94
292.987	62.94
293.218	86.94
293.449	68.94
293.68	91.94
293.91	79.94
294.141	74.94
294.372	76.94
294.603	71.94
294.833	90.94
295.064	78.94
295.295	77.94
295.525	85.94
295.756	97.94
295.987	105.94
296.217	130.94
296.448	124.94
296.679	86.94
296.909	78.94
297.14	86.94
297.37	75.94
297.601	70.94
297.831	74.94
298.062	102.94
298.292	100.94
298.523	82.94
298.753	98.94
298.984	89.94
299.214	83.94
299.445	94.94
299.675	80.94
299.905	76.94
300.136	90.94
300.366	85.94
300.597	81.94
300.827	82.94
301.057	86.94
301.288	99.94
301.518	86.94
301.748	91.94
301.979	96.94
302.209	81.94
302.439	84.94
302.669	89.94
302.9	91.94
303.13	89.94
303.36	89.94
303.59	104.94
303.82	99.94
304.051	90.94
304.281	101.94
304.511	88.94
304.741	91.94
304.971	86.94
305.201	90.94
305.431	74.94
305.661	92.94
305.891	84.94
306.121	89.94
306.352	97.94
306.582	109.94
306.812	80.94
307.042	89.94
307.272	84.94
307.502	98.94
307.731	91.94
307.961	75.94
308.191	89.94
308.421	91.94
308.651	91.94
308.881	85.94
309.111	86.94
309.341	88.94
309.571	109.94
309.8	90.94
310.03	91.94
310.26	100.94
310.49	98.94
310.72	92.94
310.949	105.94
311.179	97.94
311.409	87.94
311.639	94.94
311.868	98.94
312.098	95.94
312.328	89.94
312.557	98.94
312.787	98.94
313.017	119.94
313.246	98.94
313.476	88.94
313.706	79.94
313.935	88.94
314.165	98.94
314.394	86.94
314.624	97.94
314.853	91.94
315.083	94.94
315.312	97.94
315.542	89.94
315.771	82.94
316.001	86.94
316.23	89.94
316.46	93.94
316.689	76.94
316.919	76.94
317.148	82.94
317.377	97.94
317.607	87.94
317.836	89.94
318.065	87.94
318.295	80.94
318.524	85.94
318.753	90.94
318.983	96.94
319.212	94.94
319.441	109.94
319.67	99.94
319.9	97.94
320.129	92.94
320.358	85.94
320.587	100.94
320.816	91.94
321.046	86.94
321.275	95.94
321.504	80.94
321.733	93.94
321.962	95.94
322.191	101.94
322.42	91.94
322.649	112.94
322.878	115.94
323.108	112.94
323.337	115.94
323.566	126.94
323.795	150.94
324.024	220.94
324.253	455.94
324.482	913.94
324.71	1948.94
324.939	2607.94
325.168	919.94
325.397	258.94
325.626	169.94
325.855	134.94
326.084	138.94
326.313	140.94
326.542	158.94
326.77	232.94
326.999	511.94
327.228	1068.94
327.457	1948.94
327.686	1552.94
327.914	396.94
328.143	200.94
328.372	146.94
328.6	133.94
328.829	117.94
329.058	126.94
329.287	134.94
329.515	105.94
329.744	98.94
329.972	88.94
330.201	102.94
330.43	103.94
330.658	123.94
330.887	147.94
331.115	130.94
331.344	98.94
331.572	99.94
331.801	92.94
332.03	85.94
332.258	85.94
332.486	95.94
332.715	83.94
332.943	95.94
333.172	92.94
333.4	108.94
333.629	83.94
333.857	104.94
334.085	108.94
334.314	105.94
334.542	108.94
334.771	109.94
334.999	85.94
335.227	97.94
335.455	100.94
335.684	95.94
335.912	93.94
336.14	93.94
336.369	84.94
336.597	105.94
336.825	100.94
337.053	77.94
337.281	80.94
337.51	87.94
337.738	90.94
337.966	81.94
338.194	97.94
338.422	102.94
338.65	75.94
338.878	80.94
339.106	97.94
339.334	86.94
339.562	80.94
339.79	95.94
340.018	81.94
340.246	67.94
340.474	77.94
340.702	84.94
340.93	84.94
341.158	92.94
341.386	90.94
341.614	86.94
341.842	91.94
342.07	95.94
342.298	81.94
342.526	84.94
342.754	94.94
342.981	93.94
343.209	89.94
343.437	77.94
343.665	97.94
343.893	89.94
344.12	76.94
344.348	90.94
344.576	84.94
344.804	90.94
345.031	96.94
345.259	94.94
345.487	86.94
345.714	100.94
345.942	98.94
346.17	75.94
346.397	92.94
346.625	83.94
346.853	90.94
347.08	81.94
347.308	99.94
347.535	92.94
347.763	99.94
347.99	91.94
348.218	97.94
348.445	114.94
348.673	85.94
348.9	79.94
349.128	92.94
349.355	102.94
349.583	89.94
349.81	100.94
350.037	78.94
350.265	88.94
350.492	79.94
350.72	94.94
350.947	105.94
351.174	105.94
351.402	107.94
351.629	99.94
351.856	99.94
352.083	112.94
352.311	105.94
352.538	100.94
352.765	102.94
352.992	121.94
353.22	108.94
353.447	98.94
353.674	110.94
353.901	101.94
354.128	99.94
354.355	85.94
354.583	105.94
354.81	96.94
355.037	90.94
355.264	106.94
355.491	92.94
355.718	96.94
355.945	93.94
356.172	86.94
356.399	90.94
356.626	95.94
356.853	90.94
357.08	74.94
357.307	81.94
357.534	91.94
357.761	80.94
357.988	95.94
358.215	93.94
358.441	84.94
358.668	79.94
358.895	81.94
359.122	86.94
359.349	82.94
359.576	92.94
359.802	107.94
360.029	108.94
360.256	110.94
360.483	98.94
360.709	85.94
360.936	79.94
361.163	83.94
361.39	86.94
361.616	91.94
361.843	76.94
362.07	87.94
362.296	86.94
362.523	88.94
362.749	88.94
362.976	85.94
363.203	89.94
363.429	84.94
363.656	81.94
363.882	91.94
364.109	93.94
364.335	81.94
364.562	83.94
364.788	91.94
365.015	94.94
365.241	95.94
365.468	110.94
365.694	99.94
365.92	98.94
366.147	84.94
366.373	67.94
366.599	86.94
366.826	84.94
367.052	88.94
367.278	89.94
367.505	77.94
367.731	77.94
367.957	89.94
368.184	80.94
368.41	103.94
368.636	109.94
368.862	132.94
369.089	108.94
369.315	91.94
369.541	97.94
369.767	84.94
369.993	70.94
370.219	76.94
370.445	85.94
370.672	86.94
370.898	80.94
371.124	93.94
371.35	88.94
371.576	85.94
371.802	83.94
372.028	94.94
372.254	86.94
372.48	91.94
372.706	91.94
372.932	89.94
373.158	94.94
373.384	97.94
373.61	101.94
373.835	84.94
374.061	80.94
374.287	91.94
374.513	74.94
374.739	74.94
374.965	93.94
375.191	85.94
375.416	85.94
375.642	89.94
375.868	81.94
376.094	87.94
376.319	106.94
376.545	97.94
376.771	76.94
376.997	90.94
377.222	102.94
377.448	78.94
377.674	70.94
377.899	86.94
378.125	85.94
378.35	78.94
378.576	75.94
378.802	85.94
379.027	95.94
379.253	94.94
379.478	80.94
379.704	89.94
379.929	88.94
380.155	81.94
380.38	89.94
380.606	77.94
380.831	101.94
381.057	104.94
381.282	93.94
381.507	86.94
381.733	101.94
381.958	94.94
382.184	92.94
382.409	101.94
382.634	86.94
382.86	86.94
383.085	98.94
383.31	110.94
383.535	115.94
383.761	97.94
383.986	103.94
384.211	85.94
384.436	116.94
384.662	109.94
384.887	107.94
385.112	119.94
385.337	109.94
385.562	111.94
385.787	103.94
386.013	123.94
386.238	127.94
386.463	113.94
386.688	115.94
386.913	101.94
387.138	112.94
387.363	98.94
387.588	97.94
387.813	105.94
388.038	117.94
388.263	121.94
388.488	107.94
388.713	104.94
388.938	90.94
389.163	92.94
389.387	104.94
389.612	79.94
389.837	97.94
390.062	92.94
390.287	95.94
390.512	85.94
390.736	89.94
390.961	95.94
391.186	89.94
391.411	81.94
391.636	97.94
391.86	85.94
392.085	70.94
392.31	84.94
392.534	86.94
392.759	91.94
392.984	75.94
393.208	93.94
393.433	121.94
393.658	86.94
393.882	92.94
394.107	95.94
394.331	81.94
394.556	90.94
394.78	85.94
395.005	85.94
395.229	81.94
395.454	73.94
395.678	84.94
395.903	81.94
396.127	81.94
396.352	94.94
396.576	73.94
396.801	88.94
397.025	92.94
397.249	90.94
397.474	89.94
397.698	95.94
397.922	84.94
398.147	90.94
398.371	90.94
398.595	78.94
398.82	84.94
399.044	82.94
399.268	72.94
399.492	78.94
399.717	94.94
399.941	81.94
400.165	90.94
400.389	72.94
400.613	74.94
400.837	80.94
401.062	89.94
401.286	79.94
401.51	78.94
401.734	90.94
401.958	92.94
402.182	118.94
402.406	163.94
402.63	111.94
402.854	85.94
403.078	88.94
403.302	94.94
403.526	80.94
403.75	92.94
403.974	88.94
404.198	96.94
404.422	93.94
404.645	90.94
404.869	79.94
405.093	97.94
405.317	93.94
405.541	98.94
405.765	95.94
405.988	112.94
406.212	177.94
406.436	238.94
406.66	142.94
406.883	91.94
407.107	75.94
407.331	102.94
407.555	87.94
407.778	95.94
408.002	92.94
408.226	104.94
408.449	80.94
408.673	88.94
408.896	83.94
409.12	99.94
409.344	80.94
409.567	90.94
409.791	100.94
410.014	100.94
410.238	87.94
410.461	78.94
410.685	77.94
410.908	87.94
411.132	92.94
411.355	95.94
411.578	100.94
411.802	85.94
412.025	90.94
412.249	80.94
412.472	77.94
412.695	90.94
412.919	94.94
413.142	78.94
413.365	98.94
413.589	84.94
413.812	90.94
414.035	90.94
414.258	86.94
414.482	91.94
414.705	87.94
414.928	88.94
415.151	85.94
415.374	89.94
415.597	86.94
415.821	98.94
416.044	76.94
416.267	99.94
416.49	87.94
416.713	103.94
416.936	70.94
417.159	86.94
417.382	80.94
417.605	86.94
417.828	84.94
418.051	99.94
418.274	85.94
418.497	79.94
418.72	73.94
418.943	81.94
419.166	88.94
419.389	90.94
419.611	99.94
419.834	92.94
420.057	84.94
420.28	94.94
420.503	86.94
420.726	79.94
420.948	92.94
421.171	83.94
421.394	97.94
421.617	84.94
421.839	98.94
422.062	81.94
422.285	92.94
422.507	97.94
422.73	83.94
422.953	93.94
423.175	90.94
423.398	83.94
423.621	96.94
423.843	95.94
424.066	80.94
424.288	85.94
424.511	84.94
424.733	101.94
424.956	105.94
425.178	95.94
425.401	105.94
425.623	91.94
425.846	93.94
426.068	86.94
426.291	88.94
426.513	91.94
426.735	89.94
426.958	88.94
427.18	97.94
427.402	135.94
427.625	165.94
427.847	139.94
428.069	106.94
428.292	81.94
428.514	82.94
428.736	81.94
428.958	88.94
429.181	80.94
429.403	91.94
429.625	85.94
429.847	106.94
430.069	85.94
430.292	92.94
430.514	70.94
430.736	83.94
430.958	74.94
431.18	88.94
431.402	90.94
431.624	78.94
431.846	89.94
432.068	88.94
432.29	84.94
432.512	86.94
432.734	86.94
432.956	74.94
433.178	99.94
433.4	96.94
433.622	98.94
433.844	85.94
434.066	90.94
434.287	77.94
434.509	99.94
434.731	82.94
434.953	82.94
435.175	84.94
435.397	80.94
435.618	87.94
435.84	92.94
436.062	131.94
436.284	128.94
436.505	106.94
436.727	92.94
436.949	88.94
437.17	85.94
437.392	90.94
437.614	84.94
437.835	102.94
438.057	112.94
438.278	106.94
438.5	95.94
438.721	135.94
438.943	99.94
439.165	84.94
439.386	98.94
439.608	90.94
439.829	91.94
440.05	135.94
440.272	142.94
440.493	96.94
440.715	78.94
440.936	75.94
441.158	78.94
441.379	76.94
441.6	82.94
441.822	88.94
442.043	86.94
442.264	109.94
442.486	97.94
442.707	103.94
442.928	103.94
443.149	133.94
443.371	129.94
443.592	117.94
443.813	95.94
444.034	105.94
444.255	90.94
444.476	90.94
444.698	74.94
444.919	92.94
445.14	120.94
445.361	122.94
445.582	116.94
445.803	148.94
446.024	124.94
446.245	138.94
446.466	96.94
446.687	85.94
446.908	94.94
447.129	88.94
447.35	85.94
447.571	85.94
447.792	85.94
448.013	94.94
448.234	113.94
448.455	85.94
448.675	98.94
448.896	132.94
449.117	100.94
449.338	83.94
449.559	117.94
449.779	118.94
450	100.94
450.221	83.94
450.442	89.94
450.662	102.94
450.883	103.94
451.104	100.94
451.324	79.94
451.545	76.94
451.766	86.94
451.986	74.94
452.207	79.94
452.428	81.94
452.648	99.94
452.869	120.94
453.089	105.94
453.31	121.94
453.53	90.94
453.751	69.94
453.971	97.94
454.192	103.94
454.412	83.94
454.633	73.94
454.853	85.94
455.073	84.94
455.294	77.94
455.514	105.94
455.734	96.94
455.955	92.94
456.175	81.94
456.395	93.94
456.616	73.94
456.836	81.94
457.056	66.94
457.276	72.94
457.497	82.94
457.717	87.94
457.937	84.94
458.157	84.94
458.377	95.94
458.598	106.94
458.818	139.94
459.038	142.94
459.258	109.94
459.478	80.94
459.698	65.94
459.918	82.94
460.138	73.94
460.358	56.94
460.578	87.94
460.798	83.94
461.018	87.94
461.238	85.94
461.458	74.94
461.678	59.94
461.898	97.94
462.118	75.94
462.338	83.94
462.558	78.94
462.777	80.94
462.997	82.94
463.217	74.94
463.437	89.94
463.657	97.94
463.876	78.94
464.096	91.94
464.316	90.94
464.536	101.94
464.755	78.94
464.975	99.94
465.195	160.94
465.414	165.94
465.634	95.94
465.854	78.94
466.073	96.94
466.293	83.94
466.512	81.94
466.732	74.94
466.951	60.94
467.171	79.94
467.391	84.94
467.61	116.94
467.829	83.94
468.049	73.94
468.268	86.94
468.488	83.94
468.707	88.94
468.927	90.94
469.146	76.94
469.365	75.94
469.585	80.94
469.804	96.94
470.023	99.94
470.243	96.94
470.462	89.94
470.681	102.94
470.901	83.94
471.12	73.94
471.339	89.94
471.558	91.94
471.777	78.94
471.997	93.94
472.216	105.94
472.435	103.94
472.654	78.94
472.873	87.94
473.092	80.94
473.311	73.94
473.53	84.94
473.749	71.94
473.968	98.94
474.187	101.94
474.406	84.94
474.625	85.94
474.844	79.94
475.063	83.94
475.282	80.94
475.501	82.94
475.72	86.94
475.939	73.94
476.158	75.94
476.377	76.94
476.596	84.94
476.814	87.94
477.033	88.94
477.252	75.94
477.471	86.94
477.69	106.94
477.908	91.94
478.127	107.94
478.346	79.94
478.564	90.94
478.783	94.94
479.002	82.94
479.22	85.94
479.439	98.94
479.658	105.94
479.876	90.94
480.095	69.94
480.313	91.94
480.532	87.94
480.751	79.94
480.969	89.94
481.188	126.94
481.406	107.94
481.624	96.94
481.843	83.94
482.061	88.94
482.28	69.94
482.498	77.94
482.717	82.94
482.935	97.94
483.153	91.94
483.372	83.94
483.59	88.94
483.808	85.94
484.027	74.94
484.245	89.94
484.463	82.94
484.681	91.94
484.9	100.94
485.118	84.94
485.336	78.94
485.554	89.94
485.772	81.94
485.99	89.94
486.209	99.94
486.427	102.94
486.645	109.94
486.863	115.94
487.081	105.94
487.299	80.94
487.517	85.94
487.735	101.94
487.953	91.94
488.171	87.94
488.389	96.94
488.607	83.94
488.825	86.94
489.043	97.94
489.261	83.94
489.479	80.94
489.696	91.94
489.914	89.94
490.132	82.94
490.35	84.94
490.568	75.94
490.786	70.94
491.003	92.94
491.221	84.94
491.439	83.94
491.657	96.94
491.874	94.94
492.092	104.94
492.31	77.94
492.527	83.94
492.745	85.94
492.963	87.94
493.18	83.94
493.398	83.94
493.615	84.94
493.833	81.94
494.05	91.94
494.268	88.94
494.485	80.94
494.703	79.94
494.92	82.94
495.138	66.94
495.355	84.94
495.573	77.94
495.79	88.94
496.008	99.94
496.225	99.94
496.442	82.94
496.66	93.94
496.877	96.94
497.094	99.94
497.312	96.94
497.529	82.94
497.746	80.94
497.963	77.94
498.181	84.94
498.398	73.94
498.615	101.94
498.832	93.94
499.049	76.94
499.267	87.94
499.484	83.94
499.701	89.94
499.918	91.94
500.135	85.94
500.352	82.94
500.569	74.94
500.786	85.94
501.003	85.94
501.22	97.94
501.437	89.94
501.654	96.94
501.871	104.94
502.088	81.94
502.305	96.94
502.522	74.94
502.739	82.94
502.956	77.94
503.172	85.94
503.389	90.94
503.606	104.94
503.823	94.94
504.04	83.94
504.256	79.94
504.473	88.94
504.69	85.94
504.907	87.94
505.123	69.94
505.34	89.94
505.557	99.94
505.773	81.94
505.99	82.94
506.207	82.94
506.423	90.94
506.64	74.94
506.856	77.94
507.073	93.94
507.289	94.94
507.506	90.94
507.722	114.94
507.939	115.94
508.155	94.94
508.372	98.94
508.588	82.94
508.805	86.94
509.021	98.94
509.238	110.94
509.454	90.94
509.67	96.94
509.887	108.94
510.103	128.94
510.319	224.94
510.536	831.94
510.752	2713.94
510.968	737.94
511.184	162.94
511.401	108.94
511.617	109.94
511.833	92.94
512.049	81.94
512.265	91.94
512.481	76.94
512.698	89.94
512.914	94.94
513.13	94.94
513.346	87.94
513.562	101.94
513.778	104.94
513.994	95.94
514.21	101.94
514.426	114.94
514.642	129.94
514.858	114.94
515.074	186.94
515.29	508.94
515.506	1697.94
515.721	617.94
515.937	153.94
516.153	114.94
516.369	90.94
516.585	87.94
516.801	102.94
