Data from Circ_2003_H10_HRD10591_00086.txt Node
Date: Wed Jan 03 10:37:19 EST 2024
User: Yrep
Spectrometer: HR+D1059
Trigger mode: 1
Integration Time (sec): 1.000000E-1
Scans to average: 1
Electric dark correction enabled: true
Nonlinearity correction enabled: false
Boxcar width: 0
XAxis mode: Wavelengths
Number of Pixels in Spectrum: 2048
>>>>>Begin Spectral Data<<<<<
223.165	-26
223.4	-26
223.635	-26
223.869	-19
224.104	-22
224.338	-24
224.573	-19
224.808	-13
225.042	-9
225.277	-12
225.511	0
225.746	14
225.98	13
226.215	14
226.449	14
226.683	32
226.918	23
227.152	34
227.387	38
227.621	25
227.856	44
228.09	50
228.324	62
228.559	54
228.793	62
229.027	59
229.262	63
229.496	55
229.73	76
229.964	83
230.199	79
230.433	83
230.667	79
230.901	78
231.136	86
231.37	83
231.604	84
231.838	72
232.072	71
232.306	82
232.541	93
232.775	77
233.009	78
233.243	84
233.477	74
233.711	72
233.945	86
234.179	76
234.413	79
234.647	66
234.881	72
235.115	86
235.349	79
235.583	68
235.817	81
236.051	80
236.285	84
236.519	92
236.753	80
236.987	70
237.221	91
237.455	75
237.689	68
237.922	58
238.156	74
238.39	69
238.624	73
238.858	76
239.091	59
239.325	82
239.559	80
239.793	74
240.027	86
240.26	82
240.494	75
240.728	73
240.961	82
241.195	74
241.429	87
241.662	64
241.896	71
242.13	72
242.363	73
242.597	83
242.83	85
243.064	77
243.298	68
243.531	72
243.765	83
243.998	59
244.232	86
244.465	84
244.699	93
244.932	75
245.166	83
245.399	76
245.633	83
245.866	89
246.099	81
246.333	76
246.566	78
246.8	76
247.033	75
247.266	80
247.5	60
247.733	81
247.966	76
248.2	81
248.433	90
248.666	83
248.899	71
249.133	82
249.366	89
249.599	87
249.832	80
250.066	74
250.299	79
250.532	87
250.765	89
250.998	78
251.231	79
251.465	77
251.698	73
251.931	66
252.164	73
252.397	76
252.63	85
252.863	94
253.096	102
253.329	83
253.562	75
253.795	87
254.028	85
254.261	63
254.494	74
254.727	75
254.96	89
255.193	73
255.426	69
255.659	93
255.892	91
256.124	76
256.357	92
256.59	86
256.823	76
257.056	92
257.289	78
257.521	71
257.754	77
257.987	82
258.22	81
258.452	101
258.685	95
258.918	76
259.151	69
259.383	80
259.616	99
259.849	89
260.081	82
260.314	102
260.547	93
260.779	75
261.012	80
261.244	84
261.477	91
261.71	90
261.942	90
262.175	95
262.407	87
262.64	96
262.872	82
263.105	88
263.337	87
263.57	88
263.802	100
264.035	75
264.267	82
264.499	87
264.732	66
264.964	72
265.197	75
265.429	85
265.661	96
265.894	94
266.126	72
266.358	78
266.591	81
266.823	86
267.055	92
267.287	73
267.52	73
267.752	71
267.984	89
268.216	83
268.448	86
268.681	72
268.913	82
269.145	70
269.377	95
269.609	96
269.841	83
270.073	81
270.306	81
270.538	73
270.77	81
271.002	75
271.234	86
271.466	82
271.698	91
271.93	87
272.162	91
272.394	96
272.626	92
272.858	87
273.09	89
273.322	86
273.553	75
273.785	78
274.017	78
274.249	83
274.481	88
274.713	87
274.945	88
275.176	84
275.408	90
275.64	82
275.872	90
276.104	82
276.335	77
276.567	99
276.799	101
277.031	91
277.262	95
277.494	79
277.726	83
277.957	92
278.189	82
278.421	98
278.652	99
278.884	84
279.115	87
279.347	82
279.579	81
279.81	75
280.042	80
280.273	96
280.505	83
280.736	87
280.968	69
281.199	73
281.431	104
281.662	88
281.894	79
282.125	96
282.356	99
282.588	123
282.819	108
283.051	97
283.282	86
283.513	76
283.745	95
283.976	83
284.207	86
284.439	70
284.67	86
284.901	87
285.132	90
285.364	86
285.595	105
285.826	80
286.057	88
286.288	87
286.52	84
286.751	77
286.982	84
287.213	98
287.444	83
287.675	88
287.906	89
288.138	82
288.369	94
288.6	95
288.831	77
289.062	81
289.293	86
289.524	91
289.755	84
289.986	90
290.217	85
290.448	88
290.679	71
290.91	80
291.141	90
291.371	88
291.602	81
291.833	90
292.064	98
292.295	87
292.526	90
292.757	71
292.987	83
293.218	93
293.449	84
293.68	80
293.91	92
294.141	98
294.372	94
294.603	80
294.833	101
295.064	106
295.295	90
295.525	104
295.756	85
295.987	113
296.217	127
296.448	126
296.679	91
296.909	86
297.14	82
297.37	101
297.601	86
297.831	86
298.062	93
298.292	88
298.523	101
298.753	88
298.984	96
299.214	84
299.445	93
299.675	92
299.905	99
300.136	93
300.366	96
300.597	89
300.827	82
301.057	106
301.288	106
301.518	100
301.748	71
301.979	95
302.209	79
302.439	98
302.669	84
302.9	83
303.13	87
303.36	97
303.59	114
303.82	112
304.051	91
304.281	66
304.511	87
304.741	75
304.971	89
305.201	93
305.431	98
305.661	91
305.891	91
306.121	97
306.352	104
306.582	104
306.812	100
307.042	95
307.272	83
307.502	110
307.731	96
307.961	88
308.191	107
308.421	86
308.651	107
308.881	90
309.111	102
309.341	105
309.571	102
309.8	86
310.03	84
310.26	81
310.49	103
310.72	101
310.949	106
311.179	88
311.409	82
311.639	96
311.868	87
312.098	80
312.328	95
312.557	103
312.787	102
313.017	103
313.246	86
313.476	99
313.706	83
313.935	80
314.165	86
314.394	98
314.624	93
314.853	107
315.083	101
315.312	87
315.542	88
315.771	82
316.001	91
316.23	88
316.46	95
316.689	92
316.919	95
317.148	106
317.377	100
317.607	85
317.836	97
318.065	86
318.295	94
318.524	94
318.753	83
318.983	96
319.212	98
319.441	104
319.67	103
319.9	86
320.129	92
320.358	99
320.587	90
320.816	111
321.046	87
321.275	90
321.504	84
321.733	95
321.962	91
322.191	91
322.42	91
322.649	98
322.878	114
323.108	125
323.337	127
323.566	137
323.795	120
324.024	168
324.253	372
324.482	780
324.71	1600
324.939	2050
325.168	751
325.397	231
325.626	152
325.855	130
326.084	114
326.313	132
326.542	146
326.77	221
326.999	432
327.228	895
327.457	1656
327.686	1278
327.914	357
328.143	194
328.372	167
328.6	134
328.829	106
329.058	116
329.287	127
329.515	106
329.744	95
329.972	120
330.201	157
330.43	170
330.658	146
330.887	128
331.115	122
331.344	111
331.572	92
331.801	98
332.03	96
332.258	102
332.486	90
332.715	101
332.943	86
333.172	85
333.4	108
333.629	109
333.857	113
334.085	124
334.314	142
334.542	208
334.771	192
334.999	107
335.227	93
335.455	95
335.684	90
335.912	94
336.14	98
336.369	94
336.597	95
336.825	109
337.053	96
337.281	80
337.51	90
337.738	87
337.966	87
338.194	94
338.422	102
338.65	90
338.878	95
339.106	89
339.334	89
339.562	96
339.79	86
340.018	89
340.246	97
340.474	99
340.702	76
340.93	89
341.158	88
341.386	88
341.614	88
341.842	98
342.07	91
342.298	92
342.526	84
342.754	81
342.981	88
343.209	97
343.437	96
343.665	83
343.893	75
344.12	80
344.348	95
344.576	86
344.804	91
345.031	110
345.259	91
345.487	87
345.714	88
345.942	99
346.17	99
346.397	88
346.625	98
346.853	86
347.08	95
347.308	84
347.535	95
347.763	101
347.99	92
348.218	94
348.445	96
348.673	85
348.9	88
349.128	82
349.355	93
349.583	87
349.81	93
350.037	100
350.265	91
350.492	91
350.72	98
350.947	99
351.174	119
351.402	94
351.629	98
351.856	90
352.083	95
352.311	106
352.538	105
352.765	106
352.992	99
353.22	103
353.447	97
353.674	107
353.901	108
354.128	82
354.355	91
354.583	95
354.81	84
355.037	97
355.264	89
355.491	106
355.718	88
355.945	93
356.172	87
356.399	85
356.626	103
356.853	85
357.08	88
357.307	92
357.534	81
357.761	94
357.988	98
358.215	103
358.441	105
358.668	91
358.895	78
359.122	92
359.349	94
359.576	88
359.802	96
360.029	106
360.256	90
360.483	86
360.709	95
360.936	85
361.163	102
361.39	91
361.616	99
361.843	91
362.07	73
362.296	99
362.523	89
362.749	91
362.976	82
363.203	91
363.429	83
363.656	92
363.882	83
364.109	92
364.335	85
364.562	94
364.788	92
365.015	83
365.241	100
365.468	118
365.694	102
365.92	98
366.147	96
366.373	87
366.599	99
366.826	80
367.052	91
367.278	100
367.505	100
367.731	83
367.957	101
368.184	80
368.41	89
368.636	111
368.862	111
369.089	102
369.315	82
369.541	82
369.767	90
369.993	92
370.219	94
370.445	98
370.672	96
370.898	84
371.124	100
371.35	87
371.576	69
371.802	90
372.028	99
372.254	89
372.48	92
372.706	85
372.932	105
373.158	78
373.384	91
373.61	92
373.835	88
374.061	91
374.287	88
374.513	97
374.739	93
374.965	93
375.191	95
375.416	84
375.642	87
375.868	88
376.094	94
376.319	88
376.545	82
376.771	101
376.997	94
377.222	99
377.448	95
377.674	83
377.899	83
378.125	101
378.35	81
378.576	98
378.802	96
379.027	88
379.253	95
379.478	90
379.704	87
379.929	91
380.155	95
380.38	90
380.606	84
380.831	73
381.057	102
381.282	94
381.507	95
381.733	87
381.958	92
382.184	86
382.409	97
382.634	107
382.86	99
383.085	98
383.31	98
383.535	99
383.761	99
383.986	125
384.211	111
384.436	95
384.662	101
384.887	102
385.112	97
385.337	96
385.562	99
385.787	82
386.013	105
386.238	115
386.463	102
386.688	112
386.913	107
387.138	94
387.363	98
387.588	115
387.813	93
388.038	96
388.263	123
388.488	99
388.713	103
388.938	110
389.163	90
389.387	100
389.612	94
389.837	95
390.062	92
390.287	96
390.512	98
390.736	88
390.961	92
391.186	92
391.411	104
391.636	87
391.86	82
392.085	92
392.31	103
392.534	96
392.759	87
392.984	90
393.208	93
393.433	92
393.658	91
393.882	89
394.107	83
394.331	91
394.556	100
394.78	76
395.005	92
395.229	92
395.454	78
395.678	95
395.903	85
396.127	95
396.352	82
396.576	85
396.801	91
397.025	85
397.249	84
397.474	88
397.698	112
397.922	85
398.147	100
398.371	83
398.595	91
398.82	85
399.044	83
399.268	78
399.492	105
399.717	103
399.941	85
400.165	84
400.389	84
400.613	94
400.837	94
401.062	90
401.286	83
401.51	88
401.734	92
401.958	105
402.182	124
402.406	150
402.63	114
402.854	94
403.078	92
403.302	79
403.526	90
403.75	85
403.974	96
404.198	95
404.422	87
404.645	80
404.869	97
405.093	91
405.317	114
405.541	98
405.765	86
405.988	113
406.212	153
406.436	193
406.66	128
406.883	92
407.107	100
407.331	101
407.555	96
407.778	109
408.002	103
408.226	95
408.449	80
408.673	85
408.896	83
409.12	102
409.344	79
409.567	94
409.791	100
410.014	98
410.238	91
410.461	89
410.685	94
410.908	105
411.132	105
411.355	81
411.578	99
411.802	76
412.025	86
412.249	96
412.472	87
412.695	82
412.919	87
413.142	87
413.365	91
413.589	99
413.812	96
414.035	75
414.258	79
414.482	78
414.705	86
414.928	85
415.151	93
415.374	101
415.597	88
415.821	88
416.044	88
416.267	97
416.49	92
416.713	73
416.936	88
417.159	90
417.382	82
417.605	90
417.828	96
418.051	84
418.274	90
418.497	83
418.72	87
418.943	88
419.166	81
419.389	90
419.611	96
419.834	91
420.057	86
420.28	67
420.503	98
420.726	86
420.948	95
421.171	99
421.394	105
421.617	80
421.839	84
422.062	88
422.285	90
422.507	95
422.73	107
422.953	86
423.175	96
423.398	99
423.621	91
423.843	96
424.066	86
424.288	89
424.511	84
424.733	96
424.956	111
425.178	78
425.401	86
425.623	90
425.846	92
426.068	84
426.291	106
426.513	99
426.735	105
426.958	90
427.18	111
427.402	130
427.625	162
427.847	122
428.069	126
428.292	97
428.514	94
428.736	88
428.958	86
429.181	74
429.403	74
429.625	89
429.847	104
430.069	84
430.292	87
430.514	80
430.736	85
430.958	91
431.18	80
431.402	83
431.624	91
431.846	84
432.068	85
432.29	100
432.512	85
432.734	86
432.956	88
433.178	97
433.4	101
433.622	78
433.844	96
434.066	94
434.287	96
434.509	104
434.731	84
434.953	87
435.175	95
435.397	99
435.618	91
435.84	106
436.062	107
436.284	102
436.505	87
436.727	95
436.949	110
437.17	85
437.392	87
437.614	78
437.835	105
438.057	114
438.278	115
438.5	82
438.721	124
438.943	111
439.165	94
439.386	94
439.608	98
439.829	96
440.05	103
440.272	133
440.493	103
440.715	91
440.936	92
441.158	83
441.379	71
441.6	90
441.822	88
442.043	94
442.264	108
442.486	103
442.707	89
442.928	99
443.149	129
443.371	113
443.592	109
443.813	103
444.034	117
444.255	89
444.476	105
444.698	95
444.919	89
445.14	118
445.361	123
445.582	110
445.803	135
446.024	128
446.245	132
446.466	101
446.687	91
446.908	90
447.129	89
447.35	106
447.571	91
447.792	95
448.013	95
448.234	115
448.455	97
448.675	102
448.896	105
449.117	92
449.338	105
449.559	120
449.779	135
450	91
450.221	91
450.442	82
450.662	78
450.883	99
451.104	89
451.324	87
451.545	88
451.766	100
451.986	92
452.207	100
452.428	96
452.648	106
452.869	100
453.089	118
453.31	115
453.53	92
453.751	93
453.971	98
454.192	98
454.412	91
454.633	87
454.853	83
455.073	77
455.294	80
455.514	114
455.734	95
455.955	91
456.175	85
456.395	81
456.616	84
456.836	95
457.056	98
457.276	90
457.497	88
457.717	91
457.937	81
458.157	81
458.377	90
458.598	100
458.818	127
459.038	147
459.258	114
459.478	104
459.698	88
459.918	87
460.138	83
460.358	87
460.578	80
460.798	87
461.018	102
461.238	80
461.458	89
461.678	85
461.898	95
462.118	85
462.338	78
462.558	69
462.777	84
462.997	84
463.217	91
463.437	92
463.657	93
463.876	87
464.096	98
464.316	90
464.536	109
464.755	85
464.975	96
465.195	138
465.414	142
465.634	89
465.854	94
466.073	95
466.293	85
466.512	88
466.732	93
466.951	94
467.171	95
467.391	107
467.61	102
467.829	94
468.049	110
468.268	128
468.488	95
468.707	85
468.927	94
469.146	82
469.365	81
469.585	88
469.804	100
470.023	92
470.243	106
470.462	83
470.681	100
470.901	90
471.12	81
471.339	95
471.558	80
471.777	91
471.997	97
472.216	166
472.435	252
472.654	119
472.873	102
473.092	91
473.311	88
473.53	81
473.749	89
473.968	90
474.187	88
474.406	82
474.625	98
474.844	83
475.063	99
475.282	90
475.501	86
475.72	103
475.939	79
476.158	84
476.377	89
476.596	85
476.814	99
477.033	88
477.252	82
477.471	90
477.69	101
477.908	97
478.127	92
478.346	103
478.564	87
478.783	93
479.002	88
479.22	82
479.439	93
479.658	114
479.876	95
480.095	86
480.313	105
480.532	103
480.751	101
480.969	165
481.188	412
481.406	256
481.624	109
481.843	92
482.061	92
482.28	98
482.498	87
482.717	88
482.935	97
483.153	80
483.372	90
483.59	88
483.808	97
484.027	95
484.245	91
484.463	98
484.681	94
484.9	96
485.118	113
485.336	83
485.554	102
485.772	101
485.99	100
486.209	106
486.427	102
486.645	99
486.863	102
487.081	80
487.299	87
487.517	88
487.735	93
487.953	81
488.171	81
488.389	91
488.607	99
488.825	99
489.043	87
489.261	90
489.479	85
489.696	107
489.914	82
490.132	88
490.35	95
490.568	94
490.786	73
491.003	73
491.221	83
491.439	87
491.657	98
491.874	95
492.092	93
492.31	100
492.527	64
492.745	88
492.963	80
493.18	92
493.398	97
493.615	86
493.833	108
494.05	83
494.268	91
494.485	92
494.703	89
494.92	89
495.138	97
495.355	99
495.573	92
495.79	96
496.008	97
496.225	92
496.442	101
496.66	88
496.877	70
497.094	96
497.312	93
497.529	94
497.746	96
497.963	98
498.181	80
498.398	93
498.615	102
498.832	101
499.049	99
499.267	90
499.484	99
499.701	86
499.918	87
500.135	85
500.352	83
500.569	89
500.786	90
501.003	92
501.22	95
501.437	93
501.654	86
501.871	101
502.088	82
502.305	92
502.522	91
502.739	74
502.956	96
503.172	93
503.389	102
503.606	96
503.823	94
504.04	98
504.256	89
504.473	92
504.69	105
504.907	77
505.123	91
505.34	86
505.557	88
505.773	92
505.99	94
506.207	91
506.423	87
506.64	74
506.856	81
507.073	86
507.289	91
507.506	96
507.722	94
507.939	112
508.155	81
508.372	95
508.588	81
508.805	105
509.021	98
509.238	94
509.454	97
509.67	107
509.887	120
510.103	138
510.319	196
510.536	672
510.752	2123
510.968	603
511.184	160
511.401	98
511.617	98
511.833	102
512.049	99
512.265	80
512.481	94
512.698	100
512.914	73
513.13	89
513.346	74
513.562	92
513.778	93
513.994	72
514.21	104
514.426	107
514.642	119
514.858	105
515.074	139
515.29	360
515.506	1211
515.721	452
515.937	132
516.153	98
516.369	92
516.585	93
516.801	102
517.016	92
517.232	94
517.448	108
517.664	85
517.879	96
518.095	100
518.311	90
518.527	102
518.742	89
518.958	96
519.173	81
519.389	106
519.605	96
519.82	88
520.036	107
520.251	113
520.467	103
520.682	96
520.898	98
521.113	91
521.329	107
521.544	176
521.76	474
521.975	1952
522.19	1197
522.406	272
522.621	113
522.836	109
523.052	92
523.267	101
523.482	104
523.698	97
523.913	103
524.128	110
524.343	106
524.559	98
524.774	75
524.989	111
525.204	105
525.419	99
525.634	95
525.849	90
526.064	101
526.28	94
526.495	81
526.71	87
526.925	89
527.14	81
527.355	96
527.57	97
527.785	84
527.999	98
528.214	84
528.429	92
528.644	90
528.859	94
529.074	98
529.289	115
529.503	169
529.718	111
529.933	83
530.148	88
530.363	96
530.577	90
530.792	83
531.007	84
531.221	105
531.436	97
531.651	88
531.865	87
532.08	95
532.295	86
532.509	86
532.724	82
532.938	91
533.153	86
533.367	95
533.582	99
533.796	81
534.011	88
534.225	99
534.44	76
534.654	93
534.868	86
535.083	91
535.297	99
535.511	98
535.726	99
535.94	96
536.154	83
536.369	91
536.583	95
536.797	102
537.011	85
537.225	88
537.44	77
537.654	88
537.868	89
538.082	95
538.296	92
538.51	88
538.724	92
538.938	90
539.153	87
539.367	98
539.581	91
539.795	101
540.009	87
540.222	82
540.436	97
540.65	86
540.864	99
541.078	97
541.292	98
541.506	91
541.72	96
541.934	81
542.147	97
542.361	76
542.575	88
542.789	71
543.002	82
543.216	83
543.43	92
543.644	99
543.857	97
544.071	80
544.285	110
544.498	79
544.712	90
544.925	78
545.139	89
545.352	89
545.566	95
545.779	78
545.993	89
546.206	78
546.42	92
546.633	92
546.847	80
547.06	110
547.274	105
547.487	95
547.7	103
547.914	82
548.127	80
548.34	84
548.554	90
548.767	99
548.98	88
549.193	98
549.407	77
549.62	89
549.833	84
550.046	87
550.259	103
550.473	85
550.686	91
550.899	85
551.112	95
551.325	78
551.538	82
551.751	90
551.964	90
552.177	102
552.39	86
552.603	82
552.816	95
553.029	77
553.242	99
553.455	115
553.667	101
553.88	100
554.093	94
554.306	92
554.519	82
554.732	81
554.944	97
555.157	106
555.37	103
555.583	107
555.795	99
556.008	87
556.221	88
556.433	90
556.646	90
556.859	90
557.071	89
557.284	83
557.496	85
557.709	87
557.921	81
558.134	99
558.346	96
558.559	78
558.771	90
558.984	104
559.196	87
559.409	78
559.621	102
559.833	91
560.046	76
560.258	100
560.47	94
560.683	79
560.895	91
561.107	91
561.32	97
561.532	94
561.744	91
561.956	91
562.168	82
562.381	97
562.593	99
562.805	96
563.017	91
563.229	97
563.441	84
563.653	98
563.865	93
564.077	82
564.289	89
564.501	93
564.713	96
564.925	96
565.137	93
565.349	85
565.561	94
565.773	90
565.985	88
566.197	87
566.408	91
566.62	93
566.832	92
567.044	96
567.255	96
567.467	75
567.679	86
567.891	76
568.102	85
568.314	99
568.526	84
568.737	86
568.949	83
569.161	94
569.372	84
569.584	86
569.795	95
570.007	117
570.218	222
570.43	139
570.641	88
570.853	84
571.064	98
571.276	92
571.487	79
571.698	76
571.91	88
572.121	90
572.333	100
572.544	85
572.755	96
572.966	103
573.178	92
573.389	79
573.6	94
573.811	91
574.023	87
574.234	75
574.445	71
574.656	82
574.867	87
575.078	85
575.289	90
575.501	88
575.712	95
575.923	96
576.134	74
576.345	94
576.556	88
576.767	93
576.978	82
577.188	97
577.399	88
577.61	103
577.821	80
578.032	102
578.243	240
578.454	693
578.665	193
578.875	112
579.086	87
579.297	93
579.508	84
579.718	102
579.929	78
580.14	71
580.35	84
580.561	88
580.772	91
580.982	94
581.193	88
581.403	91
581.614	83
581.825	87
582.035	84
582.246	92
582.456	102
582.667	74
582.877	80
583.087	92
583.298	97
583.508	92
583.719	74
583.929	75
584.139	83
584.35	90
584.56	91
584.77	90
