Data from Circ_2003_H10_HRD10591_00080.txt Node
Date: Wed Jan 03 10:37:18 EST 2024
User: Yrep
Spectrometer: HR+D1059
Trigger mode: 1
Integration Time (sec): 1.000000E-1
Scans to average: 1
Electric dark correction enabled: true
Nonlinearity correction enabled: false
Boxcar width: 0
XAxis mode: Wavelengths
Number of Pixels in Spectrum: 2048
>>>>>Begin Spectral Data<<<<<
223.165	-25.62
223.4	-25.62
223.635	-25.62
223.869	-4.62
224.104	-23.62
224.338	-15.62
224.573	-5.62
224.808	8.38
225.042	6.38
225.277	-13.62
225.511	-13.62
225.746	-10.62
225.98	9.38
226.215	-1.62
226.449	11.38
226.683	22.38
226.918	14.38
227.152	42.38
227.387	27.38
227.621	43.38
227.856	60.38
228.09	58.38
228.324	61.38
228.559	45.38
228.793	162.38
229.027	411.38
229.262	488.38
229.496	571.38
229.73	762.38
229.964	786.38
230.199	507.38
230.433	471.38
230.667	472.38
230.901	461.38
231.136	450.38
231.37	445.38
231.604	442.38
231.838	434.38
232.072	450.38
232.306	450.38
232.541	444.38
232.775	458.38
233.009	467.38
233.243	478.38
233.477	456.38
233.711	480.38
233.945	495.38
234.179	501.38
234.413	495.38
234.647	502.38
234.881	500.38
235.115	501.38
235.349	544.38
235.583	544.38
235.817	588.38
236.051	588.38
236.285	604.38
236.519	593.38
236.753	704.38
236.987	890.38
237.221	1344.38
237.455	1463.38
237.689	901.38
237.922	700.38
238.156	694.38
238.39	654.38
238.624	631.38
238.858	597.38
239.091	650.38
239.325	638.38
239.559	659.38
239.793	683.38
240.027	756.38
240.26	880.38
240.494	916.38
240.728	949.38
240.961	894.38
241.195	789.38
241.429	779.38
241.662	724.38
241.896	760.38
242.13	798.38
242.363	766.38
242.597	785.38
242.83	814.38
243.064	779.38
243.298	795.38
243.531	823.38
243.765	829.38
243.998	830.38
244.232	834.38
244.465	864.38
244.699	916.38
244.932	926.38
245.166	858.38
245.399	883.38
245.633	897.38
245.866	879.38
246.099	896.38
246.333	954.38
246.566	931.38
246.8	960.38
247.033	993.38
247.266	1010.38
247.5	1057.38
247.733	1139.38
247.966	1153.38
248.2	1096.38
248.433	1146.38
248.666	1196.38
248.899	1327.38
249.133	1430.38
249.366	1390.38
249.599	1304.38
249.832	1232.38
250.066	1264.38
250.299	1387.38
250.532	1643.38
250.765	1806.38
250.998	1832.38
251.231	1686.38
251.465	1514.38
251.698	1418.38
251.931	1416.38
252.164	1354.38
252.397	1367.38
252.63	1441.38
252.863	1507.38
253.096	1647.38
253.329	1720.38
253.562	1616.38
253.795	1542.38
254.028	1523.38
254.261	1589.38
254.494	1763.38
254.727	2138.38
254.96	2257.38
255.193	1994.38
255.426	1789.38
255.659	1831.38
255.892	2083.38
256.124	2345.38
256.357	2189.38
256.59	1854.38
256.823	1715.38
257.056	1640.38
257.289	1627.38
257.521	1554.38
257.754	1540.38
257.987	1535.38
258.22	1499.38
258.452	1533.38
258.685	1552.38
258.918	1581.38
259.151	1601.38
259.383	1632.38
259.616	1643.38
259.849	1717.38
260.081	1872.38
260.314	2052.38
260.547	1976.38
260.779	1812.38
261.012	1738.38
261.244	1669.38
261.477	1692.38
261.71	1638.38
261.942	1751.38
262.175	1764.38
262.407	1678.38
262.64	1615.38
262.872	1635.38
263.105	1615.38
263.337	1617.38
263.57	1640.38
263.802	1628.38
264.035	1646.38
264.267	1621.38
264.499	1636.38
264.732	1656.38
264.964	1666.38
265.197	1671.38
265.429	1682.38
265.661	1696.38
265.894	1721.38
266.126	1748.38
266.358	1763.38
266.591	1766.38
266.823	1847.38
267.055	1855.38
267.287	1850.38
267.52	1810.38
267.752	1887.38
267.984	1848.38
268.216	1842.38
268.448	1905.38
268.681	1971.38
268.913	2100.38
269.145	2274.38
269.377	2343.38
269.609	2265.38
269.841	2158.38
270.073	2350.38
270.306	2548.38
270.538	2740.38
270.77	2629.38
271.002	2440.38
271.234	2432.38
271.466	2562.38
271.698	2704.38
271.93	2690.38
272.162	2681.38
272.394	2574.38
272.626	2424.38
272.858	2294.38
273.09	2267.38
273.322	2190.38
273.553	2187.38
273.785	2149.38
274.017	2231.38
274.249	2243.38
274.481	2263.38
274.713	2225.38
274.945	2290.38
275.176	2248.38
275.408	2276.38
275.64	2240.38
275.872	2255.38
276.104	2287.38
276.335	2298.38
276.567	2403.38
276.799	2561.38
277.031	2814.38
277.262	2872.38
277.494	2763.38
277.726	2590.38
277.957	2436.38
278.189	2418.38
278.421	2351.38
278.652	2333.38
278.884	2400.38
279.115	2348.38
279.347	2360.38
279.579	2382.38
279.81	2340.38
280.042	2372.38
280.273	2473.38
280.505	2468.38
280.736	2444.38
280.968	2442.38
281.199	2464.38
281.431	2454.38
281.662	2496.38
281.894	2464.38
282.125	2543.38
282.356	2619.38
282.588	2792.38
282.819	2663.38
283.051	2534.38
283.282	2564.38
283.513	2572.38
283.745	2586.38
283.976	2586.38
284.207	2629.38
284.439	2554.38
284.67	2553.38
284.901	2650.38
285.132	2604.38
285.364	2570.38
285.595	2578.38
285.826	2615.38
286.057	2667.38
286.288	2650.38
286.52	2654.38
286.751	2682.38
286.982	2668.38
287.213	2666.38
287.444	2724.38
287.675	2775.38
287.906	2882.38
288.138	2900.38
288.369	2890.38
288.6	2884.38
288.831	2853.38
289.062	2835.38
289.293	2842.38
289.524	2820.38
289.755	2771.38
289.986	2822.38
290.217	2805.38
290.448	2814.38
290.679	2804.38
290.91	2783.38
291.141	2776.38
291.371	2839.38
291.602	2804.38
291.833	2798.38
292.064	2783.38
292.295	2813.38
292.526	2792.38
292.757	2837.38
292.987	2774.38
293.218	2783.38
293.449	2861.38
293.68	2826.38
293.91	2804.38
294.141	2830.38
294.372	2804.38
294.603	2878.38
294.833	2862.38
295.064	2861.38
295.295	2876.38
295.525	2878.38
295.756	2933.38
295.987	2993.38
296.217	3173.38
296.448	3148.38
296.679	2950.38
296.909	2913.38
297.14	2990.38
297.37	2994.38
297.601	3066.38
297.831	3030.38
298.062	3004.38
298.292	3046.38
298.523	3126.38
298.753	3092.38
298.984	3060.38
299.214	3063.38
299.445	3092.38
299.675	3077.38
299.905	3144.38
300.136	3162.38
300.366	3138.38
300.597	3144.38
300.827	3306.38
301.057	3320.38
301.288	3351.38
301.518	3317.38
301.748	3324.38
301.979	3406.38
302.209	3366.38
302.439	3402.38
302.669	3327.38
302.9	3281.38
303.13	3255.38
303.36	3321.38
303.59	3368.38
303.82	3416.38
304.051	3382.38
304.281	3279.38
304.511	3206.38
304.741	3275.38
304.971	3310.38
305.201	3257.38
305.431	3289.38
305.661	3292.38
305.891	3272.38
306.121	3253.38
306.352	3345.38
306.582	3319.38
306.812	3254.38
307.042	3292.38
307.272	3281.38
307.502	3311.38
307.731	3269.38
307.961	3250.38
308.191	3310.38
308.421	3268.38
308.651	3316.38
308.881	3297.38
309.111	3360.38
309.341	3350.38
309.571	3480.38
309.8	3559.38
310.03	3546.38
310.26	3573.38
310.49	3583.38
310.72	3715.38
310.949	3770.38
311.179	3779.38
311.409	3669.38
311.639	3604.38
311.868	3616.38
312.098	3703.38
312.328	3743.38
312.557	3911.38
312.787	3934.38
313.017	3815.38
313.246	3800.38
313.476	3671.38
313.706	3750.38
313.935	3888.38
314.165	3890.38
314.394	3931.38
314.624	3923.38
314.853	3817.38
315.083	3775.38
315.312	3748.38
315.542	3779.38
315.771	3693.38
316.001	3667.38
316.23	3656.38
316.46	3647.38
316.689	3725.38
316.919	3725.38
317.148	3765.38
317.377	3740.38
317.607	3728.38
317.836	3703.38
318.065	3660.38
318.295	3691.38
318.524	3740.38
318.753	3677.38
318.983	3719.38
319.212	3713.38
319.441	3764.38
319.67	3771.38
319.9	3676.38
320.129	3714.38
320.358	3766.38
320.587	3795.38
320.816	3835.38
321.046	3826.38
321.275	3893.38
321.504	3896.38
321.733	3905.38
321.962	3914.38
322.191	4032.38
322.42	4161.38
322.649	4211.38
322.878	4265.38
323.108	4404.38
323.337	4532.38
323.566	4740.38
323.795	5021.38
324.024	5511.38
324.253	7320.38
324.482	10945.38
324.71	15181.38
324.939	15612.38
325.168	13031.38
325.397	6710.38
325.626	5346.38
325.855	4950.38
326.084	4838.38
326.313	4834.38
326.542	5014.38
326.77	5677.38
326.999	7136.38
327.228	10408.38
327.457	14399.38
327.686	13619.38
327.914	7567.38
328.143	6278.38
328.372	6022.38
328.6	5635.38
328.829	5411.38
329.058	5601.38
329.287	5589.38
329.515	5344.38
329.744	5303.38
329.972	5614.38
330.201	6154.38
330.43	6642.38
330.658	6179.38
330.887	6090.38
331.115	5645.38
331.344	5196.38
331.572	5107.38
331.801	5230.38
332.03	5124.38
332.258	5150.38
332.486	5169.38
332.715	5248.38
332.943	5438.38
333.172	5563.38
333.4	5766.38
333.629	6002.38
333.857	6262.38
334.085	6491.38
334.314	7158.38
334.542	7779.38
334.771	7393.38
334.999	6150.38
335.227	5718.38
335.455	5417.38
335.684	5255.38
335.912	5167.38
336.14	5118.38
336.369	5075.38
336.597	5113.38
336.825	4987.38
337.053	4993.38
337.281	4846.38
337.51	4805.38
337.738	4840.38
337.966	4761.38
338.194	4769.38
338.422	4666.38
338.65	4609.38
338.878	4576.38
339.106	4538.38
339.334	4531.38
339.562	4494.38
339.79	4479.38
340.018	4436.38
340.246	4415.38
340.474	4396.38
340.702	4407.38
340.93	4455.38
341.158	4428.38
341.386	4432.38
341.614	4423.38
341.842	4449.38
342.07	4302.38
342.298	4374.38
342.526	4323.38
342.754	4260.38
342.981	4325.38
343.209	4484.38
343.437	4672.38
343.665	4955.38
343.893	5170.38
344.12	5159.38
344.348	4988.38
344.576	4821.38
344.804	4769.38
345.031	4690.38
345.259	4583.38
345.487	4406.38
345.714	4403.38
345.942	4273.38
346.17	4254.38
346.397	4202.38
346.625	4249.38
346.853	4202.38
347.08	4206.38
347.308	4278.38
347.535	4269.38
347.763	4373.38
347.99	4304.38
348.218	4385.38
348.445	4407.38
348.673	4294.38
348.9	4174.38
349.128	4106.38
349.355	4094.38
349.583	4095.38
349.81	4095.38
350.037	3999.38
350.265	4025.38
350.492	4067.38
350.72	4066.38
350.947	4164.38
351.174	4234.38
351.402	4226.38
351.629	4185.38
351.856	4147.38
352.083	4271.38
352.311	4230.38
352.538	4218.38
352.765	4214.38
352.992	4184.38
353.22	4155.38
353.447	4054.38
353.674	3973.38
353.901	3956.38
354.128	3973.38
354.355	3986.38
354.583	4043.38
354.81	3986.38
355.037	3961.38
355.264	3961.38
355.491	3953.38
355.718	4002.38
355.945	3936.38
356.172	4005.38
356.399	3972.38
356.626	3970.38
356.853	4026.38
357.08	3967.38
357.307	3959.38
357.534	3955.38
357.761	3953.38
357.988	3985.38
358.215	4004.38
358.441	4004.38
358.668	4034.38
358.895	4039.38
359.122	4059.38
359.349	4128.38
359.576	4304.38
359.802	4441.38
360.029	4543.38
360.256	4609.38
360.483	4401.38
360.709	4192.38
360.936	4216.38
361.163	4210.38
361.39	4235.38
361.616	4226.38
361.843	4153.38
362.07	4235.38
362.296	4231.38
362.523	4211.38
362.749	4211.38
362.976	4175.38
363.203	4033.38
363.429	4068.38
363.656	4100.38
363.882	4065.38
364.109	4063.38
364.335	4004.38
364.562	4080.38
364.788	4056.38
365.015	4150.38
365.241	4084.38
365.468	4030.38
365.694	4148.38
365.92	4160.38
366.147	4090.38
366.373	4009.38
366.599	4039.38
366.826	4001.38
367.052	4001.38
367.278	4132.38
367.505	4110.38
367.731	4089.38
367.957	4134.38
368.184	4106.38
368.41	4211.38
368.636	4282.38
368.862	4347.38
369.089	4198.38
369.315	4191.38
369.541	4123.38
369.767	4164.38
369.993	4186.38
370.219	4174.38
370.445	4224.38
370.672	4195.38
370.898	4211.38
371.124	4278.38
371.35	4251.38
371.576	4284.38
371.802	4339.38
372.028	4321.38
372.254	4373.38
372.48	4370.38
372.706	4492.38
372.932	4425.38
373.158	4382.38
373.384	4307.38
373.61	4360.38
373.835	4353.38
374.061	4458.38
374.287	4512.38
374.513	4503.38
374.739	4598.38
374.965	4750.38
375.191	4758.38
375.416	4620.38
375.642	4479.38
375.868	4503.38
376.094	4444.38
376.319	4303.38
376.545	4393.38
376.771	4425.38
376.997	4331.38
377.222	4303.38
377.448	4302.38
377.674	4307.38
377.899	4270.38
378.125	4267.38
378.35	4204.38
378.576	4239.38
378.802	4278.38
379.027	4331.38
379.253	4329.38
379.478	4210.38
379.704	4280.38
379.929	4380.38
380.155	4247.38
380.38	4301.38
380.606	4366.38
380.831	4340.38
381.057	4380.38
381.282	4372.38
381.507	4363.38
381.733	4383.38
381.958	4402.38
382.184	4501.38
382.409	4482.38
382.634	4550.38
382.86	4572.38
383.085	4630.38
383.31	4744.38
383.535	4741.38
383.761	4729.38
383.986	4879.38
384.211	4914.38
384.436	5007.38
384.662	5084.38
384.887	5190.38
385.112	5154.38
385.337	5197.38
385.562	5241.38
385.787	5267.38
386.013	5289.38
386.238	5281.38
386.463	5249.38
386.688	5294.38
386.913	5182.38
387.138	5183.38
387.363	5142.38
387.588	5083.38
387.813	5219.38
388.038	5154.38
388.263	5162.38
388.488	5154.38
388.713	5130.38
388.938	5121.38
389.163	5049.38
389.387	5090.38
389.612	4998.38
389.837	4998.38
390.062	5036.38
390.287	5075.38
390.512	5068.38
390.736	5168.38
390.961	5230.38
391.186	5291.38
391.411	5483.38
391.636	5610.38
391.86	5737.38
392.085	5808.38
392.31	5646.38
392.534	5613.38
392.759	5462.38
392.984	5384.38
393.208	5337.38
393.433	5373.38
393.658	5337.38
393.882	5406.38
394.107	5382.38
394.331	5391.38
394.556	5426.38
394.78	5520.38
395.005	5566.38
395.229	5532.38
395.454	5678.38
395.678	5845.38
395.903	5834.38
396.127	5878.38
396.352	5665.38
396.576	5491.38
396.801	5450.38
397.025	5550.38
397.249	5640.38
397.474	5772.38
397.698	5862.38
397.922	5896.38
398.147	6047.38
398.371	6210.38
398.595	6255.38
398.82	6579.38
399.044	7106.38
399.268	7961.38
399.492	9048.38
399.717	9560.38
399.941	9280.38
400.165	8639.38
400.389	7972.38
400.613	7268.38
400.837	6841.38
401.062	6691.38
401.286	6592.38
401.51	6492.38
401.734	6466.38
401.958	6694.38
402.182	6810.38
402.406	6848.38
402.63	6920.38
402.854	7020.38
403.078	7067.38
403.302	7267.38
403.526	7378.38
403.75	7381.38
403.974	7526.38
404.198	7480.38
404.422	7543.38
404.645	7597.38
404.869	7599.38
405.093	7976.38
405.317	8438.38
405.541	8202.38
405.765	7604.38
405.988	7381.38
406.212	7394.38
406.436	7693.38
406.66	7750.38
406.883	7774.38
407.107	8368.38
407.331	8794.38
407.555	9337.38
407.778	9026.38
408.002	8247.38
408.226	7878.38
408.449	7754.38
408.673	7607.38
408.896	7852.38
409.12	7912.38
409.344	7506.38
409.567	7168.38
409.791	7214.38
410.014	7117.38
410.238	6990.38
410.461	7081.38
410.685	7100.38
410.908	7143.38
411.132	7455.38
411.355	7363.38
411.578	7073.38
411.802	6837.38
412.025	6927.38
412.249	7278.38
412.472	7518.38
412.695	7841.38
412.919	7312.38
413.142	6923.38
413.365	6810.38
413.589	6680.38
413.812	6507.38
414.035	6488.38
414.258	6502.38
414.482	6439.38
414.705	6549.38
414.928	6539.38
415.151	6473.38
415.374	6424.38
415.597	6348.38
415.821	6281.38
416.044	6330.38
416.267	6272.38
416.49	6231.38
416.713	6283.38
416.936	6353.38
417.159	6237.38
417.382	6401.38
417.605	6410.38
417.828	6562.38
418.051	6683.38
418.274	6559.38
418.497	6452.38
418.72	6579.38
418.943	6506.38
419.166	6961.38
419.389	7264.38
419.611	7193.38
419.834	7005.38
420.057	7035.38
420.28	6994.38
420.503	6891.38
420.726	6800.38
420.948	6812.38
421.171	7176.38
421.394	7145.38
421.617	6585.38
421.839	6597.38
422.062	6635.38
422.285	6750.38
422.507	7526.38
422.73	7926.38
422.953	7386.38
423.175	7041.38
423.398	7070.38
423.621	7035.38
423.843	7287.38
424.066	7195.38
424.288	7115.38
424.511	7306.38
424.733	7858.38
424.956	8279.38
425.178	7755.38
425.401	7901.38
425.623	7779.38
425.846	6925.38
426.068	6588.38
426.291	6572.38
426.513	6585.38
426.735	6712.38
426.958	7140.38
427.18	7852.38
427.402	8939.38
427.625	9163.38
427.847	8058.38
428.069	7542.38
428.292	6727.38
428.514	6119.38
428.736	5955.38
428.958	5994.38
429.181	5803.38
429.403	5784.38
429.625	5939.38
429.847	6262.38
430.069	6846.38
430.292	6372.38
430.514	5910.38
430.736	5803.38
430.958	5706.38
431.18	5704.38
431.402	5717.38
431.624	5638.38
431.846	5776.38
432.068	5742.38
432.29	5848.38
432.512	5754.38
432.734	5907.38
432.956	5714.38
433.178	5818.38
433.4	5841.38
433.622	5689.38
433.844	5831.38
434.066	5818.38
434.287	5915.38
434.509	6115.38
434.731	6312.38
434.953	6547.38
435.175	6630.38
435.397	6667.38
435.618	6681.38
435.84	6939.38
436.062	7735.38
436.284	7770.38
436.505	6607.38
436.727	6208.38
436.949	5946.38
437.17	5816.38
437.392	5797.38
437.614	5923.38
437.835	6381.38
438.057	7297.38
438.278	7994.38
438.5	7886.38
438.721	8630.38
438.943	7555.38
439.165	6476.38
439.386	6129.38
439.608	6249.38
439.829	6346.38
440.05	6699.38
440.272	7042.38
440.493	6458.38
440.715	6182.38
440.936	6102.38
441.158	6102.38
441.379	6183.38
441.6	6633.38
441.822	6815.38
442.043	7255.38
442.264	8014.38
442.486	7740.38
442.707	6874.38
442.928	6671.38
443.149	6886.38
443.371	7159.38
443.592	7700.38
443.813	8598.38
444.034	8587.38
444.255	7463.38
444.476	7290.38
444.698	7570.38
444.919	7586.38
445.14	7355.38
445.361	7205.38
445.582	7354.38
445.803	7943.38
446.024	8614.38
446.245	8225.38
446.466	7344.38
446.687	6426.38
446.908	6162.38
447.129	5776.38
447.35	5690.38
447.571	5666.38
447.792	5571.38
448.013	5624.38
448.234	5856.38
448.455	6480.38
448.675	7664.38
448.896	8090.38
449.117	6706.38
449.338	6870.38
449.559	8171.38
449.779	8358.38
450	6407.38
450.221	5721.38
450.442	5495.38
450.662	5524.38
450.883	5553.38
451.104	5654.38
451.324	5510.38
451.545	5323.38
451.766	5205.38
451.986	5081.38
452.207	5064.38
452.428	5075.38
452.648	5091.38
452.869	5088.38
453.089	5154.38
453.31	5239.38
453.53	5054.38
453.751	5010.38
453.971	5096.38
454.192	5136.38
454.412	4953.38
454.633	4969.38
454.853	4899.38
455.073	4926.38
455.294	5319.38
455.514	5883.38
455.734	5438.38
455.955	4837.38
456.175	4740.38
456.395	4657.38
456.616	4681.38
456.836	4719.38
457.056	4689.38
457.276	4571.38
457.497	4772.38
457.717	4763.38
457.937	4850.38
458.157	4892.38
458.377	4925.38
458.598	5300.38
458.818	5968.38
459.038	6696.38
459.258	6689.38
459.478	5956.38
459.698	5810.38
459.918	5914.38
460.138	6030.38
460.358	6292.38
460.578	6329.38
460.798	6359.38
461.018	6409.38
461.238	6199.38
461.458	6259.38
461.678	6166.38
461.898	6448.38
462.118	6387.38
462.338	6694.38
462.558	6823.38
462.777	7208.38
462.997	7772.38
463.217	8121.38
463.437	7850.38
463.657	7442.38
463.876	7112.38
464.096	7182.38
464.316	7188.38
464.536	7256.38
464.755	7030.38
464.975	6871.38
465.195	7103.38
465.414	7024.38
465.634	6288.38
465.854	5873.38
466.073	5666.38
466.293	5486.38
466.512	5350.38
466.732	5248.38
466.951	5297.38
467.171	5272.38
467.391	5332.38
467.61	5443.38
467.829	5384.38
468.049	5448.38
468.268	5565.38
468.488	5218.38
468.707	5080.38
468.927	5111.38
469.146	5047.38
469.365	5085.38
469.585	5123.38
469.804	5306.38
470.023	5443.38
470.243	5446.38
470.462	5686.38
470.681	5726.38
470.901	5648.38
471.12	5433.38
471.339	5395.38
471.558	5339.38
471.777	5330.38
471.997	5257.38
472.216	5642.38
472.435	6376.38
472.654	5798.38
472.873	5375.38
473.092	5174.38
473.311	5177.38
473.53	5209.38
473.749	5175.38
473.968	5797.38
474.187	6744.38
474.406	6359.38
474.625	5388.38
474.844	5155.38
475.063	5058.38
475.282	5095.38
475.501	5195.38
475.72	5169.38
475.939	5227.38
476.158	5292.38
476.377	5298.38
476.596	5272.38
476.814	5443.38
477.033	5450.38
477.252	5466.38
477.471	5596.38
477.69	5688.38
477.908	5794.38
478.127	6030.38
478.346	6047.38
478.564	6111.38
478.783	6161.38
479.002	6396.38
479.22	6371.38
479.439	6449.38
479.658	6541.38
479.876	6777.38
480.095	6863.38
480.313	7399.38
480.532	7155.38
480.751	7194.38
480.969	7451.38
481.188	8902.38
481.406	8762.38
481.624	7440.38
481.843	6738.38
482.061	6398.38
482.28	6222.38
482.498	6169.38
482.717	6097.38
482.935	6044.38
483.153	6081.38
483.372	6039.38
483.59	5989.38
483.808	6037.38
484.027	6028.38
484.245	6107.38
484.463	6115.38
484.681	6194.38
484.9	6160.38
485.118	6282.38
485.336	6344.38
485.554	6325.38
485.772	6454.38
485.99	6367.38
486.209	6449.38
486.427	6490.38
486.645	6530.38
486.863	6706.38
487.081	6519.38
487.299	6400.38
487.517	6493.38
487.735	6459.38
487.953	6395.38
