Data from Circ_2003_H10_HRD10591_00095.txt Node
Date: Wed Jan 03 10:37:21 EST 2024
User: Yrep
Spectrometer: HR+D1059
Trigger mode: 1
Integration Time (sec): 1.000000E-1
Scans to average: 1
Electric dark correction enabled: true
Nonlinearity correction enabled: false
Boxcar width: 0
XAxis mode: Wavelengths
Number of Pixels in Spectrum: 2048
>>>>>Begin Spectral Data<<<<<
223.165	-14.75
223.4	-14.75
223.635	-14.75
223.869	-8.75
224.104	-10.75
224.338	-19.75
224.573	-23.75
224.808	-16.75
225.042	-2.75
225.277	-5.75
225.511	7.25
225.746	11.25
225.98	-0.75
226.215	14.25
226.449	7.25
226.683	19.25
226.918	14.25
227.152	30.25
227.387	34.25
227.621	38.25
227.856	51.25
228.09	46.25
228.324	42.25
228.559	56.25
228.793	158.25
229.027	439.25
229.262	510.25
229.496	577.25
229.73	768.25
229.964	787.25
230.199	514.25
230.433	477.25
230.667	489.25
230.901	450.25
231.136	456.25
231.37	449.25
231.604	467.25
231.838	458.25
232.072	446.25
232.306	465.25
232.541	438.25
232.775	469.25
233.009	474.25
233.243	461.25
233.477	479.25
233.711	467.25
233.945	496.25
234.179	514.25
234.413	507.25
234.647	487.25
234.881	511.25
235.115	533.25
235.349	552.25
235.583	543.25
235.817	592.25
236.051	610.25
236.285	586.25
236.519	598.25
236.753	696.25
236.987	900.25
237.221	1342.25
237.455	1457.25
237.689	878.25
237.922	717.25
238.156	693.25
238.39	672.25
238.624	655.25
238.858	681.25
239.091	634.25
239.325	648.25
239.559	694.25
239.793	717.25
240.027	775.25
240.26	925.25
240.494	962.25
240.728	934.25
240.961	885.25
241.195	821.25
241.429	791.25
241.662	766.25
241.896	782.25
242.13	760.25
242.363	758.25
242.597	799.25
242.83	799.25
243.064	826.25
243.298	839.25
243.531	829.25
243.765	829.25
243.998	851.25
244.232	849.25
244.465	870.25
244.699	893.25
244.932	900.25
245.166	882.25
245.399	938.25
245.633	907.25
245.866	891.25
246.099	931.25
246.333	955.25
246.566	948.25
246.8	973.25
247.033	990.25
247.266	1036.25
247.5	1106.25
247.733	1163.25
247.966	1128.25
248.2	1097.25
248.433	1152.25
248.666	1203.25
248.899	1297.25
249.133	1413.25
249.366	1425.25
249.599	1340.25
249.832	1269.25
250.066	1369.25
250.299	1477.25
250.532	1721.25
250.765	1832.25
250.998	1897.25
251.231	1678.25
251.465	1509.25
251.698	1441.25
251.931	1409.25
252.164	1408.25
252.397	1431.25
252.63	1425.25
252.863	1525.25
253.096	1707.25
253.329	1739.25
253.562	1614.25
253.795	1545.25
254.028	1547.25
254.261	1640.25
254.494	1845.25
254.727	2160.25
254.96	2197.25
255.193	1995.25
255.426	1870.25
255.659	1908.25
255.892	2195.25
256.124	2546.25
256.357	2343.25
256.59	2020.25
256.823	1789.25
257.056	1715.25
257.289	1640.25
257.521	1617.25
257.754	1629.25
257.987	1560.25
258.22	1561.25
258.452	1584.25
258.685	1587.25
258.918	1599.25
259.151	1626.25
259.383	1679.25
259.616	1704.25
259.849	1763.25
260.081	1928.25
260.314	2114.25
260.547	2011.25
260.779	1833.25
261.012	1765.25
261.244	1717.25
261.477	1701.25
261.71	1709.25
261.942	1762.25
262.175	1772.25
262.407	1732.25
262.64	1676.25
262.872	1622.25
263.105	1625.25
263.337	1643.25
263.57	1655.25
263.802	1683.25
264.035	1670.25
264.267	1667.25
264.499	1644.25
264.732	1696.25
264.964	1697.25
265.197	1705.25
265.429	1720.25
265.661	1721.25
265.894	1736.25
266.126	1746.25
266.358	1800.25
266.591	1761.25
266.823	1887.25
267.055	1879.25
267.287	1896.25
267.52	1813.25
267.752	1831.25
267.984	1888.25
268.216	1906.25
268.448	1892.25
268.681	1968.25
268.913	2130.25
269.145	2296.25
269.377	2395.25
269.609	2304.25
269.841	2248.25
270.073	2371.25
270.306	2679.25
270.538	2744.25
270.77	2562.25
271.002	2458.25
271.234	2449.25
271.466	2596.25
271.698	2713.25
271.93	2681.25
272.162	2668.25
272.394	2618.25
272.626	2439.25
272.858	2367.25
273.09	2219.25
273.322	2223.25
273.553	2211.25
273.785	2243.25
274.017	2206.25
274.249	2261.25
274.481	2238.25
274.713	2271.25
274.945	2295.25
275.176	2305.25
275.408	2312.25
275.64	2262.25
275.872	2292.25
276.104	2314.25
276.335	2349.25
276.567	2450.25
276.799	2646.25
277.031	2860.25
277.262	2975.25
277.494	2855.25
277.726	2633.25
277.957	2530.25
278.189	2504.25
278.421	2448.25
278.652	2448.25
278.884	2407.25
279.115	2414.25
279.347	2433.25
279.579	2457.25
279.81	2424.25
280.042	2476.25
280.273	2545.25
280.505	2519.25
280.736	2488.25
280.968	2444.25
281.199	2501.25
281.431	2530.25
281.662	2551.25
281.894	2541.25
282.125	2563.25
282.356	2739.25
282.588	2878.25
282.819	2714.25
283.051	2560.25
283.282	2549.25
283.513	2593.25
283.745	2656.25
283.976	2673.25
284.207	2692.25
284.439	2632.25
284.67	2627.25
284.901	2607.25
285.132	2639.25
285.364	2656.25
285.595	2619.25
285.826	2714.25
286.057	2727.25
286.288	2735.25
286.52	2774.25
286.751	2761.25
286.982	2747.25
287.213	2705.25
287.444	2757.25
287.675	2881.25
287.906	2920.25
288.138	2922.25
288.369	2915.25
288.6	2935.25
288.831	2917.25
289.062	2908.25
289.293	2889.25
289.524	2892.25
289.755	2845.25
289.986	2814.25
290.217	2794.25
290.448	2861.25
290.679	2849.25
290.91	2840.25
291.141	2753.25
291.371	2839.25
291.602	2833.25
291.833	2813.25
292.064	2857.25
292.295	2823.25
292.526	2871.25
292.757	2842.25
292.987	2849.25
293.218	2864.25
293.449	2881.25
293.68	2857.25
293.91	2850.25
294.141	2886.25
294.372	2813.25
294.603	2858.25
294.833	2859.25
295.064	2945.25
295.295	2930.25
295.525	2877.25
295.756	2991.25
295.987	3073.25
296.217	3227.25
296.448	3141.25
296.679	3030.25
296.909	2979.25
297.14	3033.25
297.37	3057.25
297.601	3081.25
297.831	3012.25
298.062	3135.25
298.292	3113.25
298.523	3159.25
298.753	3147.25
298.984	3115.25
299.214	3126.25
299.445	3129.25
299.675	3143.25
299.905	3253.25
300.136	3199.25
300.366	3206.25
300.597	3176.25
300.827	3319.25
301.057	3373.25
301.288	3406.25
301.518	3351.25
301.748	3358.25
301.979	3441.25
302.209	3456.25
302.439	3404.25
302.669	3369.25
302.9	3276.25
303.13	3288.25
303.36	3337.25
303.59	3428.25
303.82	3522.25
304.051	3390.25
304.281	3370.25
304.511	3265.25
304.741	3397.25
304.971	3291.25
305.201	3295.25
305.431	3355.25
305.661	3357.25
305.891	3337.25
306.121	3349.25
306.352	3386.25
306.582	3372.25
306.812	3292.25
307.042	3294.25
307.272	3342.25
307.502	3345.25
307.731	3358.25
307.961	3338.25
308.191	3333.25
308.421	3369.25
308.651	3354.25
308.881	3343.25
309.111	3447.25
309.341	3476.25
309.571	3550.25
309.8	3611.25
310.03	3713.25
310.26	3624.25
310.49	3664.25
310.72	3836.25
310.949	3873.25
311.179	3813.25
311.409	3688.25
311.639	3658.25
311.868	3664.25
312.098	3742.25
312.328	3816.25
312.557	3970.25
312.787	4027.25
313.017	3877.25
313.246	3862.25
313.476	3823.25
313.706	3851.25
313.935	3914.25
314.165	3979.25
314.394	4067.25
314.624	3942.25
314.853	3904.25
315.083	3794.25
315.312	3791.25
315.542	3759.25
315.771	3703.25
316.001	3753.25
316.23	3796.25
316.46	3778.25
316.689	3753.25
316.919	3850.25
317.148	3876.25
317.377	3841.25
317.607	3838.25
317.836	3792.25
318.065	3721.25
318.295	3769.25
318.524	3804.25
318.753	3754.25
318.983	3712.25
319.212	3749.25
319.441	3814.25
319.67	3851.25
319.9	3795.25
320.129	3808.25
320.358	3812.25
320.587	3834.25
320.816	3895.25
321.046	3971.25
321.275	3885.25
321.504	3938.25
321.733	3967.25
321.962	4053.25
322.191	4141.25
322.42	4218.25
322.649	4293.25
322.878	4345.25
323.108	4502.25
323.337	4707.25
323.566	4824.25
323.795	5238.25
324.024	5803.25
324.253	7617.25
324.482	11434.25
324.71	15508.25
324.939	15611.25
325.168	13309.25
325.397	6770.25
325.626	5434.25
325.855	5035.25
326.084	4942.25
326.313	5009.25
326.542	5124.25
326.77	5823.25
326.999	7377.25
327.228	10889.25
327.457	14772.25
327.686	14039.25
327.914	7834.25
328.143	6649.25
328.372	6369.25
328.6	5886.25
328.829	5654.25
329.058	5845.25
329.287	5881.25
329.515	5571.25
329.744	5537.25
329.972	6042.25
330.201	6734.25
330.43	7227.25
330.658	6664.25
330.887	6485.25
331.115	5815.25
331.344	5334.25
331.572	5211.25
331.801	5367.25
332.03	5392.25
332.258	5237.25
332.486	5223.25
332.715	5373.25
332.943	5601.25
333.172	5817.25
333.4	5966.25
333.629	6229.25
333.857	6473.25
334.085	7010.25
334.314	7693.25
334.542	8673.25
334.771	8209.25
334.999	6543.25
335.227	5973.25
335.455	5633.25
335.684	5417.25
335.912	5305.25
336.14	5197.25
336.369	5197.25
336.597	5206.25
336.825	5152.25
337.053	4989.25
337.281	4923.25
337.51	4884.25
337.738	4841.25
337.966	4809.25
338.194	4808.25
338.422	4749.25
338.65	4651.25
338.878	4617.25
339.106	4702.25
339.334	4652.25
339.562	4577.25
339.79	4481.25
340.018	4560.25
340.246	4469.25
340.474	4567.25
340.702	4521.25
340.93	4486.25
341.158	4522.25
341.386	4553.25
341.614	4552.25
341.842	4528.25
342.07	4385.25
342.298	4440.25
342.526	4306.25
342.754	4402.25
342.981	4395.25
343.209	4552.25
343.437	4734.25
343.665	5020.25
343.893	5276.25
344.12	5227.25
344.348	5083.25
344.576	4914.25
344.804	4882.25
345.031	4742.25
345.259	4671.25
345.487	4573.25
345.714	4474.25
345.942	4354.25
346.17	4331.25
346.397	4310.25
346.625	4208.25
346.853	4260.25
347.08	4280.25
347.308	4330.25
347.535	4407.25
347.763	4419.25
347.99	4403.25
348.218	4399.25
348.445	4440.25
348.673	4322.25
348.9	4293.25
349.128	4202.25
349.355	4169.25
349.583	4178.25
349.81	4153.25
350.037	4159.25
350.265	4165.25
350.492	4129.25
350.72	4137.25
350.947	4163.25
351.174	4279.25
351.402	4304.25
351.629	4206.25
351.856	4267.25
352.083	4273.25
352.311	4362.25
352.538	4355.25
352.765	4314.25
352.992	4226.25
353.22	4251.25
353.447	4211.25
353.674	4175.25
353.901	4082.25
354.128	4018.25
354.355	4019.25
354.583	4023.25
354.81	4026.25
355.037	4002.25
355.264	4030.25
355.491	4029.25
355.718	3994.25
355.945	4056.25
356.172	4014.25
356.399	4021.25
356.626	4070.25
356.853	4095.25
357.08	4034.25
357.307	4032.25
357.534	4062.25
357.761	4058.25
357.988	4051.25
358.215	4043.25
358.441	4076.25
358.668	4068.25
358.895	4164.25
359.122	4120.25
359.349	4248.25
359.576	4405.25
359.802	4584.25
360.029	4697.25
360.256	4703.25
360.483	4470.25
360.709	4290.25
360.936	4243.25
361.163	4250.25
361.39	4322.25
361.616	4281.25
361.843	4239.25
362.07	4277.25
362.296	4358.25
362.523	4285.25
362.749	4261.25
362.976	4190.25
363.203	4163.25
363.429	4111.25
363.656	4158.25
363.882	4159.25
364.109	4097.25
364.335	4123.25
364.562	4113.25
364.788	4095.25
365.015	4121.25
365.241	4114.25
365.468	4219.25
365.694	4242.25
365.92	4169.25
366.147	4129.25
366.373	4125.25
366.599	4125.25
366.826	4078.25
367.052	4105.25
367.278	4128.25
367.505	4206.25
367.731	4135.25
367.957	4224.25
368.184	4276.25
368.41	4242.25
368.636	4341.25
368.862	4342.25
369.089	4241.25
369.315	4255.25
369.541	4264.25
369.767	4210.25
369.993	4260.25
370.219	4213.25
370.445	4290.25
370.672	4299.25
370.898	4339.25
371.124	4325.25
371.35	4399.25
371.576	4391.25
371.802	4327.25
372.028	4298.25
372.254	4371.25
372.48	4429.25
372.706	4510.25
372.932	4571.25
373.158	4525.25
373.384	4426.25
373.61	4408.25
373.835	4453.25
374.061	4489.25
374.287	4538.25
374.513	4590.25
374.739	4711.25
374.965	4822.25
375.191	4826.25
375.416	4757.25
375.642	4613.25
375.868	4607.25
376.094	4528.25
376.319	4469.25
376.545	4435.25
376.771	4437.25
376.997	4434.25
377.222	4408.25
377.448	4450.25
377.674	4364.25
377.899	4309.25
378.125	4346.25
378.35	4309.25
378.576	4341.25
378.802	4326.25
379.027	4389.25
379.253	4418.25
379.478	4282.25
379.704	4330.25
379.929	4379.25
380.155	4403.25
380.38	4379.25
380.606	4442.25
380.831	4395.25
381.057	4470.25
381.282	4387.25
381.507	4452.25
381.733	4485.25
381.958	4525.25
382.184	4601.25
382.409	4673.25
382.634	4618.25
382.86	4614.25
383.085	4661.25
383.31	4755.25
383.535	4838.25
383.761	4862.25
383.986	4920.25
384.211	4976.25
384.436	5157.25
384.662	5137.25
384.887	5247.25
385.112	5212.25
385.337	5264.25
385.562	5275.25
385.787	5385.25
386.013	5447.25
386.238	5460.25
386.463	5387.25
386.688	5400.25
386.913	5276.25
387.138	5243.25
387.363	5286.25
387.588	5159.25
387.813	5169.25
388.038	5219.25
388.263	5284.25
388.488	5237.25
388.713	5267.25
388.938	5206.25
389.163	5227.25
389.387	5224.25
389.612	5178.25
389.837	5132.25
390.062	5158.25
390.287	5179.25
390.512	5190.25
390.736	5222.25
390.961	5358.25
391.186	5415.25
391.411	5594.25
391.636	5671.25
391.86	5874.25
392.085	5851.25
392.31	5815.25
392.534	5614.25
392.759	5543.25
392.984	5477.25
393.208	5473.25
393.433	5466.25
393.658	5355.25
393.882	5463.25
394.107	5453.25
394.331	5570.25
394.556	5533.25
394.78	5599.25
395.005	5651.25
395.229	5677.25
395.454	5815.25
395.678	5856.25
395.903	5938.25
396.127	5959.25
396.352	5816.25
396.576	5578.25
396.801	5611.25
397.025	5627.25
397.249	5752.25
397.474	5892.25
397.698	5898.25
397.922	6086.25
398.147	6076.25
398.371	6290.25
398.595	6440.25
398.82	6742.25
399.044	7226.25
399.268	8028.25
399.492	9140.25
399.717	9815.25
399.941	9485.25
400.165	8974.25
400.389	8166.25
400.613	7384.25
400.837	6970.25
401.062	6753.25
401.286	6660.25
401.51	6672.25
401.734	6658.25
401.958	6721.25
402.182	6855.25
402.406	6981.25
402.63	7105.25
402.854	7164.25
403.078	7313.25
403.302	7398.25
403.526	7412.25
403.75	7546.25
403.974	7643.25
404.198	7534.25
404.422	7816.25
404.645	7767.25
404.869	7761.25
405.093	8215.25
405.317	8597.25
405.541	8549.25
405.765	7901.25
405.988	7604.25
406.212	7571.25
406.436	7739.25
406.66	7957.25
406.883	7998.25
407.107	8507.25
407.331	8930.25
407.555	9597.25
407.778	9155.25
408.002	8384.25
408.226	7922.25
408.449	7947.25
408.673	7807.25
408.896	8022.25
409.12	8045.25
409.344	7584.25
409.567	7326.25
409.791	7259.25
410.014	7190.25
410.238	7098.25
410.461	7172.25
410.685	7221.25
410.908	7354.25
411.132	7497.25
411.355	7513.25
411.578	7130.25
411.802	6979.25
412.025	7036.25
412.249	7386.25
412.472	7763.25
412.695	8151.25
412.919	7624.25
413.142	7138.25
413.365	6962.25
413.589	6829.25
413.812	6637.25
414.035	6555.25
414.258	6577.25
414.482	6580.25
414.705	6675.25
414.928	6595.25
415.151	6564.25
415.374	6497.25
415.597	6489.25
415.821	6373.25
416.044	6450.25
416.267	6349.25
416.49	6389.25
416.713	6396.25
416.936	6425.25
417.159	6469.25
417.382	6539.25
417.605	6642.25
417.828	6748.25
418.051	6776.25
418.274	6681.25
418.497	6565.25
418.72	6686.25
418.943	6537.25
419.166	7113.25
419.389	7468.25
419.611	7326.25
419.834	7214.25
420.057	7250.25
420.28	7261.25
420.503	7040.25
420.726	6964.25
420.948	7033.25
421.171	7321.25
421.394	7310.25
421.617	6771.25
421.839	6709.25
422.062	6757.25
422.285	6885.25
422.507	7617.25
422.73	8005.25
422.953	7450.25
423.175	7077.25
423.398	7087.25
423.621	7123.25
423.843	7448.25
424.066	7301.25
424.288	7190.25
424.511	7534.25
424.733	7966.25
424.956	8369.25
425.178	7844.25
425.401	8058.25
425.623	7911.25
425.846	6993.25
426.068	6761.25
426.291	6670.25
426.513	6752.25
426.735	6760.25
426.958	7184.25
427.18	7976.25
427.402	9265.25
427.625	9479.25
427.847	8285.25
428.069	7783.25
428.292	6887.25
428.514	6352.25
428.736	6082.25
428.958	6138.25
429.181	5932.25
429.403	5930.25
429.625	6108.25
429.847	6430.25
430.069	6962.25
430.292	6499.25
430.514	5951.25
430.736	5923.25
430.958	5865.25
431.18	5690.25
431.402	5802.25
431.624	5763.25
431.846	5874.25
432.068	5829.25
432.29	5935.25
432.512	5834.25
432.734	5930.25
432.956	5843.25
433.178	5919.25
433.4	5955.25
433.622	5835.25
433.844	5972.25
434.066	5894.25
434.287	5967.25
434.509	6201.25
434.731	6387.25
434.953	6616.25
435.175	6670.25
435.397	6774.25
435.618	6685.25
435.84	7066.25
436.062	7927.25
436.284	7855.25
436.505	6600.25
436.727	6316.25
436.949	6100.25
437.17	5983.25
437.392	5902.25
437.614	6092.25
437.835	6455.25
438.057	7542.25
438.278	8077.25
438.5	7962.25
438.721	8762.25
438.943	7769.25
439.165	6479.25
439.386	6273.25
439.608	6387.25
439.829	6463.25
440.05	6898.25
440.272	7204.25
440.493	6525.25
440.715	6299.25
440.936	6243.25
441.158	6242.25
441.379	6452.25
441.6	6809.25
441.822	6921.25
442.043	7399.25
442.264	8101.25
442.486	7834.25
442.707	7048.25
442.928	6859.25
443.149	7109.25
443.371	7247.25
443.592	7738.25
443.813	8824.25
444.034	8782.25
444.255	7598.25
444.476	7391.25
444.698	7604.25
444.919	7729.25
445.14	7499.25
445.361	7373.25
445.582	7533.25
445.803	8198.25
446.024	8844.25
446.245	8455.25
446.466	7471.25
446.687	6556.25
446.908	6207.25
447.129	5901.25
447.35	5720.25
447.571	5720.25
447.792	5652.25
448.013	5773.25
448.234	5899.25
448.455	6608.25
448.675	7855.25
448.896	8258.25
449.117	6826.25
449.338	7013.25
449.559	8339.25
449.779	8565.25
450	6529.25
450.221	5831.25
450.442	5565.25
450.662	5541.25
450.883	5619.25
451.104	5755.25
451.324	5658.25
451.545	5471.25
451.766	5281.25
451.986	5210.25
452.207	5135.25
452.428	5117.25
452.648	5178.25
452.869	5265.25
453.089	5235.25
453.31	5352.25
453.53	5215.25
453.751	5158.25
453.971	5060.25
454.192	5272.25
454.412	5035.25
454.633	5062.25
454.853	4998.25
455.073	5048.25
455.294	5465.25
455.514	5986.25
455.734	5415.25
455.955	4879.25
456.175	4738.25
456.395	4753.25
456.616	4761.25
456.836	4723.25
457.056	4773.25
457.276	4636.25
457.497	4858.25
457.717	4877.25
457.937	4891.25
458.157	4981.25
458.377	5090.25
458.598	5494.25
458.818	6180.25
459.038	6870.25
459.258	6783.25
459.478	6031.25
459.698	5944.25
459.918	5974.25
460.138	6223.25
460.358	6382.25
460.578	6391.25
460.798	6533.25
461.018	6455.25
461.238	6354.25
461.458	6349.25
461.678	6248.25
461.898	6398.25
462.118	6518.25
462.338	6834.25
462.558	7032.25
462.777	7209.25
462.997	7881.25
463.217	8389.25
463.437	8069.25
463.657	7497.25
463.876	7286.25
464.096	7315.25
464.316	7281.25
464.536	7368.25
464.755	7109.25
464.975	7057.25
465.195	7232.25
465.414	7254.25
465.634	6351.25
465.854	5973.25
466.073	5853.25
466.293	5593.25
466.512	5503.25
466.732	5344.25
466.951	5439.25
467.171	5395.25
467.391	5435.25
467.61	5489.25
467.829	5522.25
468.049	5650.25
468.268	5736.25
468.488	5367.25
468.707	5255.25
468.927	5216.25
469.146	5158.25
469.365	5201.25
469.585	5171.25
469.804	5457.25
470.023	5631.25
470.243	5628.25
470.462	5693.25
470.681	5763.25
470.901	5753.25
471.12	5592.25
471.339	5522.25
471.558	5469.25
471.777	5455.25
471.997	5461.25
472.216	5960.25
472.435	6998.25
472.654	6112.25
472.873	5540.25
473.092	5382.25
473.311	5242.25
473.53	5373.25
473.749	5430.25
473.968	5915.25
474.187	6887.25
474.406	6462.25
474.625	5525.25
474.844	5238.25
475.063	5248.25
475.282	5224.25
475.501	5229.25
475.72	5327.25
475.939	5352.25
476.158	5405.25
476.377	5394.25
476.596	5329.25
476.814	5551.25
477.033	5525.25
477.252	5632.25
477.471	5733.25
477.69	5892.25
477.908	5878.25
478.127	6084.25
478.346	6046.25
478.564	6234.25
478.783	6325.25
479.002	6565.25
479.22	6577.25
479.439	6635.25
479.658	6705.25
479.876	6893.25
480.095	7073.25
480.313	7471.25
480.532	7384.25
480.751	7365.25
480.969	7729.25
481.188	9877.25
481.406	9645.25
481.624	7754.25
481.843	7059.25
482.061	6719.25
482.28	6475.25
482.498	6393.25
482.717	6275.25
482.935	6242.25
483.153	6198.25
483.372	6181.25
483.59	6075.25
483.808	6143.25
484.027	6153.25
484.245	6189.25
484.463	6251.25
484.681	6277.25
484.9	6389.25
485.118	6360.25
485.336	6419.25
485.554	6457.25
485.772	6534.25
485.99	6483.25
486.209	6561.25
486.427	6613.25
486.645	6559.25
486.863	6823.25
487.081	6661.25
487.299	6605.25
487.517	6643.25
487.735	6585.25
487.953	6509.25
