Data from Circ_2003_H10_HRD10591_00100.txt Node
Date: Wed Jan 03 10:37:22 EST 2024
User: Yrep
Spectrometer: HR+D1059
Trigger mode: 1
Integration Time (sec): 1.000000E-1
Scans to average: 1
Electric dark correction enabled: true
Nonlinearity correction enabled: false
Boxcar width: 0
XAxis mode: Wavelengths
Number of Pixels in Spectrum: 2048
>>>>>Begin Spectral Data<<<<<
223.165	-18
223.4	-18
223.635	-18
223.869	-32
224.104	-17
224.338	-11
224.573	-29
224.808	-8
225.042	0
225.277	-1
225.511	4
225.746	4
225.98	5
226.215	21
226.449	9
226.683	18
226.918	30
227.152	25
227.387	13
227.621	36
227.856	49
228.09	40
228.324	62
228.559	65
228.793	49
229.027	52
229.262	56
229.496	73
229.73	72
229.964	71
230.199	65
230.433	78
230.667	76
230.901	86
231.136	74
231.37	72
231.604	78
231.838	63
232.072	78
232.306	74
232.541	70
232.775	78
233.009	58
233.243	85
233.477	78
233.711	73
233.945	86
234.179	85
234.413	70
234.647	71
234.881	79
235.115	83
235.349	73
235.583	73
235.817	85
236.051	80
236.285	80
236.519	79
236.753	76
236.987	71
237.221	69
237.455	88
237.689	70
237.922	77
238.156	77
238.39	53
238.624	74
238.858	71
239.091	73
239.325	68
239.559	73
239.793	74
240.027	79
240.26	72
240.494	76
240.728	80
240.961	79
241.195	87
241.429	83
241.662	75
241.896	67
242.13	71
242.363	73
242.597	70
242.83	86
243.064	74
243.298	65
243.531	71
243.765	79
243.998	77
244.232	80
244.465	87
244.699	77
244.932	74
245.166	73
245.399	67
245.633	88
245.866	72
246.099	77
246.333	75
246.566	81
246.8	78
247.033	70
247.266	80
247.5	79
247.733	76
247.966	65
248.2	79
248.433	80
248.666	83
248.899	76
249.133	83
249.366	89
249.599	97
249.832	92
250.066	76
250.299	80
250.532	87
250.765	80
250.998	79
251.231	78
251.465	79
251.698	62
251.931	65
252.164	73
252.397	65
252.63	84
252.863	85
253.096	88
253.329	68
253.562	67
253.795	77
254.028	77
254.261	80
254.494	71
254.727	72
254.96	84
255.193	76
255.426	83
255.659	94
255.892	81
256.124	83
256.357	94
256.59	62
256.823	84
257.056	77
257.289	61
257.521	67
257.754	83
257.987	80
258.22	84
258.452	71
258.685	86
258.918	65
259.151	68
259.383	82
259.616	87
259.849	80
260.081	71
260.314	73
260.547	71
260.779	88
261.012	66
261.244	92
261.477	84
261.71	72
261.942	98
262.175	115
262.407	102
262.64	89
262.872	73
263.105	93
263.337	89
263.57	75
263.802	86
264.035	84
264.267	74
264.499	73
264.732	81
264.964	89
265.197	85
265.429	94
265.661	93
265.894	76
266.126	73
266.358	76
266.591	78
266.823	85
267.055	59
267.287	74
267.52	80
267.752	102
267.984	76
268.216	79
268.448	80
268.681	70
268.913	96
269.145	78
269.377	82
269.609	89
269.841	87
270.073	91
270.306	83
270.538	89
270.77	80
271.002	81
271.234	88
271.466	95
271.698	85
271.93	77
272.162	91
272.394	64
272.626	76
272.858	77
273.09	97
273.322	87
273.553	86
273.785	84
274.017	83
274.249	80
274.481	85
274.713	88
274.945	83
275.176	97
275.408	85
275.64	76
275.872	86
276.104	91
276.335	83
276.567	97
276.799	106
277.031	98
277.262	92
277.494	91
277.726	80
277.957	79
278.189	89
278.421	77
278.652	73
278.884	97
279.115	74
279.347	75
279.579	85
279.81	90
280.042	88
280.273	117
280.505	98
280.736	86
280.968	86
281.199	99
281.431	90
281.662	88
281.894	81
282.125	89
282.356	116
282.588	130
282.819	98
283.051	85
283.282	89
283.513	88
283.745	84
283.976	85
284.207	83
284.439	72
284.67	80
284.901	87
285.132	75
285.364	82
285.595	97
285.826	78
286.057	82
286.288	85
286.52	87
286.751	88
286.982	81
287.213	74
287.444	93
287.675	66
287.906	92
288.138	92
288.369	96
288.6	92
288.831	99
289.062	75
289.293	89
289.524	94
289.755	95
289.986	91
290.217	81
290.448	85
290.679	97
290.91	93
291.141	76
291.371	88
291.602	92
291.833	92
292.064	103
292.295	77
292.526	90
292.757	92
292.987	76
293.218	71
293.449	87
293.68	86
293.91	84
294.141	94
294.372	87
294.603	94
294.833	95
295.064	85
295.295	85
295.525	99
295.756	91
295.987	110
296.217	120
296.448	130
296.679	99
296.909	79
297.14	81
297.37	87
297.601	95
297.831	95
298.062	89
298.292	89
298.523	82
298.753	91
298.984	94
299.214	89
299.445	89
299.675	94
299.905	93
300.136	89
300.366	82
300.597	91
300.827	114
301.057	92
301.288	101
301.518	102
301.748	73
301.979	101
302.209	89
302.439	70
302.669	86
302.9	97
303.13	108
303.36	102
303.59	103
303.82	97
304.051	92
304.281	87
304.511	82
304.741	73
304.971	80
305.201	84
305.431	89
305.661	83
305.891	93
306.121	98
306.352	99
306.582	105
306.812	82
307.042	95
307.272	94
307.502	108
307.731	99
307.961	84
308.191	88
308.421	86
308.651	87
308.881	78
309.111	96
309.341	103
309.571	88
309.8	87
310.03	89
310.26	108
310.49	85
310.72	91
310.949	111
311.179	89
311.409	85
311.639	95
311.868	87
312.098	94
312.328	90
312.557	96
312.787	86
313.017	99
313.246	97
313.476	89
313.706	99
313.935	98
314.165	90
314.394	97
314.624	92
314.853	98
315.083	94
315.312	108
315.542	91
315.771	86
316.001	92
316.23	85
316.46	79
316.689	81
316.919	98
317.148	92
317.377	94
317.607	100
317.836	91
318.065	84
318.295	87
318.524	89
318.753	86
318.983	92
319.212	96
319.441	105
319.67	89
319.9	93
320.129	89
320.358	111
320.587	99
320.816	101
321.046	97
321.275	104
321.504	89
321.733	100
321.962	86
322.191	89
322.42	100
322.649	109
322.878	113
323.108	112
323.337	123
323.566	132
323.795	153
324.024	225
324.253	440
324.482	925
324.71	2013
324.939	2542
325.168	927
325.397	256
325.626	171
325.855	118
326.084	133
326.313	154
326.542	161
326.77	257
326.999	494
327.228	1119
327.457	2047
327.686	1583
327.914	423
328.143	233
328.372	172
328.6	131
328.829	110
329.058	116
329.287	126
329.515	117
329.744	119
329.972	125
330.201	160
330.43	216
330.658	155
330.887	145
331.115	122
331.344	108
331.572	113
331.801	94
332.03	108
332.258	85
332.486	90
332.715	73
332.943	83
333.172	104
333.4	100
333.629	118
333.857	129
334.085	139
334.314	171
334.542	236
334.771	228
334.999	115
335.227	89
335.455	100
335.684	95
335.912	69
336.14	82
336.369	101
336.597	93
336.825	95
337.053	94
337.281	89
337.51	82
337.738	90
337.966	92
338.194	104
338.422	91
338.65	88
338.878	76
339.106	84
339.334	95
339.562	95
339.79	90
340.018	105
340.246	86
340.474	76
340.702	84
340.93	93
341.158	77
341.386	99
341.614	108
341.842	95
342.07	77
342.298	95
342.526	78
342.754	84
342.981	96
343.209	70
343.437	88
343.665	94
343.893	95
344.12	96
344.348	84
344.576	96
344.804	87
345.031	100
345.259	99
345.487	89
345.714	93
345.942	69
346.17	96
346.397	96
346.625	75
346.853	81
347.08	89
347.308	91
347.535	90
347.763	92
347.99	81
348.218	97
348.445	109
348.673	110
348.9	99
349.128	89
349.355	89
349.583	97
349.81	94
350.037	88
350.265	89
350.492	81
350.72	96
350.947	98
351.174	106
351.402	101
351.629	93
351.856	99
352.083	107
352.311	91
352.538	117
352.765	114
352.992	107
353.22	110
353.447	107
353.674	93
353.901	104
354.128	104
354.355	95
354.583	93
354.81	95
355.037	87
355.264	92
355.491	69
355.718	84
355.945	105
356.172	96
356.399	87
356.626	84
356.853	102
357.08	97
357.307	84
357.534	94
357.761	91
357.988	84
358.215	82
358.441	78
358.668	91
358.895	83
359.122	95
359.349	75
359.576	101
359.802	103
360.029	97
360.256	104
360.483	83
360.709	83
360.936	79
361.163	89
361.39	89
361.616	95
361.843	93
362.07	94
362.296	100
362.523	94
362.749	83
362.976	86
363.203	93
363.429	82
363.656	89
363.882	87
364.109	81
364.335	93
364.562	71
364.788	103
365.015	98
365.241	94
365.468	111
365.694	100
365.92	103
366.147	82
366.373	103
366.599	88
366.826	83
367.052	81
367.278	95
367.505	81
367.731	97
367.957	93
368.184	97
368.41	102
368.636	88
368.862	117
369.089	107
369.315	96
369.541	84
369.767	87
369.993	93
370.219	90
370.445	78
370.672	84
370.898	79
371.124	93
371.35	83
371.576	83
371.802	63
372.028	78
372.254	65
372.48	76
372.706	76
372.932	75
373.158	85
373.384	71
373.61	96
373.835	97
374.061	92
374.287	85
374.513	99
374.739	93
374.965	96
375.191	88
375.416	88
375.642	86
375.868	90
376.094	91
376.319	89
376.545	87
376.771	76
376.997	88
377.222	85
377.448	88
377.674	92
377.899	83
378.125	75
378.35	91
378.576	79
378.802	94
379.027	95
379.253	99
379.478	98
379.704	87
379.929	83
380.155	89
380.38	93
380.606	85
380.831	96
381.057	94
381.282	83
381.507	90
381.733	88
381.958	86
382.184	93
382.409	96
382.634	87
382.86	91
383.085	113
383.31	95
383.535	93
383.761	107
383.986	84
384.211	88
384.436	84
384.662	91
384.887	102
385.112	93
385.337	110
385.562	100
385.787	96
386.013	101
386.238	104
386.463	103
386.688	110
386.913	103
387.138	107
387.363	107
387.588	91
387.813	100
388.038	96
388.263	108
388.488	88
388.713	87
388.938	88
389.163	84
389.387	90
389.612	91
389.837	82
390.062	98
390.287	96
390.512	95
390.736	89
390.961	84
391.186	92
391.411	93
391.636	90
391.86	99
392.085	85
392.31	78
392.534	98
392.759	92
392.984	83
393.208	87
393.433	100
393.658	90
393.882	82
394.107	77
394.331	83
394.556	91
394.78	91
395.005	85
395.229	81
395.454	92
395.678	91
395.903	88
396.127	79
396.352	81
396.576	96
396.801	89
397.025	91
397.249	74
397.474	79
397.698	67
397.922	81
398.147	78
398.371	75
398.595	84
398.82	83
399.044	72
399.268	91
399.492	87
399.717	70
399.941	73
400.165	101
400.389	89
400.613	63
400.837	80
401.062	103
401.286	83
401.51	80
401.734	93
401.958	97
402.182	118
402.406	154
402.63	116
402.854	76
403.078	83
403.302	72
403.526	97
403.75	86
403.974	79
404.198	87
404.422	105
404.645	81
404.869	84
405.093	91
405.317	110
405.541	93
405.765	92
405.988	115
406.212	166
406.436	211
406.66	145
406.883	94
407.107	80
407.331	69
407.555	94
407.778	103
408.002	94
408.226	92
408.449	80
408.673	80
408.896	86
409.12	87
409.344	85
409.567	98
409.791	97
410.014	91
410.238	98
410.461	88
410.685	94
410.908	78
411.132	89
411.355	92
411.578	99
411.802	89
412.025	81
412.249	90
412.472	93
412.695	108
412.919	89
413.142	91
413.365	82
413.589	93
413.812	82
414.035	79
414.258	88
414.482	84
414.705	80
414.928	71
415.151	85
415.374	81
415.597	86
415.821	90
416.044	93
416.267	77
416.49	86
416.713	81
416.936	77
417.159	90
417.382	86
417.605	82
417.828	86
418.051	85
418.274	89
418.497	94
418.72	80
418.943	81
419.166	84
419.389	82
419.611	84
419.834	84
420.057	93
420.28	90
420.503	77
420.726	81
420.948	102
421.171	82
421.394	96
421.617	90
421.839	90
422.062	95
422.285	92
422.507	89
422.73	94
422.953	89
423.175	79
423.398	96
423.621	89
423.843	83
424.066	79
424.288	80
424.511	74
424.733	84
424.956	97
425.178	97
425.401	103
425.623	75
425.846	88
426.068	101
426.291	86
426.513	85
426.735	93
426.958	109
427.18	112
427.402	125
427.625	179
427.847	143
428.069	120
428.292	80
428.514	92
428.736	88
428.958	91
429.181	90
429.403	92
429.625	95
429.847	91
430.069	90
430.292	92
430.514	91
430.736	83
430.958	88
431.18	83
431.402	78
431.624	75
431.846	79
432.068	94
432.29	89
432.512	75
432.734	77
432.956	84
433.178	108
433.4	87
433.622	89
433.844	76
434.066	65
434.287	90
434.509	90
434.731	88
434.953	95
435.175	88
435.397	79
435.618	102
435.84	87
436.062	116
436.284	110
436.505	103
436.727	105
436.949	98
437.17	97
437.392	84
437.614	84
437.835	97
438.057	100
438.278	104
438.5	101
438.721	117
438.943	106
439.165	95
439.386	71
439.608	74
439.829	102
440.05	121
440.272	136
440.493	101
440.715	82
440.936	83
441.158	103
441.379	97
441.6	82
441.822	84
442.043	95
442.264	101
442.486	96
442.707	82
442.928	103
443.149	108
443.371	114
443.592	100
443.813	112
444.034	104
444.255	76
444.476	75
444.698	93
444.919	88
445.14	128
445.361	126
445.582	115
445.803	141
446.024	132
446.245	126
446.466	99
446.687	80
446.908	82
447.129	86
447.35	80
447.571	93
447.792	85
448.013	84
448.234	94
448.455	91
448.675	111
448.896	102
449.117	83
449.338	100
449.559	131
449.779	143
450	93
450.221	94
450.442	92
450.662	84
450.883	92
451.104	112
451.324	101
451.545	64
451.766	95
451.986	89
452.207	83
452.428	93
452.648	78
452.869	107
453.089	112
453.31	103
453.53	70
453.751	93
453.971	100
454.192	107
454.412	101
454.633	80
454.853	79
455.073	86
455.294	94
455.514	98
455.734	90
455.955	71
456.175	86
456.395	73
456.616	76
456.836	71
457.056	76
457.276	74
457.497	73
457.717	79
457.937	86
458.157	90
458.377	77
458.598	108
458.818	152
459.038	171
459.258	111
459.478	81
459.698	79
459.918	87
460.138	73
460.358	71
460.578	85
460.798	97
461.018	73
461.238	71
461.458	79
461.678	89
461.898	98
462.118	84
462.338	75
462.558	75
462.777	80
462.997	96
463.217	81
463.437	84
463.657	82
463.876	89
464.096	85
464.316	87
464.536	78
464.755	87
464.975	96
465.195	145
465.414	150
465.634	88
465.854	87
466.073	83
466.293	89
466.512	83
466.732	85
466.951	80
467.171	84
467.391	84
467.61	92
467.829	106
468.049	128
468.268	139
468.488	85
468.707	77
468.927	75
469.146	78
469.365	90
469.585	74
469.804	84
470.023	91
470.243	88
470.462	92
470.681	100
470.901	77
471.12	84
471.339	89
471.558	84
471.777	81
471.997	112
472.216	175
472.435	301
472.654	137
472.873	104
473.092	85
473.311	89
473.53	83
473.749	96
473.968	97
474.187	110
474.406	91
474.625	77
474.844	95
475.063	79
475.282	75
475.501	94
475.72	71
475.939	76
476.158	87
476.377	88
476.596	83
476.814	82
477.033	94
477.252	76
477.471	92
477.69	97
477.908	81
478.127	92
478.346	84
478.564	95
478.783	91
479.002	92
479.22	109
479.439	117
479.658	92
479.876	88
480.095	87
480.313	81
480.532	94
480.751	116
480.969	203
481.188	499
481.406	337
481.624	118
481.843	80
482.061	93
482.28	88
482.498	85
482.717	87
482.935	80
483.153	93
483.372	82
483.59	83
483.808	87
484.027	100
484.245	88
484.463	97
484.681	100
484.9	91
485.118	80
485.336	102
485.554	101
485.772	105
485.99	100
486.209	104
486.427	108
486.645	108
486.863	113
487.081	95
487.299	95
487.517	91
487.735	85
487.953	90
488.171	89
488.389	78
488.607	100
488.825	93
489.043	86
489.261	92
489.479	97
489.696	93
489.914	96
490.132	86
490.35	86
490.568	87
490.786	82
491.003	93
491.221	75
491.439	83
491.657	86
491.874	97
492.092	69
492.31	95
492.527	87
492.745	88
492.963	81
493.18	93
493.398	107
493.615	89
493.833	87
494.05	85
494.268	96
494.485	88
494.703	88
494.92	85
495.138	77
495.355	78
495.573	86
495.79	87
496.008	84
496.225	95
496.442	83
496.66	79
496.877	82
497.094	94
497.312	88
497.529	80
497.746	89
497.963	90
498.181	92
498.398	70
498.615	107
498.832	88
499.049	79
499.267	97
499.484	93
499.701	79
499.918	91
500.135	94
500.352	90
500.569	96
500.786	94
501.003	80
501.22	94
501.437	91
501.654	85
501.871	104
502.088	99
502.305	77
502.522	84
502.739	99
502.956	76
503.172	96
503.389	95
503.606	98
503.823	92
504.04	91
504.256	97
504.473	94
504.69	86
504.907	88
505.123	69
505.34	83
505.557	95
505.773	85
505.99	86
506.207	78
506.423	94
506.64	89
506.856	80
507.073	86
507.289	84
507.506	99
507.722	105
507.939	98
508.155	112
508.372	97
508.588	104
508.805	100
509.021	93
509.238	88
509.454	85
509.67	107
509.887	100
510.103	129
510.319	220
510.536	811
510.752	2695
510.968	735
511.184	155
511.401	113
511.617	97
511.833	96
512.049	96
512.265	88
512.481	97
512.698	95
512.914	89
513.13	87
513.346	87
513.562	88
513.778	88
513.994	94
514.21	96
514.426	104
514.642	138
514.858	118
515.074	173
515.29	477
515.506	1575
515.721	555
515.937	155
516.153	110
516.369	102
516.585	95
516.801	89
517.016	84
517.232	77
517.448	105
517.664	86
517.879	83
518.095	83
518.311	81
518.527	101
518.742	89
518.958	103
519.173	97
519.389	96
519.605	88
519.82	86
520.036	82
520.251	117
520.467	115
520.682	100
520.898	104
521.113	117
521.329	126
521.544	189
521.76	585
521.975	2570
522.19	1579
522.406	319
522.621	133
522.836	112
523.052	93
523.267	97
523.482	90
523.698	94
523.913	129
524.128	94
524.343	90
524.559	101
524.774	90
524.989	98
525.204	106
525.419	105
525.634	85
525.849	77
526.064	99
526.28	84
526.495	99
526.71	86
526.925	82
527.14	77
527.355	104
527.57	93
527.785	90
527.999	83
528.214	87
528.429	76
528.644	82
528.859	76
529.074	85
529.289	110
529.503	167
529.718	94
529.933	111
530.148	94
530.363	84
530.577	87
530.792	93
531.007	77
531.221	85
531.436	68
531.651	69
531.865	96
532.08	100
532.295	100
532.509	88
532.724	80
532.938	88
533.153	91
533.367	93
533.582	80
533.796	86
534.011	80
534.225	84
534.44	87
534.654	90
534.868	77
535.083	79
535.297	89
535.511	98
535.726	93
535.94	86
536.154	84
536.369	91
536.583	88
536.797	89
537.011	85
537.225	91
537.44	93
537.654	86
537.868	87
538.082	87
538.296	79
538.51	86
538.724	96
538.938	82
539.153	109
539.367	95
539.581	97
539.795	95
540.009	86
540.222	86
540.436	84
540.65	78
540.864	91
541.078	101
541.292	91
541.506	89
541.72	78
541.934	80
542.147	89
542.361	78
542.575	93
542.789	94
543.002	70
543.216	83
543.43	111
543.644	102
543.857	93
544.071	94
544.285	93
544.498	81
544.712	90
544.925	82
545.139	76
545.352	89
545.566	92
545.779	87
545.993	81
546.206	87
546.42	100
546.633	87
546.847	91
547.06	72
547.274	84
547.487	88
547.7	81
547.914	93
548.127	92
548.34	84
548.554	87
548.767	91
548.98	94
549.193	86
549.407	84
549.62	85
549.833	88
550.046	99
550.259	84
550.473	85
550.686	80
550.899	71
551.112	69
551.325	85
551.538	67
551.751	79
551.964	89
552.177	81
552.39	85
552.603	91
552.816	95
553.029	82
553.242	72
553.455	96
553.667	89
553.88	103
554.093	86
554.306	87
554.519	95
554.732	87
554.944	69
555.157	91
555.37	95
555.583	97
555.795	92
556.008	78
556.221	83
556.433	81
556.646	88
556.859	88
557.071	94
557.284	86
557.496	91
557.709	86
557.921	84
558.134	82
558.346	85
558.559	70
558.771	75
558.984	87
559.196	106
559.409	87
559.621	86
559.833	72
560.046	74
560.258	78
560.47	88
560.683	78
560.895	81
561.107	86
561.32	83
561.532	87
561.744	98
561.956	82
562.168	72
562.381	85
562.593	97
562.805	90
563.017	84
563.229	92
563.441	94
563.653	96
563.865	74
564.077	74
564.289	90
564.501	83
564.713	92
564.925	88
565.137	97
565.349	92
565.561	83
565.773	89
565.985	85
566.197	86
566.408	81
566.62	97
566.832	84
567.044	91
567.255	95
567.467	81
567.679	103
567.891	87
568.102	80
568.314	92
568.526	71
568.737	101
568.949	81
569.161	89
569.372	86
569.584	82
569.795	86
570.007	119
570.218	254
570.43	153
570.641	88
570.853	85
571.064	84
571.276	71
571.487	80
571.698	79
571.91	86
572.121	78
572.333	107
572.544	74
572.755	79
572.966	78
573.178	88
573.389	88
573.6	91
573.811	87
574.023	91
574.234	83
574.445	81
574.656	99
574.867	76
575.078	79
575.289	102
575.501	80
575.712	88
575.923	88
576.134	101
576.345	84
576.556	79
576.767	88
576.978	82
577.188	93
577.399	93
577.61	96
577.821	86
578.032	112
578.243	292
578.454	840
578.665	239
578.875	95
579.086	88
579.297	89
579.508	83
579.718	94
579.929	91
580.14	75
580.35	89
580.561	87
580.772	81
580.982	77
581.193	84
581.403	85
581.614	76
581.825	83
582.035	68
582.246	78
582.456	79
582.667	60
582.877	89
583.087	85
583.298	89
583.508	82
583.719	81
583.929	89
584.139	90
584.35	96
584.56	100
584.77	99
584.981	87
585.191	99
585.401	91
585.611	87
