Data from Circ_2003_H10_HRD10591_00048.txt Node
Date: Wed Jan 03 10:37:12 EST 2024
User: Yrep
Spectrometer: HR+D1059
Trigger mode: 1
Integration Time (sec): 1.000000E-1
Scans to average: 1
Electric dark correction enabled: true
Nonlinearity correction enabled: false
Boxcar width: 0
XAxis mode: Wavelengths
Number of Pixels in Spectrum: 2048
>>>>>Begin Spectral Data<<<<<
223.165	-13.44
223.4	-13.44
223.635	-13.44
223.869	-19.44
224.104	-6.44
224.338	-19.44
224.573	-24.44
224.808	-21.44
225.042	-13.44
225.277	-7.44
225.511	0.56
225.746	2.56
225.98	11.56
226.215	20.56
226.449	12.56
226.683	29.56
226.918	23.56
227.152	24.56
227.387	40.56
227.621	47.56
227.856	44.56
228.09	29.56
228.324	46.56
228.559	49.56
228.793	159.56
229.027	455.56
229.262	527.56
229.496	598.56
229.73	783.56
229.964	776.56
230.199	535.56
230.433	479.56
230.667	469.56
230.901	455.56
231.136	438.56
231.37	450.56
231.604	424.56
231.838	449.56
232.072	467.56
232.306	440.56
232.541	464.56
232.775	453.56
233.009	461.56
233.243	469.56
233.477	481.56
233.711	489.56
233.945	493.56
234.179	494.56
234.413	478.56
234.647	501.56
234.881	511.56
235.115	513.56
235.349	529.56
235.583	535.56
235.817	594.56
236.051	636.56
236.285	590.56
236.519	620.56
236.753	705.56
236.987	919.56
237.221	1367.56
237.455	1483.56
237.689	904.56
237.922	744.56
238.156	684.56
238.39	691.56
238.624	638.56
238.858	628.56
239.091	644.56
239.325	662.56
239.559	685.56
239.793	689.56
240.027	767.56
240.26	884.56
240.494	965.56
240.728	932.56
240.961	869.56
241.195	799.56
241.429	799.56
241.662	748.56
241.896	760.56
242.13	750.56
242.363	738.56
242.597	769.56
242.83	811.56
243.064	808.56
243.298	785.56
243.531	833.56
243.765	806.56
243.998	847.56
244.232	862.56
244.465	871.56
244.699	848.56
244.932	882.56
245.166	884.56
245.399	907.56
245.633	856.56
245.866	877.56
246.099	895.56
246.333	931.56
246.566	936.56
246.8	940.56
247.033	988.56
247.266	1012.56
247.5	1070.56
247.733	1144.56
247.966	1121.56
248.2	1116.56
248.433	1126.56
248.666	1218.56
248.899	1326.56
249.133	1449.56
249.366	1436.56
249.599	1334.56
249.832	1200.56
250.066	1219.56
250.299	1289.56
250.532	1398.56
250.765	1603.56
250.998	1755.56
251.231	1632.56
251.465	1464.56
251.698	1427.56
251.931	1365.56
252.164	1347.56
252.397	1408.56
252.63	1437.56
252.863	1521.56
253.096	1644.56
253.329	1686.56
253.562	1626.56
253.795	1549.56
254.028	1542.56
254.261	1595.56
254.494	1754.56
254.727	2131.56
254.96	2211.56
255.193	1933.56
255.426	1723.56
255.659	1662.56
255.892	1730.56
256.124	1813.56
256.357	1727.56
256.59	1607.56
256.823	1533.56
257.056	1515.56
257.289	1536.56
257.521	1558.56
257.754	1504.56
257.987	1535.56
258.22	1528.56
258.452	1526.56
258.685	1536.56
258.918	1556.56
259.151	1631.56
259.383	1664.56
259.616	1694.56
259.849	1741.56
260.081	1906.56
260.314	2060.56
260.547	2021.56
260.779	1843.56
261.012	1788.56
261.244	1668.56
261.477	1650.56
261.71	1696.56
261.942	1776.56
262.175	1739.56
262.407	1712.56
262.64	1645.56
262.872	1659.56
263.105	1625.56
263.337	1637.56
263.57	1663.56
263.802	1639.56
264.035	1666.56
264.267	1634.56
264.499	1676.56
264.732	1650.56
264.964	1648.56
265.197	1705.56
265.429	1705.56
265.661	1700.56
265.894	1710.56
266.126	1732.56
266.358	1785.56
266.591	1783.56
266.823	1835.56
267.055	1888.56
267.287	1847.56
267.52	1824.56
267.752	1867.56
267.984	1902.56
268.216	1908.56
268.448	1947.56
268.681	1974.56
268.913	2097.56
269.145	2365.56
269.377	2352.56
269.609	2261.56
269.841	2229.56
270.073	2352.56
270.306	2627.56
270.538	2820.56
270.77	2661.56
271.002	2492.56
271.234	2405.56
271.466	2598.56
271.698	2747.56
271.93	2705.56
272.162	2781.56
272.394	2643.56
272.626	2491.56
272.858	2339.56
273.09	2254.56
273.322	2245.56
273.553	2216.56
273.785	2238.56
274.017	2223.56
274.249	2261.56
274.481	2264.56
274.713	2249.56
274.945	2301.56
275.176	2255.56
275.408	2262.56
275.64	2283.56
275.872	2275.56
276.104	2298.56
276.335	2363.56
276.567	2426.56
276.799	2602.56
277.031	2783.56
277.262	2923.56
277.494	2803.56
277.726	2573.56
277.957	2500.56
278.189	2399.56
278.421	2396.56
278.652	2370.56
278.884	2373.56
279.115	2418.56
279.347	2388.56
279.579	2417.56
279.81	2390.56
280.042	2382.56
280.273	2418.56
280.505	2431.56
280.736	2377.56
280.968	2407.56
281.199	2445.56
281.431	2455.56
281.662	2492.56
281.894	2512.56
282.125	2558.56
282.356	2744.56
282.588	2849.56
282.819	2669.56
283.051	2559.56
283.282	2525.56
283.513	2557.56
283.745	2667.56
283.976	2632.56
284.207	2634.56
284.439	2646.56
284.67	2627.56
284.901	2652.56
285.132	2676.56
285.364	2648.56
285.595	2601.56
285.826	2619.56
286.057	2704.56
286.288	2710.56
286.52	2716.56
286.751	2679.56
286.982	2715.56
287.213	2739.56
287.444	2731.56
287.675	2813.56
287.906	2945.56
288.138	2951.56
288.369	2940.56
288.6	2965.56
288.831	2917.56
289.062	2883.56
289.293	2827.56
289.524	2837.56
289.755	2831.56
289.986	2879.56
290.217	2826.56
290.448	2837.56
290.679	2842.56
290.91	2774.56
291.141	2783.56
291.371	2867.56
291.602	2875.56
291.833	2828.56
292.064	2869.56
292.295	2844.56
292.526	2885.56
292.757	2859.56
292.987	2791.56
293.218	2831.56
293.449	2917.56
293.68	2852.56
293.91	2837.56
294.141	2832.56
294.372	2807.56
294.603	2911.56
294.833	2865.56
295.064	2899.56
295.295	2946.56
295.525	2925.56
295.756	3017.56
295.987	3044.56
296.217	3254.56
296.448	3147.56
296.679	2977.56
296.909	2948.56
297.14	2998.56
297.37	3100.56
297.601	3063.56
297.831	2989.56
298.062	3075.56
298.292	3048.56
298.523	3113.56
298.753	3158.56
298.984	3090.56
299.214	3175.56
299.445	3107.56
299.675	3123.56
299.905	3199.56
300.136	3183.56
300.366	3216.56
300.597	3255.56
300.827	3295.56
301.057	3402.56
301.288	3440.56
301.518	3377.56
301.748	3384.56
301.979	3400.56
302.209	3415.56
302.439	3438.56
302.669	3393.56
302.9	3348.56
303.13	3323.56
303.36	3395.56
303.59	3434.56
303.82	3409.56
304.051	3325.56
304.281	3380.56
304.511	3271.56
304.741	3295.56
304.971	3327.56
305.201	3300.56
305.431	3321.56
305.661	3335.56
305.891	3300.56
306.121	3275.56
306.352	3371.56
306.582	3343.56
306.812	3238.56
307.042	3360.56
307.272	3319.56
307.502	3304.56
307.731	3342.56
307.961	3337.56
308.191	3316.56
308.421	3283.56
308.651	3301.56
308.881	3343.56
309.111	3372.56
309.341	3407.56
309.571	3494.56
309.8	3539.56
310.03	3652.56
310.26	3640.56
310.49	3650.56
310.72	3767.56
310.949	3836.56
311.179	3867.56
311.409	3686.56
311.639	3707.56
311.868	3679.56
312.098	3718.56
312.328	3817.56
312.557	3991.56
312.787	3977.56
313.017	3900.56
313.246	3857.56
313.476	3807.56
313.706	3855.56
313.935	3949.56
314.165	4002.56
314.394	4019.56
314.624	3967.56
314.853	3828.56
315.083	3835.56
315.312	3840.56
315.542	3812.56
315.771	3712.56
316.001	3729.56
316.23	3678.56
316.46	3789.56
316.689	3805.56
316.919	3763.56
317.148	3821.56
317.377	3861.56
317.607	3816.56
317.836	3737.56
318.065	3744.56
318.295	3713.56
318.524	3753.56
318.753	3708.56
318.983	3716.56
319.212	3731.56
319.441	3833.56
319.67	3856.56
319.9	3727.56
320.129	3764.56
320.358	3741.56
320.587	3803.56
320.816	3865.56
321.046	3863.56
321.275	3892.56
321.504	3859.56
321.733	3912.56
321.962	4008.56
322.191	4065.56
322.42	4176.56
322.649	4219.56
322.878	4358.56
323.108	4419.56
323.337	4641.56
323.566	4781.56
323.795	5184.56
324.024	5761.56
324.253	7579.56
324.482	11448.56
324.71	15575.56
324.939	15609.56
325.168	13395.56
325.397	6869.56
325.626	5384.56
325.855	4973.56
326.084	4894.56
326.313	4850.56
326.542	5059.56
326.77	5755.56
326.999	7331.56
327.228	10710.56
327.457	14712.56
327.686	13983.56
327.914	7562.56
328.143	6071.56
328.372	5744.56
328.6	5442.56
328.829	5366.56
329.058	5531.56
329.287	5506.56
329.515	5163.56
329.744	5023.56
329.972	5103.56
330.201	5412.56
330.43	5743.56
330.658	5769.56
330.887	5947.56
331.115	5529.56
331.344	5131.56
331.572	4977.56
331.801	5128.56
332.03	5103.56
332.258	5081.56
332.486	4993.56
332.715	5228.56
332.943	5385.56
333.172	5471.56
333.4	5637.56
333.629	5749.56
333.857	5913.56
334.085	5944.56
334.314	6096.56
334.542	6258.56
334.771	6155.56
334.999	5673.56
335.227	5484.56
335.455	5311.56
335.684	5195.56
335.912	5122.56
336.14	5056.56
336.369	4954.56
336.597	5056.56
336.825	5038.56
337.053	5024.56
337.281	4954.56
337.51	4832.56
337.738	4824.56
337.966	4785.56
338.194	4767.56
338.422	4660.56
338.65	4623.56
338.878	4625.56
339.106	4568.56
339.334	4560.56
339.562	4539.56
339.79	4446.56
340.018	4509.56
340.246	4478.56
340.474	4520.56
340.702	4495.56
340.93	4416.56
341.158	4505.56
341.386	4462.56
341.614	4495.56
341.842	4446.56
342.07	4399.56
342.298	4352.56
342.526	4391.56
342.754	4375.56
342.981	4381.56
343.209	4531.56
343.437	4716.56
343.665	5024.56
343.893	5329.56
344.12	5294.56
344.348	5092.56
344.576	4892.56
344.804	4806.56
345.031	4731.56
345.259	4721.56
345.487	4557.56
345.714	4406.56
345.942	4314.56
346.17	4303.56
346.397	4248.56
346.625	4300.56
346.853	4291.56
347.08	4191.56
347.308	4359.56
347.535	4411.56
347.763	4422.56
347.99	4341.56
348.218	4370.56
348.445	4411.56
348.673	4300.56
348.9	4285.56
349.128	4224.56
349.355	4052.56
349.583	4163.56
349.81	4112.56
350.037	4099.56
350.265	4156.56
350.492	4127.56
350.72	4125.56
350.947	4201.56
351.174	4292.56
351.402	4344.56
351.629	4192.56
351.856	4264.56
352.083	4332.56
352.311	4341.56
352.538	4265.56
352.765	4296.56
352.992	4198.56
353.22	4224.56
353.447	4176.56
353.674	4101.56
353.901	4029.56
354.128	3991.56
354.355	4020.56
354.583	4052.56
354.81	4056.56
355.037	4083.56
355.264	3971.56
355.491	4017.56
355.718	3985.56
355.945	4033.56
356.172	4040.56
356.399	4066.56
356.626	4033.56
356.853	4053.56
357.08	4014.56
357.307	4036.56
357.534	4022.56
357.761	4039.56
357.988	4049.56
358.215	3971.56
358.441	4001.56
358.668	4089.56
358.895	4133.56
359.122	4109.56
359.349	4246.56
359.576	4339.56
359.802	4512.56
360.029	4775.56
360.256	4696.56
360.483	4444.56
360.709	4320.56
360.936	4342.56
361.163	4330.56
361.39	4303.56
361.616	4337.56
361.843	4276.56
362.07	4253.56
362.296	4270.56
362.523	4259.56
362.749	4289.56
362.976	4230.56
363.203	4233.56
363.429	4163.56
363.656	4203.56
363.882	4114.56
364.109	4110.56
364.335	4127.56
364.562	4116.56
364.788	4098.56
365.015	4100.56
365.241	4132.56
365.468	4188.56
365.694	4162.56
365.92	4171.56
366.147	4088.56
366.373	4121.56
366.599	4119.56
366.826	4151.56
367.052	4085.56
367.278	4158.56
367.505	4135.56
367.731	4111.56
367.957	4136.56
368.184	4163.56
368.41	4278.56
368.636	4408.56
368.862	4340.56
369.089	4215.56
369.315	4236.56
369.541	4202.56
369.767	4212.56
369.993	4227.56
370.219	4259.56
370.445	4277.56
370.672	4329.56
370.898	4303.56
371.124	4351.56
371.35	4431.56
371.576	4394.56
371.802	4332.56
372.028	4393.56
372.254	4395.56
372.48	4451.56
372.706	4543.56
372.932	4622.56
373.158	4590.56
373.384	4448.56
373.61	4450.56
373.835	4448.56
374.061	4462.56
374.287	4461.56
374.513	4625.56
374.739	4712.56
374.965	4806.56
375.191	4788.56
375.416	4717.56
375.642	4607.56
375.868	4587.56
376.094	4537.56
376.319	4520.56
376.545	4448.56
376.771	4436.56
376.997	4365.56
377.222	4374.56
377.448	4392.56
377.674	4356.56
377.899	4368.56
378.125	4350.56
378.35	4342.56
378.576	4332.56
378.802	4330.56
379.027	4347.56
379.253	4395.56
379.478	4267.56
379.704	4338.56
379.929	4368.56
380.155	4381.56
380.38	4365.56
380.606	4402.56
380.831	4371.56
381.057	4425.56
381.282	4385.56
381.507	4471.56
381.733	4475.56
381.958	4472.56
382.184	4558.56
382.409	4575.56
382.634	4626.56
382.86	4606.56
383.085	4691.56
383.31	4727.56
383.535	4883.56
383.761	4839.56
383.986	4908.56
384.211	5092.56
384.436	5102.56
384.662	5181.56
384.887	5279.56
385.112	5268.56
385.337	5282.56
385.562	5301.56
385.787	5341.56
386.013	5476.56
386.238	5475.56
386.463	5381.56
386.688	5331.56
386.913	5281.56
387.138	5261.56
387.363	5305.56
387.588	5216.56
387.813	5256.56
388.038	5223.56
388.263	5264.56
388.488	5286.56
388.713	5233.56
388.938	5179.56
389.163	5229.56
389.387	5238.56
389.612	5208.56
389.837	5181.56
390.062	5192.56
390.287	5164.56
390.512	5170.56
390.736	5273.56
390.961	5379.56
391.186	5389.56
391.411	5590.56
391.636	5716.56
391.86	5847.56
392.085	5879.56
392.31	5826.56
392.534	5643.56
392.759	5647.56
392.984	5518.56
393.208	5442.56
393.433	5456.56
393.658	5430.56
393.882	5451.56
394.107	5465.56
394.331	5518.56
394.556	5553.56
394.78	5605.56
395.005	5634.56
395.229	5625.56
395.454	5817.56
395.678	5899.56
395.903	5961.56
396.127	5973.56
396.352	5709.56
396.576	5580.56
396.801	5540.56
397.025	5686.56
397.249	5843.56
397.474	5907.56
397.698	5957.56
397.922	6082.56
398.147	6115.56
398.371	6295.56
398.595	6399.56
398.82	6761.56
399.044	7345.56
399.268	8110.56
399.492	9249.56
399.717	9772.56
399.941	9601.56
400.165	8991.56
400.389	8196.56
400.613	7395.56
400.837	6891.56
401.062	6849.56
401.286	6710.56
401.51	6662.56
401.734	6558.56
401.958	6797.56
402.182	6886.56
402.406	6982.56
402.63	7036.56
402.854	7188.56
403.078	7297.56
403.302	7324.56
403.526	7519.56
403.75	7497.56
403.974	7639.56
404.198	7627.56
404.422	7740.56
404.645	7608.56
404.869	7584.56
405.093	7928.56
405.317	8006.56
405.541	8027.56
405.765	7576.56
405.988	7435.56
406.212	7693.56
406.436	7883.56
406.66	7965.56
406.883	7926.56
407.107	8498.56
407.331	9000.56
407.555	9611.56
407.778	9223.56
408.002	8536.56
408.226	8068.56
408.449	7984.56
408.673	7768.56
408.896	7967.56
409.12	8177.56
409.344	7597.56
409.567	7252.56
409.791	7299.56
410.014	7174.56
410.238	7115.56
410.461	7181.56
410.685	7205.56
410.908	7319.56
411.132	7506.56
411.355	7539.56
411.578	7148.56
411.802	6921.56
412.025	7009.56
412.249	7135.56
412.472	7270.56
412.695	7486.56
412.919	7059.56
413.142	6748.56
413.365	6731.56
413.589	6677.56
413.812	6544.56
414.035	6455.56
414.258	6541.56
414.482	6511.56
414.705	6640.56
414.928	6492.56
415.151	6524.56
415.374	6537.56
415.597	6502.56
415.821	6368.56
416.044	6366.56
416.267	6382.56
416.49	6368.56
416.713	6296.56
416.936	6516.56
417.159	6459.56
417.382	6488.56
417.605	6463.56
417.828	6718.56
418.051	6828.56
418.274	6716.56
418.497	6525.56
418.72	6656.56
418.943	6608.56
419.166	7014.56
419.389	7436.56
419.611	7339.56
419.834	7235.56
420.057	7001.56
420.28	6881.56
420.503	6727.56
420.726	6780.56
420.948	6855.56
421.171	7178.56
421.394	7191.56
421.617	6657.56
421.839	6679.56
422.062	6811.56
422.285	6943.56
422.507	7548.56
422.73	8205.56
422.953	7510.56
423.175	7164.56
423.398	7133.56
423.621	7125.56
423.843	7467.56
424.066	7386.56
424.288	7280.56
424.511	7476.56
424.733	7965.56
424.956	8400.56
425.178	7964.56
425.401	8081.56
425.623	7812.56
425.846	6883.56
426.068	6727.56
426.291	6664.56
426.513	6695.56
426.735	6860.56
426.958	7376.56
427.18	8049.56
427.402	9172.56
427.625	9332.56
427.847	7908.56
428.069	7275.56
428.292	6624.56
428.514	6171.56
428.736	6041.56
428.958	6065.56
429.181	5928.56
429.403	5927.56
429.625	6083.56
429.847	6451.56
430.069	7021.56
430.292	6437.56
430.514	5957.56
430.736	5914.56
430.958	5773.56
431.18	5769.56
431.402	5806.56
431.624	5755.56
431.846	5901.56
432.068	5890.56
432.29	5908.56
432.512	5796.56
432.734	5831.56
432.956	5821.56
433.178	5900.56
433.4	5962.56
433.622	5932.56
433.844	5910.56
434.066	5888.56
434.287	5976.56
434.509	6267.56
434.731	6481.56
434.953	6630.56
435.175	6715.56
435.397	6829.56
435.618	6660.56
435.84	7203.56
436.062	7967.56
436.284	7869.56
436.505	6715.56
436.727	6344.56
436.949	6104.56
437.17	6016.56
437.392	5895.56
437.614	6065.56
437.835	6448.56
438.057	7540.56
438.278	8171.56
438.5	8052.56
438.721	8836.56
438.943	7779.56
439.165	6503.56
439.386	6368.56
439.608	6467.56
439.829	6484.56
440.05	6836.56
440.272	7154.56
440.493	6674.56
440.715	6244.56
440.936	6203.56
441.158	6221.56
441.379	6393.56
441.6	6742.56
441.822	7009.56
442.043	7443.56
442.264	8244.56
442.486	7939.56
442.707	7012.56
442.928	6847.56
443.149	7147.56
443.371	7345.56
443.592	7926.56
443.813	8840.56
444.034	8806.56
444.255	7666.56
444.476	7500.56
444.698	7731.56
444.919	7828.56
445.14	7615.56
445.361	7459.56
445.582	7585.56
445.803	8160.56
446.024	8918.56
446.245	8462.56
446.466	7599.56
446.687	6526.56
446.908	6262.56
447.129	5912.56
447.35	5811.56
447.571	5789.56
447.792	5615.56
448.013	5763.56
448.234	5918.56
448.455	6807.56
448.675	7894.56
448.896	8365.56
449.117	6898.56
449.338	7087.56
449.559	8500.56
449.779	8552.56
450	6680.56
450.221	5923.56
450.442	5672.56
450.662	5604.56
450.883	5707.56
451.104	5749.56
451.324	5673.56
451.545	5454.56
451.766	5320.56
451.986	5141.56
452.207	5189.56
452.428	5147.56
452.648	5179.56
452.869	5241.56
453.089	5346.56
453.31	5374.56
453.53	5151.56
453.751	5136.56
453.971	5149.56
454.192	5236.56
454.412	5135.56
454.633	5073.56
454.853	5048.56
455.073	5079.56
455.294	5463.56
455.514	5980.56
455.734	5460.56
455.955	4958.56
456.175	4946.56
456.395	4711.56
456.616	4697.56
456.836	4755.56
457.056	4704.56
457.276	4691.56
457.497	4779.56
457.717	4772.56
457.937	4848.56
458.157	4964.56
458.377	5078.56
458.598	5432.56
458.818	6129.56
459.038	6932.56
459.258	6811.56
459.478	6035.56
459.698	5899.56
459.918	6030.56
460.138	6209.56
460.358	6447.56
460.578	6454.56
460.798	6506.56
461.018	6519.56
461.238	6353.56
461.458	6348.56
461.678	6295.56
461.898	6533.56
462.118	6611.56
462.338	6955.56
462.558	7015.56
462.777	7282.56
462.997	7867.56
463.217	8388.56
463.437	8129.56
463.657	7576.56
463.876	7289.56
464.096	7358.56
464.316	7373.56
464.536	7411.56
464.755	7199.56
464.975	7072.56
465.195	7221.56
465.414	7187.56
465.634	6419.56
465.854	6083.56
466.073	5801.56
466.293	5639.56
466.512	5482.56
466.732	5340.56
466.951	5340.56
467.171	5389.56
467.391	5411.56
467.61	5505.56
467.829	5458.56
468.049	5457.56
468.268	5264.56
468.488	5239.56
468.707	5080.56
468.927	5101.56
469.146	5096.56
469.365	5149.56
469.585	5192.56
469.804	5440.56
470.023	5632.56
470.243	5561.56
470.462	5630.56
470.681	5846.56
470.901	5631.56
471.12	5530.56
471.339	5480.56
471.558	5440.56
471.777	5342.56
471.997	5230.56
472.216	5372.56
472.435	5533.56
472.654	5355.56
472.873	5170.56
473.092	5095.56
473.311	5106.56
473.53	5161.56
473.749	5294.56
473.968	5780.56
474.187	6859.56
474.406	6343.56
474.625	5461.56
474.844	5180.56
475.063	5144.56
475.282	5195.56
475.501	5283.56
475.72	5284.56
475.939	5293.56
476.158	5320.56
476.377	5371.56
476.596	5309.56
476.814	5466.56
477.033	5441.56
477.252	5615.56
477.471	5703.56
477.69	5869.56
477.908	5932.56
478.127	6003.56
478.346	6173.56
478.564	6235.56
478.783	6365.56
479.002	6498.56
479.22	6451.56
479.439	6581.56
479.658	6676.56
479.876	6835.56
480.095	7077.56
480.313	7360.56
480.532	7264.56
480.751	7185.56
480.969	7195.56
481.188	7573.56
481.406	7403.56
481.624	6763.56
481.843	6422.56
482.061	6320.56
482.28	6135.56
482.498	6102.56
482.717	6050.56
482.935	6069.56
483.153	6114.56
483.372	6054.56
483.59	5940.56
483.808	6059.56
484.027	6031.56
484.245	6123.56
484.463	6166.56
484.681	6189.56
484.9	6150.56
485.118	6293.56
485.336	6416.56
485.554	6428.56
485.772	6360.56
485.99	6407.56
486.209	6523.56
486.427	6465.56
486.645	6597.56
486.863	6739.56
487.081	6620.56
487.299	6515.56
487.517	6493.56
487.735	6486.56
487.953	6448.56
