Data from Circ_2003_H10_HRD10591_00004.txt Node
Date: Wed Jan 03 10:37:03 EST 2024
User: Yrep
Spectrometer: HR+D1059
Trigger mode: 1
Integration Time (sec): 1.000000E-1
Scans to average: 1
Electric dark correction enabled: true
Nonlinearity correction enabled: false
Boxcar width: 0
XAxis mode: Wavelengths
Number of Pixels in Spectrum: 2048
>>>>>Begin Spectral Data<<<<<
223.165	-22.62
223.4	-22.62
223.635	-22.62
223.869	-3.62
224.104	-41.62
224.338	-18.62
224.573	-9.62
224.808	-22.62
225.042	4.38
225.277	-14.62
225.511	10.38
225.746	4.38
225.98	5.38
226.215	12.38
226.449	15.38
226.683	20.38
226.918	40.38
227.152	20.38
227.387	24.38
227.621	37.38
227.856	42.38
228.09	38.38
228.324	41.38
228.559	53.38
228.793	43.38
229.027	51.38
229.262	62.38
229.496	80.38
229.73	76.38
229.964	76.38
230.199	71.38
230.433	69.38
230.667	90.38
230.901	78.38
231.136	69.38
231.37	76.38
231.604	87.38
231.838	72.38
232.072	72.38
232.306	76.38
232.541	90.38
232.775	68.38
233.009	76.38
233.243	87.38
233.477	79.38
233.711	84.38
233.945	72.38
234.179	44.38
234.413	70.38
234.647	80.38
234.881	75.38
235.115	76.38
235.349	77.38
235.583	78.38
235.817	80.38
236.051	88.38
236.285	80.38
236.519	72.38
236.753	77.38
236.987	66.38
237.221	81.38
237.455	88.38
237.689	80.38
237.922	68.38
238.156	73.38
238.39	79.38
238.624	63.38
238.858	68.38
239.091	84.38
239.325	73.38
239.559	87.38
239.793	76.38
240.027	66.38
240.26	76.38
240.494	76.38
240.728	76.38
240.961	85.38
241.195	72.38
241.429	78.38
241.662	74.38
241.896	75.38
242.13	77.38
242.363	78.38
242.597	71.38
242.83	62.38
243.064	69.38
243.298	79.38
243.531	77.38
243.765	82.38
243.998	90.38
244.232	94.38
244.465	78.38
244.699	80.38
244.932	82.38
245.166	74.38
245.399	66.38
245.633	81.38
245.866	72.38
246.099	54.38
246.333	72.38
246.566	80.38
246.8	80.38
247.033	89.38
247.266	82.38
247.5	72.38
247.733	76.38
247.966	70.38
248.2	77.38
248.433	69.38
248.666	79.38
248.899	72.38
249.133	83.38
249.366	73.38
249.599	85.38
249.832	75.38
250.066	85.38
250.299	69.38
250.532	74.38
250.765	68.38
250.998	81.38
251.231	92.38
251.465	81.38
251.698	96.38
251.931	84.38
252.164	74.38
252.397	65.38
252.63	97.38
252.863	87.38
253.096	83.38
253.329	80.38
253.562	77.38
253.795	81.38
254.028	80.38
254.261	81.38
254.494	78.38
254.727	82.38
254.96	68.38
255.193	90.38
255.426	81.38
255.659	85.38
255.892	86.38
256.124	70.38
256.357	83.38
256.59	95.38
256.823	64.38
257.056	71.38
257.289	84.38
257.521	79.38
257.754	72.38
257.987	79.38
258.22	87.38
258.452	67.38
258.685	78.38
258.918	76.38
259.151	76.38
259.383	77.38
259.616	75.38
259.849	84.38
260.081	76.38
260.314	77.38
260.547	74.38
260.779	77.38
261.012	97.38
261.244	83.38
261.477	91.38
261.71	94.38
261.942	93.38
262.175	97.38
262.407	79.38
262.64	72.38
262.872	81.38
263.105	94.38
263.337	84.38
263.57	84.38
263.802	74.38
264.035	78.38
264.267	77.38
264.499	92.38
264.732	87.38
264.964	101.38
265.197	85.38
265.429	79.38
265.661	81.38
265.894	90.38
266.126	85.38
266.358	78.38
266.591	73.38
266.823	83.38
267.055	66.38
267.287	75.38
267.52	88.38
267.752	83.38
267.984	89.38
268.216	94.38
268.448	81.38
268.681	71.38
268.913	79.38
269.145	81.38
269.377	85.38
269.609	69.38
269.841	91.38
270.073	78.38
270.306	82.38
270.538	83.38
270.77	92.38
271.002	77.38
271.234	82.38
271.466	77.38
271.698	99.38
271.93	81.38
272.162	83.38
272.394	73.38
272.626	72.38
272.858	79.38
273.09	95.38
273.322	91.38
273.553	81.38
273.785	98.38
274.017	84.38
274.249	85.38
274.481	72.38
274.713	77.38
274.945	97.38
275.176	73.38
275.408	76.38
275.64	79.38
275.872	86.38
276.104	93.38
276.335	94.38
276.567	99.38
276.799	84.38
277.031	83.38
277.262	90.38
277.494	82.38
277.726	79.38
277.957	85.38
278.189	85.38
278.421	77.38
278.652	72.38
278.884	91.38
279.115	66.38
279.347	93.38
279.579	96.38
279.81	79.38
280.042	85.38
280.273	90.38
280.505	92.38
280.736	94.38
280.968	72.38
281.199	77.38
281.431	100.38
281.662	83.38
281.894	84.38
282.125	90.38
282.356	96.38
282.588	110.38
282.819	107.38
283.051	83.38
283.282	85.38
283.513	90.38
283.745	81.38
283.976	82.38
284.207	81.38
284.439	84.38
284.67	94.38
284.901	77.38
285.132	81.38
285.364	81.38
285.595	88.38
285.826	89.38
286.057	76.38
286.288	75.38
286.52	81.38
286.751	84.38
286.982	82.38
287.213	87.38
287.444	86.38
287.675	100.38
287.906	82.38
288.138	96.38
288.369	82.38
288.6	80.38
288.831	89.38
289.062	84.38
289.293	74.38
289.524	87.38
289.755	86.38
289.986	87.38
290.217	88.38
290.448	95.38
290.679	88.38
290.91	92.38
291.141	88.38
291.371	92.38
291.602	92.38
291.833	78.38
292.064	90.38
292.295	87.38
292.526	85.38
292.757	84.38
292.987	88.38
293.218	89.38
293.449	80.38
293.68	75.38
293.91	78.38
294.141	93.38
294.372	77.38
294.603	84.38
294.833	84.38
295.064	72.38
295.295	69.38
295.525	91.38
295.756	82.38
295.987	89.38
296.217	118.38
296.448	112.38
296.679	75.38
296.909	84.38
297.14	74.38
297.37	83.38
297.601	89.38
297.831	86.38
298.062	73.38
298.292	85.38
298.523	95.38
298.753	93.38
298.984	78.38
299.214	87.38
299.445	83.38
299.675	92.38
299.905	82.38
300.136	90.38
300.366	70.38
300.597	74.38
300.827	84.38
301.057	84.38
301.288	85.38
301.518	77.38
301.748	96.38
301.979	92.38
302.209	71.38
302.439	90.38
302.669	92.38
302.9	92.38
303.13	90.38
303.36	95.38
303.59	96.38
303.82	94.38
304.051	105.38
304.281	88.38
304.511	98.38
304.741	80.38
304.971	81.38
305.201	96.38
305.431	92.38
305.661	92.38
305.891	90.38
306.121	94.38
306.352	90.38
306.582	92.38
306.812	78.38
307.042	86.38
307.272	95.38
307.502	100.38
307.731	105.38
307.961	87.38
308.191	72.38
308.421	79.38
308.651	90.38
308.881	79.38
309.111	82.38
309.341	84.38
309.571	87.38
309.8	92.38
310.03	94.38
310.26	85.38
310.49	87.38
310.72	94.38
310.949	95.38
311.179	96.38
311.409	91.38
311.639	88.38
311.868	90.38
312.098	89.38
312.328	95.38
312.557	100.38
312.787	85.38
313.017	99.38
313.246	90.38
313.476	88.38
313.706	89.38
313.935	92.38
314.165	101.38
314.394	104.38
314.624	81.38
314.853	87.38
315.083	83.38
315.312	93.38
315.542	90.38
315.771	93.38
316.001	99.38
316.23	76.38
316.46	87.38
316.689	74.38
316.919	82.38
317.148	71.38
317.377	86.38
317.607	91.38
317.836	86.38
318.065	97.38
318.295	87.38
318.524	96.38
318.753	85.38
318.983	86.38
319.212	95.38
319.441	90.38
319.67	94.38
319.9	90.38
320.129	96.38
320.358	94.38
320.587	101.38
320.816	91.38
321.046	108.38
321.275	89.38
321.504	88.38
321.733	101.38
321.962	84.38
322.191	98.38
322.42	92.38
322.649	93.38
322.878	94.38
323.108	83.38
323.337	102.38
323.566	126.38
323.795	137.38
324.024	180.38
324.253	322.38
324.482	652.38
324.71	1320.38
324.939	1717.38
325.168	643.38
325.397	220.38
325.626	134.38
325.855	116.38
326.084	113.38
326.313	128.38
326.542	140.38
326.77	193.38
326.999	376.38
327.228	764.38
327.457	1372.38
327.686	1112.38
327.914	313.38
328.143	144.38
328.372	120.38
328.6	99.38
328.829	107.38
329.058	105.38
329.287	132.38
329.515	107.38
329.744	105.38
329.972	89.38
330.201	91.38
330.43	89.38
330.658	117.38
330.887	131.38
331.115	105.38
331.344	99.38
331.572	103.38
331.801	89.38
332.03	116.38
332.258	86.38
332.486	101.38
332.715	84.38
332.943	90.38
333.172	96.38
333.4	93.38
333.629	105.38
333.857	114.38
334.085	94.38
334.314	93.38
334.542	87.38
334.771	98.38
334.999	72.38
335.227	99.38
335.455	86.38
335.684	103.38
335.912	114.38
336.14	78.38
336.369	82.38
336.597	89.38
336.825	88.38
337.053	98.38
337.281	89.38
337.51	88.38
337.738	108.38
337.966	93.38
338.194	94.38
338.422	97.38
338.65	74.38
338.878	106.38
339.106	77.38
339.334	104.38
339.562	84.38
339.79	99.38
340.018	87.38
340.246	78.38
340.474	87.38
340.702	109.38
340.93	96.38
341.158	81.38
341.386	98.38
341.614	84.38
341.842	96.38
342.07	88.38
342.298	80.38
342.526	83.38
342.754	85.38
342.981	79.38
343.209	97.38
343.437	111.38
343.665	74.38
343.893	86.38
344.12	100.38
344.348	74.38
344.576	79.38
344.804	98.38
345.031	99.38
345.259	100.38
345.487	100.38
345.714	75.38
345.942	90.38
346.17	86.38
346.397	77.38
346.625	101.38
346.853	97.38
347.08	88.38
347.308	77.38
347.535	101.38
347.763	85.38
347.99	91.38
348.218	115.38
348.445	101.38
348.673	97.38
348.9	84.38
349.128	92.38
349.355	93.38
349.583	83.38
349.81	87.38
350.037	73.38
350.265	87.38
350.492	95.38
350.72	74.38
350.947	108.38
351.174	99.38
351.402	98.38
351.629	91.38
351.856	97.38
352.083	86.38
352.311	114.38
352.538	107.38
352.765	96.38
352.992	98.38
353.22	114.38
353.447	108.38
353.674	99.38
353.901	108.38
354.128	97.38
354.355	106.38
354.583	84.38
354.81	96.38
355.037	95.38
355.264	100.38
355.491	96.38
355.718	85.38
355.945	102.38
356.172	94.38
356.399	89.38
356.626	96.38
356.853	85.38
357.08	101.38
357.307	105.38
357.534	116.38
357.761	108.38
357.988	121.38
358.215	111.38
358.441	109.38
358.668	101.38
358.895	90.38
359.122	95.38
359.349	100.38
359.576	86.38
359.802	82.38
360.029	98.38
360.256	102.38
360.483	96.38
360.709	91.38
360.936	72.38
361.163	101.38
361.39	92.38
361.616	95.38
361.843	95.38
362.07	89.38
362.296	96.38
362.523	93.38
362.749	86.38
362.976	100.38
363.203	77.38
363.429	84.38
363.656	79.38
363.882	88.38
364.109	102.38
364.335	81.38
364.562	95.38
364.788	91.38
365.015	94.38
365.241	92.38
365.468	116.38
365.694	87.38
365.92	93.38
366.147	90.38
366.373	87.38
366.599	88.38
366.826	90.38
367.052	81.38
367.278	85.38
367.505	85.38
367.731	89.38
367.957	74.38
368.184	93.38
368.41	104.38
368.636	104.38
368.862	101.38
369.089	102.38
369.315	82.38
369.541	94.38
369.767	100.38
369.993	88.38
370.219	74.38
370.445	90.38
370.672	84.38
370.898	89.38
371.124	95.38
371.35	81.38
371.576	74.38
371.802	92.38
372.028	86.38
372.254	83.38
372.48	97.38
372.706	76.38
372.932	97.38
373.158	89.38
373.384	98.38
373.61	95.38
373.835	103.38
374.061	94.38
374.287	90.38
374.513	89.38
374.739	79.38
374.965	96.38
375.191	103.38
375.416	87.38
375.642	83.38
375.868	94.38
376.094	95.38
376.319	85.38
376.545	92.38
376.771	98.38
376.997	93.38
377.222	74.38
377.448	89.38
377.674	90.38
377.899	91.38
378.125	98.38
378.35	111.38
378.576	108.38
378.802	83.38
379.027	97.38
379.253	103.38
379.478	99.38
379.704	106.38
379.929	101.38
380.155	107.38
380.38	102.38
380.606	106.38
380.831	104.38
381.057	114.38
381.282	115.38
381.507	108.38
381.733	109.38
381.958	113.38
382.184	125.38
382.409	116.38
382.634	117.38
382.86	110.38
383.085	129.38
383.31	100.38
383.535	103.38
383.761	127.38
383.986	121.38
384.211	119.38
384.436	124.38
384.662	117.38
384.887	130.38
385.112	152.38
385.337	142.38
385.562	126.38
385.787	146.38
386.013	128.38
386.238	145.38
386.463	126.38
386.688	121.38
386.913	133.38
387.138	133.38
387.363	137.38
387.588	122.38
387.813	135.38
388.038	142.38
388.263	152.38
388.488	142.38
388.713	95.38
388.938	104.38
389.163	113.38
389.387	98.38
389.612	106.38
389.837	71.38
390.062	91.38
390.287	96.38
390.512	94.38
390.736	98.38
390.961	95.38
391.186	94.38
391.411	86.38
391.636	93.38
391.86	92.38
392.085	78.38
392.31	84.38
392.534	84.38
392.759	89.38
392.984	94.38
393.208	102.38
393.433	119.38
393.658	101.38
393.882	90.38
394.107	76.38
394.331	85.38
394.556	99.38
394.78	98.38
395.005	88.38
395.229	85.38
395.454	94.38
395.678	88.38
395.903	77.38
396.127	90.38
396.352	94.38
396.576	77.38
396.801	92.38
397.025	113.38
397.249	88.38
397.474	92.38
397.698	84.38
397.922	102.38
398.147	88.38
398.371	85.38
398.595	81.38
398.82	90.38
399.044	86.38
399.268	91.38
399.492	89.38
399.717	99.38
399.941	103.38
400.165	102.38
400.389	88.38
400.613	89.38
400.837	94.38
401.062	83.38
401.286	90.38
401.51	90.38
401.734	81.38
401.958	96.38
402.182	112.38
402.406	150.38
402.63	97.38
402.854	89.38
403.078	102.38
403.302	87.38
403.526	86.38
403.75	83.38
403.974	92.38
404.198	86.38
404.422	84.38
404.645	83.38
404.869	85.38
405.093	87.38
405.317	95.38
405.541	81.38
405.765	95.38
405.988	95.38
406.212	141.38
406.436	169.38
406.66	119.38
406.883	106.38
407.107	80.38
407.331	90.38
407.555	96.38
407.778	89.38
408.002	100.38
408.226	84.38
408.449	90.38
408.673	81.38
408.896	90.38
409.12	93.38
409.344	90.38
409.567	77.38
409.791	97.38
410.014	89.38
410.238	99.38
410.461	103.38
410.685	95.38
410.908	103.38
411.132	108.38
411.355	85.38
411.578	93.38
411.802	85.38
412.025	80.38
412.249	104.38
412.472	91.38
412.695	86.38
412.919	90.38
413.142	82.38
413.365	90.38
413.589	92.38
413.812	86.38
414.035	86.38
414.258	93.38
414.482	94.38
414.705	91.38
414.928	95.38
415.151	98.38
415.374	97.38
415.597	96.38
415.821	105.38
416.044	90.38
416.267	95.38
416.49	82.38
416.713	85.38
416.936	93.38
417.159	106.38
417.382	96.38
417.605	90.38
417.828	115.38
418.051	96.38
418.274	90.38
418.497	96.38
418.72	96.38
418.943	84.38
419.166	99.38
419.389	103.38
419.611	96.38
419.834	75.38
420.057	78.38
420.28	91.38
420.503	102.38
420.726	85.38
420.948	84.38
421.171	96.38
421.394	85.38
421.617	80.38
421.839	94.38
422.062	82.38
422.285	99.38
422.507	115.38
422.73	117.38
422.953	100.38
423.175	82.38
423.398	93.38
423.621	82.38
423.843	80.38
424.066	86.38
424.288	94.38
424.511	103.38
424.733	96.38
424.956	95.38
425.178	94.38
425.401	83.38
425.623	103.38
425.846	88.38
426.068	102.38
426.291	90.38
426.513	83.38
426.735	107.38
426.958	87.38
427.18	108.38
427.402	125.38
427.625	119.38
427.847	115.38
428.069	97.38
428.292	92.38
428.514	83.38
428.736	78.38
428.958	83.38
429.181	86.38
429.403	86.38
429.625	86.38
429.847	88.38
430.069	96.38
430.292	92.38
430.514	69.38
430.736	80.38
430.958	81.38
431.18	80.38
431.402	85.38
431.624	87.38
431.846	74.38
432.068	77.38
432.29	82.38
432.512	90.38
432.734	90.38
432.956	87.38
433.178	102.38
433.4	89.38
433.622	84.38
433.844	95.38
434.066	88.38
434.287	79.38
434.509	103.38
434.731	92.38
434.953	83.38
435.175	76.38
435.397	100.38
435.618	88.38
435.84	96.38
436.062	104.38
436.284	97.38
436.505	93.38
436.727	94.38
436.949	86.38
437.17	81.38
437.392	84.38
437.614	86.38
437.835	100.38
438.057	86.38
438.278	93.38
438.5	104.38
438.721	110.38
438.943	87.38
439.165	95.38
439.386	85.38
439.608	87.38
439.829	94.38
440.05	104.38
440.272	116.38
440.493	95.38
440.715	87.38
440.936	85.38
441.158	98.38
441.379	81.38
441.6	81.38
441.822	88.38
442.043	88.38
442.264	99.38
442.486	68.38
442.707	81.38
442.928	105.38
443.149	113.38
443.371	107.38
443.592	102.38
443.813	104.38
444.034	109.38
444.255	94.38
444.476	79.38
444.698	87.38
444.919	95.38
445.14	130.38
445.361	122.38
445.582	103.38
445.803	107.38
446.024	112.38
446.245	112.38
446.466	114.38
446.687	78.38
446.908	85.38
447.129	88.38
447.35	89.38
447.571	93.38
447.792	90.38
448.013	78.38
448.234	100.38
448.455	86.38
448.675	86.38
448.896	124.38
449.117	98.38
449.338	92.38
449.559	116.38
449.779	105.38
450	89.38
450.221	82.38
450.442	94.38
450.662	92.38
450.883	98.38
451.104	94.38
451.324	98.38
451.545	77.38
451.766	78.38
451.986	77.38
452.207	74.38
452.428	105.38
452.648	88.38
452.869	99.38
453.089	107.38
453.31	104.38
453.53	94.38
453.751	88.38
453.971	97.38
454.192	101.38
454.412	98.38
454.633	80.38
454.853	84.38
455.073	96.38
455.294	89.38
455.514	91.38
455.734	89.38
455.955	79.38
456.175	84.38
456.395	106.38
456.616	82.38
456.836	85.38
457.056	79.38
457.276	89.38
457.497	90.38
457.717	89.38
457.937	97.38
458.157	87.38
458.377	95.38
458.598	88.38
458.818	115.38
459.038	130.38
459.258	114.38
459.478	90.38
459.698	85.38
459.918	88.38
460.138	83.38
460.358	85.38
460.578	87.38
460.798	95.38
461.018	88.38
461.238	87.38
461.458	89.38
461.678	97.38
461.898	100.38
462.118	84.38
462.338	94.38
462.558	76.38
462.777	82.38
462.997	81.38
463.217	86.38
463.437	95.38
463.657	95.38
463.876	73.38
464.096	77.38
464.316	79.38
464.536	79.38
464.755	70.38
464.975	98.38
465.195	120.38
465.414	132.38
465.634	100.38
465.854	86.38
466.073	86.38
466.293	79.38
466.512	100.38
466.732	92.38
466.951	89.38
467.171	84.38
467.391	82.38
467.61	93.38
467.829	89.38
468.049	82.38
468.268	84.38
468.488	80.38
468.707	70.38
468.927	75.38
469.146	95.38
469.365	87.38
469.585	88.38
469.804	94.38
470.023	90.38
470.243	85.38
470.462	95.38
470.681	93.38
470.901	84.38
471.12	100.38
471.339	90.38
471.558	85.38
471.777	85.38
471.997	88.38
472.216	87.38
472.435	83.38
472.654	93.38
472.873	80.38
473.092	88.38
473.311	80.38
473.53	105.38
473.749	80.38
473.968	97.38
474.187	85.38
474.406	85.38
474.625	97.38
474.844	64.38
475.063	74.38
475.282	91.38
475.501	82.38
475.72	87.38
475.939	72.38
476.158	85.38
476.377	105.38
476.596	99.38
476.814	87.38
477.033	93.38
477.252	88.38
477.471	92.38
477.69	90.38
477.908	81.38
478.127	71.38
478.346	88.38
478.564	81.38
478.783	86.38
479.002	100.38
479.22	82.38
479.439	91.38
479.658	80.38
479.876	80.38
480.095	92.38
480.313	75.38
480.532	97.38
480.751	89.38
480.969	77.38
481.188	90.38
481.406	87.38
481.624	88.38
481.843	78.38
482.061	79.38
482.28	87.38
482.498	75.38
482.717	91.38
482.935	106.38
483.153	86.38
483.372	90.38
483.59	94.38
483.808	95.38
484.027	89.38
484.245	84.38
484.463	82.38
484.681	98.38
484.9	100.38
485.118	99.38
485.336	88.38
485.554	92.38
485.772	110.38
485.99	104.38
486.209	107.38
486.427	113.38
486.645	126.38
486.863	99.38
487.081	111.38
487.299	95.38
487.517	103.38
487.735	92.38
487.953	93.38
488.171	100.38
488.389	84.38
488.607	90.38
488.825	96.38
489.043	93.38
489.261	76.38
489.479	88.38
489.696	86.38
489.914	82.38
490.132	84.38
490.35	83.38
490.568	89.38
490.786	82.38
491.003	87.38
491.221	81.38
491.439	87.38
491.657	98.38
491.874	90.38
492.092	109.38
492.31	97.38
492.527	93.38
492.745	81.38
492.963	90.38
493.18	88.38
493.398	93.38
493.615	96.38
493.833	93.38
494.05	101.38
494.268	92.38
494.485	94.38
494.703	78.38
494.92	86.38
495.138	86.38
495.355	88.38
495.573	71.38
495.79	89.38
496.008	104.38
496.225	95.38
496.442	87.38
496.66	102.38
496.877	87.38
497.094	102.38
497.312	82.38
497.529	93.38
497.746	94.38
497.963	101.38
498.181	90.38
498.398	101.38
498.615	108.38
498.832	92.38
499.049	94.38
499.267	91.38
499.484	86.38
499.701	80.38
499.918	89.38
500.135	85.38
500.352	90.38
500.569	94.38
500.786	84.38
501.003	94.38
501.22	93.38
501.437	83.38
501.654	89.38
501.871	109.38
502.088	100.38
502.305	102.38
502.522	82.38
502.739	85.38
502.956	81.38
503.172	76.38
503.389	80.38
503.606	77.38
503.823	76.38
504.04	89.38
504.256	91.38
504.473	85.38
504.69	90.38
504.907	94.38
505.123	72.38
505.34	94.38
505.557	84.38
505.773	97.38
505.99	96.38
506.207	88.38
506.423	89.38
506.64	84.38
506.856	83.38
507.073	89.38
507.289	99.38
507.506	93.38
507.722	120.38
507.939	103.38
508.155	90.38
508.372	104.38
508.588	80.38
508.805	104.38
509.021	110.38
509.238	96.38
509.454	100.38
509.67	109.38
509.887	105.38
510.103	104.38
510.319	182.38
510.536	588.38
510.752	1820.38
510.968	518.38
511.184	158.38
511.401	102.38
511.617	98.38
511.833	91.38
512.049	83.38
512.265	88.38
512.481	98.38
512.698	98.38
512.914	107.38
513.13	78.38
513.346	105.38
513.562	95.38
513.778	104.38
513.994	93.38
514.21	93.38
514.426	109.38
514.642	110.38
514.858	112.38
515.074	151.38
515.29	320.38
515.506	1010.38
515.721	389.38
515.937	128.38
516.153	98.38
516.369	105.38
