Data from Circ_2003_H10_HRD10591_00056.txt Node
Date: Wed Jan 03 10:37:13 EST 2024
User: Yrep
Spectrometer: HR+D1059
Trigger mode: 1
Integration Time (sec): 1.000000E-1
Scans to average: 1
Electric dark correction enabled: true
Nonlinearity correction enabled: false
Boxcar width: 0
XAxis mode: Wavelengths
Number of Pixels in Spectrum: 2048
>>>>>Begin Spectral Data<<<<<
223.165	-3.06
223.4	-3.06
223.635	-3.06
223.869	-25.06
224.104	-17.06
224.338	-25.06
224.573	-25.06
224.808	-5.06
225.042	-8.06
225.277	-14.06
225.511	-0.06
225.746	12.94
225.98	3.94
226.215	7.94
226.449	25.94
226.683	19.94
226.918	23.94
227.152	27.94
227.387	30.94
227.621	41.94
227.856	28.94
228.09	45.94
228.324	54.94
228.559	64.94
228.793	56.94
229.027	63.94
229.262	63.94
229.496	78.94
229.73	52.94
229.964	79.94
230.199	83.94
230.433	65.94
230.667	91.94
230.901	75.94
231.136	77.94
231.37	67.94
231.604	81.94
231.838	84.94
232.072	73.94
232.306	71.94
232.541	82.94
232.775	78.94
233.009	94.94
233.243	76.94
233.477	73.94
233.711	74.94
233.945	69.94
234.179	73.94
234.413	68.94
234.647	89.94
234.881	85.94
235.115	79.94
235.349	71.94
235.583	72.94
235.817	78.94
236.051	59.94
236.285	70.94
236.519	67.94
236.753	63.94
236.987	70.94
237.221	79.94
237.455	83.94
237.689	73.94
237.922	79.94
238.156	70.94
238.39	82.94
238.624	90.94
238.858	69.94
239.091	64.94
239.325	68.94
239.559	84.94
239.793	62.94
240.027	80.94
240.26	67.94
240.494	72.94
240.728	89.94
240.961	74.94
241.195	60.94
241.429	73.94
241.662	80.94
241.896	78.94
242.13	92.94
242.363	73.94
242.597	86.94
242.83	85.94
243.064	70.94
243.298	70.94
243.531	79.94
243.765	76.94
243.998	71.94
244.232	82.94
244.465	87.94
244.699	82.94
244.932	73.94
245.166	81.94
245.399	75.94
245.633	68.94
245.866	85.94
246.099	85.94
246.333	83.94
246.566	70.94
246.8	70.94
247.033	68.94
247.266	77.94
247.5	72.94
247.733	71.94
247.966	79.94
248.2	81.94
248.433	71.94
248.666	76.94
248.899	83.94
249.133	79.94
249.366	85.94
249.599	94.94
249.832	74.94
250.066	72.94
250.299	66.94
250.532	77.94
250.765	77.94
250.998	90.94
251.231	85.94
251.465	74.94
251.698	83.94
251.931	75.94
252.164	98.94
252.397	77.94
252.63	91.94
252.863	88.94
253.096	84.94
253.329	81.94
253.562	77.94
253.795	82.94
254.028	70.94
254.261	74.94
254.494	78.94
254.727	76.94
254.96	79.94
255.193	80.94
255.426	65.94
255.659	69.94
255.892	88.94
256.124	75.94
256.357	86.94
256.59	70.94
256.823	75.94
257.056	79.94
257.289	88.94
257.521	75.94
257.754	76.94
257.987	80.94
258.22	76.94
258.452	71.94
258.685	81.94
258.918	84.94
259.151	75.94
259.383	77.94
259.616	71.94
259.849	68.94
260.081	83.94
260.314	87.94
260.547	78.94
260.779	72.94
261.012	85.94
261.244	85.94
261.477	84.94
261.71	87.94
261.942	111.94
262.175	106.94
262.407	86.94
262.64	86.94
262.872	85.94
263.105	86.94
263.337	78.94
263.57	76.94
263.802	92.94
264.035	67.94
264.267	79.94
264.499	63.94
264.732	77.94
264.964	75.94
265.197	66.94
265.429	76.94
265.661	88.94
265.894	79.94
266.126	82.94
266.358	78.94
266.591	86.94
266.823	79.94
267.055	93.94
267.287	79.94
267.52	82.94
267.752	80.94
267.984	74.94
268.216	79.94
268.448	70.94
268.681	88.94
268.913	70.94
269.145	79.94
269.377	86.94
269.609	63.94
269.841	76.94
270.073	74.94
270.306	78.94
270.538	78.94
270.77	79.94
271.002	78.94
271.234	84.94
271.466	71.94
271.698	77.94
271.93	77.94
272.162	78.94
272.394	77.94
272.626	80.94
272.858	91.94
273.09	83.94
273.322	69.94
273.553	93.94
273.785	91.94
274.017	79.94
274.249	88.94
274.481	84.94
274.713	81.94
274.945	82.94
275.176	79.94
275.408	85.94
275.64	98.94
275.872	84.94
276.104	79.94
276.335	88.94
276.567	96.94
276.799	91.94
277.031	108.94
277.262	94.94
277.494	94.94
277.726	83.94
277.957	84.94
278.189	82.94
278.421	62.94
278.652	90.94
278.884	82.94
279.115	81.94
279.347	84.94
279.579	59.94
279.81	84.94
280.042	93.94
280.273	86.94
280.505	76.94
280.736	85.94
280.968	80.94
281.199	86.94
281.431	86.94
281.662	80.94
281.894	90.94
282.125	84.94
282.356	121.94
282.588	138.94
282.819	99.94
283.051	94.94
283.282	96.94
283.513	95.94
283.745	80.94
283.976	69.94
284.207	87.94
284.439	97.94
284.67	94.94
284.901	86.94
285.132	82.94
285.364	80.94
285.595	76.94
285.826	77.94
286.057	78.94
286.288	77.94
286.52	84.94
286.751	84.94
286.982	91.94
287.213	88.94
287.444	88.94
287.675	88.94
287.906	91.94
288.138	64.94
288.369	78.94
288.6	84.94
288.831	73.94
289.062	84.94
289.293	92.94
289.524	83.94
289.755	91.94
289.986	86.94
290.217	76.94
290.448	93.94
290.679	74.94
290.91	85.94
291.141	85.94
291.371	83.94
291.602	91.94
291.833	91.94
292.064	84.94
292.295	94.94
292.526	71.94
292.757	84.94
292.987	86.94
293.218	90.94
293.449	95.94
293.68	84.94
293.91	77.94
294.141	87.94
294.372	87.94
294.603	90.94
294.833	97.94
295.064	91.94
295.295	100.94
295.525	75.94
295.756	92.94
295.987	108.94
296.217	140.94
296.448	126.94
296.679	90.94
296.909	99.94
297.14	73.94
297.37	80.94
297.601	102.94
297.831	92.94
298.062	76.94
298.292	85.94
298.523	88.94
298.753	93.94
298.984	98.94
299.214	71.94
299.445	74.94
299.675	90.94
299.905	90.94
300.136	92.94
300.366	78.94
300.597	76.94
300.827	83.94
301.057	89.94
301.288	101.94
301.518	88.94
301.748	86.94
301.979	94.94
302.209	78.94
302.439	82.94
302.669	90.94
302.9	103.94
303.13	76.94
303.36	86.94
303.59	103.94
303.82	103.94
304.051	78.94
304.281	79.94
304.511	69.94
304.741	92.94
304.971	81.94
305.201	96.94
305.431	97.94
305.661	85.94
305.891	81.94
306.121	97.94
306.352	102.94
306.582	93.94
306.812	82.94
307.042	89.94
307.272	93.94
307.502	95.94
307.731	88.94
307.961	73.94
308.191	106.94
308.421	86.94
308.651	80.94
308.881	69.94
309.111	75.94
309.341	107.94
309.571	111.94
309.8	101.94
310.03	86.94
310.26	92.94
310.49	94.94
310.72	87.94
310.949	100.94
311.179	90.94
311.409	90.94
311.639	87.94
311.868	79.94
312.098	99.94
312.328	96.94
312.557	95.94
312.787	94.94
313.017	99.94
313.246	94.94
313.476	75.94
313.706	91.94
313.935	92.94
314.165	92.94
314.394	87.94
314.624	96.94
314.853	88.94
315.083	78.94
315.312	95.94
315.542	87.94
315.771	81.94
316.001	88.94
316.23	74.94
316.46	82.94
316.689	81.94
316.919	88.94
317.148	91.94
317.377	96.94
317.607	92.94
317.836	75.94
318.065	99.94
318.295	82.94
318.524	91.94
318.753	89.94
318.983	99.94
319.212	106.94
319.441	103.94
319.67	102.94
319.9	92.94
320.129	94.94
320.358	75.94
320.587	89.94
320.816	81.94
321.046	94.94
321.275	88.94
321.504	93.94
321.733	106.94
321.962	93.94
322.191	97.94
322.42	99.94
322.649	112.94
322.878	110.94
323.108	113.94
323.337	112.94
323.566	131.94
323.795	153.94
324.024	208.94
324.253	394.94
324.482	836.94
324.71	1703.94
324.939	2278.94
325.168	832.94
325.397	250.94
325.626	163.94
325.855	127.94
326.084	120.94
326.313	129.94
326.542	152.94
326.77	239.94
326.999	458.94
327.228	954.94
327.457	1742.94
327.686	1372.94
327.914	390.94
328.143	197.94
328.372	151.94
328.6	138.94
328.829	114.94
329.058	116.94
329.287	111.94
329.515	103.94
329.744	101.94
329.972	106.94
330.201	116.94
330.43	128.94
330.658	114.94
330.887	142.94
331.115	112.94
331.344	88.94
331.572	85.94
331.801	94.94
332.03	96.94
332.258	87.94
332.486	92.94
332.715	90.94
332.943	96.94
333.172	95.94
333.4	106.94
333.629	100.94
333.857	118.94
334.085	116.94
334.314	129.94
334.542	157.94
334.771	147.94
334.999	103.94
335.227	94.94
335.455	102.94
335.684	100.94
335.912	83.94
336.14	102.94
336.369	86.94
336.597	98.94
336.825	91.94
337.053	95.94
337.281	92.94
337.51	88.94
337.738	95.94
337.966	86.94
338.194	95.94
338.422	98.94
338.65	87.94
338.878	84.94
339.106	86.94
339.334	82.94
339.562	84.94
339.79	88.94
340.018	91.94
340.246	92.94
340.474	92.94
340.702	85.94
340.93	86.94
341.158	97.94
341.386	77.94
341.614	91.94
341.842	96.94
342.07	89.94
342.298	95.94
342.526	85.94
342.754	92.94
342.981	90.94
343.209	95.94
343.437	98.94
343.665	88.94
343.893	80.94
344.12	85.94
344.348	78.94
344.576	96.94
344.804	101.94
345.031	87.94
345.259	93.94
345.487	80.94
345.714	77.94
345.942	75.94
346.17	88.94
346.397	87.94
346.625	88.94
346.853	90.94
347.08	84.94
347.308	103.94
347.535	87.94
347.763	98.94
347.99	95.94
348.218	87.94
348.445	99.94
348.673	85.94
348.9	94.94
349.128	91.94
349.355	96.94
349.583	95.94
349.81	84.94
350.037	87.94
350.265	90.94
350.492	101.94
350.72	104.94
350.947	92.94
351.174	107.94
351.402	118.94
351.629	102.94
351.856	105.94
352.083	105.94
352.311	113.94
352.538	106.94
352.765	98.94
352.992	102.94
353.22	114.94
353.447	92.94
353.674	92.94
353.901	99.94
354.128	93.94
354.355	93.94
354.583	94.94
354.81	101.94
355.037	106.94
355.264	92.94
355.491	92.94
355.718	81.94
355.945	102.94
356.172	96.94
356.399	99.94
356.626	81.94
356.853	79.94
357.08	78.94
357.307	97.94
357.534	85.94
357.761	89.94
357.988	101.94
358.215	87.94
358.441	111.94
358.668	97.94
358.895	103.94
359.122	82.94
359.349	81.94
359.576	104.94
359.802	95.94
360.029	118.94
360.256	107.94
360.483	92.94
360.709	93.94
360.936	99.94
361.163	94.94
361.39	86.94
361.616	83.94
361.843	87.94
362.07	87.94
362.296	77.94
362.523	84.94
362.749	86.94
362.976	97.94
363.203	83.94
363.429	77.94
363.656	80.94
363.882	96.94
364.109	102.94
364.335	76.94
364.562	96.94
364.788	85.94
365.015	77.94
365.241	93.94
365.468	88.94
365.694	86.94
365.92	99.94
366.147	90.94
366.373	89.94
366.599	87.94
366.826	91.94
367.052	85.94
367.278	83.94
367.505	74.94
367.731	87.94
367.957	68.94
368.184	97.94
368.41	104.94
368.636	102.94
368.862	109.94
369.089	103.94
369.315	111.94
369.541	81.94
369.767	82.94
369.993	94.94
370.219	87.94
370.445	74.94
370.672	71.94
370.898	98.94
371.124	85.94
371.35	83.94
371.576	93.94
371.802	88.94
372.028	84.94
372.254	94.94
372.48	81.94
372.706	87.94
372.932	79.94
373.158	92.94
373.384	82.94
373.61	94.94
373.835	86.94
374.061	82.94
374.287	88.94
374.513	83.94
374.739	91.94
374.965	97.94
375.191	79.94
375.416	88.94
375.642	79.94
375.868	71.94
376.094	78.94
376.319	83.94
376.545	79.94
376.771	85.94
376.997	87.94
377.222	106.94
377.448	78.94
377.674	90.94
377.899	102.94
378.125	93.94
378.35	85.94
378.576	82.94
378.802	82.94
379.027	90.94
379.253	92.94
379.478	106.94
379.704	96.94
379.929	92.94
380.155	92.94
380.38	84.94
380.606	86.94
380.831	90.94
381.057	84.94
381.282	92.94
381.507	92.94
381.733	97.94
381.958	94.94
382.184	93.94
382.409	97.94
382.634	94.94
382.86	86.94
383.085	82.94
383.31	102.94
383.535	101.94
383.761	99.94
383.986	96.94
384.211	92.94
384.436	90.94
384.662	97.94
384.887	92.94
385.112	98.94
385.337	85.94
385.562	90.94
385.787	112.94
386.013	94.94
386.238	107.94
386.463	107.94
386.688	105.94
386.913	96.94
387.138	94.94
387.363	106.94
387.588	94.94
387.813	99.94
388.038	107.94
388.263	118.94
388.488	107.94
388.713	99.94
388.938	97.94
389.163	85.94
389.387	94.94
389.612	95.94
389.837	90.94
390.062	84.94
390.287	82.94
390.512	77.94
390.736	78.94
390.961	87.94
391.186	76.94
391.411	101.94
391.636	93.94
391.86	80.94
392.085	79.94
392.31	73.94
392.534	83.94
392.759	85.94
392.984	107.94
393.208	94.94
393.433	87.94
393.658	76.94
393.882	79.94
394.107	87.94
394.331	82.94
394.556	98.94
394.78	84.94
395.005	82.94
395.229	82.94
395.454	85.94
395.678	74.94
395.903	77.94
396.127	92.94
396.352	90.94
396.576	79.94
396.801	87.94
397.025	85.94
397.249	83.94
397.474	79.94
397.698	86.94
397.922	68.94
398.147	99.94
398.371	88.94
398.595	80.94
398.82	99.94
399.044	77.94
399.268	76.94
399.492	86.94
399.717	88.94
399.941	102.94
400.165	83.94
400.389	80.94
400.613	89.94
400.837	69.94
401.062	82.94
401.286	71.94
401.51	90.94
401.734	90.94
401.958	91.94
402.182	122.94
402.406	139.94
402.63	114.94
402.854	80.94
403.078	80.94
403.302	89.94
403.526	87.94
403.75	86.94
403.974	83.94
404.198	91.94
404.422	82.94
404.645	89.94
404.869	85.94
405.093	89.94
405.317	97.94
405.541	101.94
405.765	95.94
405.988	110.94
406.212	168.94
406.436	215.94
406.66	126.94
406.883	86.94
407.107	83.94
407.331	88.94
407.555	101.94
407.778	88.94
408.002	80.94
408.226	86.94
408.449	84.94
408.673	79.94
408.896	82.94
409.12	93.94
409.344	92.94
409.567	93.94
409.791	74.94
410.014	98.94
410.238	85.94
410.461	66.94
410.685	80.94
410.908	99.94
411.132	108.94
411.355	102.94
411.578	85.94
411.802	85.94
412.025	89.94
412.249	91.94
412.472	92.94
412.695	86.94
412.919	86.94
413.142	78.94
413.365	85.94
413.589	96.94
413.812	77.94
414.035	75.94
414.258	70.94
414.482	83.94
414.705	84.94
414.928	90.94
415.151	85.94
415.374	94.94
415.597	100.94
415.821	71.94
416.044	75.94
416.267	87.94
416.49	80.94
416.713	81.94
416.936	91.94
417.159	81.94
417.382	84.94
417.605	82.94
417.828	96.94
418.051	87.94
418.274	84.94
418.497	93.94
418.72	83.94
418.943	81.94
419.166	71.94
419.389	69.94
419.611	86.94
419.834	88.94
420.057	86.94
420.28	78.94
420.503	86.94
420.726	94.94
420.948	91.94
421.171	89.94
421.394	73.94
421.617	91.94
421.839	86.94
422.062	84.94
422.285	90.94
422.507	91.94
422.73	101.94
422.953	83.94
423.175	78.94
423.398	87.94
423.621	74.94
423.843	98.94
424.066	76.94
424.288	82.94
424.511	86.94
424.733	91.94
424.956	103.94
425.178	96.94
425.401	106.94
425.623	91.94
425.846	68.94
426.068	77.94
426.291	95.94
426.513	94.94
426.735	83.94
426.958	101.94
427.18	96.94
427.402	131.94
427.625	139.94
427.847	115.94
428.069	96.94
428.292	82.94
428.514	76.94
428.736	80.94
428.958	75.94
429.181	88.94
429.403	79.94
429.625	79.94
429.847	88.94
430.069	106.94
430.292	106.94
430.514	92.94
430.736	81.94
430.958	88.94
431.18	92.94
431.402	86.94
431.624	86.94
431.846	73.94
432.068	95.94
432.29	72.94
432.512	83.94
432.734	83.94
432.956	86.94
433.178	103.94
433.4	92.94
433.622	83.94
433.844	74.94
434.066	97.94
434.287	103.94
434.509	87.94
434.731	92.94
434.953	82.94
435.175	88.94
435.397	96.94
435.618	87.94
435.84	90.94
436.062	105.94
436.284	107.94
436.505	91.94
436.727	122.94
436.949	100.94
437.17	67.94
437.392	85.94
437.614	87.94
437.835	94.94
438.057	122.94
438.278	120.94
438.5	96.94
438.721	106.94
438.943	92.94
439.165	91.94
439.386	92.94
439.608	78.94
439.829	92.94
440.05	110.94
440.272	135.94
440.493	88.94
440.715	80.94
440.936	71.94
441.158	81.94
441.379	101.94
441.6	83.94
441.822	92.94
442.043	95.94
442.264	98.94
442.486	109.94
442.707	83.94
442.928	92.94
443.149	107.94
443.371	118.94
443.592	110.94
443.813	97.94
444.034	112.94
444.255	92.94
444.476	80.94
444.698	87.94
444.919	82.94
445.14	130.94
445.361	125.94
445.582	91.94
445.803	116.94
446.024	118.94
446.245	115.94
446.466	99.94
446.687	93.94
446.908	72.94
447.129	91.94
447.35	80.94
447.571	91.94
447.792	87.94
448.013	88.94
448.234	110.94
448.455	104.94
448.675	118.94
448.896	124.94
449.117	103.94
449.338	90.94
449.559	107.94
449.779	124.94
450	89.94
450.221	88.94
450.442	90.94
450.662	77.94
450.883	107.94
451.104	91.94
451.324	82.94
451.545	85.94
451.766	81.94
451.986	83.94
452.207	85.94
452.428	85.94
452.648	98.94
452.869	105.94
453.089	109.94
453.31	102.94
453.53	92.94
453.751	96.94
453.971	93.94
454.192	104.94
454.412	88.94
454.633	100.94
454.853	79.94
455.073	88.94
455.294	75.94
455.514	90.94
455.734	70.94
455.955	83.94
456.175	82.94
456.395	64.94
456.616	74.94
456.836	56.94
457.056	86.94
457.276	84.94
457.497	91.94
457.717	76.94
457.937	74.94
458.157	71.94
458.377	82.94
458.598	101.94
458.818	130.94
459.038	153.94
459.258	126.94
459.478	86.94
459.698	87.94
459.918	75.94
460.138	89.94
460.358	74.94
460.578	53.94
460.798	83.94
461.018	110.94
461.238	96.94
461.458	90.94
461.678	86.94
461.898	88.94
462.118	87.94
462.338	78.94
462.558	70.94
462.777	82.94
462.997	86.94
463.217	94.94
463.437	93.94
463.657	81.94
463.876	98.94
464.096	82.94
464.316	86.94
464.536	86.94
464.755	93.94
464.975	112.94
465.195	159.94
465.414	157.94
465.634	100.94
465.854	94.94
466.073	83.94
466.293	83.94
466.512	76.94
466.732	85.94
466.951	76.94
467.171	86.94
467.391	80.94
467.61	107.94
467.829	103.94
468.049	97.94
468.268	107.94
468.488	84.94
468.707	91.94
468.927	83.94
469.146	93.94
469.365	80.94
469.585	81.94
469.804	97.94
470.023	82.94
470.243	97.94
470.462	102.94
470.681	101.94
470.901	85.94
471.12	87.94
471.339	80.94
471.558	79.94
471.777	88.94
471.997	85.94
472.216	113.94
472.435	162.94
472.654	102.94
472.873	77.94
473.092	89.94
473.311	75.94
473.53	79.94
473.749	93.94
473.968	94.94
474.187	99.94
474.406	98.94
474.625	82.94
474.844	98.94
475.063	96.94
475.282	79.94
475.501	78.94
475.72	84.94
475.939	82.94
476.158	76.94
476.377	84.94
476.596	77.94
476.814	75.94
477.033	92.94
477.252	93.94
477.471	81.94
477.69	83.94
477.908	79.94
478.127	83.94
478.346	98.94
478.564	101.94
478.783	93.94
479.002	95.94
479.22	91.94
479.439	88.94
479.658	92.94
479.876	88.94
480.095	80.94
480.313	86.94
480.532	86.94
480.751	85.94
480.969	127.94
481.188	264.94
481.406	182.94
481.624	97.94
481.843	88.94
482.061	92.94
482.28	77.94
482.498	83.94
482.717	85.94
482.935	76.94
483.153	84.94
483.372	81.94
483.59	92.94
483.808	87.94
484.027	104.94
484.245	90.94
484.463	80.94
484.681	92.94
484.9	80.94
485.118	87.94
485.336	92.94
485.554	103.94
485.772	99.94
485.99	94.94
486.209	111.94
486.427	89.94
486.645	91.94
486.863	120.94
487.081	104.94
487.299	96.94
487.517	89.94
487.735	96.94
487.953	81.94
488.171	84.94
488.389	92.94
488.607	96.94
488.825	80.94
489.043	83.94
489.261	84.94
489.479	87.94
489.696	82.94
489.914	96.94
490.132	80.94
490.35	72.94
490.568	87.94
490.786	92.94
491.003	87.94
491.221	109.94
491.439	92.94
491.657	82.94
491.874	88.94
492.092	99.94
492.31	78.94
492.527	110.94
492.745	85.94
492.963	75.94
493.18	86.94
493.398	92.94
493.615	104.94
493.833	106.94
494.05	80.94
494.268	84.94
494.485	86.94
494.703	78.94
494.92	93.94
495.138	90.94
495.355	89.94
495.573	83.94
495.79	84.94
496.008	88.94
496.225	90.94
496.442	70.94
496.66	81.94
496.877	86.94
497.094	97.94
497.312	92.94
497.529	90.94
497.746	87.94
497.963	84.94
498.181	82.94
498.398	99.94
498.615	99.94
498.832	94.94
499.049	86.94
499.267	86.94
499.484	88.94
499.701	99.94
499.918	91.94
500.135	80.94
500.352	83.94
500.569	83.94
500.786	79.94
501.003	87.94
501.22	85.94
501.437	91.94
501.654	95.94
501.871	101.94
502.088	87.94
502.305	91.94
502.522	85.94
502.739	79.94
502.956	85.94
503.172	78.94
503.389	90.94
503.606	97.94
503.823	81.94
504.04	104.94
504.256	90.94
504.473	86.94
504.69	80.94
504.907	96.94
505.123	88.94
505.34	66.94
505.557	74.94
505.773	97.94
505.99	78.94
506.207	86.94
506.423	79.94
506.64	88.94
506.856	87.94
507.073	94.94
507.289	94.94
507.506	92.94
507.722	104.94
507.939	115.94
508.155	82.94
508.372	77.94
508.588	100.94
508.805	91.94
509.021	94.94
509.238	91.94
509.454	101.94
509.67	101.94
509.887	105.94
510.103	156.94
510.319	221.94
510.536	814.94
510.752	2612.94
510.968	722.94
511.184	158.94
511.401	97.94
511.617	104.94
511.833	105.94
512.049	106.94
512.265	82.94
512.481	97.94
512.698	102.94
512.914	95.94
513.13	83.94
513.346	87.94
513.562	86.94
513.778	98.94
513.994	118.94
514.21	92.94
514.426	116.94
514.642	122.94
514.858	138.94
515.074	159.94
515.29	437.94
515.506	1498.94
515.721	542.94
515.937	153.94
516.153	103.94
516.369	88.94
516.585	88.94
516.801	97.94
