Data from Circ_2003_H10_HRD10591_00019.txt Node
Date: Wed Jan 03 10:37:06 EST 2024
User: Yrep
Spectrometer: HR+D1059
Trigger mode: 1
Integration Time (sec): 1.000000E-1
Scans to average: 1
Electric dark correction enabled: true
Nonlinearity correction enabled: false
Boxcar width: 0
XAxis mode: Wavelengths
Number of Pixels in Spectrum: 2048
>>>>>Begin Spectral Data<<<<<
223.165	-29.94
223.4	-29.94
223.635	-29.94
223.869	-15.94
224.104	-16.94
224.338	-15.94
224.573	-15.94
224.808	-10.94
225.042	-11.94
225.277	5.06
225.511	0.06
225.746	1.06
225.98	13.06
226.215	17.06
226.449	18.06
226.683	22.06
226.918	16.06
227.152	25.06
227.387	32.06
227.621	35.06
227.856	38.06
228.09	49.06
228.324	47.06
228.559	69.06
228.793	55.06
229.027	69.06
229.262	57.06
229.496	67.06
229.73	85.06
229.964	81.06
230.199	70.06
230.433	97.06
230.667	79.06
230.901	81.06
231.136	74.06
231.37	72.06
231.604	82.06
231.838	87.06
232.072	82.06
232.306	93.06
232.541	81.06
232.775	88.06
233.009	77.06
233.243	79.06
233.477	79.06
233.711	89.06
233.945	90.06
234.179	77.06
234.413	63.06
234.647	79.06
234.881	80.06
235.115	78.06
235.349	74.06
235.583	89.06
235.817	75.06
236.051	81.06
236.285	79.06
236.519	78.06
236.753	62.06
236.987	87.06
237.221	91.06
237.455	80.06
237.689	63.06
237.922	71.06
238.156	65.06
238.39	87.06
238.624	72.06
238.858	81.06
239.091	69.06
239.325	78.06
239.559	79.06
239.793	87.06
240.027	79.06
240.26	85.06
240.494	83.06
240.728	75.06
240.961	73.06
241.195	80.06
241.429	79.06
241.662	75.06
241.896	86.06
242.13	76.06
242.363	72.06
242.597	68.06
242.83	71.06
243.064	78.06
243.298	73.06
243.531	69.06
243.765	75.06
243.998	93.06
244.232	72.06
244.465	81.06
244.699	91.06
244.932	73.06
245.166	77.06
245.399	80.06
245.633	77.06
245.866	85.06
246.099	73.06
246.333	70.06
246.566	70.06
246.8	73.06
247.033	69.06
247.266	83.06
247.5	83.06
247.733	89.06
247.966	70.06
248.2	77.06
248.433	86.06
248.666	64.06
248.899	90.06
249.133	79.06
249.366	89.06
249.599	90.06
249.832	91.06
250.066	87.06
250.299	86.06
250.532	85.06
250.765	80.06
250.998	64.06
251.231	90.06
251.465	91.06
251.698	79.06
251.931	87.06
252.164	82.06
252.397	74.06
252.63	74.06
252.863	71.06
253.096	86.06
253.329	85.06
253.562	84.06
253.795	80.06
254.028	65.06
254.261	85.06
254.494	81.06
254.727	96.06
254.96	78.06
255.193	78.06
255.426	93.06
255.659	85.06
255.892	83.06
256.124	81.06
256.357	91.06
256.59	73.06
256.823	89.06
257.056	76.06
257.289	76.06
257.521	80.06
257.754	76.06
257.987	70.06
258.22	80.06
258.452	81.06
258.685	74.06
258.918	73.06
259.151	68.06
259.383	90.06
259.616	73.06
259.849	85.06
260.081	86.06
260.314	79.06
260.547	87.06
260.779	77.06
261.012	75.06
261.244	83.06
261.477	97.06
261.71	99.06
261.942	118.06
262.175	135.06
262.407	97.06
262.64	83.06
262.872	75.06
263.105	84.06
263.337	73.06
263.57	81.06
263.802	105.06
264.035	87.06
264.267	75.06
264.499	84.06
264.732	80.06
264.964	81.06
265.197	88.06
265.429	82.06
265.661	68.06
265.894	85.06
266.126	102.06
266.358	65.06
266.591	70.06
266.823	85.06
267.055	74.06
267.287	88.06
267.52	89.06
267.752	75.06
267.984	88.06
268.216	88.06
268.448	73.06
268.681	68.06
268.913	77.06
269.145	91.06
269.377	83.06
269.609	96.06
269.841	92.06
270.073	81.06
270.306	85.06
270.538	84.06
270.77	93.06
271.002	81.06
271.234	85.06
271.466	85.06
271.698	87.06
271.93	74.06
272.162	79.06
272.394	79.06
272.626	73.06
272.858	85.06
273.09	88.06
273.322	80.06
273.553	78.06
273.785	99.06
274.017	78.06
274.249	90.06
274.481	80.06
274.713	96.06
274.945	75.06
275.176	75.06
275.408	72.06
275.64	88.06
275.872	84.06
276.104	87.06
276.335	99.06
276.567	90.06
276.799	102.06
277.031	73.06
277.262	82.06
277.494	75.06
277.726	77.06
277.957	80.06
278.189	95.06
278.421	89.06
278.652	90.06
278.884	87.06
279.115	87.06
279.347	88.06
279.579	96.06
279.81	95.06
280.042	91.06
280.273	96.06
280.505	83.06
280.736	97.06
280.968	79.06
281.199	97.06
281.431	83.06
281.662	92.06
281.894	95.06
282.125	86.06
282.356	115.06
282.588	136.06
282.819	112.06
283.051	83.06
283.282	89.06
283.513	83.06
283.745	81.06
283.976	101.06
284.207	97.06
284.439	88.06
284.67	90.06
284.901	87.06
285.132	91.06
285.364	89.06
285.595	98.06
285.826	87.06
286.057	111.06
286.288	85.06
286.52	80.06
286.751	86.06
286.982	90.06
287.213	86.06
287.444	88.06
287.675	71.06
287.906	68.06
288.138	89.06
288.369	99.06
288.6	89.06
288.831	79.06
289.062	79.06
289.293	89.06
289.524	98.06
289.755	89.06
289.986	83.06
290.217	99.06
290.448	85.06
290.679	87.06
290.91	83.06
291.141	95.06
291.371	82.06
291.602	70.06
291.833	87.06
292.064	83.06
292.295	90.06
292.526	93.06
292.757	100.06
292.987	95.06
293.218	95.06
293.449	86.06
293.68	94.06
293.91	88.06
294.141	95.06
294.372	84.06
294.603	95.06
294.833	89.06
295.064	101.06
295.295	84.06
295.525	84.06
295.756	114.06
295.987	104.06
296.217	131.06
296.448	132.06
296.679	93.06
296.909	79.06
297.14	95.06
297.37	87.06
297.601	87.06
297.831	73.06
298.062	104.06
298.292	83.06
298.523	72.06
298.753	90.06
298.984	82.06
299.214	89.06
299.445	99.06
299.675	106.06
299.905	104.06
300.136	87.06
300.366	77.06
300.597	81.06
300.827	94.06
301.057	107.06
301.288	93.06
301.518	97.06
301.748	94.06
301.979	97.06
302.209	98.06
302.439	87.06
302.669	80.06
302.9	99.06
303.13	95.06
303.36	97.06
303.59	124.06
303.82	104.06
304.051	102.06
304.281	92.06
304.511	83.06
304.741	83.06
304.971	89.06
305.201	75.06
305.431	92.06
305.661	93.06
305.891	93.06
306.121	96.06
306.352	91.06
306.582	101.06
306.812	82.06
307.042	91.06
307.272	89.06
307.502	91.06
307.731	96.06
307.961	93.06
308.191	91.06
308.421	99.06
308.651	100.06
308.881	80.06
309.111	94.06
309.341	96.06
309.571	98.06
309.8	104.06
310.03	95.06
310.26	101.06
310.49	97.06
310.72	103.06
310.949	100.06
311.179	97.06
311.409	79.06
311.639	95.06
311.868	82.06
312.098	93.06
312.328	94.06
312.557	96.06
312.787	99.06
313.017	98.06
313.246	100.06
313.476	88.06
313.706	89.06
313.935	88.06
314.165	102.06
314.394	86.06
314.624	105.06
314.853	102.06
315.083	86.06
315.312	89.06
315.542	97.06
315.771	91.06
316.001	90.06
316.23	95.06
316.46	98.06
316.689	88.06
316.919	102.06
317.148	102.06
317.377	87.06
317.607	102.06
317.836	86.06
318.065	87.06
318.295	103.06
318.524	91.06
318.753	74.06
318.983	91.06
319.212	101.06
319.441	110.06
319.67	105.06
319.9	77.06
320.129	85.06
320.358	86.06
320.587	92.06
320.816	103.06
321.046	94.06
321.275	105.06
321.504	111.06
321.733	95.06
321.962	91.06
322.191	93.06
322.42	96.06
322.649	94.06
322.878	97.06
323.108	129.06
323.337	115.06
323.566	142.06
323.795	154.06
324.024	217.06
324.253	406.06
324.482	855.06
324.71	1798.06
324.939	2282.06
325.168	861.06
325.397	260.06
325.626	149.06
325.855	119.06
326.084	146.06
326.313	130.06
326.542	160.06
326.77	256.06
326.999	466.06
327.228	1007.06
327.457	1794.06
327.686	1438.06
327.914	386.06
328.143	207.06
328.372	152.06
328.6	131.06
328.829	114.06
329.058	113.06
329.287	127.06
329.515	107.06
329.744	97.06
329.972	102.06
330.201	101.06
330.43	110.06
330.658	120.06
330.887	135.06
331.115	117.06
331.344	114.06
331.572	96.06
331.801	91.06
332.03	103.06
332.258	95.06
332.486	92.06
332.715	85.06
332.943	89.06
333.172	106.06
333.4	88.06
333.629	105.06
333.857	106.06
334.085	105.06
334.314	100.06
334.542	105.06
334.771	96.06
334.999	99.06
335.227	106.06
335.455	107.06
335.684	88.06
335.912	99.06
336.14	95.06
336.369	89.06
336.597	105.06
336.825	94.06
337.053	102.06
337.281	97.06
337.51	97.06
337.738	111.06
337.966	102.06
338.194	96.06
338.422	86.06
338.65	75.06
338.878	93.06
339.106	86.06
339.334	107.06
339.562	78.06
339.79	96.06
340.018	83.06
340.246	109.06
340.474	97.06
340.702	101.06
340.93	89.06
341.158	101.06
341.386	92.06
341.614	97.06
341.842	95.06
342.07	76.06
342.298	94.06
342.526	67.06
342.754	94.06
342.981	98.06
343.209	85.06
343.437	121.06
343.665	98.06
343.893	84.06
344.12	104.06
344.348	98.06
344.576	88.06
344.804	86.06
345.031	74.06
345.259	100.06
345.487	93.06
345.714	102.06
345.942	94.06
346.17	87.06
346.397	91.06
346.625	95.06
346.853	82.06
347.08	83.06
347.308	84.06
347.535	92.06
347.763	97.06
347.99	90.06
348.218	91.06
348.445	104.06
348.673	97.06
348.9	105.06
349.128	90.06
349.355	85.06
349.583	87.06
349.81	97.06
350.037	97.06
350.265	97.06
350.492	95.06
350.72	89.06
350.947	93.06
351.174	125.06
351.402	115.06
351.629	103.06
351.856	98.06
352.083	107.06
352.311	98.06
352.538	111.06
352.765	115.06
352.992	110.06
353.22	106.06
353.447	98.06
353.674	96.06
353.901	89.06
354.128	100.06
354.355	95.06
354.583	103.06
354.81	105.06
355.037	104.06
355.264	96.06
355.491	98.06
355.718	94.06
355.945	103.06
356.172	101.06
356.399	81.06
356.626	89.06
356.853	90.06
357.08	91.06
357.307	92.06
357.534	99.06
357.761	85.06
357.988	87.06
358.215	100.06
358.441	100.06
358.668	107.06
358.895	76.06
359.122	92.06
359.349	97.06
359.576	88.06
359.802	94.06
360.029	113.06
360.256	101.06
360.483	89.06
360.709	81.06
360.936	87.06
361.163	97.06
361.39	78.06
361.616	90.06
361.843	89.06
362.07	79.06
362.296	94.06
362.523	100.06
362.749	101.06
362.976	82.06
363.203	106.06
363.429	91.06
363.656	90.06
363.882	89.06
364.109	86.06
364.335	100.06
364.562	96.06
364.788	90.06
365.015	95.06
365.241	92.06
365.468	98.06
365.694	107.06
365.92	94.06
366.147	79.06
366.373	75.06
366.599	88.06
366.826	91.06
367.052	103.06
367.278	93.06
367.505	87.06
367.731	92.06
367.957	86.06
368.184	99.06
368.41	94.06
368.636	118.06
368.862	131.06
369.089	96.06
369.315	100.06
369.541	95.06
369.767	112.06
369.993	79.06
370.219	96.06
370.445	96.06
370.672	91.06
370.898	94.06
371.124	90.06
371.35	84.06
371.576	87.06
371.802	73.06
372.028	81.06
372.254	95.06
372.48	90.06
372.706	90.06
372.932	73.06
373.158	79.06
373.384	105.06
373.61	101.06
373.835	84.06
374.061	91.06
374.287	91.06
374.513	91.06
374.739	112.06
374.965	103.06
375.191	87.06
375.416	108.06
375.642	85.06
375.868	93.06
376.094	84.06
376.319	89.06
376.545	97.06
376.771	80.06
376.997	88.06
377.222	93.06
377.448	98.06
377.674	87.06
377.899	95.06
378.125	100.06
378.35	97.06
378.576	101.06
378.802	94.06
379.027	104.06
379.253	98.06
379.478	87.06
379.704	77.06
379.929	89.06
380.155	99.06
380.38	103.06
380.606	93.06
380.831	93.06
381.057	105.06
381.282	113.06
381.507	104.06
381.733	95.06
381.958	109.06
382.184	104.06
382.409	101.06
382.634	109.06
382.86	108.06
383.085	109.06
383.31	119.06
383.535	91.06
383.761	94.06
383.986	109.06
384.211	117.06
384.436	103.06
384.662	107.06
384.887	116.06
385.112	116.06
385.337	138.06
385.562	110.06
385.787	115.06
386.013	123.06
386.238	135.06
386.463	107.06
386.688	119.06
386.913	120.06
387.138	103.06
387.363	116.06
387.588	111.06
387.813	107.06
388.038	117.06
388.263	120.06
388.488	126.06
388.713	92.06
388.938	81.06
389.163	105.06
389.387	104.06
389.612	79.06
389.837	79.06
390.062	95.06
390.287	91.06
390.512	90.06
390.736	87.06
390.961	98.06
391.186	95.06
391.411	102.06
391.636	97.06
391.86	91.06
392.085	91.06
392.31	88.06
392.534	96.06
392.759	91.06
392.984	87.06
393.208	95.06
393.433	110.06
393.658	97.06
393.882	85.06
394.107	92.06
394.331	99.06
394.556	106.06
394.78	91.06
395.005	78.06
395.229	84.06
395.454	82.06
395.678	76.06
395.903	96.06
396.127	97.06
396.352	97.06
396.576	83.06
396.801	90.06
397.025	95.06
397.249	85.06
397.474	100.06
397.698	87.06
397.922	83.06
398.147	95.06
398.371	96.06
398.595	87.06
398.82	87.06
399.044	88.06
399.268	94.06
399.492	82.06
399.717	94.06
399.941	89.06
400.165	91.06
400.389	94.06
400.613	81.06
400.837	87.06
401.062	95.06
401.286	92.06
401.51	84.06
401.734	78.06
401.958	96.06
402.182	119.06
402.406	165.06
402.63	111.06
402.854	95.06
403.078	84.06
403.302	86.06
403.526	91.06
403.75	112.06
403.974	97.06
404.198	71.06
404.422	85.06
404.645	85.06
404.869	84.06
405.093	97.06
405.317	85.06
405.541	92.06
405.765	99.06
405.988	97.06
406.212	144.06
406.436	230.06
406.66	141.06
406.883	114.06
407.107	88.06
407.331	93.06
407.555	98.06
407.778	105.06
408.002	83.06
408.226	87.06
408.449	91.06
408.673	79.06
408.896	87.06
409.12	91.06
409.344	77.06
409.567	73.06
409.791	91.06
410.014	97.06
410.238	93.06
410.461	87.06
410.685	98.06
410.908	100.06
411.132	115.06
411.355	113.06
411.578	95.06
411.802	88.06
412.025	103.06
412.249	97.06
412.472	94.06
412.695	98.06
412.919	83.06
413.142	83.06
413.365	87.06
413.589	90.06
413.812	84.06
414.035	78.06
414.258	77.06
414.482	99.06
414.705	77.06
414.928	101.06
415.151	97.06
415.374	95.06
415.597	102.06
415.821	100.06
416.044	91.06
416.267	89.06
416.49	81.06
416.713	89.06
416.936	89.06
417.159	83.06
417.382	87.06
417.605	87.06
417.828	105.06
418.051	89.06
418.274	99.06
418.497	86.06
418.72	93.06
418.943	98.06
419.166	99.06
419.389	84.06
419.611	90.06
419.834	71.06
420.057	81.06
420.28	79.06
420.503	88.06
420.726	98.06
420.948	94.06
421.171	99.06
421.394	94.06
421.617	90.06
421.839	93.06
422.062	75.06
422.285	95.06
422.507	106.06
422.73	98.06
422.953	94.06
423.175	85.06
423.398	97.06
423.621	87.06
423.843	92.06
424.066	94.06
424.288	89.06
424.511	90.06
424.733	90.06
424.956	104.06
425.178	98.06
425.401	94.06
425.623	93.06
425.846	82.06
426.068	103.06
426.291	82.06
426.513	97.06
426.735	89.06
426.958	84.06
427.18	95.06
427.402	128.06
427.625	168.06
427.847	134.06
428.069	106.06
428.292	87.06
428.514	79.06
428.736	95.06
428.958	77.06
429.181	89.06
429.403	75.06
429.625	78.06
429.847	82.06
430.069	79.06
430.292	93.06
430.514	90.06
430.736	89.06
430.958	83.06
431.18	97.06
431.402	94.06
431.624	84.06
431.846	75.06
432.068	97.06
432.29	85.06
432.512	88.06
432.734	76.06
432.956	78.06
433.178	106.06
433.4	94.06
433.622	101.06
433.844	91.06
434.066	98.06
434.287	91.06
434.509	98.06
434.731	90.06
434.953	73.06
435.175	81.06
435.397	101.06
435.618	98.06
435.84	91.06
436.062	105.06
436.284	110.06
436.505	116.06
436.727	102.06
436.949	90.06
437.17	94.06
437.392	80.06
437.614	85.06
437.835	107.06
438.057	106.06
438.278	96.06
438.5	100.06
438.721	115.06
438.943	96.06
439.165	105.06
439.386	83.06
439.608	91.06
439.829	91.06
440.05	133.06
440.272	137.06
440.493	91.06
440.715	90.06
440.936	86.06
441.158	85.06
441.379	81.06
441.6	91.06
441.822	99.06
442.043	83.06
442.264	104.06
442.486	96.06
442.707	89.06
442.928	113.06
443.149	130.06
443.371	131.06
443.592	109.06
443.813	110.06
444.034	97.06
444.255	80.06
444.476	91.06
444.698	87.06
444.919	84.06
445.14	130.06
445.361	116.06
445.582	118.06
445.803	122.06
446.024	119.06
446.245	139.06
446.466	118.06
446.687	93.06
446.908	88.06
447.129	75.06
447.35	91.06
447.571	94.06
447.792	92.06
448.013	100.06
448.234	101.06
448.455	95.06
448.675	109.06
448.896	104.06
449.117	86.06
449.338	106.06
449.559	116.06
449.779	125.06
450	98.06
450.221	90.06
450.442	109.06
450.662	105.06
450.883	107.06
451.104	105.06
451.324	94.06
451.545	77.06
451.766	92.06
451.986	96.06
452.207	94.06
452.428	91.06
452.648	90.06
452.869	103.06
453.089	115.06
453.31	113.06
453.53	93.06
453.751	86.06
453.971	98.06
454.192	109.06
454.412	90.06
454.633	86.06
454.853	82.06
455.073	88.06
455.294	85.06
455.514	97.06
455.734	85.06
455.955	100.06
456.175	97.06
456.395	75.06
456.616	89.06
456.836	88.06
457.056	91.06
457.276	90.06
457.497	87.06
457.717	89.06
457.937	86.06
458.157	83.06
458.377	100.06
458.598	107.06
458.818	146.06
459.038	145.06
459.258	124.06
459.478	106.06
459.698	84.06
459.918	74.06
460.138	89.06
460.358	96.06
460.578	88.06
460.798	82.06
461.018	78.06
461.238	87.06
461.458	85.06
461.678	88.06
461.898	78.06
462.118	97.06
462.338	88.06
462.558	86.06
462.777	96.06
462.997	77.06
463.217	84.06
463.437	84.06
463.657	81.06
463.876	101.06
464.096	101.06
464.316	80.06
464.536	86.06
464.755	82.06
464.975	99.06
465.195	152.06
465.414	149.06
465.634	97.06
465.854	90.06
466.073	95.06
466.293	101.06
466.512	83.06
466.732	74.06
466.951	83.06
467.171	85.06
467.391	98.06
467.61	92.06
467.829	95.06
468.049	96.06
468.268	87.06
468.488	92.06
468.707	72.06
468.927	71.06
469.146	94.06
469.365	111.06
469.585	96.06
469.804	102.06
470.023	93.06
470.243	84.06
470.462	110.06
470.681	113.06
470.901	90.06
471.12	91.06
471.339	79.06
471.558	97.06
471.777	82.06
471.997	90.06
472.216	88.06
472.435	85.06
472.654	78.06
472.873	76.06
473.092	79.06
473.311	102.06
473.53	96.06
473.749	81.06
473.968	100.06
474.187	105.06
474.406	91.06
474.625	85.06
474.844	71.06
475.063	83.06
475.282	75.06
475.501	90.06
475.72	102.06
475.939	83.06
476.158	82.06
476.377	88.06
476.596	105.06
476.814	84.06
477.033	102.06
477.252	98.06
477.471	96.06
477.69	74.06
477.908	78.06
478.127	94.06
478.346	98.06
478.564	77.06
478.783	109.06
479.002	90.06
479.22	90.06
479.439	103.06
479.658	106.06
479.876	97.06
480.095	101.06
480.313	75.06
480.532	83.06
480.751	79.06
480.969	92.06
481.188	120.06
481.406	98.06
481.624	92.06
481.843	86.06
482.061	78.06
482.28	96.06
482.498	95.06
482.717	99.06
482.935	96.06
483.153	94.06
483.372	77.06
483.59	96.06
483.808	87.06
484.027	97.06
484.245	82.06
484.463	91.06
484.681	79.06
484.9	84.06
485.118	95.06
485.336	83.06
485.554	103.06
485.772	95.06
485.99	99.06
486.209	98.06
486.427	111.06
486.645	130.06
486.863	119.06
487.081	114.06
487.299	87.06
487.517	104.06
487.735	98.06
487.953	96.06
488.171	84.06
488.389	94.06
488.607	108.06
488.825	91.06
489.043	105.06
489.261	89.06
489.479	97.06
489.696	101.06
489.914	87.06
490.132	86.06
490.35	95.06
490.568	88.06
490.786	86.06
491.003	91.06
491.221	88.06
491.439	84.06
491.657	75.06
491.874	97.06
492.092	92.06
492.31	89.06
492.527	89.06
492.745	95.06
492.963	94.06
493.18	99.06
493.398	104.06
493.615	85.06
493.833	99.06
494.05	103.06
494.268	81.06
494.485	93.06
494.703	96.06
494.92	89.06
495.138	82.06
495.355	99.06
495.573	87.06
495.79	95.06
496.008	113.06
496.225	108.06
496.442	91.06
496.66	90.06
496.877	89.06
497.094	78.06
497.312	103.06
497.529	91.06
497.746	98.06
497.963	91.06
498.181	89.06
498.398	107.06
498.615	98.06
498.832	90.06
499.049	90.06
499.267	88.06
499.484	83.06
499.701	95.06
499.918	95.06
500.135	86.06
500.352	97.06
500.569	90.06
500.786	102.06
501.003	74.06
501.22	96.06
501.437	102.06
501.654	90.06
501.871	116.06
502.088	102.06
502.305	98.06
502.522	96.06
502.739	88.06
502.956	82.06
503.172	97.06
503.389	92.06
503.606	100.06
503.823	101.06
504.04	83.06
504.256	90.06
504.473	89.06
504.69	86.06
504.907	109.06
505.123	79.06
505.34	95.06
505.557	90.06
505.773	96.06
505.99	84.06
506.207	83.06
506.423	99.06
506.64	102.06
506.856	90.06
507.073	100.06
507.289	106.06
507.506	102.06
507.722	113.06
507.939	92.06
508.155	105.06
508.372	90.06
508.588	112.06
508.805	97.06
509.021	100.06
509.238	95.06
509.454	103.06
509.67	110.06
509.887	103.06
510.103	143.06
510.319	235.06
510.536	797.06
510.752	2551.06
510.968	692.06
511.184	168.06
511.401	115.06
511.617	105.06
511.833	80.06
512.049	98.06
512.265	89.06
512.481	87.06
512.698	88.06
512.914	97.06
513.13	94.06
513.346	98.06
513.562	90.06
513.778	100.06
513.994	95.06
514.21	98.06
514.426	129.06
514.642	125.06
514.858	118.06
515.074	159.06
515.29	448.06
515.506	1512.06
