Data from Circ_2003_H10_HRD10591_00012.txt Node
Date: Wed Jan 03 10:37:05 EST 2024
User: Yrep
Spectrometer: HR+D1059
Trigger mode: 1
Integration Time (sec): 1.000000E-1
Scans to average: 1
Electric dark correction enabled: true
Nonlinearity correction enabled: false
Boxcar width: 0
XAxis mode: Wavelengths
Number of Pixels in Spectrum: 2048
>>>>>Begin Spectral Data<<<<<
223.165	-38.31
223.4	-38.31
223.635	-38.31
223.869	-16.31
224.104	-24.31
224.338	-13.31
224.573	-11.31
224.808	-9.31
225.042	4.69
225.277	-7.31
225.511	4.69
225.746	-6.31
225.98	12.69
226.215	15.69
226.449	19.69
226.683	20.69
226.918	22.69
227.152	25.69
227.387	29.69
227.621	31.69
227.856	33.69
228.09	43.69
228.324	49.69
228.559	56.69
228.793	64.69
229.027	65.69
229.262	52.69
229.496	69.69
229.73	87.69
229.964	64.69
230.199	67.69
230.433	61.69
230.667	81.69
230.901	74.69
231.136	77.69
231.37	86.69
231.604	94.69
231.838	77.69
232.072	87.69
232.306	85.69
232.541	84.69
232.775	70.69
233.009	66.69
233.243	72.69
233.477	73.69
233.711	76.69
233.945	87.69
234.179	81.69
234.413	76.69
234.647	90.69
234.881	73.69
235.115	80.69
235.349	76.69
235.583	58.69
235.817	73.69
236.051	71.69
236.285	65.69
236.519	78.69
236.753	76.69
236.987	84.69
237.221	79.69
237.455	81.69
237.689	80.69
237.922	61.69
238.156	73.69
238.39	75.69
238.624	66.69
238.858	84.69
239.091	85.69
239.325	77.69
239.559	69.69
239.793	80.69
240.027	74.69
240.26	72.69
240.494	73.69
240.728	71.69
240.961	85.69
241.195	69.69
241.429	88.69
241.662	81.69
241.896	60.69
242.13	69.69
242.363	73.69
242.597	80.69
242.83	80.69
243.064	61.69
243.298	73.69
243.531	72.69
243.765	71.69
243.998	75.69
244.232	83.69
244.465	74.69
244.699	60.69
244.932	75.69
245.166	69.69
245.399	89.69
245.633	79.69
245.866	103.69
246.099	70.69
246.333	77.69
246.566	81.69
246.8	69.69
247.033	62.69
247.266	92.69
247.5	83.69
247.733	81.69
247.966	76.69
248.2	73.69
248.433	73.69
248.666	74.69
248.899	73.69
249.133	86.69
249.366	77.69
249.599	96.69
249.832	73.69
250.066	71.69
250.299	100.69
250.532	65.69
250.765	76.69
250.998	82.69
251.231	62.69
251.465	69.69
251.698	73.69
251.931	73.69
252.164	72.69
252.397	78.69
252.63	85.69
252.863	83.69
253.096	80.69
253.329	73.69
253.562	73.69
253.795	95.69
254.028	85.69
254.261	81.69
254.494	71.69
254.727	80.69
254.96	72.69
255.193	77.69
255.426	94.69
255.659	71.69
255.892	77.69
256.124	79.69
256.357	67.69
256.59	84.69
256.823	69.69
257.056	70.69
257.289	69.69
257.521	85.69
257.754	82.69
257.987	82.69
258.22	85.69
258.452	78.69
258.685	78.69
258.918	69.69
259.151	83.69
259.383	94.69
259.616	92.69
259.849	76.69
260.081	84.69
260.314	81.69
260.547	83.69
260.779	71.69
261.012	85.69
261.244	88.69
261.477	77.69
261.71	75.69
261.942	100.69
262.175	112.69
262.407	85.69
262.64	79.69
262.872	87.69
263.105	97.69
263.337	64.69
263.57	83.69
263.802	92.69
264.035	70.69
264.267	72.69
264.499	93.69
264.732	69.69
264.964	78.69
265.197	82.69
265.429	94.69
265.661	93.69
265.894	88.69
266.126	68.69
266.358	77.69
266.591	82.69
266.823	65.69
267.055	87.69
267.287	93.69
267.52	79.69
267.752	68.69
267.984	76.69
268.216	79.69
268.448	89.69
268.681	87.69
268.913	89.69
269.145	67.69
269.377	71.69
269.609	75.69
269.841	72.69
270.073	89.69
270.306	83.69
270.538	84.69
270.77	88.69
271.002	81.69
271.234	71.69
271.466	76.69
271.698	93.69
271.93	88.69
272.162	83.69
272.394	96.69
272.626	80.69
272.858	66.69
273.09	87.69
273.322	80.69
273.553	78.69
273.785	84.69
274.017	78.69
274.249	82.69
274.481	83.69
274.713	86.69
274.945	96.69
275.176	94.69
275.408	93.69
275.64	88.69
275.872	65.69
276.104	88.69
276.335	92.69
276.567	106.69
276.799	88.69
277.031	96.69
277.262	81.69
277.494	77.69
277.726	71.69
277.957	91.69
278.189	88.69
278.421	75.69
278.652	79.69
278.884	77.69
279.115	81.69
279.347	75.69
279.579	89.69
279.81	83.69
280.042	85.69
280.273	80.69
280.505	76.69
280.736	85.69
280.968	87.69
281.199	77.69
281.431	79.69
281.662	85.69
281.894	81.69
282.125	95.69
282.356	102.69
282.588	128.69
282.819	104.69
283.051	86.69
283.282	81.69
283.513	92.69
283.745	83.69
283.976	84.69
284.207	86.69
284.439	101.69
284.67	80.69
284.901	85.69
285.132	84.69
285.364	93.69
285.595	88.69
285.826	92.69
286.057	79.69
286.288	80.69
286.52	84.69
286.751	78.69
286.982	79.69
287.213	91.69
287.444	90.69
287.675	86.69
287.906	95.69
288.138	85.69
288.369	92.69
288.6	89.69
288.831	93.69
289.062	96.69
289.293	94.69
289.524	89.69
289.755	83.69
289.986	84.69
290.217	90.69
290.448	86.69
290.679	81.69
290.91	94.69
291.141	80.69
291.371	85.69
291.602	97.69
291.833	95.69
292.064	93.69
292.295	89.69
292.526	86.69
292.757	95.69
292.987	97.69
293.218	85.69
293.449	77.69
293.68	92.69
293.91	83.69
294.141	97.69
294.372	83.69
294.603	92.69
294.833	72.69
295.064	82.69
295.295	93.69
295.525	88.69
295.756	89.69
295.987	103.69
296.217	120.69
296.448	119.69
296.679	86.69
296.909	76.69
297.14	97.69
297.37	101.69
297.601	73.69
297.831	95.69
298.062	81.69
298.292	65.69
298.523	78.69
298.753	84.69
298.984	79.69
299.214	84.69
299.445	75.69
299.675	90.69
299.905	77.69
300.136	94.69
300.366	93.69
300.597	80.69
300.827	78.69
301.057	77.69
301.288	97.69
301.518	91.69
301.748	70.69
301.979	100.69
302.209	96.69
302.439	81.69
302.669	84.69
302.9	83.69
303.13	81.69
303.36	97.69
303.59	105.69
303.82	96.69
304.051	81.69
304.281	85.69
304.511	101.69
304.741	92.69
304.971	85.69
305.201	84.69
305.431	79.69
305.661	90.69
305.891	84.69
306.121	101.69
306.352	96.69
306.582	87.69
306.812	94.69
307.042	86.69
307.272	91.69
307.502	91.69
307.731	83.69
307.961	81.69
308.191	92.69
308.421	71.69
308.651	89.69
308.881	98.69
309.111	101.69
309.341	101.69
309.571	96.69
309.8	97.69
310.03	92.69
310.26	93.69
310.49	94.69
310.72	77.69
310.949	96.69
311.179	85.69
311.409	95.69
311.639	76.69
311.868	100.69
312.098	88.69
312.328	101.69
312.557	105.69
312.787	98.69
313.017	86.69
313.246	94.69
313.476	84.69
313.706	80.69
313.935	91.69
314.165	100.69
314.394	99.69
314.624	100.69
314.853	94.69
315.083	86.69
315.312	90.69
315.542	90.69
315.771	95.69
316.001	103.69
316.23	102.69
316.46	94.69
316.689	100.69
316.919	99.69
317.148	107.69
317.377	101.69
317.607	100.69
317.836	88.69
318.065	82.69
318.295	89.69
318.524	86.69
318.753	98.69
318.983	84.69
319.212	90.69
319.441	106.69
319.67	109.69
319.9	93.69
320.129	80.69
320.358	93.69
320.587	87.69
320.816	104.69
321.046	93.69
321.275	88.69
321.504	95.69
321.733	93.69
321.962	110.69
322.191	89.69
322.42	93.69
322.649	117.69
322.878	104.69
323.108	112.69
323.337	107.69
323.566	109.69
323.795	153.69
324.024	205.69
324.253	343.69
324.482	763.69
324.71	1533.69
324.939	2004.69
325.168	736.69
325.397	220.69
325.626	134.69
325.855	133.69
326.084	115.69
326.313	117.69
326.542	144.69
326.77	237.69
326.999	427.69
327.228	891.69
327.457	1612.69
327.686	1223.69
327.914	337.69
328.143	180.69
328.372	129.69
328.6	111.69
328.829	132.69
329.058	123.69
329.287	103.69
329.515	94.69
329.744	99.69
329.972	101.69
330.201	103.69
330.43	89.69
330.658	103.69
330.887	130.69
331.115	116.69
331.344	102.69
331.572	102.69
331.801	92.69
332.03	97.69
332.258	91.69
332.486	94.69
332.715	91.69
332.943	107.69
333.172	108.69
333.4	90.69
333.629	86.69
333.857	108.69
334.085	111.69
334.314	98.69
334.542	94.69
334.771	104.69
334.999	102.69
335.227	94.69
335.455	99.69
335.684	104.69
335.912	101.69
336.14	102.69
336.369	80.69
336.597	99.69
336.825	97.69
337.053	93.69
337.281	93.69
337.51	93.69
337.738	86.69
337.966	102.69
338.194	88.69
338.422	98.69
338.65	98.69
338.878	94.69
339.106	93.69
339.334	97.69
339.562	109.69
339.79	97.69
340.018	94.69
340.246	91.69
340.474	103.69
340.702	88.69
340.93	75.69
341.158	72.69
341.386	93.69
341.614	88.69
341.842	102.69
342.07	98.69
342.298	83.69
342.526	75.69
342.754	96.69
342.981	71.69
343.209	77.69
343.437	89.69
343.665	92.69
343.893	88.69
344.12	80.69
344.348	82.69
344.576	75.69
344.804	92.69
345.031	98.69
345.259	69.69
345.487	81.69
345.714	75.69
345.942	89.69
346.17	94.69
346.397	91.69
346.625	90.69
346.853	92.69
347.08	88.69
347.308	93.69
347.535	93.69
347.763	94.69
347.99	103.69
348.218	91.69
348.445	88.69
348.673	99.69
348.9	81.69
349.128	91.69
349.355	91.69
349.583	89.69
349.81	88.69
350.037	95.69
350.265	102.69
350.492	83.69
350.72	89.69
350.947	98.69
351.174	93.69
351.402	100.69
351.629	98.69
351.856	94.69
352.083	98.69
352.311	100.69
352.538	96.69
352.765	95.69
352.992	109.69
353.22	105.69
353.447	95.69
353.674	98.69
353.901	84.69
354.128	105.69
354.355	103.69
354.583	89.69
354.81	101.69
355.037	96.69
355.264	95.69
355.491	96.69
355.718	86.69
355.945	80.69
356.172	87.69
356.399	88.69
356.626	98.69
356.853	97.69
357.08	88.69
357.307	84.69
357.534	83.69
357.761	99.69
357.988	88.69
358.215	91.69
358.441	101.69
358.668	100.69
358.895	101.69
359.122	92.69
359.349	98.69
359.576	88.69
359.802	95.69
360.029	96.69
360.256	112.69
360.483	100.69
360.709	82.69
360.936	93.69
361.163	80.69
361.39	92.69
361.616	90.69
361.843	106.69
362.07	117.69
362.296	86.69
362.523	86.69
362.749	92.69
362.976	77.69
363.203	92.69
363.429	93.69
363.656	97.69
363.882	99.69
364.109	100.69
364.335	90.69
364.562	101.69
364.788	90.69
365.015	87.69
365.241	84.69
365.468	95.69
365.694	92.69
365.92	96.69
366.147	77.69
366.373	84.69
366.599	85.69
366.826	92.69
367.052	68.69
367.278	90.69
367.505	99.69
367.731	95.69
367.957	81.69
368.184	92.69
368.41	86.69
368.636	108.69
368.862	105.69
369.089	100.69
369.315	80.69
369.541	76.69
369.767	98.69
369.993	95.69
370.219	96.69
370.445	79.69
370.672	82.69
370.898	87.69
371.124	70.69
371.35	88.69
371.576	79.69
371.802	82.69
372.028	87.69
372.254	91.69
372.48	95.69
372.706	82.69
372.932	82.69
373.158	93.69
373.384	88.69
373.61	81.69
373.835	89.69
374.061	85.69
374.287	84.69
374.513	93.69
374.739	99.69
374.965	83.69
375.191	81.69
375.416	81.69
375.642	93.69
375.868	98.69
376.094	89.69
376.319	80.69
376.545	87.69
376.771	100.69
376.997	89.69
377.222	89.69
377.448	87.69
377.674	92.69
377.899	88.69
378.125	85.69
378.35	92.69
378.576	79.69
378.802	96.69
379.027	87.69
379.253	103.69
379.478	90.69
379.704	110.69
379.929	91.69
380.155	103.69
380.38	83.69
380.606	97.69
380.831	88.69
381.057	101.69
381.282	105.69
381.507	87.69
381.733	98.69
381.958	96.69
382.184	98.69
382.409	97.69
382.634	101.69
382.86	110.69
383.085	109.69
383.31	118.69
383.535	112.69
383.761	110.69
383.986	104.69
384.211	99.69
384.436	120.69
384.662	93.69
384.887	111.69
385.112	111.69
385.337	113.69
385.562	116.69
385.787	123.69
386.013	137.69
386.238	139.69
386.463	125.69
386.688	117.69
386.913	118.69
387.138	126.69
387.363	136.69
387.588	117.69
387.813	118.69
388.038	132.69
388.263	135.69
388.488	140.69
388.713	78.69
388.938	95.69
389.163	93.69
389.387	89.69
389.612	96.69
389.837	82.69
390.062	87.69
390.287	98.69
390.512	91.69
390.736	95.69
390.961	86.69
391.186	85.69
391.411	90.69
391.636	86.69
391.86	84.69
392.085	95.69
392.31	86.69
392.534	92.69
392.759	83.69
392.984	88.69
393.208	101.69
393.433	103.69
393.658	102.69
393.882	85.69
394.107	83.69
394.331	87.69
394.556	84.69
394.78	84.69
395.005	72.69
395.229	81.69
395.454	83.69
395.678	88.69
395.903	84.69
396.127	84.69
396.352	96.69
396.576	82.69
396.801	89.69
397.025	103.69
397.249	86.69
397.474	80.69
397.698	88.69
397.922	92.69
398.147	85.69
398.371	76.69
398.595	82.69
398.82	83.69
399.044	79.69
399.268	73.69
399.492	85.69
399.717	87.69
399.941	90.69
400.165	80.69
400.389	77.69
400.613	92.69
400.837	96.69
401.062	87.69
401.286	84.69
401.51	84.69
401.734	66.69
401.958	94.69
402.182	101.69
402.406	120.69
402.63	101.69
402.854	87.69
403.078	73.69
403.302	76.69
403.526	75.69
403.75	78.69
403.974	90.69
404.198	95.69
404.422	77.69
404.645	77.69
404.869	79.69
405.093	89.69
405.317	87.69
405.541	101.69
405.765	75.69
405.988	103.69
406.212	164.69
406.436	196.69
406.66	121.69
406.883	101.69
407.107	92.69
407.331	87.69
407.555	90.69
407.778	84.69
408.002	84.69
408.226	93.69
408.449	79.69
408.673	103.69
408.896	98.69
409.12	100.69
409.344	101.69
409.567	81.69
409.791	94.69
410.014	106.69
410.238	73.69
410.461	92.69
410.685	111.69
410.908	103.69
411.132	92.69
411.355	104.69
411.578	87.69
411.802	91.69
412.025	83.69
412.249	102.69
412.472	95.69
412.695	93.69
412.919	92.69
413.142	87.69
413.365	93.69
413.589	88.69
413.812	94.69
414.035	90.69
414.258	98.69
414.482	109.69
414.705	87.69
414.928	89.69
415.151	104.69
415.374	85.69
415.597	89.69
415.821	105.69
416.044	96.69
416.267	99.69
416.49	87.69
416.713	94.69
416.936	99.69
417.159	93.69
417.382	87.69
417.605	94.69
417.828	95.69
418.051	102.69
418.274	94.69
418.497	90.69
418.72	86.69
418.943	75.69
419.166	82.69
419.389	80.69
419.611	75.69
419.834	88.69
420.057	83.69
420.28	92.69
420.503	86.69
420.726	98.69
420.948	94.69
421.171	103.69
421.394	111.69
421.617	92.69
421.839	75.69
422.062	79.69
422.285	89.69
422.507	104.69
422.73	113.69
422.953	84.69
423.175	94.69
423.398	91.69
423.621	73.69
423.843	97.69
424.066	86.69
424.288	81.69
424.511	90.69
424.733	95.69
424.956	99.69
425.178	88.69
425.401	96.69
425.623	98.69
425.846	97.69
426.068	95.69
426.291	98.69
426.513	94.69
426.735	81.69
426.958	83.69
427.18	85.69
427.402	123.69
427.625	145.69
427.847	118.69
428.069	107.69
428.292	86.69
428.514	96.69
428.736	98.69
428.958	87.69
429.181	91.69
429.403	86.69
429.625	75.69
429.847	93.69
430.069	92.69
430.292	79.69
430.514	95.69
430.736	90.69
430.958	92.69
431.18	81.69
431.402	77.69
431.624	79.69
431.846	101.69
432.068	76.69
432.29	87.69
432.512	93.69
432.734	78.69
432.956	91.69
433.178	82.69
433.4	97.69
433.622	90.69
433.844	71.69
434.066	97.69
434.287	91.69
434.509	84.69
434.731	81.69
434.953	89.69
435.175	77.69
435.397	91.69
435.618	97.69
435.84	105.69
436.062	122.69
436.284	113.69
436.505	86.69
436.727	92.69
436.949	77.69
437.17	89.69
437.392	87.69
437.614	76.69
437.835	102.69
438.057	99.69
438.278	95.69
438.5	96.69
438.721	111.69
438.943	83.69
439.165	80.69
439.386	82.69
439.608	84.69
439.829	101.69
440.05	112.69
440.272	124.69
440.493	86.69
440.715	89.69
440.936	86.69
441.158	85.69
441.379	77.69
441.6	77.69
441.822	97.69
442.043	82.69
442.264	104.69
442.486	94.69
442.707	93.69
442.928	98.69
443.149	120.69
443.371	127.69
443.592	113.69
443.813	106.69
444.034	107.69
444.255	88.69
444.476	86.69
444.698	70.69
444.919	81.69
445.14	145.69
445.361	110.69
445.582	90.69
445.803	117.69
446.024	123.69
446.245	117.69
446.466	91.69
446.687	91.69
446.908	99.69
447.129	96.69
447.35	99.69
447.571	99.69
447.792	88.69
448.013	99.69
448.234	89.69
448.455	102.69
448.675	89.69
448.896	98.69
449.117	116.69
449.338	89.69
449.559	109.69
449.779	119.69
450	96.69
450.221	97.69
450.442	78.69
450.662	79.69
450.883	101.69
451.104	110.69
451.324	93.69
451.545	87.69
451.766	94.69
451.986	93.69
452.207	79.69
452.428	104.69
452.648	91.69
452.869	96.69
453.089	111.69
453.31	102.69
453.53	84.69
453.751	78.69
453.971	105.69
454.192	91.69
454.412	86.69
454.633	81.69
454.853	86.69
455.073	85.69
455.294	84.69
455.514	96.69
455.734	92.69
455.955	83.69
456.175	86.69
456.395	87.69
456.616	78.69
456.836	92.69
457.056	89.69
457.276	67.69
457.497	89.69
457.717	84.69
457.937	91.69
458.157	68.69
458.377	99.69
458.598	111.69
458.818	139.69
459.038	127.69
459.258	107.69
459.478	97.69
459.698	88.69
459.918	80.69
460.138	79.69
460.358	87.69
460.578	81.69
460.798	82.69
461.018	106.69
461.238	83.69
461.458	78.69
461.678	81.69
461.898	80.69
462.118	81.69
462.338	92.69
462.558	86.69
462.777	79.69
462.997	78.69
463.217	79.69
463.437	71.69
463.657	95.69
463.876	85.69
464.096	87.69
464.316	85.69
464.536	89.69
464.755	83.69
464.975	96.69
465.195	131.69
465.414	135.69
465.634	89.69
465.854	81.69
466.073	84.69
466.293	80.69
466.512	75.69
466.732	89.69
466.951	77.69
467.171	96.69
467.391	91.69
467.61	95.69
467.829	96.69
468.049	93.69
468.268	83.69
468.488	77.69
468.707	76.69
468.927	75.69
469.146	107.69
469.365	79.69
469.585	96.69
469.804	111.69
470.023	101.69
470.243	95.69
470.462	86.69
470.681	94.69
470.901	96.69
471.12	80.69
471.339	87.69
471.558	68.69
471.777	79.69
471.997	77.69
472.216	96.69
472.435	90.69
472.654	81.69
472.873	84.69
473.092	82.69
473.311	78.69
473.53	78.69
473.749	92.69
473.968	97.69
474.187	94.69
474.406	89.69
474.625	97.69
474.844	94.69
475.063	86.69
475.282	92.69
475.501	78.69
475.72	85.69
475.939	85.69
476.158	81.69
476.377	86.69
476.596	93.69
476.814	80.69
477.033	87.69
477.252	78.69
477.471	82.69
477.69	79.69
477.908	93.69
478.127	91.69
478.346	77.69
478.564	75.69
478.783	78.69
479.002	69.69
479.22	81.69
479.439	99.69
479.658	96.69
479.876	103.69
480.095	89.69
480.313	76.69
480.532	92.69
480.751	82.69
480.969	91.69
481.188	95.69
481.406	104.69
481.624	96.69
481.843	86.69
482.061	89.69
482.28	91.69
482.498	89.69
482.717	76.69
482.935	89.69
483.153	88.69
483.372	99.69
483.59	89.69
483.808	89.69
484.027	91.69
484.245	92.69
484.463	84.69
484.681	89.69
484.9	82.69
485.118	97.69
485.336	89.69
485.554	110.69
485.772	97.69
485.99	117.69
486.209	105.69
486.427	101.69
486.645	104.69
486.863	102.69
487.081	100.69
487.299	99.69
487.517	83.69
487.735	78.69
487.953	96.69
488.171	112.69
488.389	94.69
488.607	82.69
488.825	102.69
489.043	95.69
489.261	97.69
489.479	87.69
489.696	95.69
489.914	85.69
490.132	75.69
490.35	83.69
490.568	79.69
490.786	77.69
491.003	97.69
491.221	92.69
491.439	87.69
491.657	86.69
491.874	94.69
492.092	101.69
492.31	101.69
492.527	91.69
492.745	88.69
492.963	86.69
493.18	83.69
493.398	100.69
493.615	103.69
493.833	93.69
494.05	110.69
494.268	91.69
494.485	88.69
494.703	97.69
494.92	87.69
495.138	96.69
495.355	87.69
495.573	104.69
495.79	87.69
496.008	86.69
496.225	72.69
496.442	85.69
496.66	77.69
496.877	80.69
497.094	78.69
497.312	98.69
497.529	79.69
497.746	97.69
497.963	91.69
498.181	85.69
498.398	103.69
498.615	107.69
498.832	103.69
499.049	105.69
499.267	98.69
499.484	86.69
499.701	80.69
499.918	93.69
500.135	81.69
500.352	80.69
500.569	108.69
500.786	77.69
501.003	83.69
501.22	94.69
501.437	72.69
501.654	81.69
501.871	101.69
502.088	81.69
502.305	79.69
502.522	98.69
502.739	100.69
502.956	88.69
503.172	79.69
503.389	83.69
503.606	86.69
503.823	83.69
504.04	102.69
504.256	113.69
504.473	86.69
504.69	80.69
504.907	83.69
505.123	92.69
505.34	93.69
505.557	92.69
505.773	93.69
505.99	80.69
506.207	87.69
506.423	83.69
506.64	88.69
506.856	89.69
507.073	85.69
507.289	90.69
507.506	93.69
507.722	97.69
507.939	104.69
508.155	88.69
508.372	80.69
508.588	100.69
508.805	79.69
509.021	87.69
509.238	92.69
509.454	91.69
509.67	89.69
509.887	111.69
510.103	117.69
510.319	190.69
510.536	679.69
510.752	2211.69
510.968	631.69
511.184	151.69
511.401	114.69
511.617	95.69
511.833	85.69
512.049	96.69
512.265	97.69
512.481	105.69
512.698	88.69
512.914	84.69
513.13	102.69
513.346	77.69
513.562	86.69
513.778	97.69
513.994	90.69
514.21	87.69
514.426	102.69
514.642	117.69
514.858	101.69
515.074	152.69
515.29	380.69
515.506	1248.69
515.721	471.69
515.937	149.69
516.153	96.69
516.369	97.69
