Data from Circ_2003_H10_HRD10591_00020.txt Node
Date: Wed Jan 03 10:37:06 EST 2024
User: Yrep
Spectrometer: HR+D1059
Trigger mode: 1
Integration Time (sec): 1.000000E-1
Scans to average: 1
Electric dark correction enabled: true
Nonlinearity correction enabled: false
Boxcar width: 0
XAxis mode: Wavelengths
Number of Pixels in Spectrum: 2048
>>>>>Begin Spectral Data<<<<<
223.165	-6.69
223.4	-6.69
223.635	-6.69
223.869	-12.69
224.104	-24.69
224.338	-13.69
224.573	-36.69
224.808	-19.69
225.042	-3.69
225.277	-0.69
225.511	6.31
225.746	6.31
225.98	10.31
226.215	4.31
226.449	12.31
226.683	17.31
226.918	29.31
227.152	32.31
227.387	39.31
227.621	35.31
227.856	57.31
228.09	55.31
228.324	50.31
228.559	64.31
228.793	53.31
229.027	74.31
229.262	76.31
229.496	67.31
229.73	93.31
229.964	87.31
230.199	84.31
230.433	83.31
230.667	73.31
230.901	81.31
231.136	71.31
231.37	80.31
231.604	72.31
231.838	71.31
232.072	81.31
232.306	90.31
232.541	83.31
232.775	82.31
233.009	73.31
233.243	96.31
233.477	73.31
233.711	85.31
233.945	87.31
234.179	78.31
234.413	82.31
234.647	85.31
234.881	79.31
235.115	90.31
235.349	70.31
235.583	68.31
235.817	75.31
236.051	80.31
236.285	67.31
236.519	87.31
236.753	74.31
236.987	81.31
237.221	96.31
237.455	62.31
237.689	82.31
237.922	78.31
238.156	83.31
238.39	79.31
238.624	71.31
238.858	70.31
239.091	84.31
239.325	92.31
239.559	75.31
239.793	77.31
240.027	89.31
240.26	70.31
240.494	83.31
240.728	74.31
240.961	72.31
241.195	74.31
241.429	74.31
241.662	78.31
241.896	73.31
242.13	77.31
242.363	65.31
242.597	63.31
242.83	84.31
243.064	82.31
243.298	70.31
243.531	79.31
243.765	63.31
243.998	81.31
244.232	86.31
244.465	90.31
244.699	81.31
244.932	81.31
245.166	66.31
245.399	82.31
245.633	75.31
245.866	81.31
246.099	74.31
246.333	90.31
246.566	70.31
246.8	78.31
247.033	84.31
247.266	87.31
247.5	69.31
247.733	74.31
247.966	86.31
248.2	90.31
248.433	80.31
248.666	69.31
248.899	81.31
249.133	83.31
249.366	102.31
249.599	91.31
249.832	79.31
250.066	89.31
250.299	81.31
250.532	79.31
250.765	74.31
250.998	78.31
251.231	76.31
251.465	79.31
251.698	71.31
251.931	74.31
252.164	70.31
252.397	90.31
252.63	87.31
252.863	87.31
253.096	78.31
253.329	92.31
253.562	82.31
253.795	83.31
254.028	85.31
254.261	76.31
254.494	81.31
254.727	84.31
254.96	85.31
255.193	89.31
255.426	89.31
255.659	88.31
255.892	64.31
256.124	86.31
256.357	93.31
256.59	92.31
256.823	69.31
257.056	88.31
257.289	89.31
257.521	81.31
257.754	80.31
257.987	96.31
258.22	83.31
258.452	97.31
258.685	72.31
258.918	75.31
259.151	83.31
259.383	87.31
259.616	63.31
259.849	84.31
260.081	72.31
260.314	71.31
260.547	83.31
260.779	89.31
261.012	87.31
261.244	71.31
261.477	99.31
261.71	81.31
261.942	120.31
262.175	123.31
262.407	93.31
262.64	84.31
262.872	95.31
263.105	79.31
263.337	67.31
263.57	83.31
263.802	82.31
264.035	77.31
264.267	82.31
264.499	85.31
264.732	86.31
264.964	77.31
265.197	86.31
265.429	86.31
265.661	85.31
265.894	78.31
266.126	75.31
266.358	73.31
266.591	91.31
266.823	77.31
267.055	73.31
267.287	87.31
267.52	94.31
267.752	91.31
267.984	78.31
268.216	86.31
268.448	92.31
268.681	97.31
268.913	97.31
269.145	88.31
269.377	89.31
269.609	83.31
269.841	94.31
270.073	88.31
270.306	80.31
270.538	79.31
270.77	76.31
271.002	87.31
271.234	81.31
271.466	85.31
271.698	76.31
271.93	80.31
272.162	76.31
272.394	74.31
272.626	71.31
272.858	78.31
273.09	83.31
273.322	90.31
273.553	76.31
273.785	88.31
274.017	74.31
274.249	86.31
274.481	85.31
274.713	85.31
274.945	86.31
275.176	79.31
275.408	91.31
275.64	98.31
275.872	86.31
276.104	90.31
276.335	97.31
276.567	101.31
276.799	126.31
277.031	100.31
277.262	78.31
277.494	98.31
277.726	87.31
277.957	88.31
278.189	82.31
278.421	79.31
278.652	93.31
278.884	86.31
279.115	86.31
279.347	96.31
279.579	82.31
279.81	90.31
280.042	90.31
280.273	80.31
280.505	88.31
280.736	96.31
280.968	102.31
281.199	77.31
281.431	87.31
281.662	97.31
281.894	83.31
282.125	100.31
282.356	134.31
282.588	161.31
282.819	126.31
283.051	86.31
283.282	81.31
283.513	84.31
283.745	84.31
283.976	90.31
284.207	75.31
284.439	87.31
284.67	86.31
284.901	84.31
285.132	83.31
285.364	82.31
285.595	90.31
285.826	68.31
286.057	86.31
286.288	79.31
286.52	86.31
286.751	95.31
286.982	83.31
287.213	76.31
287.444	83.31
287.675	107.31
287.906	95.31
288.138	100.31
288.369	102.31
288.6	91.31
288.831	95.31
289.062	104.31
289.293	79.31
289.524	92.31
289.755	67.31
289.986	83.31
290.217	85.31
290.448	82.31
290.679	97.31
290.91	84.31
291.141	84.31
291.371	89.31
291.602	75.31
291.833	99.31
292.064	80.31
292.295	67.31
292.526	81.31
292.757	80.31
292.987	93.31
293.218	83.31
293.449	72.31
293.68	90.31
293.91	91.31
294.141	89.31
294.372	87.31
294.603	97.31
294.833	86.31
295.064	94.31
295.295	81.31
295.525	86.31
295.756	101.31
295.987	118.31
296.217	146.31
296.448	132.31
296.679	95.31
296.909	100.31
297.14	83.31
297.37	81.31
297.601	88.31
297.831	84.31
298.062	94.31
298.292	95.31
298.523	90.31
298.753	89.31
298.984	80.31
299.214	83.31
299.445	99.31
299.675	96.31
299.905	101.31
300.136	92.31
300.366	82.31
300.597	84.31
300.827	95.31
301.057	110.31
301.288	112.31
301.518	92.31
301.748	88.31
301.979	95.31
302.209	89.31
302.439	92.31
302.669	89.31
302.9	92.31
303.13	96.31
303.36	91.31
303.59	106.31
303.82	106.31
304.051	97.31
304.281	100.31
304.511	81.31
304.741	90.31
304.971	92.31
305.201	99.31
305.431	79.31
305.661	78.31
305.891	87.31
306.121	104.31
306.352	101.31
306.582	117.31
306.812	111.31
307.042	107.31
307.272	84.31
307.502	96.31
307.731	106.31
307.961	90.31
308.191	87.31
308.421	84.31
308.651	91.31
308.881	104.31
309.111	103.31
309.341	100.31
309.571	104.31
309.8	91.31
310.03	110.31
310.26	88.31
310.49	104.31
310.72	114.31
310.949	112.31
311.179	117.31
311.409	104.31
311.639	107.31
311.868	93.31
312.098	85.31
312.328	97.31
312.557	108.31
312.787	115.31
313.017	105.31
313.246	93.31
313.476	94.31
313.706	90.31
313.935	98.31
314.165	99.31
314.394	103.31
314.624	98.31
314.853	99.31
315.083	82.31
315.312	78.31
315.542	87.31
315.771	103.31
316.001	92.31
316.23	98.31
316.46	98.31
316.689	88.31
316.919	90.31
317.148	97.31
317.377	104.31
317.607	119.31
317.836	75.31
318.065	93.31
318.295	94.31
318.524	89.31
318.753	111.31
318.983	99.31
319.212	106.31
319.441	113.31
319.67	104.31
319.9	100.31
320.129	79.31
320.358	103.31
320.587	106.31
320.816	96.31
321.046	121.31
321.275	98.31
321.504	95.31
321.733	96.31
321.962	107.31
322.191	112.31
322.42	121.31
322.649	119.31
322.878	119.31
323.108	114.31
323.337	140.31
323.566	154.31
323.795	153.31
324.024	246.31
324.253	485.31
324.482	1052.31
324.71	2240.31
324.939	2905.31
325.168	1037.31
325.397	282.31
325.626	168.31
325.855	144.31
326.084	140.31
326.313	146.31
326.542	174.31
326.77	283.31
326.999	571.31
327.228	1172.31
327.457	2180.31
327.686	1742.31
327.914	454.31
328.143	211.31
328.372	166.31
328.6	128.31
328.829	126.31
329.058	131.31
329.287	133.31
329.515	110.31
329.744	98.31
329.972	108.31
330.201	112.31
330.43	121.31
330.658	130.31
330.887	146.31
331.115	122.31
331.344	90.31
331.572	100.31
331.801	117.31
332.03	117.31
332.258	89.31
332.486	92.31
332.715	89.31
332.943	110.31
333.172	100.31
333.4	99.31
333.629	111.31
333.857	113.31
334.085	118.31
334.314	98.31
334.542	97.31
334.771	104.31
334.999	82.31
335.227	116.31
335.455	96.31
335.684	101.31
335.912	92.31
336.14	96.31
336.369	100.31
336.597	95.31
336.825	108.31
337.053	99.31
337.281	101.31
337.51	93.31
337.738	103.31
337.966	93.31
338.194	92.31
338.422	97.31
338.65	100.31
338.878	100.31
339.106	96.31
339.334	95.31
339.562	96.31
339.79	75.31
340.018	95.31
340.246	85.31
340.474	90.31
340.702	98.31
340.93	92.31
341.158	92.31
341.386	104.31
341.614	106.31
341.842	95.31
342.07	96.31
342.298	91.31
342.526	103.31
342.754	90.31
342.981	95.31
343.209	71.31
343.437	100.31
343.665	91.31
343.893	85.31
344.12	89.31
344.348	101.31
344.576	86.31
344.804	79.31
345.031	89.31
345.259	106.31
345.487	88.31
345.714	99.31
345.942	80.31
346.17	86.31
346.397	104.31
346.625	88.31
346.853	102.31
347.08	98.31
347.308	103.31
347.535	101.31
347.763	109.31
347.99	110.31
348.218	114.31
348.445	111.31
348.673	98.31
348.9	93.31
349.128	91.31
349.355	88.31
349.583	89.31
349.81	94.31
350.037	97.31
350.265	84.31
350.492	97.31
350.72	91.31
350.947	118.31
351.174	109.31
351.402	130.31
351.629	101.31
351.856	110.31
352.083	97.31
352.311	116.31
352.538	115.31
352.765	113.31
352.992	113.31
353.22	99.31
353.447	100.31
353.674	112.31
353.901	97.31
354.128	95.31
354.355	91.31
354.583	108.31
354.81	114.31
355.037	96.31
355.264	113.31
355.491	103.31
355.718	100.31
355.945	88.31
356.172	96.31
356.399	105.31
356.626	99.31
356.853	99.31
357.08	97.31
357.307	75.31
357.534	87.31
357.761	81.31
357.988	107.31
358.215	98.31
358.441	105.31
358.668	91.31
358.895	101.31
359.122	84.31
359.349	72.31
359.576	95.31
359.802	111.31
360.029	119.31
360.256	111.31
360.483	118.31
360.709	100.31
360.936	95.31
361.163	90.31
361.39	106.31
361.616	101.31
361.843	89.31
362.07	95.31
362.296	108.31
362.523	101.31
362.749	89.31
362.976	97.31
363.203	98.31
363.429	98.31
363.656	87.31
363.882	96.31
364.109	98.31
364.335	92.31
364.562	100.31
364.788	85.31
365.015	89.31
365.241	107.31
365.468	111.31
365.694	116.31
365.92	101.31
366.147	99.31
366.373	91.31
366.599	94.31
366.826	96.31
367.052	78.31
367.278	74.31
367.505	84.31
367.731	112.31
367.957	99.31
368.184	91.31
368.41	98.31
368.636	106.31
368.862	141.31
369.089	114.31
369.315	111.31
369.541	93.31
369.767	86.31
369.993	101.31
370.219	87.31
370.445	79.31
370.672	85.31
370.898	102.31
371.124	81.31
371.35	80.31
371.576	96.31
371.802	82.31
372.028	101.31
372.254	92.31
372.48	85.31
372.706	89.31
372.932	86.31
373.158	87.31
373.384	90.31
373.61	93.31
373.835	91.31
374.061	84.31
374.287	91.31
374.513	98.31
374.739	81.31
374.965	91.31
375.191	102.31
375.416	80.31
375.642	91.31
375.868	91.31
376.094	88.31
376.319	91.31
376.545	86.31
376.771	82.31
376.997	102.31
377.222	94.31
377.448	102.31
377.674	93.31
377.899	101.31
378.125	88.31
378.35	83.31
378.576	86.31
378.802	103.31
379.027	90.31
379.253	98.31
379.478	96.31
379.704	110.31
379.929	90.31
380.155	102.31
380.38	88.31
380.606	111.31
380.831	95.31
381.057	113.31
381.282	104.31
381.507	111.31
381.733	113.31
381.958	123.31
382.184	107.31
382.409	121.31
382.634	110.31
382.86	105.31
383.085	111.31
383.31	117.31
383.535	101.31
383.761	104.31
383.986	104.31
384.211	106.31
384.436	110.31
384.662	112.31
384.887	112.31
385.112	119.31
385.337	114.31
385.562	127.31
385.787	113.31
386.013	124.31
386.238	129.31
386.463	117.31
386.688	127.31
386.913	116.31
387.138	123.31
387.363	120.31
387.588	110.31
387.813	109.31
388.038	128.31
388.263	118.31
388.488	112.31
388.713	110.31
388.938	107.31
389.163	103.31
389.387	100.31
389.612	90.31
389.837	90.31
390.062	90.31
390.287	87.31
390.512	99.31
390.736	96.31
390.961	86.31
391.186	94.31
391.411	94.31
391.636	107.31
391.86	75.31
392.085	89.31
392.31	101.31
392.534	90.31
392.759	87.31
392.984	95.31
393.208	111.31
393.433	111.31
393.658	100.31
393.882	83.31
394.107	87.31
394.331	92.31
394.556	75.31
394.78	86.31
395.005	86.31
395.229	85.31
395.454	96.31
395.678	70.31
395.903	89.31
396.127	86.31
396.352	76.31
396.576	99.31
396.801	86.31
397.025	105.31
397.249	85.31
397.474	83.31
397.698	89.31
397.922	81.31
398.147	77.31
398.371	90.31
398.595	84.31
398.82	82.31
399.044	81.31
399.268	92.31
399.492	95.31
399.717	98.31
399.941	79.31
400.165	110.31
400.389	99.31
400.613	84.31
400.837	82.31
401.062	91.31
401.286	96.31
401.51	91.31
401.734	86.31
401.958	110.31
402.182	131.31
402.406	176.31
402.63	147.31
402.854	93.31
403.078	104.31
403.302	91.31
403.526	92.31
403.75	79.31
403.974	86.31
404.198	81.31
404.422	95.31
404.645	96.31
404.869	88.31
405.093	88.31
405.317	86.31
405.541	96.31
405.765	111.31
405.988	124.31
406.212	190.31
406.436	260.31
406.66	171.31
406.883	107.31
407.107	94.31
407.331	90.31
407.555	106.31
407.778	107.31
408.002	103.31
408.226	91.31
408.449	102.31
408.673	98.31
408.896	104.31
409.12	106.31
409.344	89.31
409.567	83.31
409.791	97.31
410.014	102.31
410.238	92.31
410.461	97.31
410.685	99.31
410.908	99.31
411.132	96.31
411.355	103.31
411.578	89.31
411.802	98.31
412.025	98.31
412.249	87.31
412.472	95.31
412.695	113.31
412.919	87.31
413.142	91.31
413.365	95.31
413.589	90.31
413.812	78.31
414.035	84.31
414.258	91.31
414.482	79.31
414.705	96.31
414.928	94.31
415.151	87.31
415.374	99.31
415.597	97.31
415.821	84.31
416.044	100.31
416.267	90.31
416.49	81.31
416.713	92.31
416.936	90.31
417.159	88.31
417.382	91.31
417.605	94.31
417.828	98.31
418.051	102.31
418.274	98.31
418.497	79.31
418.72	89.31
418.943	95.31
419.166	83.31
419.389	93.31
419.611	95.31
419.834	103.31
420.057	94.31
420.28	91.31
420.503	88.31
420.726	79.31
420.948	85.31
421.171	95.31
421.394	97.31
421.617	88.31
421.839	97.31
422.062	96.31
422.285	88.31
422.507	103.31
422.73	98.31
422.953	101.31
423.175	92.31
423.398	85.31
423.621	100.31
423.843	92.31
424.066	99.31
424.288	87.31
424.511	102.31
424.733	106.31
424.956	108.31
425.178	108.31
425.401	102.31
425.623	98.31
425.846	98.31
426.068	99.31
426.291	90.31
426.513	86.31
426.735	91.31
426.958	94.31
427.18	100.31
427.402	131.31
427.625	194.31
427.847	141.31
428.069	105.31
428.292	92.31
428.514	91.31
428.736	85.31
428.958	74.31
429.181	91.31
429.403	94.31
429.625	84.31
429.847	90.31
430.069	91.31
430.292	89.31
430.514	85.31
430.736	93.31
430.958	88.31
431.18	83.31
431.402	83.31
431.624	90.31
431.846	90.31
432.068	84.31
432.29	94.31
432.512	93.31
432.734	86.31
432.956	99.31
433.178	105.31
433.4	96.31
433.622	82.31
433.844	98.31
434.066	88.31
434.287	84.31
434.509	91.31
434.731	94.31
434.953	80.31
435.175	104.31
435.397	103.31
435.618	111.31
435.84	109.31
436.062	144.31
436.284	117.31
436.505	104.31
436.727	108.31
436.949	86.31
437.17	79.31
437.392	85.31
437.614	118.31
437.835	125.31
438.057	122.31
438.278	119.31
438.5	108.31
438.721	126.31
438.943	98.31
439.165	93.31
439.386	91.31
439.608	84.31
439.829	98.31
440.05	130.31
440.272	141.31
440.493	113.31
440.715	93.31
440.936	80.31
441.158	95.31
441.379	81.31
441.6	88.31
441.822	99.31
442.043	103.31
442.264	115.31
442.486	108.31
442.707	101.31
442.928	127.31
443.149	145.31
443.371	151.31
443.592	110.31
443.813	112.31
444.034	105.31
444.255	95.31
444.476	92.31
444.698	76.31
444.919	90.31
445.14	131.31
445.361	128.31
445.582	128.31
445.803	147.31
446.024	155.31
446.245	143.31
446.466	111.31
446.687	100.31
446.908	89.31
447.129	95.31
447.35	97.31
447.571	99.31
447.792	91.31
448.013	94.31
448.234	122.31
448.455	107.31
448.675	111.31
448.896	117.31
449.117	110.31
449.338	91.31
449.559	110.31
449.779	117.31
450	87.31
450.221	94.31
450.442	78.31
450.662	98.31
450.883	109.31
451.104	126.31
451.324	92.31
451.545	94.31
451.766	85.31
451.986	80.31
452.207	90.31
452.428	107.31
452.648	98.31
452.869	110.31
453.089	112.31
453.31	127.31
453.53	93.31
453.751	119.31
453.971	118.31
454.192	124.31
454.412	98.31
454.633	86.31
454.853	96.31
455.073	86.31
455.294	96.31
455.514	109.31
455.734	104.31
455.955	93.31
456.175	81.31
456.395	87.31
456.616	89.31
456.836	95.31
457.056	96.31
457.276	89.31
457.497	85.31
457.717	91.31
457.937	87.31
458.157	89.31
458.377	90.31
458.598	115.31
458.818	174.31
459.038	184.31
459.258	122.31
459.478	104.31
459.698	79.31
459.918	83.31
460.138	82.31
460.358	80.31
460.578	101.31
460.798	81.31
461.018	96.31
461.238	83.31
461.458	96.31
461.678	83.31
461.898	85.31
462.118	79.31
462.338	88.31
462.558	86.31
462.777	86.31
462.997	86.31
463.217	92.31
463.437	81.31
463.657	95.31
463.876	71.31
464.096	96.31
464.316	107.31
464.536	104.31
464.755	108.31
464.975	114.31
465.195	194.31
465.414	178.31
465.634	95.31
465.854	96.31
466.073	84.31
466.293	93.31
466.512	86.31
466.732	97.31
466.951	90.31
467.171	71.31
467.391	89.31
467.61	123.31
467.829	92.31
468.049	98.31
468.268	78.31
468.488	83.31
468.707	84.31
468.927	82.31
469.146	78.31
469.365	98.31
469.585	92.31
469.804	94.31
470.023	103.31
470.243	91.31
470.462	99.31
470.681	118.31
470.901	91.31
471.12	91.31
471.339	83.31
471.558	90.31
471.777	90.31
471.997	74.31
472.216	105.31
472.435	90.31
472.654	84.31
472.873	93.31
473.092	85.31
473.311	87.31
473.53	86.31
473.749	87.31
473.968	99.31
474.187	105.31
474.406	94.31
474.625	87.31
474.844	79.31
475.063	81.31
475.282	104.31
475.501	85.31
475.72	89.31
475.939	87.31
476.158	80.31
476.377	90.31
476.596	87.31
476.814	80.31
477.033	83.31
477.252	84.31
477.471	85.31
477.69	84.31
477.908	80.31
478.127	91.31
478.346	95.31
478.564	76.31
478.783	97.31
479.002	92.31
479.22	94.31
479.439	101.31
479.658	113.31
479.876	110.31
480.095	95.31
480.313	96.31
480.532	91.31
480.751	86.31
480.969	93.31
481.188	118.31
481.406	115.31
481.624	102.31
481.843	100.31
482.061	83.31
482.28	87.31
482.498	90.31
482.717	88.31
482.935	90.31
483.153	98.31
483.372	89.31
483.59	86.31
483.808	92.31
484.027	88.31
484.245	90.31
484.463	99.31
484.681	102.31
484.9	91.31
485.118	95.31
485.336	97.31
485.554	111.31
485.772	99.31
485.99	93.31
486.209	108.31
486.427	86.31
486.645	102.31
486.863	121.31
487.081	106.31
487.299	99.31
487.517	93.31
487.735	84.31
487.953	99.31
488.171	102.31
488.389	104.31
488.607	97.31
488.825	109.31
489.043	83.31
489.261	89.31
489.479	84.31
489.696	87.31
489.914	90.31
490.132	104.31
490.35	76.31
490.568	84.31
490.786	85.31
491.003	100.31
491.221	101.31
491.439	90.31
491.657	92.31
491.874	81.31
492.092	105.31
492.31	91.31
492.527	85.31
492.745	99.31
492.963	99.31
493.18	96.31
493.398	88.31
493.615	108.31
493.833	101.31
494.05	74.31
494.268	95.31
494.485	84.31
494.703	92.31
494.92	110.31
495.138	90.31
495.355	89.31
495.573	95.31
495.79	92.31
496.008	97.31
496.225	90.31
496.442	90.31
496.66	90.31
496.877	106.31
497.094	84.31
497.312	89.31
497.529	84.31
497.746	94.31
497.963	75.31
498.181	93.31
498.398	100.31
498.615	103.31
498.832	103.31
499.049	103.31
499.267	85.31
499.484	83.31
499.701	90.31
499.918	83.31
500.135	87.31
500.352	74.31
500.569	100.31
500.786	102.31
501.003	95.31
501.22	86.31
501.437	89.31
501.654	91.31
501.871	105.31
502.088	98.31
502.305	107.31
502.522	90.31
502.739	92.31
502.956	92.31
503.172	96.31
503.389	88.31
503.606	109.31
503.823	112.31
504.04	89.31
504.256	91.31
504.473	88.31
504.69	84.31
504.907	85.31
505.123	85.31
505.34	86.31
505.557	85.31
505.773	88.31
505.99	82.31
506.207	94.31
506.423	91.31
506.64	94.31
506.856	96.31
507.073	91.31
507.289	90.31
507.506	90.31
507.722	122.31
507.939	118.31
508.155	102.31
508.372	98.31
508.588	92.31
508.805	122.31
509.021	108.31
509.238	91.31
509.454	97.31
509.67	112.31
509.887	118.31
510.103	148.31
510.319	235.31
510.536	964.31
510.752	3392.31
510.968	910.31
511.184	179.31
511.401	115.31
511.617	107.31
511.833	90.31
512.049	94.31
512.265	99.31
512.481	97.31
512.698	89.31
512.914	89.31
513.13	96.31
513.346	89.31
513.562	100.31
513.778	85.31
513.994	103.31
514.21	99.31
514.426	109.31
514.642	149.31
