Data from Circ_2003_H10_HRD10591_00013.txt Node
Date: Wed Jan 03 10:37:05 EST 2024
User: Yrep
Spectrometer: HR+D1059
Trigger mode: 1
Integration Time (sec): 1.000000E-1
Scans to average: 1
Electric dark correction enabled: true
Nonlinearity correction enabled: false
Boxcar width: 0
XAxis mode: Wavelengths
Number of Pixels in Spectrum: 2048
>>>>>Begin Spectral Data<<<<<
223.165	-4.31
223.4	-4.31
223.635	-4.31
223.869	-17.31
224.104	-20.31
224.338	-24.31
224.573	-14.31
224.808	-15.31
225.042	-12.31
225.277	0.69
225.511	-4.31
225.746	0.69
225.98	0.69
226.215	12.69
226.449	6.69
226.683	14.69
226.918	37.69
227.152	38.69
227.387	37.69
227.621	35.69
227.856	47.69
228.09	36.69
228.324	42.69
228.559	47.69
228.793	52.69
229.027	43.69
229.262	53.69
229.496	75.69
229.73	86.69
229.964	74.69
230.199	71.69
230.433	75.69
230.667	68.69
230.901	62.69
231.136	77.69
231.37	70.69
231.604	86.69
231.838	86.69
232.072	80.69
232.306	68.69
232.541	88.69
232.775	81.69
233.009	82.69
233.243	78.69
233.477	80.69
233.711	68.69
233.945	66.69
234.179	73.69
234.413	77.69
234.647	80.69
234.881	76.69
235.115	85.69
235.349	79.69
235.583	75.69
235.817	72.69
236.051	76.69
236.285	58.69
236.519	76.69
236.753	82.69
236.987	84.69
237.221	89.69
237.455	82.69
237.689	88.69
237.922	64.69
238.156	82.69
238.39	73.69
238.624	60.69
238.858	73.69
239.091	76.69
239.325	71.69
239.559	79.69
239.793	74.69
240.027	91.69
240.26	86.69
240.494	81.69
240.728	55.69
240.961	77.69
241.195	81.69
241.429	80.69
241.662	78.69
241.896	68.69
242.13	76.69
242.363	80.69
242.597	71.69
242.83	77.69
243.064	80.69
243.298	77.69
243.531	75.69
243.765	80.69
243.998	79.69
244.232	80.69
244.465	90.69
244.699	68.69
244.932	86.69
245.166	63.69
245.399	93.69
245.633	73.69
245.866	84.69
246.099	80.69
246.333	76.69
246.566	80.69
246.8	70.69
247.033	81.69
247.266	76.69
247.5	83.69
247.733	75.69
247.966	67.69
248.2	77.69
248.433	69.69
248.666	74.69
248.899	81.69
249.133	79.69
249.366	89.69
249.599	109.69
249.832	83.69
250.066	78.69
250.299	80.69
250.532	72.69
250.765	80.69
250.998	83.69
251.231	67.69
251.465	83.69
251.698	71.69
251.931	83.69
252.164	86.69
252.397	90.69
252.63	72.69
252.863	76.69
253.096	84.69
253.329	71.69
253.562	74.69
253.795	87.69
254.028	85.69
254.261	85.69
254.494	76.69
254.727	77.69
254.96	76.69
255.193	85.69
255.426	82.69
255.659	81.69
255.892	62.69
256.124	74.69
256.357	93.69
256.59	88.69
256.823	76.69
257.056	85.69
257.289	90.69
257.521	78.69
257.754	72.69
257.987	94.69
258.22	77.69
258.452	65.69
258.685	88.69
258.918	101.69
259.151	70.69
259.383	81.69
259.616	76.69
259.849	77.69
260.081	84.69
260.314	78.69
260.547	76.69
260.779	84.69
261.012	90.69
261.244	89.69
261.477	87.69
261.71	78.69
261.942	111.69
262.175	104.69
262.407	85.69
262.64	88.69
262.872	87.69
263.105	89.69
263.337	90.69
263.57	82.69
263.802	87.69
264.035	82.69
264.267	67.69
264.499	84.69
264.732	72.69
264.964	77.69
265.197	82.69
265.429	72.69
265.661	89.69
265.894	87.69
266.126	96.69
266.358	75.69
266.591	99.69
266.823	87.69
267.055	87.69
267.287	82.69
267.52	76.69
267.752	89.69
267.984	88.69
268.216	79.69
268.448	85.69
268.681	86.69
268.913	80.69
269.145	74.69
269.377	78.69
269.609	90.69
269.841	87.69
270.073	73.69
270.306	85.69
270.538	79.69
270.77	79.69
271.002	81.69
271.234	81.69
271.466	81.69
271.698	78.69
271.93	71.69
272.162	79.69
272.394	69.69
272.626	89.69
272.858	94.69
273.09	89.69
273.322	89.69
273.553	77.69
273.785	86.69
274.017	79.69
274.249	86.69
274.481	85.69
274.713	70.69
274.945	86.69
275.176	84.69
275.408	88.69
275.64	71.69
275.872	56.69
276.104	75.69
276.335	89.69
276.567	91.69
276.799	94.69
277.031	96.69
277.262	78.69
277.494	78.69
277.726	81.69
277.957	72.69
278.189	82.69
278.421	84.69
278.652	82.69
278.884	84.69
279.115	93.69
279.347	80.69
279.579	83.69
279.81	88.69
280.042	73.69
280.273	82.69
280.505	80.69
280.736	79.69
280.968	89.69
281.199	92.69
281.431	95.69
281.662	80.69
281.894	90.69
282.125	84.69
282.356	108.69
282.588	120.69
282.819	108.69
283.051	85.69
283.282	86.69
283.513	71.69
283.745	81.69
283.976	98.69
284.207	89.69
284.439	92.69
284.67	71.69
284.901	88.69
285.132	97.69
285.364	88.69
285.595	78.69
285.826	82.69
286.057	83.69
286.288	84.69
286.52	93.69
286.751	87.69
286.982	75.69
287.213	88.69
287.444	91.69
287.675	84.69
287.906	93.69
288.138	89.69
288.369	101.69
288.6	99.69
288.831	75.69
289.062	86.69
289.293	84.69
289.524	73.69
289.755	93.69
289.986	76.69
290.217	85.69
290.448	88.69
290.679	92.69
290.91	92.69
291.141	82.69
291.371	83.69
291.602	75.69
291.833	82.69
292.064	84.69
292.295	94.69
292.526	84.69
292.757	81.69
292.987	86.69
293.218	90.69
293.449	78.69
293.68	86.69
293.91	84.69
294.141	70.69
294.372	86.69
294.603	89.69
294.833	97.69
295.064	101.69
295.295	82.69
295.525	96.69
295.756	100.69
295.987	117.69
296.217	135.69
296.448	113.69
296.679	88.69
296.909	87.69
297.14	90.69
297.37	92.69
297.601	89.69
297.831	90.69
298.062	82.69
298.292	88.69
298.523	85.69
298.753	89.69
298.984	92.69
299.214	102.69
299.445	74.69
299.675	92.69
299.905	88.69
300.136	98.69
300.366	85.69
300.597	110.69
300.827	101.69
301.057	91.69
301.288	85.69
301.518	85.69
301.748	81.69
301.979	93.69
302.209	106.69
302.439	78.69
302.669	90.69
302.9	92.69
303.13	78.69
303.36	98.69
303.59	90.69
303.82	109.69
304.051	95.69
304.281	78.69
304.511	90.69
304.741	99.69
304.971	73.69
305.201	96.69
305.431	84.69
305.661	90.69
305.891	85.69
306.121	94.69
306.352	101.69
306.582	98.69
306.812	83.69
307.042	101.69
307.272	83.69
307.502	92.69
307.731	72.69
307.961	77.69
308.191	72.69
308.421	96.69
308.651	86.69
308.881	76.69
309.111	83.69
309.341	88.69
309.571	85.69
309.8	92.69
310.03	104.69
310.26	84.69
310.49	89.69
310.72	87.69
310.949	107.69
311.179	96.69
311.409	88.69
311.639	92.69
311.868	94.69
312.098	96.69
312.328	85.69
312.557	95.69
312.787	88.69
313.017	74.69
313.246	90.69
313.476	93.69
313.706	94.69
313.935	86.69
314.165	102.69
314.394	92.69
314.624	81.69
314.853	96.69
315.083	89.69
315.312	109.69
315.542	90.69
315.771	90.69
316.001	92.69
316.23	90.69
316.46	92.69
316.689	88.69
316.919	92.69
317.148	90.69
317.377	91.69
317.607	89.69
317.836	81.69
318.065	89.69
318.295	88.69
318.524	88.69
318.753	93.69
318.983	95.69
319.212	102.69
319.441	100.69
319.67	104.69
319.9	81.69
320.129	85.69
320.358	88.69
320.587	97.69
320.816	108.69
321.046	111.69
321.275	101.69
321.504	83.69
321.733	100.69
321.962	107.69
322.191	76.69
322.42	76.69
322.649	94.69
322.878	104.69
323.108	111.69
323.337	113.69
323.566	128.69
323.795	131.69
324.024	197.69
324.253	390.69
324.482	800.69
324.71	1651.69
324.939	2136.69
325.168	773.69
325.397	231.69
325.626	134.69
325.855	135.69
326.084	133.69
326.313	139.69
326.542	159.69
326.77	226.69
326.999	450.69
327.228	925.69
327.457	1655.69
327.686	1332.69
327.914	370.69
328.143	175.69
328.372	127.69
328.6	115.69
328.829	99.69
329.058	114.69
329.287	102.69
329.515	97.69
329.744	106.69
329.972	98.69
330.201	95.69
330.43	99.69
330.658	111.69
330.887	138.69
331.115	108.69
331.344	100.69
331.572	99.69
331.801	96.69
332.03	84.69
332.258	105.69
332.486	97.69
332.715	88.69
332.943	99.69
333.172	100.69
333.4	104.69
333.629	93.69
333.857	112.69
334.085	102.69
334.314	90.69
334.542	105.69
334.771	94.69
334.999	86.69
335.227	84.69
335.455	87.69
335.684	89.69
335.912	91.69
336.14	106.69
336.369	103.69
336.597	99.69
336.825	80.69
337.053	104.69
337.281	95.69
337.51	93.69
337.738	87.69
337.966	99.69
338.194	93.69
338.422	90.69
338.65	101.69
338.878	85.69
339.106	82.69
339.334	109.69
339.562	98.69
339.79	94.69
340.018	95.69
340.246	101.69
340.474	102.69
340.702	91.69
340.93	84.69
341.158	96.69
341.386	86.69
341.614	105.69
341.842	96.69
342.07	98.69
342.298	94.69
342.526	98.69
342.754	97.69
342.981	79.69
343.209	84.69
343.437	98.69
343.665	114.69
343.893	106.69
344.12	94.69
344.348	77.69
344.576	86.69
344.804	82.69
345.031	82.69
345.259	101.69
345.487	99.69
345.714	104.69
345.942	98.69
346.17	85.69
346.397	95.69
346.625	94.69
346.853	102.69
347.08	79.69
347.308	88.69
347.535	90.69
347.763	99.69
347.99	92.69
348.218	106.69
348.445	94.69
348.673	113.69
348.9	88.69
349.128	102.69
349.355	94.69
349.583	93.69
349.81	88.69
350.037	93.69
350.265	84.69
350.492	87.69
350.72	79.69
350.947	100.69
351.174	102.69
351.402	114.69
351.629	102.69
351.856	98.69
352.083	102.69
352.311	95.69
352.538	108.69
352.765	102.69
352.992	139.69
353.22	92.69
353.447	100.69
353.674	105.69
353.901	91.69
354.128	88.69
354.355	99.69
354.583	105.69
354.81	89.69
355.037	93.69
355.264	113.69
355.491	103.69
355.718	90.69
355.945	97.69
356.172	106.69
356.399	95.69
356.626	86.69
356.853	96.69
357.08	83.69
357.307	82.69
357.534	82.69
357.761	95.69
357.988	110.69
358.215	104.69
358.441	105.69
358.668	100.69
358.895	93.69
359.122	88.69
359.349	98.69
359.576	85.69
359.802	102.69
360.029	116.69
360.256	93.69
360.483	93.69
360.709	82.69
360.936	94.69
361.163	105.69
361.39	92.69
361.616	96.69
361.843	82.69
362.07	92.69
362.296	85.69
362.523	87.69
362.749	89.69
362.976	93.69
363.203	77.69
363.429	88.69
363.656	80.69
363.882	93.69
364.109	88.69
364.335	96.69
364.562	91.69
364.788	96.69
365.015	97.69
365.241	100.69
365.468	100.69
365.694	94.69
365.92	80.69
366.147	77.69
366.373	76.69
366.599	82.69
366.826	81.69
367.052	79.69
367.278	96.69
367.505	83.69
367.731	95.69
367.957	96.69
368.184	99.69
368.41	100.69
368.636	104.69
368.862	113.69
369.089	109.69
369.315	93.69
369.541	86.69
369.767	95.69
369.993	91.69
370.219	77.69
370.445	83.69
370.672	87.69
370.898	89.69
371.124	89.69
371.35	102.69
371.576	74.69
371.802	86.69
372.028	85.69
372.254	85.69
372.48	77.69
372.706	82.69
372.932	79.69
373.158	92.69
373.384	92.69
373.61	89.69
373.835	79.69
374.061	89.69
374.287	98.69
374.513	87.69
374.739	93.69
374.965	82.69
375.191	104.69
375.416	98.69
375.642	85.69
375.868	95.69
376.094	89.69
376.319	108.69
376.545	102.69
376.771	91.69
376.997	105.69
377.222	86.69
377.448	87.69
377.674	90.69
377.899	80.69
378.125	94.69
378.35	93.69
378.576	95.69
378.802	95.69
379.027	103.69
379.253	101.69
379.478	96.69
379.704	99.69
379.929	105.69
380.155	101.69
380.38	84.69
380.606	100.69
380.831	98.69
381.057	105.69
381.282	100.69
381.507	104.69
381.733	106.69
381.958	105.69
382.184	109.69
382.409	109.69
382.634	118.69
382.86	101.69
383.085	112.69
383.31	110.69
383.535	107.69
383.761	113.69
383.986	108.69
384.211	110.69
384.436	111.69
384.662	114.69
384.887	117.69
385.112	132.69
385.337	121.69
385.562	133.69
385.787	131.69
386.013	113.69
386.238	134.69
386.463	114.69
386.688	121.69
386.913	125.69
387.138	121.69
387.363	114.69
387.588	112.69
387.813	126.69
388.038	126.69
388.263	133.69
388.488	140.69
388.713	103.69
388.938	97.69
389.163	100.69
389.387	96.69
389.612	88.69
389.837	96.69
390.062	99.69
390.287	85.69
390.512	86.69
390.736	82.69
390.961	96.69
391.186	97.69
391.411	89.69
391.636	94.69
391.86	100.69
392.085	95.69
392.31	89.69
392.534	101.69
392.759	99.69
392.984	92.69
393.208	105.69
393.433	119.69
393.658	103.69
393.882	84.69
394.107	88.69
394.331	81.69
394.556	85.69
394.78	82.69
395.005	88.69
395.229	90.69
395.454	90.69
395.678	86.69
395.903	80.69
396.127	88.69
396.352	89.69
396.576	80.69
396.801	94.69
397.025	108.69
397.249	86.69
397.474	90.69
397.698	96.69
397.922	79.69
398.147	88.69
398.371	92.69
398.595	86.69
398.82	80.69
399.044	75.69
399.268	88.69
399.492	82.69
399.717	73.69
399.941	92.69
400.165	92.69
400.389	83.69
400.613	93.69
400.837	86.69
401.062	84.69
401.286	88.69
401.51	94.69
401.734	89.69
401.958	97.69
402.182	124.69
402.406	128.69
402.63	119.69
402.854	85.69
403.078	88.69
403.302	88.69
403.526	94.69
403.75	76.69
403.974	78.69
404.198	81.69
404.422	86.69
404.645	94.69
404.869	73.69
405.093	93.69
405.317	93.69
405.541	101.69
405.765	99.69
405.988	114.69
406.212	154.69
406.436	189.69
406.66	136.69
406.883	103.69
407.107	93.69
407.331	79.69
407.555	100.69
407.778	81.69
408.002	96.69
408.226	97.69
408.449	68.69
408.673	85.69
408.896	91.69
409.12	94.69
409.344	84.69
409.567	82.69
409.791	98.69
410.014	93.69
410.238	98.69
410.461	100.69
410.685	93.69
410.908	97.69
411.132	113.69
411.355	96.69
411.578	81.69
411.802	102.69
412.025	94.69
412.249	100.69
412.472	98.69
412.695	84.69
412.919	88.69
413.142	97.69
413.365	98.69
413.589	98.69
413.812	94.69
414.035	92.69
414.258	76.69
414.482	102.69
414.705	93.69
414.928	85.69
415.151	94.69
415.374	97.69
415.597	84.69
415.821	92.69
416.044	79.69
416.267	81.69
416.49	88.69
416.713	91.69
416.936	95.69
417.159	95.69
417.382	88.69
417.605	90.69
417.828	114.69
418.051	85.69
418.274	101.69
418.497	88.69
418.72	87.69
418.943	92.69
419.166	83.69
419.389	98.69
419.611	95.69
419.834	97.69
420.057	97.69
420.28	101.69
420.503	80.69
420.726	86.69
420.948	98.69
421.171	84.69
421.394	90.69
421.617	81.69
421.839	90.69
422.062	85.69
422.285	104.69
422.507	94.69
422.73	96.69
422.953	87.69
423.175	92.69
423.398	75.69
423.621	85.69
423.843	86.69
424.066	75.69
424.288	86.69
424.511	89.69
424.733	97.69
424.956	99.69
425.178	94.69
425.401	88.69
425.623	87.69
425.846	86.69
426.068	98.69
426.291	97.69
426.513	83.69
426.735	72.69
426.958	101.69
427.18	101.69
427.402	118.69
427.625	157.69
427.847	118.69
428.069	104.69
428.292	98.69
428.514	101.69
428.736	77.69
428.958	91.69
429.181	82.69
429.403	93.69
429.625	88.69
429.847	88.69
430.069	96.69
430.292	91.69
430.514	74.69
430.736	77.69
430.958	80.69
431.18	86.69
431.402	98.69
431.624	90.69
431.846	83.69
432.068	89.69
432.29	73.69
432.512	92.69
432.734	84.69
432.956	98.69
433.178	104.69
433.4	83.69
433.622	93.69
433.844	90.69
434.066	82.69
434.287	82.69
434.509	81.69
434.731	98.69
434.953	79.69
435.175	104.69
435.397	94.69
435.618	94.69
435.84	92.69
436.062	116.69
436.284	103.69
436.505	93.69
436.727	110.69
436.949	80.69
437.17	89.69
437.392	81.69
437.614	84.69
437.835	100.69
438.057	115.69
438.278	96.69
438.5	114.69
438.721	117.69
438.943	90.69
439.165	77.69
439.386	84.69
439.608	78.69
439.829	88.69
440.05	107.69
440.272	131.69
440.493	88.69
440.715	77.69
440.936	88.69
441.158	91.69
441.379	83.69
441.6	82.69
441.822	85.69
442.043	86.69
442.264	97.69
442.486	96.69
442.707	94.69
442.928	106.69
443.149	121.69
443.371	114.69
443.592	103.69
443.813	98.69
444.034	103.69
444.255	86.69
444.476	87.69
444.698	86.69
444.919	89.69
445.14	131.69
445.361	113.69
445.582	106.69
445.803	109.69
446.024	132.69
446.245	120.69
446.466	124.69
446.687	87.69
446.908	83.69
447.129	84.69
447.35	92.69
447.571	84.69
447.792	85.69
448.013	94.69
448.234	108.69
448.455	96.69
448.675	98.69
448.896	106.69
449.117	102.69
449.338	102.69
449.559	110.69
449.779	121.69
450	99.69
450.221	85.69
450.442	80.69
450.662	94.69
450.883	105.69
451.104	105.69
451.324	97.69
451.545	85.69
451.766	92.69
451.986	96.69
452.207	78.69
452.428	87.69
452.648	91.69
452.869	105.69
453.089	117.69
453.31	129.69
453.53	80.69
453.751	85.69
453.971	93.69
454.192	96.69
454.412	86.69
454.633	85.69
454.853	80.69
455.073	82.69
455.294	83.69
455.514	89.69
455.734	101.69
455.955	69.69
456.175	92.69
456.395	92.69
456.616	94.69
456.836	89.69
457.056	90.69
457.276	74.69
457.497	78.69
457.717	64.69
457.937	79.69
458.157	98.69
458.377	90.69
458.598	111.69
458.818	120.69
459.038	146.69
459.258	110.69
459.478	92.69
459.698	86.69
459.918	88.69
460.138	83.69
460.358	89.69
460.578	93.69
460.798	88.69
461.018	89.69
461.238	82.69
461.458	79.69
461.678	95.69
461.898	98.69
462.118	78.69
462.338	79.69
462.558	83.69
462.777	78.69
462.997	79.69
463.217	80.69
463.437	70.69
463.657	102.69
463.876	67.69
464.096	79.69
464.316	90.69
464.536	80.69
464.755	74.69
464.975	97.69
465.195	149.69
465.414	137.69
465.634	103.69
465.854	94.69
466.073	89.69
466.293	87.69
466.512	93.69
466.732	85.69
466.951	78.69
467.171	81.69
467.391	94.69
467.61	92.69
467.829	100.69
468.049	70.69
468.268	80.69
468.488	88.69
468.707	86.69
468.927	69.69
469.146	80.69
469.365	79.69
469.585	93.69
469.804	85.69
470.023	101.69
470.243	78.69
470.462	89.69
470.681	93.69
470.901	89.69
471.12	84.69
471.339	89.69
471.558	81.69
471.777	82.69
471.997	110.69
472.216	89.69
472.435	90.69
472.654	82.69
472.873	77.69
473.092	94.69
473.311	95.69
473.53	83.69
473.749	81.69
473.968	89.69
474.187	109.69
474.406	97.69
474.625	100.69
474.844	86.69
475.063	88.69
475.282	100.69
475.501	94.69
475.72	103.69
475.939	87.69
476.158	89.69
476.377	82.69
476.596	84.69
476.814	98.69
477.033	93.69
477.252	86.69
477.471	89.69
477.69	82.69
477.908	94.69
478.127	82.69
478.346	81.69
478.564	80.69
478.783	94.69
479.002	83.69
479.22	85.69
479.439	102.69
479.658	109.69
479.876	84.69
480.095	85.69
480.313	88.69
480.532	83.69
480.751	84.69
480.969	93.69
481.188	98.69
481.406	92.69
481.624	90.69
481.843	86.69
482.061	80.69
482.28	87.69
482.498	99.69
482.717	86.69
482.935	92.69
483.153	88.69
483.372	86.69
483.59	93.69
483.808	94.69
484.027	100.69
484.245	88.69
484.463	96.69
484.681	93.69
484.9	97.69
485.118	109.69
485.336	106.69
485.554	102.69
485.772	96.69
485.99	97.69
486.209	106.69
486.427	105.69
486.645	97.69
486.863	111.69
487.081	114.69
487.299	102.69
487.517	99.69
487.735	92.69
487.953	90.69
488.171	96.69
488.389	96.69
488.607	106.69
488.825	94.69
489.043	94.69
489.261	87.69
489.479	81.69
489.696	72.69
489.914	89.69
490.132	74.69
490.35	103.69
490.568	71.69
490.786	88.69
491.003	92.69
491.221	81.69
491.439	96.69
491.657	92.69
491.874	84.69
492.092	90.69
492.31	84.69
492.527	77.69
492.745	85.69
492.963	92.69
493.18	96.69
493.398	87.69
493.615	104.69
493.833	96.69
494.05	83.69
494.268	94.69
494.485	92.69
494.703	103.69
494.92	96.69
495.138	93.69
495.355	99.69
495.573	78.69
495.79	92.69
496.008	96.69
496.225	73.69
496.442	84.69
496.66	94.69
496.877	89.69
497.094	80.69
497.312	79.69
497.529	93.69
497.746	89.69
497.963	89.69
498.181	90.69
498.398	105.69
498.615	99.69
498.832	94.69
499.049	88.69
499.267	86.69
499.484	90.69
499.701	91.69
499.918	94.69
500.135	86.69
500.352	82.69
500.569	87.69
500.786	87.69
501.003	76.69
501.22	92.69
501.437	92.69
501.654	101.69
501.871	107.69
502.088	77.69
502.305	83.69
502.522	81.69
502.739	90.69
502.956	90.69
503.172	95.69
503.389	88.69
503.606	108.69
503.823	90.69
504.04	93.69
504.256	93.69
504.473	100.69
504.69	96.69
504.907	92.69
505.123	95.69
505.34	98.69
505.557	66.69
505.773	82.69
505.99	86.69
506.207	76.69
506.423	84.69
506.64	78.69
506.856	94.69
507.073	86.69
507.289	97.69
507.506	81.69
507.722	102.69
507.939	96.69
508.155	97.69
508.372	98.69
508.588	91.69
508.805	77.69
509.021	83.69
509.238	94.69
509.454	96.69
509.67	89.69
509.887	97.69
510.103	124.69
510.319	197.69
510.536	664.69
510.752	2126.69
510.968	599.69
511.184	148.69
511.401	96.69
511.617	91.69
511.833	90.69
512.049	76.69
512.265	63.69
512.481	84.69
512.698	79.69
512.914	99.69
513.13	111.69
513.346	82.69
513.562	76.69
513.778	86.69
513.994	96.69
514.21	99.69
514.426	106.69
514.642	128.69
514.858	117.69
515.074	144.69
515.29	380.69
515.506	1226.69
515.721	460.69
515.937	146.69
516.153	106.69
