Data from Circ_2003_H10_HRD10591_00053.txt Node
Date: Wed Jan 03 10:37:13 EST 2024
User: Yrep
Spectrometer: HR+D1059
Trigger mode: 1
Integration Time (sec): 1.000000E-1
Scans to average: 1
Electric dark correction enabled: true
Nonlinearity correction enabled: false
Boxcar width: 0
XAxis mode: Wavelengths
Number of Pixels in Spectrum: 2048
>>>>>Begin Spectral Data<<<<<
223.165	-17.44
223.4	-17.44
223.635	-17.44
223.869	-10.44
224.104	-18.44
224.338	-4.44
224.573	-28.44
224.808	-10.44
225.042	-29.44
225.277	-7.44
225.511	-2.44
225.746	2.56
225.98	27.56
226.215	14.56
226.449	19.56
226.683	24.56
226.918	22.56
227.152	17.56
227.387	25.56
227.621	28.56
227.856	43.56
228.09	37.56
228.324	38.56
228.559	59.56
228.793	49.56
229.027	53.56
229.262	59.56
229.496	69.56
229.73	81.56
229.964	97.56
230.199	60.56
230.433	70.56
230.667	70.56
230.901	64.56
231.136	78.56
231.37	77.56
231.604	77.56
231.838	80.56
232.072	78.56
232.306	82.56
232.541	87.56
232.775	82.56
233.009	65.56
233.243	78.56
233.477	92.56
233.711	95.56
233.945	86.56
234.179	67.56
234.413	80.56
234.647	72.56
234.881	80.56
235.115	68.56
235.349	83.56
235.583	83.56
235.817	68.56
236.051	81.56
236.285	76.56
236.519	54.56
236.753	81.56
236.987	79.56
237.221	82.56
237.455	75.56
237.689	83.56
237.922	60.56
238.156	64.56
238.39	69.56
238.624	72.56
238.858	82.56
239.091	77.56
239.325	81.56
239.559	76.56
239.793	63.56
240.027	75.56
240.26	62.56
240.494	71.56
240.728	60.56
240.961	61.56
241.195	68.56
241.429	81.56
241.662	54.56
241.896	68.56
242.13	80.56
242.363	63.56
242.597	72.56
242.83	81.56
243.064	70.56
243.298	91.56
243.531	80.56
243.765	75.56
243.998	73.56
244.232	77.56
244.465	83.56
244.699	83.56
244.932	66.56
245.166	67.56
245.399	78.56
245.633	75.56
245.866	81.56
246.099	85.56
246.333	77.56
246.566	79.56
246.8	67.56
247.033	73.56
247.266	58.56
247.5	78.56
247.733	75.56
247.966	66.56
248.2	69.56
248.433	75.56
248.666	79.56
248.899	72.56
249.133	78.56
249.366	77.56
249.599	97.56
249.832	89.56
250.066	86.56
250.299	75.56
250.532	90.56
250.765	81.56
250.998	75.56
251.231	70.56
251.465	63.56
251.698	71.56
251.931	76.56
252.164	86.56
252.397	78.56
252.63	74.56
252.863	61.56
253.096	75.56
253.329	82.56
253.562	64.56
253.795	78.56
254.028	83.56
254.261	75.56
254.494	80.56
254.727	90.56
254.96	74.56
255.193	70.56
255.426	85.56
255.659	76.56
255.892	89.56
256.124	77.56
256.357	80.56
256.59	74.56
256.823	76.56
257.056	62.56
257.289	72.56
257.521	79.56
257.754	74.56
257.987	81.56
258.22	75.56
258.452	80.56
258.685	75.56
258.918	75.56
259.151	83.56
259.383	78.56
259.616	90.56
259.849	83.56
260.081	83.56
260.314	79.56
260.547	86.56
260.779	72.56
261.012	74.56
261.244	76.56
261.477	83.56
261.71	93.56
261.942	121.56
262.175	106.56
262.407	83.56
262.64	69.56
262.872	68.56
263.105	87.56
263.337	79.56
263.57	74.56
263.802	75.56
264.035	77.56
264.267	101.56
264.499	101.56
264.732	77.56
264.964	75.56
265.197	68.56
265.429	73.56
265.661	57.56
265.894	86.56
266.126	85.56
266.358	85.56
266.591	72.56
266.823	83.56
267.055	73.56
267.287	72.56
267.52	70.56
267.752	90.56
267.984	73.56
268.216	81.56
268.448	84.56
268.681	82.56
268.913	87.56
269.145	82.56
269.377	101.56
269.609	86.56
269.841	85.56
270.073	65.56
270.306	86.56
270.538	81.56
270.77	90.56
271.002	83.56
271.234	87.56
271.466	68.56
271.698	76.56
271.93	72.56
272.162	81.56
272.394	95.56
272.626	76.56
272.858	73.56
273.09	83.56
273.322	81.56
273.553	93.56
273.785	77.56
274.017	71.56
274.249	75.56
274.481	91.56
274.713	68.56
274.945	89.56
275.176	83.56
275.408	95.56
275.64	83.56
275.872	89.56
276.104	81.56
276.335	84.56
276.567	85.56
276.799	100.56
277.031	113.56
277.262	95.56
277.494	85.56
277.726	81.56
277.957	78.56
278.189	84.56
278.421	85.56
278.652	80.56
278.884	82.56
279.115	87.56
279.347	69.56
279.579	81.56
279.81	77.56
280.042	76.56
280.273	97.56
280.505	70.56
280.736	81.56
280.968	77.56
281.199	77.56
281.431	73.56
281.662	88.56
281.894	82.56
282.125	101.56
282.356	124.56
282.588	140.56
282.819	119.56
283.051	82.56
283.282	81.56
283.513	82.56
283.745	92.56
283.976	82.56
284.207	74.56
284.439	74.56
284.67	91.56
284.901	83.56
285.132	91.56
285.364	81.56
285.595	66.56
285.826	66.56
286.057	78.56
286.288	84.56
286.52	85.56
286.751	91.56
286.982	63.56
287.213	66.56
287.444	86.56
287.675	71.56
287.906	91.56
288.138	88.56
288.369	93.56
288.6	92.56
288.831	91.56
289.062	83.56
289.293	87.56
289.524	83.56
289.755	67.56
289.986	87.56
290.217	67.56
290.448	78.56
290.679	86.56
290.91	79.56
291.141	80.56
291.371	88.56
291.602	82.56
291.833	82.56
292.064	81.56
292.295	83.56
292.526	84.56
292.757	69.56
292.987	83.56
293.218	69.56
293.449	85.56
293.68	79.56
293.91	82.56
294.141	83.56
294.372	79.56
294.603	81.56
294.833	95.56
295.064	91.56
295.295	76.56
295.525	98.56
295.756	86.56
295.987	113.56
296.217	158.56
296.448	127.56
296.679	80.56
296.909	91.56
297.14	80.56
297.37	80.56
297.601	91.56
297.831	86.56
298.062	104.56
298.292	86.56
298.523	71.56
298.753	90.56
298.984	89.56
299.214	84.56
299.445	81.56
299.675	97.56
299.905	104.56
300.136	79.56
300.366	86.56
300.597	100.56
300.827	105.56
301.057	98.56
301.288	88.56
301.518	90.56
301.748	77.56
301.979	93.56
302.209	84.56
302.439	82.56
302.669	88.56
302.9	86.56
303.13	69.56
303.36	81.56
303.59	90.56
303.82	118.56
304.051	97.56
304.281	86.56
304.511	80.56
304.741	81.56
304.971	91.56
305.201	91.56
305.431	86.56
305.661	111.56
305.891	84.56
306.121	85.56
306.352	93.56
306.582	95.56
306.812	80.56
307.042	84.56
307.272	94.56
307.502	102.56
307.731	85.56
307.961	89.56
308.191	88.56
308.421	86.56
308.651	85.56
308.881	84.56
309.111	77.56
309.341	90.56
309.571	77.56
309.8	99.56
310.03	100.56
310.26	85.56
310.49	95.56
310.72	90.56
310.949	97.56
311.179	100.56
311.409	95.56
311.639	83.56
311.868	90.56
312.098	99.56
312.328	92.56
312.557	100.56
312.787	102.56
313.017	96.56
313.246	105.56
313.476	84.56
313.706	72.56
313.935	94.56
314.165	88.56
314.394	119.56
314.624	79.56
314.853	98.56
315.083	94.56
315.312	93.56
315.542	88.56
315.771	96.56
316.001	94.56
316.23	82.56
316.46	83.56
316.689	91.56
316.919	85.56
317.148	86.56
317.377	77.56
317.607	85.56
317.836	92.56
318.065	93.56
318.295	83.56
318.524	86.56
318.753	88.56
318.983	88.56
319.212	97.56
319.441	101.56
319.67	120.56
319.9	91.56
320.129	91.56
320.358	83.56
320.587	104.56
320.816	87.56
321.046	95.56
321.275	93.56
321.504	93.56
321.733	101.56
321.962	116.56
322.191	87.56
322.42	98.56
322.649	100.56
322.878	109.56
323.108	96.56
323.337	110.56
323.566	122.56
323.795	167.56
324.024	221.56
324.253	425.56
324.482	958.56
324.71	1949.56
324.939	2593.56
325.168	901.56
325.397	273.56
325.626	159.56
325.855	129.56
326.084	133.56
326.313	140.56
326.542	171.56
326.77	258.56
326.999	514.56
327.228	1075.56
327.457	1998.56
327.686	1534.56
327.914	423.56
328.143	211.56
328.372	160.56
328.6	131.56
328.829	119.56
329.058	129.56
329.287	128.56
329.515	125.56
329.744	107.56
329.972	116.56
330.201	127.56
330.43	147.56
330.658	148.56
330.887	142.56
331.115	142.56
331.344	97.56
331.572	101.56
331.801	97.56
332.03	114.56
332.258	92.56
332.486	95.56
332.715	80.56
332.943	83.56
333.172	89.56
333.4	86.56
333.629	96.56
333.857	112.56
334.085	110.56
334.314	116.56
334.542	141.56
334.771	145.56
334.999	92.56
335.227	84.56
335.455	90.56
335.684	105.56
335.912	106.56
336.14	93.56
336.369	99.56
336.597	87.56
336.825	87.56
337.053	103.56
337.281	83.56
337.51	102.56
337.738	105.56
337.966	86.56
338.194	103.56
338.422	74.56
338.65	90.56
338.878	101.56
339.106	84.56
339.334	88.56
339.562	93.56
339.79	74.56
340.018	98.56
340.246	108.56
340.474	91.56
340.702	92.56
340.93	92.56
341.158	97.56
341.386	102.56
341.614	98.56
341.842	94.56
342.07	96.56
342.298	89.56
342.526	92.56
342.754	87.56
342.981	84.56
343.209	77.56
343.437	102.56
343.665	77.56
343.893	87.56
344.12	77.56
344.348	84.56
344.576	89.56
344.804	73.56
345.031	88.56
345.259	101.56
345.487	94.56
345.714	94.56
345.942	90.56
346.17	94.56
346.397	102.56
346.625	90.56
346.853	84.56
347.08	80.56
347.308	83.56
347.535	84.56
347.763	97.56
347.99	87.56
348.218	98.56
348.445	91.56
348.673	86.56
348.9	77.56
349.128	98.56
349.355	79.56
349.583	103.56
349.81	94.56
350.037	95.56
350.265	95.56
350.492	102.56
350.72	90.56
350.947	94.56
351.174	111.56
351.402	107.56
351.629	107.56
351.856	97.56
352.083	107.56
352.311	101.56
352.538	119.56
352.765	100.56
352.992	105.56
353.22	99.56
353.447	111.56
353.674	104.56
353.901	96.56
354.128	108.56
354.355	106.56
354.583	93.56
354.81	91.56
355.037	99.56
355.264	82.56
355.491	88.56
355.718	86.56
355.945	84.56
356.172	93.56
356.399	95.56
356.626	89.56
356.853	92.56
357.08	82.56
357.307	91.56
357.534	81.56
357.761	90.56
357.988	85.56
358.215	106.56
358.441	105.56
358.668	86.56
358.895	83.56
359.122	88.56
359.349	93.56
359.576	98.56
359.802	101.56
360.029	102.56
360.256	104.56
360.483	96.56
360.709	82.56
360.936	95.56
361.163	92.56
361.39	84.56
361.616	84.56
361.843	98.56
362.07	89.56
362.296	92.56
362.523	101.56
362.749	83.56
362.976	84.56
363.203	93.56
363.429	82.56
363.656	81.56
363.882	74.56
364.109	82.56
364.335	94.56
364.562	96.56
364.788	78.56
365.015	89.56
365.241	109.56
365.468	95.56
365.694	111.56
365.92	91.56
366.147	71.56
366.373	95.56
366.599	80.56
366.826	70.56
367.052	81.56
367.278	76.56
367.505	77.56
367.731	88.56
367.957	77.56
368.184	87.56
368.41	91.56
368.636	105.56
368.862	118.56
369.089	114.56
369.315	87.56
369.541	84.56
369.767	92.56
369.993	94.56
370.219	81.56
370.445	86.56
370.672	91.56
370.898	81.56
371.124	85.56
371.35	90.56
371.576	89.56
371.802	87.56
372.028	70.56
372.254	72.56
372.48	90.56
372.706	87.56
372.932	83.56
373.158	76.56
373.384	98.56
373.61	103.56
373.835	84.56
374.061	100.56
374.287	84.56
374.513	74.56
374.739	92.56
374.965	94.56
375.191	79.56
375.416	88.56
375.642	92.56
375.868	86.56
376.094	93.56
376.319	88.56
376.545	82.56
376.771	69.56
376.997	85.56
377.222	92.56
377.448	88.56
377.674	82.56
377.899	81.56
378.125	83.56
378.35	77.56
378.576	85.56
378.802	101.56
379.027	88.56
379.253	86.56
379.478	92.56
379.704	74.56
379.929	81.56
380.155	82.56
380.38	85.56
380.606	83.56
380.831	93.56
381.057	83.56
381.282	81.56
381.507	94.56
381.733	98.56
381.958	90.56
382.184	98.56
382.409	102.56
382.634	110.56
382.86	88.56
383.085	98.56
383.31	103.56
383.535	87.56
383.761	95.56
383.986	82.56
384.211	82.56
384.436	97.56
384.662	94.56
384.887	114.56
385.112	111.56
385.337	97.56
385.562	96.56
385.787	103.56
386.013	100.56
386.238	99.56
386.463	110.56
386.688	115.56
386.913	114.56
387.138	108.56
387.363	107.56
387.588	97.56
387.813	97.56
388.038	108.56
388.263	106.56
388.488	96.56
388.713	94.56
388.938	79.56
389.163	100.56
389.387	89.56
389.612	84.56
389.837	81.56
390.062	87.56
390.287	84.56
390.512	84.56
390.736	97.56
390.961	88.56
391.186	113.56
391.411	91.56
391.636	86.56
391.86	83.56
392.085	82.56
392.31	72.56
392.534	89.56
392.759	93.56
392.984	90.56
393.208	78.56
393.433	83.56
393.658	92.56
393.882	76.56
394.107	102.56
394.331	100.56
394.556	85.56
394.78	89.56
395.005	82.56
395.229	75.56
395.454	84.56
395.678	78.56
395.903	82.56
396.127	87.56
396.352	90.56
396.576	73.56
396.801	98.56
397.025	82.56
397.249	101.56
397.474	90.56
397.698	76.56
397.922	67.56
398.147	100.56
398.371	75.56
398.595	81.56
398.82	87.56
399.044	92.56
399.268	72.56
399.492	74.56
399.717	66.56
399.941	74.56
400.165	94.56
400.389	87.56
400.613	79.56
400.837	91.56
401.062	82.56
401.286	80.56
401.51	82.56
401.734	74.56
401.958	77.56
402.182	125.56
402.406	144.56
402.63	119.56
402.854	96.56
403.078	95.56
403.302	77.56
403.526	79.56
403.75	84.56
403.974	92.56
404.198	87.56
404.422	92.56
404.645	79.56
404.869	92.56
405.093	92.56
405.317	97.56
405.541	98.56
405.765	85.56
405.988	110.56
406.212	161.56
406.436	224.56
406.66	146.56
406.883	100.56
407.107	93.56
407.331	90.56
407.555	90.56
407.778	98.56
408.002	89.56
408.226	101.56
408.449	94.56
408.673	81.56
408.896	90.56
409.12	80.56
409.344	93.56
409.567	78.56
409.791	106.56
410.014	86.56
410.238	98.56
410.461	84.56
410.685	97.56
410.908	96.56
411.132	92.56
411.355	105.56
411.578	87.56
411.802	89.56
412.025	86.56
412.249	92.56
412.472	86.56
412.695	101.56
412.919	80.56
413.142	94.56
413.365	82.56
413.589	90.56
413.812	87.56
414.035	93.56
414.258	79.56
414.482	75.56
414.705	100.56
414.928	90.56
415.151	91.56
415.374	87.56
415.597	99.56
415.821	86.56
416.044	88.56
416.267	90.56
416.49	96.56
416.713	86.56
416.936	76.56
417.159	86.56
417.382	81.56
417.605	82.56
417.828	99.56
418.051	91.56
418.274	94.56
418.497	91.56
418.72	77.56
418.943	84.56
419.166	87.56
419.389	83.56
419.611	83.56
419.834	91.56
420.057	85.56
420.28	92.56
420.503	86.56
420.726	91.56
420.948	86.56
421.171	77.56
421.394	106.56
421.617	109.56
421.839	81.56
422.062	84.56
422.285	106.56
422.507	92.56
422.73	105.56
422.953	90.56
423.175	75.56
423.398	93.56
423.621	82.56
423.843	89.56
424.066	91.56
424.288	94.56
424.511	97.56
424.733	97.56
424.956	107.56
425.178	85.56
425.401	93.56
425.623	79.56
425.846	82.56
426.068	87.56
426.291	86.56
426.513	58.56
426.735	85.56
426.958	92.56
427.18	103.56
427.402	121.56
427.625	157.56
427.847	119.56
428.069	102.56
428.292	97.56
428.514	89.56
428.736	87.56
428.958	83.56
429.181	82.56
429.403	78.56
429.625	89.56
429.847	93.56
430.069	86.56
430.292	91.56
430.514	78.56
430.736	71.56
430.958	73.56
431.18	69.56
431.402	84.56
431.624	93.56
431.846	82.56
432.068	85.56
432.29	92.56
432.512	95.56
432.734	72.56
432.956	66.56
433.178	87.56
433.4	99.56
433.622	87.56
433.844	87.56
434.066	72.56
434.287	83.56
434.509	87.56
434.731	90.56
434.953	88.56
435.175	100.56
435.397	94.56
435.618	87.56
435.84	106.56
436.062	126.56
436.284	105.56
436.505	99.56
436.727	100.56
436.949	89.56
437.17	83.56
437.392	86.56
437.614	87.56
437.835	110.56
438.057	102.56
438.278	102.56
438.5	102.56
438.721	109.56
438.943	100.56
439.165	95.56
439.386	89.56
439.608	86.56
439.829	95.56
440.05	109.56
440.272	138.56
440.493	80.56
440.715	73.56
440.936	87.56
441.158	99.56
441.379	78.56
441.6	99.56
441.822	102.56
442.043	109.56
442.264	106.56
442.486	95.56
442.707	90.56
442.928	109.56
443.149	130.56
443.371	118.56
443.592	96.56
443.813	93.56
444.034	110.56
444.255	67.56
444.476	80.56
444.698	65.56
444.919	84.56
445.14	129.56
445.361	133.56
445.582	119.56
445.803	131.56
446.024	125.56
446.245	141.56
446.466	119.56
446.687	81.56
446.908	84.56
447.129	80.56
447.35	87.56
447.571	90.56
447.792	87.56
448.013	99.56
448.234	107.56
448.455	100.56
448.675	99.56
448.896	121.56
449.117	102.56
449.338	99.56
449.559	116.56
449.779	133.56
450	85.56
450.221	79.56
450.442	79.56
450.662	81.56
450.883	107.56
451.104	104.56
451.324	86.56
451.545	83.56
451.766	81.56
451.986	87.56
452.207	87.56
452.428	76.56
452.648	112.56
452.869	110.56
453.089	112.56
453.31	114.56
453.53	90.56
453.751	83.56
453.971	110.56
454.192	102.56
454.412	94.56
454.633	76.56
454.853	83.56
455.073	91.56
455.294	84.56
455.514	95.56
455.734	78.56
455.955	83.56
456.175	69.56
456.395	77.56
456.616	87.56
456.836	87.56
457.056	82.56
457.276	81.56
457.497	86.56
457.717	81.56
457.937	82.56
458.157	82.56
458.377	88.56
458.598	102.56
458.818	148.56
459.038	171.56
459.258	121.56
459.478	82.56
459.698	73.56
459.918	84.56
460.138	87.56
460.358	73.56
460.578	82.56
460.798	102.56
461.018	88.56
461.238	73.56
461.458	85.56
461.678	66.56
461.898	80.56
462.118	93.56
462.338	65.56
462.558	93.56
462.777	81.56
462.997	67.56
463.217	82.56
463.437	87.56
463.657	81.56
463.876	98.56
464.096	85.56
464.316	92.56
464.536	77.56
464.755	96.56
464.975	99.56
465.195	167.56
465.414	157.56
465.634	96.56
465.854	85.56
466.073	87.56
466.293	91.56
466.512	99.56
466.732	97.56
466.951	87.56
467.171	85.56
467.391	99.56
467.61	97.56
467.829	97.56
468.049	103.56
468.268	93.56
468.488	77.56
468.707	79.56
468.927	81.56
469.146	77.56
469.365	75.56
469.585	81.56
469.804	100.56
470.023	78.56
470.243	79.56
470.462	101.56
470.681	113.56
470.901	82.56
471.12	79.56
471.339	75.56
471.558	93.56
471.777	90.56
471.997	85.56
472.216	114.56
472.435	151.56
472.654	106.56
472.873	91.56
473.092	77.56
473.311	92.56
473.53	80.56
473.749	91.56
473.968	91.56
474.187	103.56
474.406	91.56
474.625	87.56
474.844	87.56
475.063	81.56
475.282	75.56
475.501	84.56
475.72	102.56
475.939	78.56
476.158	81.56
476.377	76.56
476.596	71.56
476.814	95.56
477.033	80.56
477.252	84.56
477.471	84.56
477.69	94.56
477.908	81.56
478.127	93.56
478.346	83.56
478.564	92.56
478.783	91.56
479.002	75.56
479.22	78.56
479.439	99.56
479.658	93.56
479.876	87.56
480.095	84.56
480.313	85.56
480.532	81.56
480.751	86.56
480.969	110.56
481.188	234.56
481.406	185.56
481.624	95.56
481.843	88.56
482.061	91.56
482.28	90.56
482.498	82.56
482.717	76.56
482.935	70.56
483.153	83.56
483.372	87.56
483.59	79.56
483.808	86.56
484.027	74.56
484.245	80.56
484.463	81.56
484.681	87.56
484.9	90.56
485.118	94.56
485.336	95.56
485.554	91.56
485.772	91.56
485.99	99.56
486.209	108.56
486.427	99.56
486.645	107.56
486.863	101.56
487.081	86.56
487.299	99.56
487.517	76.56
487.735	87.56
487.953	89.56
488.171	82.56
488.389	87.56
488.607	85.56
488.825	92.56
489.043	101.56
489.261	97.56
489.479	90.56
489.696	91.56
489.914	77.56
490.132	94.56
490.35	87.56
490.568	97.56
490.786	89.56
491.003	87.56
491.221	91.56
491.439	89.56
491.657	86.56
491.874	87.56
492.092	77.56
492.31	88.56
492.527	86.56
492.745	100.56
492.963	95.56
493.18	81.56
493.398	96.56
493.615	94.56
493.833	99.56
494.05	85.56
494.268	74.56
494.485	69.56
494.703	103.56
494.92	82.56
495.138	81.56
495.355	90.56
495.573	79.56
495.79	72.56
496.008	86.56
496.225	84.56
496.442	79.56
496.66	90.56
496.877	89.56
497.094	86.56
497.312	89.56
497.529	96.56
497.746	83.56
497.963	95.56
498.181	93.56
498.398	87.56
498.615	103.56
498.832	92.56
499.049	86.56
499.267	69.56
499.484	89.56
499.701	77.56
499.918	85.56
500.135	71.56
500.352	94.56
500.569	91.56
500.786	102.56
501.003	87.56
501.22	81.56
501.437	89.56
501.654	95.56
501.871	96.56
502.088	77.56
502.305	90.56
502.522	78.56
502.739	85.56
502.956	92.56
503.172	81.56
503.389	93.56
503.606	95.56
503.823	94.56
504.04	93.56
504.256	94.56
504.473	89.56
504.69	94.56
504.907	84.56
505.123	86.56
505.34	83.56
505.557	94.56
505.773	83.56
505.99	96.56
506.207	88.56
506.423	82.56
506.64	86.56
506.856	88.56
507.073	85.56
507.289	92.56
507.506	99.56
507.722	105.56
507.939	119.56
508.155	93.56
508.372	84.56
508.588	86.56
508.805	97.56
509.021	90.56
509.238	103.56
509.454	98.56
509.67	92.56
509.887	96.56
510.103	137.56
510.319	218.56
510.536	848.56
510.752	2820.56
510.968	779.56
511.184	145.56
511.401	98.56
511.617	102.56
511.833	90.56
512.049	95.56
512.265	81.56
512.481	83.56
512.698	85.56
512.914	79.56
513.13	71.56
513.346	94.56
513.562	98.56
513.778	82.56
513.994	84.56
514.21	98.56
514.426	113.56
514.642	129.56
514.858	124.56
515.074	174.56
515.29	507.56
515.506	1650.56
515.721	619.56
515.937	166.56
516.153	106.56
516.369	102.56
516.585	98.56
