Data from Circ_2003_H10_HRD10591_00062.txt Node
Date: Wed Jan 03 10:37:15 EST 2024
User: Yrep
Spectrometer: HR+D1059
Trigger mode: 1
Integration Time (sec): 1.000000E-1
Scans to average: 1
Electric dark correction enabled: true
Nonlinearity correction enabled: false
Boxcar width: 0
XAxis mode: Wavelengths
Number of Pixels in Spectrum: 2048
>>>>>Begin Spectral Data<<<<<
223.165	-16.88
223.4	-16.88
223.635	-16.88
223.869	-21.88
224.104	-25.88
224.338	-17.88
224.573	-20.88
224.808	-13.88
225.042	-0.88
225.277	-7.88
225.511	-1.88
225.746	6.12
225.98	10.12
226.215	14.12
226.449	31.12
226.683	20.12
226.918	22.12
227.152	24.12
227.387	40.12
227.621	39.12
227.856	48.12
228.09	48.12
228.324	54.12
228.559	62.12
228.793	46.12
229.027	76.12
229.262	70.12
229.496	65.12
229.73	75.12
229.964	83.12
230.199	83.12
230.433	88.12
230.667	70.12
230.901	80.12
231.136	91.12
231.37	65.12
231.604	83.12
231.838	92.12
232.072	81.12
232.306	78.12
232.541	99.12
232.775	92.12
233.009	97.12
233.243	84.12
233.477	79.12
233.711	95.12
233.945	91.12
234.179	93.12
234.413	79.12
234.647	76.12
234.881	69.12
235.115	81.12
235.349	76.12
235.583	66.12
235.817	77.12
236.051	71.12
236.285	70.12
236.519	75.12
236.753	85.12
236.987	69.12
237.221	63.12
237.455	83.12
237.689	73.12
237.922	80.12
238.156	80.12
238.39	59.12
238.624	74.12
238.858	70.12
239.091	87.12
239.325	74.12
239.559	71.12
239.793	69.12
240.027	79.12
240.26	61.12
240.494	83.12
240.728	76.12
240.961	84.12
241.195	78.12
241.429	78.12
241.662	68.12
241.896	69.12
242.13	73.12
242.363	69.12
242.597	70.12
242.83	74.12
243.064	80.12
243.298	76.12
243.531	76.12
243.765	85.12
243.998	76.12
244.232	79.12
244.465	91.12
244.699	84.12
244.932	64.12
245.166	86.12
245.399	83.12
245.633	88.12
245.866	81.12
246.099	83.12
246.333	85.12
246.566	90.12
246.8	72.12
247.033	76.12
247.266	87.12
247.5	88.12
247.733	103.12
247.966	87.12
248.2	80.12
248.433	75.12
248.666	64.12
248.899	95.12
249.133	92.12
249.366	95.12
249.599	95.12
249.832	81.12
250.066	86.12
250.299	70.12
250.532	88.12
250.765	74.12
250.998	82.12
251.231	91.12
251.465	78.12
251.698	75.12
251.931	79.12
252.164	77.12
252.397	87.12
252.63	74.12
252.863	91.12
253.096	88.12
253.329	85.12
253.562	82.12
253.795	98.12
254.028	75.12
254.261	74.12
254.494	77.12
254.727	77.12
254.96	81.12
255.193	74.12
255.426	75.12
255.659	78.12
255.892	91.12
256.124	90.12
256.357	90.12
256.59	79.12
256.823	83.12
257.056	80.12
257.289	91.12
257.521	90.12
257.754	78.12
257.987	81.12
258.22	81.12
258.452	67.12
258.685	78.12
258.918	88.12
259.151	79.12
259.383	80.12
259.616	76.12
259.849	69.12
260.081	98.12
260.314	84.12
260.547	91.12
260.779	75.12
261.012	81.12
261.244	77.12
261.477	72.12
261.71	73.12
261.942	94.12
262.175	111.12
262.407	91.12
262.64	75.12
262.872	78.12
263.105	81.12
263.337	89.12
263.57	80.12
263.802	92.12
264.035	71.12
264.267	74.12
264.499	91.12
264.732	88.12
264.964	72.12
265.197	68.12
265.429	93.12
265.661	97.12
265.894	88.12
266.126	94.12
266.358	93.12
266.591	87.12
266.823	89.12
267.055	91.12
267.287	83.12
267.52	77.12
267.752	82.12
267.984	98.12
268.216	64.12
268.448	84.12
268.681	90.12
268.913	92.12
269.145	89.12
269.377	83.12
269.609	89.12
269.841	79.12
270.073	72.12
270.306	84.12
270.538	81.12
270.77	87.12
271.002	91.12
271.234	82.12
271.466	96.12
271.698	87.12
271.93	81.12
272.162	94.12
272.394	92.12
272.626	69.12
272.858	83.12
273.09	68.12
273.322	83.12
273.553	88.12
273.785	75.12
274.017	69.12
274.249	87.12
274.481	95.12
274.713	82.12
274.945	74.12
275.176	77.12
275.408	65.12
275.64	78.12
275.872	90.12
276.104	96.12
276.335	93.12
276.567	105.12
276.799	96.12
277.031	91.12
277.262	86.12
277.494	90.12
277.726	86.12
277.957	98.12
278.189	82.12
278.421	83.12
278.652	79.12
278.884	75.12
279.115	75.12
279.347	84.12
279.579	76.12
279.81	85.12
280.042	97.12
280.273	89.12
280.505	78.12
280.736	75.12
280.968	80.12
281.199	75.12
281.431	75.12
281.662	88.12
281.894	88.12
282.125	120.12
282.356	115.12
282.588	129.12
282.819	104.12
283.051	86.12
283.282	89.12
283.513	84.12
283.745	100.12
283.976	90.12
284.207	87.12
284.439	72.12
284.67	97.12
284.901	86.12
285.132	93.12
285.364	82.12
285.595	82.12
285.826	95.12
286.057	101.12
286.288	86.12
286.52	87.12
286.751	82.12
286.982	97.12
287.213	75.12
287.444	87.12
287.675	103.12
287.906	79.12
288.138	89.12
288.369	85.12
288.6	85.12
288.831	82.12
289.062	91.12
289.293	80.12
289.524	90.12
289.755	94.12
289.986	82.12
290.217	76.12
290.448	99.12
290.679	91.12
290.91	95.12
291.141	94.12
291.371	91.12
291.602	82.12
291.833	91.12
292.064	93.12
292.295	72.12
292.526	91.12
292.757	99.12
292.987	89.12
293.218	78.12
293.449	98.12
293.68	86.12
293.91	82.12
294.141	91.12
294.372	82.12
294.603	77.12
294.833	76.12
295.064	97.12
295.295	90.12
295.525	80.12
295.756	90.12
295.987	117.12
296.217	133.12
296.448	106.12
296.679	91.12
296.909	86.12
297.14	78.12
297.37	98.12
297.601	91.12
297.831	92.12
298.062	92.12
298.292	90.12
298.523	86.12
298.753	99.12
298.984	80.12
299.214	75.12
299.445	80.12
299.675	95.12
299.905	95.12
300.136	96.12
300.366	84.12
300.597	80.12
300.827	75.12
301.057	95.12
301.288	111.12
301.518	96.12
301.748	94.12
301.979	104.12
302.209	83.12
302.439	81.12
302.669	87.12
302.9	83.12
303.13	83.12
303.36	91.12
303.59	103.12
303.82	96.12
304.051	96.12
304.281	90.12
304.511	89.12
304.741	96.12
304.971	77.12
305.201	84.12
305.431	81.12
305.661	80.12
305.891	100.12
306.121	109.12
306.352	100.12
306.582	97.12
306.812	97.12
307.042	78.12
307.272	93.12
307.502	85.12
307.731	98.12
307.961	86.12
308.191	92.12
308.421	105.12
308.651	94.12
308.881	71.12
309.111	92.12
309.341	92.12
309.571	112.12
309.8	95.12
310.03	97.12
310.26	96.12
310.49	88.12
310.72	98.12
310.949	102.12
311.179	92.12
311.409	92.12
311.639	99.12
311.868	98.12
312.098	95.12
312.328	83.12
312.557	102.12
312.787	121.12
313.017	96.12
313.246	90.12
313.476	94.12
313.706	97.12
313.935	91.12
314.165	98.12
314.394	92.12
314.624	92.12
314.853	96.12
315.083	83.12
315.312	88.12
315.542	98.12
315.771	89.12
316.001	82.12
316.23	75.12
316.46	76.12
316.689	97.12
316.919	92.12
317.148	89.12
317.377	95.12
317.607	93.12
317.836	78.12
318.065	92.12
318.295	87.12
318.524	104.12
318.753	94.12
318.983	90.12
319.212	83.12
319.441	95.12
319.67	100.12
319.9	85.12
320.129	106.12
320.358	96.12
320.587	98.12
320.816	102.12
321.046	81.12
321.275	95.12
321.504	92.12
321.733	88.12
321.962	79.12
322.191	105.12
322.42	88.12
322.649	111.12
322.878	106.12
323.108	104.12
323.337	110.12
323.566	127.12
323.795	141.12
324.024	201.12
324.253	350.12
324.482	734.12
324.71	1530.12
324.939	1995.12
325.168	748.12
325.397	232.12
325.626	164.12
325.855	131.12
326.084	121.12
326.313	113.12
326.542	155.12
326.77	203.12
326.999	440.12
327.228	873.12
327.457	1558.12
327.686	1266.12
327.914	348.12
328.143	185.12
328.372	146.12
328.6	123.12
328.829	121.12
329.058	117.12
329.287	121.12
329.515	97.12
329.744	95.12
329.972	102.12
330.201	129.12
330.43	151.12
330.658	132.12
330.887	132.12
331.115	111.12
331.344	95.12
331.572	106.12
331.801	107.12
332.03	108.12
332.258	97.12
332.486	88.12
332.715	105.12
332.943	93.12
333.172	80.12
333.4	110.12
333.629	99.12
333.857	118.12
334.085	118.12
334.314	130.12
334.542	160.12
334.771	157.12
334.999	100.12
335.227	98.12
335.455	107.12
335.684	95.12
335.912	89.12
336.14	96.12
336.369	77.12
336.597	104.12
336.825	89.12
337.053	96.12
337.281	92.12
337.51	88.12
337.738	100.12
337.966	85.12
338.194	100.12
338.422	93.12
338.65	86.12
338.878	88.12
339.106	81.12
339.334	99.12
339.562	94.12
339.79	91.12
340.018	92.12
340.246	90.12
340.474	99.12
340.702	84.12
340.93	102.12
341.158	98.12
341.386	99.12
341.614	98.12
341.842	101.12
342.07	85.12
342.298	91.12
342.526	88.12
342.754	80.12
342.981	87.12
343.209	86.12
343.437	96.12
343.665	89.12
343.893	94.12
344.12	91.12
344.348	87.12
344.576	74.12
344.804	86.12
345.031	79.12
345.259	83.12
345.487	95.12
345.714	93.12
345.942	86.12
346.17	81.12
346.397	103.12
346.625	102.12
346.853	87.12
347.08	85.12
347.308	95.12
347.535	100.12
347.763	86.12
347.99	87.12
348.218	107.12
348.445	108.12
348.673	102.12
348.9	92.12
349.128	103.12
349.355	83.12
349.583	98.12
349.81	91.12
350.037	101.12
350.265	77.12
350.492	92.12
350.72	90.12
350.947	92.12
351.174	90.12
351.402	112.12
351.629	104.12
351.856	89.12
352.083	98.12
352.311	104.12
352.538	114.12
352.765	107.12
352.992	126.12
353.22	115.12
353.447	108.12
353.674	103.12
353.901	96.12
354.128	108.12
354.355	86.12
354.583	94.12
354.81	99.12
355.037	93.12
355.264	92.12
355.491	104.12
355.718	97.12
355.945	96.12
356.172	86.12
356.399	94.12
356.626	102.12
356.853	92.12
357.08	100.12
357.307	87.12
357.534	89.12
357.761	95.12
357.988	94.12
358.215	96.12
358.441	99.12
358.668	98.12
358.895	96.12
359.122	85.12
359.349	86.12
359.576	88.12
359.802	98.12
360.029	101.12
360.256	107.12
360.483	100.12
360.709	104.12
360.936	96.12
361.163	87.12
361.39	89.12
361.616	96.12
361.843	107.12
362.07	96.12
362.296	98.12
362.523	84.12
362.749	103.12
362.976	83.12
363.203	99.12
363.429	92.12
363.656	82.12
363.882	93.12
364.109	92.12
364.335	83.12
364.562	74.12
364.788	80.12
365.015	91.12
365.241	98.12
365.468	98.12
365.694	110.12
365.92	95.12
366.147	85.12
366.373	86.12
366.599	81.12
366.826	84.12
367.052	96.12
367.278	87.12
367.505	96.12
367.731	92.12
367.957	95.12
368.184	88.12
368.41	105.12
368.636	106.12
368.862	129.12
369.089	100.12
369.315	74.12
369.541	84.12
369.767	97.12
369.993	74.12
370.219	92.12
370.445	91.12
370.672	88.12
370.898	90.12
371.124	93.12
371.35	82.12
371.576	102.12
371.802	90.12
372.028	90.12
372.254	88.12
372.48	92.12
372.706	105.12
372.932	82.12
373.158	89.12
373.384	84.12
373.61	92.12
373.835	84.12
374.061	74.12
374.287	82.12
374.513	84.12
374.739	100.12
374.965	87.12
375.191	105.12
375.416	99.12
375.642	84.12
375.868	85.12
376.094	95.12
376.319	91.12
376.545	84.12
376.771	96.12
376.997	97.12
377.222	93.12
377.448	87.12
377.674	92.12
377.899	95.12
378.125	94.12
378.35	95.12
378.576	87.12
378.802	90.12
379.027	91.12
379.253	96.12
379.478	102.12
379.704	82.12
379.929	89.12
380.155	84.12
380.38	101.12
380.606	102.12
380.831	95.12
381.057	82.12
381.282	90.12
381.507	101.12
381.733	103.12
381.958	110.12
382.184	100.12
382.409	92.12
382.634	95.12
382.86	103.12
383.085	103.12
383.31	112.12
383.535	104.12
383.761	101.12
383.986	97.12
384.211	92.12
384.436	102.12
384.662	110.12
384.887	102.12
385.112	91.12
385.337	104.12
385.562	103.12
385.787	102.12
386.013	110.12
386.238	122.12
386.463	121.12
386.688	104.12
386.913	106.12
387.138	110.12
387.363	110.12
387.588	97.12
387.813	104.12
388.038	115.12
388.263	119.12
388.488	116.12
388.713	108.12
388.938	90.12
389.163	89.12
389.387	97.12
389.612	88.12
389.837	87.12
390.062	88.12
390.287	97.12
390.512	78.12
390.736	99.12
390.961	100.12
391.186	86.12
391.411	100.12
391.636	75.12
391.86	83.12
392.085	93.12
392.31	78.12
392.534	73.12
392.759	78.12
392.984	90.12
393.208	95.12
393.433	88.12
393.658	99.12
393.882	79.12
394.107	92.12
394.331	96.12
394.556	88.12
394.78	77.12
395.005	87.12
395.229	98.12
395.454	99.12
395.678	97.12
395.903	85.12
396.127	87.12
396.352	103.12
396.576	87.12
396.801	86.12
397.025	82.12
397.249	83.12
397.474	90.12
397.698	89.12
397.922	83.12
398.147	92.12
398.371	94.12
398.595	83.12
398.82	92.12
399.044	79.12
399.268	75.12
399.492	89.12
399.717	88.12
399.941	90.12
400.165	92.12
400.389	97.12
400.613	93.12
400.837	92.12
401.062	85.12
401.286	86.12
401.51	88.12
401.734	101.12
401.958	103.12
402.182	113.12
402.406	134.12
402.63	124.12
402.854	107.12
403.078	93.12
403.302	97.12
403.526	80.12
403.75	75.12
403.974	75.12
404.198	88.12
404.422	105.12
404.645	87.12
404.869	92.12
405.093	100.12
405.317	101.12
405.541	92.12
405.765	99.12
405.988	107.12
406.212	154.12
406.436	192.12
406.66	130.12
406.883	105.12
407.107	88.12
407.331	101.12
407.555	100.12
407.778	96.12
408.002	97.12
408.226	90.12
408.449	105.12
408.673	96.12
408.896	86.12
409.12	92.12
409.344	103.12
409.567	89.12
409.791	81.12
410.014	110.12
410.238	89.12
410.461	105.12
410.685	91.12
410.908	100.12
411.132	107.12
411.355	103.12
411.578	95.12
411.802	96.12
412.025	79.12
412.249	100.12
412.472	92.12
412.695	107.12
412.919	104.12
413.142	102.12
413.365	74.12
413.589	81.12
413.812	96.12
414.035	106.12
414.258	91.12
414.482	76.12
414.705	86.12
414.928	88.12
415.151	91.12
415.374	100.12
415.597	94.12
415.821	90.12
416.044	86.12
416.267	87.12
416.49	87.12
416.713	99.12
416.936	92.12
417.159	86.12
417.382	86.12
417.605	92.12
417.828	104.12
418.051	90.12
418.274	92.12
418.497	91.12
418.72	85.12
418.943	86.12
419.166	87.12
419.389	85.12
419.611	95.12
419.834	85.12
420.057	90.12
420.28	67.12
420.503	85.12
420.726	86.12
420.948	90.12
421.171	106.12
421.394	83.12
421.617	79.12
421.839	81.12
422.062	92.12
422.285	106.12
422.507	84.12
422.73	97.12
422.953	99.12
423.175	88.12
423.398	86.12
423.621	95.12
423.843	95.12
424.066	80.12
424.288	82.12
424.511	103.12
424.733	100.12
424.956	106.12
425.178	100.12
425.401	99.12
425.623	94.12
425.846	79.12
426.068	82.12
426.291	101.12
426.513	80.12
426.735	92.12
426.958	92.12
427.18	100.12
427.402	126.12
427.625	146.12
427.847	132.12
428.069	115.12
428.292	86.12
428.514	84.12
428.736	87.12
428.958	84.12
429.181	85.12
429.403	96.12
429.625	75.12
429.847	89.12
430.069	102.12
430.292	103.12
430.514	86.12
430.736	86.12
430.958	80.12
431.18	82.12
431.402	90.12
431.624	89.12
431.846	91.12
432.068	96.12
432.29	75.12
432.512	89.12
432.734	81.12
432.956	80.12
433.178	93.12
433.4	92.12
433.622	88.12
433.844	86.12
434.066	83.12
434.287	94.12
434.509	90.12
434.731	104.12
434.953	92.12
435.175	78.12
435.397	76.12
435.618	92.12
435.84	111.12
436.062	110.12
436.284	114.12
436.505	102.12
436.727	90.12
436.949	92.12
437.17	104.12
437.392	89.12
437.614	90.12
437.835	92.12
438.057	117.12
438.278	94.12
438.5	93.12
438.721	110.12
438.943	110.12
439.165	82.12
439.386	86.12
439.608	83.12
439.829	100.12
440.05	111.12
440.272	123.12
440.493	94.12
440.715	94.12
440.936	68.12
441.158	84.12
441.379	104.12
441.6	90.12
441.822	75.12
442.043	92.12
442.264	100.12
442.486	104.12
442.707	80.12
442.928	110.12
443.149	120.12
443.371	114.12
443.592	88.12
443.813	105.12
444.034	96.12
444.255	76.12
444.476	85.12
444.698	76.12
444.919	90.12
445.14	138.12
445.361	126.12
445.582	108.12
445.803	116.12
446.024	115.12
446.245	124.12
446.466	101.12
446.687	87.12
446.908	92.12
447.129	85.12
447.35	81.12
447.571	96.12
447.792	80.12
448.013	89.12
448.234	110.12
448.455	78.12
448.675	93.12
448.896	104.12
449.117	99.12
449.338	102.12
449.559	122.12
449.779	125.12
450	83.12
450.221	96.12
450.442	91.12
450.662	103.12
450.883	86.12
451.104	96.12
451.324	98.12
451.545	87.12
451.766	92.12
451.986	81.12
452.207	94.12
452.428	76.12
452.648	93.12
452.869	103.12
453.089	98.12
453.31	104.12
453.53	104.12
453.751	95.12
453.971	95.12
454.192	116.12
454.412	111.12
454.633	75.12
454.853	95.12
455.073	91.12
455.294	78.12
455.514	98.12
455.734	90.12
455.955	72.12
456.175	76.12
456.395	90.12
456.616	89.12
456.836	82.12
457.056	94.12
457.276	95.12
457.497	86.12
457.717	83.12
457.937	91.12
458.157	85.12
458.377	90.12
458.598	99.12
458.818	130.12
459.038	131.12
459.258	101.12
459.478	87.12
459.698	80.12
459.918	89.12
460.138	86.12
460.358	90.12
460.578	82.12
460.798	83.12
461.018	82.12
461.238	84.12
461.458	90.12
461.678	102.12
461.898	89.12
462.118	95.12
462.338	88.12
462.558	82.12
462.777	74.12
462.997	84.12
463.217	97.12
463.437	74.12
463.657	88.12
463.876	88.12
464.096	96.12
464.316	90.12
464.536	85.12
464.755	93.12
464.975	99.12
465.195	156.12
465.414	155.12
465.634	99.12
465.854	82.12
466.073	87.12
466.293	86.12
466.512	86.12
466.732	87.12
466.951	99.12
467.171	107.12
467.391	90.12
467.61	99.12
467.829	96.12
468.049	108.12
468.268	120.12
468.488	86.12
468.707	76.12
468.927	72.12
469.146	94.12
469.365	76.12
469.585	87.12
469.804	102.12
470.023	94.12
470.243	88.12
470.462	98.12
470.681	94.12
470.901	82.12
471.12	93.12
471.339	87.12
471.558	95.12
471.777	85.12
471.997	91.12
472.216	138.12
472.435	187.12
472.654	109.12
472.873	80.12
473.092	91.12
473.311	87.12
473.53	83.12
473.749	88.12
473.968	88.12
474.187	105.12
474.406	86.12
474.625	86.12
474.844	95.12
475.063	83.12
475.282	93.12
475.501	81.12
475.72	90.12
475.939	80.12
476.158	74.12
476.377	74.12
476.596	92.12
476.814	90.12
477.033	88.12
477.252	83.12
477.471	94.12
477.69	86.12
477.908	78.12
478.127	91.12
478.346	76.12
478.564	90.12
478.783	85.12
479.002	98.12
479.22	106.12
479.439	102.12
479.658	87.12
479.876	101.12
480.095	86.12
480.313	88.12
480.532	97.12
480.751	95.12
480.969	126.12
481.188	295.12
481.406	212.12
481.624	96.12
481.843	87.12
482.061	87.12
482.28	73.12
482.498	88.12
482.717	84.12
482.935	85.12
483.153	86.12
483.372	97.12
483.59	82.12
483.808	91.12
484.027	90.12
484.245	83.12
484.463	82.12
484.681	104.12
484.9	92.12
485.118	109.12
485.336	96.12
485.554	105.12
485.772	107.12
485.99	95.12
486.209	103.12
486.427	129.12
486.645	115.12
486.863	109.12
487.081	91.12
487.299	79.12
487.517	95.12
487.735	80.12
487.953	95.12
488.171	78.12
488.389	82.12
488.607	95.12
488.825	99.12
489.043	93.12
489.261	88.12
489.479	95.12
489.696	98.12
489.914	101.12
490.132	87.12
490.35	87.12
490.568	86.12
490.786	91.12
491.003	87.12
491.221	100.12
491.439	79.12
491.657	96.12
491.874	91.12
492.092	83.12
492.31	102.12
492.527	107.12
492.745	87.12
492.963	92.12
493.18	79.12
493.398	89.12
493.615	98.12
493.833	100.12
494.05	83.12
494.268	97.12
494.485	86.12
494.703	99.12
494.92	93.12
495.138	96.12
495.355	99.12
495.573	91.12
495.79	84.12
496.008	91.12
496.225	91.12
496.442	90.12
496.66	91.12
496.877	65.12
497.094	86.12
497.312	81.12
497.529	101.12
497.746	86.12
497.963	89.12
498.181	89.12
498.398	93.12
498.615	110.12
498.832	100.12
499.049	85.12
499.267	88.12
499.484	89.12
499.701	88.12
499.918	77.12
500.135	83.12
500.352	92.12
500.569	97.12
500.786	66.12
501.003	88.12
501.22	85.12
501.437	82.12
501.654	99.12
501.871	113.12
502.088	86.12
502.305	86.12
502.522	91.12
502.739	98.12
502.956	98.12
503.172	93.12
503.389	85.12
503.606	97.12
503.823	105.12
504.04	98.12
504.256	99.12
504.473	89.12
504.69	98.12
504.907	96.12
505.123	89.12
505.34	94.12
505.557	92.12
505.773	91.12
505.99	80.12
506.207	76.12
506.423	87.12
506.64	84.12
506.856	87.12
507.073	94.12
507.289	96.12
507.506	99.12
507.722	113.12
507.939	97.12
508.155	97.12
508.372	84.12
508.588	85.12
508.805	86.12
509.021	83.12
509.238	110.12
509.454	103.12
509.67	110.12
509.887	95.12
510.103	114.12
510.319	209.12
510.536	733.12
510.752	2338.12
510.968	663.12
511.184	156.12
511.401	113.12
511.617	98.12
511.833	83.12
512.049	96.12
512.265	94.12
512.481	92.12
512.698	84.12
512.914	81.12
513.13	99.12
513.346	87.12
513.562	84.12
513.778	88.12
513.994	97.12
514.21	106.12
514.426	117.12
514.642	120.12
514.858	117.12
515.074	159.12
515.29	398.12
515.506	1320.12
515.721	495.12
515.937	135.12
