Data from Circ_2003_H10_HRD10591_00079.txt Node
Date: Wed Jan 03 10:37:18 EST 2024
User: Yrep
Spectrometer: HR+D1059
Trigger mode: 1
Integration Time (sec): 1.000000E-1
Scans to average: 1
Electric dark correction enabled: true
Nonlinearity correction enabled: false
Boxcar width: 0
XAxis mode: Wavelengths
Number of Pixels in Spectrum: 2048
>>>>>Begin Spectral Data<<<<<
223.165	-15.12
223.4	-15.12
223.635	-15.12
223.869	-20.12
224.104	-18.12
224.338	-10.12
224.573	-3.12
224.808	1.88
225.042	-18.12
225.277	-8.12
225.511	1.88
225.746	-7.12
225.98	8.88
226.215	7.88
226.449	14.88
226.683	17.88
226.918	18.88
227.152	27.88
227.387	50.88
227.621	36.88
227.856	46.88
228.09	50.88
228.324	45.88
228.559	41.88
228.793	52.88
229.027	57.88
229.262	62.88
229.496	70.88
229.73	72.88
229.964	74.88
230.199	82.88
230.433	85.88
230.667	80.88
230.901	70.88
231.136	67.88
231.37	67.88
231.604	80.88
231.838	73.88
232.072	101.88
232.306	79.88
232.541	53.88
232.775	91.88
233.009	81.88
233.243	79.88
233.477	79.88
233.711	73.88
233.945	87.88
234.179	77.88
234.413	75.88
234.647	84.88
234.881	81.88
235.115	73.88
235.349	81.88
235.583	84.88
235.817	77.88
236.051	82.88
236.285	89.88
236.519	67.88
236.753	63.88
236.987	83.88
237.221	77.88
237.455	88.88
237.689	85.88
237.922	73.88
238.156	61.88
238.39	79.88
238.624	67.88
238.858	69.88
239.091	80.88
239.325	74.88
239.559	72.88
239.793	83.88
240.027	80.88
240.26	70.88
240.494	78.88
240.728	72.88
240.961	82.88
241.195	80.88
241.429	87.88
241.662	71.88
241.896	80.88
242.13	76.88
242.363	64.88
242.597	87.88
242.83	75.88
243.064	73.88
243.298	83.88
243.531	79.88
243.765	79.88
243.998	79.88
244.232	83.88
244.465	83.88
244.699	84.88
244.932	72.88
245.166	72.88
245.399	80.88
245.633	79.88
245.866	88.88
246.099	64.88
246.333	74.88
246.566	72.88
246.8	79.88
247.033	81.88
247.266	64.88
247.5	92.88
247.733	71.88
247.966	83.88
248.2	73.88
248.433	99.88
248.666	91.88
248.899	81.88
249.133	79.88
249.366	76.88
249.599	78.88
249.832	93.88
250.066	82.88
250.299	81.88
250.532	100.88
250.765	71.88
250.998	52.88
251.231	78.88
251.465	72.88
251.698	79.88
251.931	88.88
252.164	85.88
252.397	77.88
252.63	72.88
252.863	72.88
253.096	75.88
253.329	87.88
253.562	76.88
253.795	76.88
254.028	76.88
254.261	75.88
254.494	69.88
254.727	84.88
254.96	89.88
255.193	90.88
255.426	80.88
255.659	79.88
255.892	85.88
256.124	77.88
256.357	92.88
256.59	91.88
256.823	77.88
257.056	91.88
257.289	83.88
257.521	84.88
257.754	78.88
257.987	83.88
258.22	77.88
258.452	76.88
258.685	75.88
258.918	92.88
259.151	73.88
259.383	91.88
259.616	75.88
259.849	86.88
260.081	81.88
260.314	94.88
260.547	83.88
260.779	85.88
261.012	102.88
261.244	100.88
261.477	91.88
261.71	86.88
261.942	106.88
262.175	113.88
262.407	79.88
262.64	77.88
262.872	77.88
263.105	87.88
263.337	77.88
263.57	76.88
263.802	62.88
264.035	77.88
264.267	81.88
264.499	75.88
264.732	82.88
264.964	78.88
265.197	80.88
265.429	75.88
265.661	90.88
265.894	83.88
266.126	91.88
266.358	91.88
266.591	89.88
266.823	79.88
267.055	79.88
267.287	85.88
267.52	75.88
267.752	93.88
267.984	79.88
268.216	82.88
268.448	92.88
268.681	75.88
268.913	82.88
269.145	73.88
269.377	70.88
269.609	71.88
269.841	88.88
270.073	89.88
270.306	86.88
270.538	70.88
270.77	77.88
271.002	79.88
271.234	83.88
271.466	76.88
271.698	72.88
271.93	85.88
272.162	76.88
272.394	94.88
272.626	76.88
272.858	72.88
273.09	86.88
273.322	92.88
273.553	78.88
273.785	75.88
274.017	85.88
274.249	85.88
274.481	90.88
274.713	87.88
274.945	79.88
275.176	78.88
275.408	83.88
275.64	78.88
275.872	89.88
276.104	92.88
276.335	79.88
276.567	92.88
276.799	99.88
277.031	104.88
277.262	76.88
277.494	92.88
277.726	105.88
277.957	84.88
278.189	73.88
278.421	69.88
278.652	74.88
278.884	86.88
279.115	77.88
279.347	88.88
279.579	80.88
279.81	91.88
280.042	87.88
280.273	87.88
280.505	87.88
280.736	76.88
280.968	79.88
281.199	86.88
281.431	80.88
281.662	76.88
281.894	85.88
282.125	93.88
282.356	116.88
282.588	128.88
282.819	108.88
283.051	92.88
283.282	88.88
283.513	92.88
283.745	81.88
283.976	75.88
284.207	87.88
284.439	84.88
284.67	95.88
284.901	76.88
285.132	101.88
285.364	89.88
285.595	98.88
285.826	89.88
286.057	88.88
286.288	89.88
286.52	88.88
286.751	81.88
286.982	85.88
287.213	67.88
287.444	86.88
287.675	95.88
287.906	93.88
288.138	98.88
288.369	75.88
288.6	87.88
288.831	95.88
289.062	104.88
289.293	86.88
289.524	99.88
289.755	85.88
289.986	88.88
290.217	98.88
290.448	95.88
290.679	92.88
290.91	96.88
291.141	88.88
291.371	80.88
291.602	85.88
291.833	81.88
292.064	78.88
292.295	65.88
292.526	81.88
292.757	93.88
292.987	93.88
293.218	93.88
293.449	94.88
293.68	73.88
293.91	79.88
294.141	87.88
294.372	83.88
294.603	92.88
294.833	77.88
295.064	98.88
295.295	107.88
295.525	78.88
295.756	86.88
295.987	109.88
296.217	116.88
296.448	116.88
296.679	95.88
296.909	83.88
297.14	75.88
297.37	93.88
297.601	79.88
297.831	82.88
298.062	88.88
298.292	85.88
298.523	88.88
298.753	82.88
298.984	81.88
299.214	79.88
299.445	96.88
299.675	85.88
299.905	81.88
300.136	82.88
300.366	108.88
300.597	89.88
300.827	93.88
301.057	92.88
301.288	96.88
301.518	100.88
301.748	95.88
301.979	89.88
302.209	92.88
302.439	85.88
302.669	84.88
302.9	90.88
303.13	105.88
303.36	95.88
303.59	105.88
303.82	92.88
304.051	81.88
304.281	100.88
304.511	74.88
304.741	90.88
304.971	80.88
305.201	76.88
305.431	82.88
305.661	90.88
305.891	91.88
306.121	94.88
306.352	101.88
306.582	103.88
306.812	87.88
307.042	95.88
307.272	91.88
307.502	94.88
307.731	104.88
307.961	98.88
308.191	93.88
308.421	78.88
308.651	76.88
308.881	99.88
309.111	88.88
309.341	82.88
309.571	95.88
309.8	95.88
310.03	97.88
310.26	88.88
310.49	91.88
310.72	93.88
310.949	113.88
311.179	93.88
311.409	104.88
311.639	79.88
311.868	94.88
312.098	88.88
312.328	90.88
312.557	107.88
312.787	98.88
313.017	104.88
313.246	99.88
313.476	90.88
313.706	80.88
313.935	87.88
314.165	101.88
314.394	89.88
314.624	96.88
314.853	101.88
315.083	89.88
315.312	94.88
315.542	79.88
315.771	88.88
316.001	99.88
316.23	78.88
316.46	93.88
316.689	88.88
316.919	84.88
317.148	102.88
317.377	101.88
317.607	90.88
317.836	82.88
318.065	71.88
318.295	88.88
318.524	87.88
318.753	84.88
318.983	85.88
319.212	82.88
319.441	95.88
319.67	101.88
319.9	101.88
320.129	97.88
320.358	99.88
320.587	95.88
320.816	88.88
321.046	87.88
321.275	98.88
321.504	99.88
321.733	103.88
321.962	105.88
322.191	99.88
322.42	100.88
322.649	97.88
322.878	105.88
323.108	111.88
323.337	121.88
323.566	117.88
323.795	150.88
324.024	200.88
324.253	372.88
324.482	761.88
324.71	1570.88
324.939	2075.88
325.168	774.88
325.397	228.88
325.626	143.88
325.855	116.88
326.084	127.88
326.313	131.88
326.542	145.88
326.77	213.88
326.999	444.88
327.228	895.88
327.457	1599.88
327.686	1276.88
327.914	358.88
328.143	191.88
328.372	147.88
328.6	138.88
328.829	107.88
329.058	119.88
329.287	118.88
329.515	106.88
329.744	113.88
329.972	115.88
330.201	142.88
330.43	174.88
330.658	157.88
330.887	122.88
331.115	128.88
331.344	106.88
331.572	85.88
331.801	88.88
332.03	72.88
332.258	101.88
332.486	94.88
332.715	88.88
332.943	86.88
333.172	100.88
333.4	89.88
333.629	96.88
333.857	117.88
334.085	117.88
334.314	146.88
334.542	205.88
334.771	189.88
334.999	101.88
335.227	101.88
335.455	91.88
335.684	100.88
335.912	92.88
336.14	90.88
336.369	108.88
336.597	101.88
336.825	77.88
337.053	81.88
337.281	71.88
337.51	106.88
337.738	95.88
337.966	89.88
338.194	99.88
338.422	101.88
338.65	87.88
338.878	88.88
339.106	90.88
339.334	100.88
339.562	86.88
339.79	92.88
340.018	73.88
340.246	78.88
340.474	92.88
340.702	87.88
340.93	89.88
341.158	95.88
341.386	106.88
341.614	86.88
341.842	91.88
342.07	96.88
342.298	89.88
342.526	80.88
342.754	82.88
342.981	82.88
343.209	80.88
343.437	90.88
343.665	85.88
343.893	86.88
344.12	85.88
344.348	103.88
344.576	86.88
344.804	79.88
345.031	90.88
345.259	93.88
345.487	83.88
345.714	98.88
345.942	74.88
346.17	79.88
346.397	92.88
346.625	82.88
346.853	88.88
347.08	89.88
347.308	111.88
347.535	96.88
347.763	103.88
347.99	89.88
348.218	98.88
348.445	96.88
348.673	93.88
348.9	83.88
349.128	91.88
349.355	95.88
349.583	75.88
349.81	83.88
350.037	85.88
350.265	88.88
350.492	91.88
350.72	97.88
350.947	98.88
351.174	101.88
351.402	105.88
351.629	97.88
351.856	97.88
352.083	102.88
352.311	108.88
352.538	102.88
352.765	103.88
352.992	114.88
353.22	103.88
353.447	95.88
353.674	102.88
353.901	104.88
354.128	104.88
354.355	102.88
354.583	88.88
354.81	96.88
355.037	88.88
355.264	86.88
355.491	100.88
355.718	99.88
355.945	94.88
356.172	94.88
356.399	95.88
356.626	98.88
356.853	94.88
357.08	91.88
357.307	76.88
357.534	82.88
357.761	84.88
357.988	93.88
358.215	100.88
358.441	87.88
358.668	83.88
358.895	83.88
359.122	101.88
359.349	78.88
359.576	80.88
359.802	80.88
360.029	97.88
360.256	108.88
360.483	100.88
360.709	102.88
360.936	93.88
361.163	100.88
361.39	87.88
361.616	84.88
361.843	78.88
362.07	92.88
362.296	80.88
362.523	91.88
362.749	96.88
362.976	75.88
363.203	92.88
363.429	92.88
363.656	96.88
363.882	89.88
364.109	92.88
364.335	77.88
364.562	94.88
364.788	84.88
365.015	73.88
365.241	98.88
365.468	102.88
365.694	107.88
365.92	85.88
366.147	87.88
366.373	81.88
366.599	81.88
366.826	94.88
367.052	90.88
367.278	93.88
367.505	100.88
367.731	85.88
367.957	85.88
368.184	86.88
368.41	92.88
368.636	107.88
368.862	110.88
369.089	93.88
369.315	79.88
369.541	96.88
369.767	98.88
369.993	80.88
370.219	89.88
370.445	89.88
370.672	80.88
370.898	82.88
371.124	91.88
371.35	92.88
371.576	93.88
371.802	87.88
372.028	95.88
372.254	87.88
372.48	88.88
372.706	91.88
372.932	80.88
373.158	70.88
373.384	85.88
373.61	93.88
373.835	81.88
374.061	102.88
374.287	92.88
374.513	85.88
374.739	83.88
374.965	91.88
375.191	72.88
375.416	86.88
375.642	85.88
375.868	95.88
376.094	85.88
376.319	84.88
376.545	98.88
376.771	83.88
376.997	93.88
377.222	82.88
377.448	75.88
377.674	93.88
377.899	90.88
378.125	85.88
378.35	96.88
378.576	91.88
378.802	88.88
379.027	96.88
379.253	81.88
379.478	106.88
379.704	81.88
379.929	85.88
380.155	87.88
380.38	100.88
380.606	88.88
380.831	92.88
381.057	89.88
381.282	96.88
381.507	94.88
381.733	98.88
381.958	95.88
382.184	88.88
382.409	94.88
382.634	93.88
382.86	101.88
383.085	88.88
383.31	84.88
383.535	88.88
383.761	97.88
383.986	112.88
384.211	100.88
384.436	99.88
384.662	113.88
384.887	104.88
385.112	107.88
385.337	108.88
385.562	101.88
385.787	94.88
386.013	104.88
386.238	121.88
386.463	112.88
386.688	107.88
386.913	100.88
387.138	117.88
387.363	87.88
387.588	100.88
387.813	103.88
388.038	107.88
388.263	108.88
388.488	113.88
388.713	103.88
388.938	97.88
389.163	84.88
389.387	96.88
389.612	91.88
389.837	82.88
390.062	99.88
390.287	96.88
390.512	81.88
390.736	112.88
390.961	94.88
391.186	95.88
391.411	89.88
391.636	94.88
391.86	92.88
392.085	80.88
392.31	78.88
392.534	79.88
392.759	90.88
392.984	77.88
393.208	90.88
393.433	93.88
393.658	86.88
393.882	73.88
394.107	84.88
394.331	77.88
394.556	98.88
394.78	91.88
395.005	86.88
395.229	79.88
395.454	85.88
395.678	91.88
395.903	78.88
396.127	82.88
396.352	65.88
396.576	67.88
396.801	89.88
397.025	78.88
397.249	91.88
397.474	92.88
397.698	86.88
397.922	86.88
398.147	87.88
398.371	85.88
398.595	79.88
398.82	79.88
399.044	92.88
399.268	79.88
399.492	88.88
399.717	89.88
399.941	69.88
400.165	90.88
400.389	94.88
400.613	88.88
400.837	90.88
401.062	84.88
401.286	84.88
401.51	87.88
401.734	75.88
401.958	85.88
402.182	120.88
402.406	151.88
402.63	108.88
402.854	100.88
403.078	98.88
403.302	92.88
403.526	72.88
403.75	83.88
403.974	78.88
404.198	83.88
404.422	87.88
404.645	80.88
404.869	91.88
405.093	109.88
405.317	78.88
405.541	101.88
405.765	91.88
405.988	90.88
406.212	139.88
406.436	199.88
406.66	131.88
406.883	100.88
407.107	96.88
407.331	101.88
407.555	79.88
407.778	83.88
408.002	69.88
408.226	85.88
408.449	98.88
408.673	87.88
408.896	84.88
409.12	87.88
409.344	86.88
409.567	86.88
409.791	83.88
410.014	93.88
410.238	93.88
410.461	89.88
410.685	94.88
410.908	87.88
411.132	87.88
411.355	95.88
411.578	99.88
411.802	97.88
412.025	87.88
412.249	85.88
412.472	86.88
412.695	97.88
412.919	92.88
413.142	86.88
413.365	101.88
413.589	85.88
413.812	83.88
414.035	80.88
414.258	81.88
414.482	89.88
414.705	91.88
414.928	97.88
415.151	98.88
415.374	83.88
415.597	82.88
415.821	81.88
416.044	72.88
416.267	93.88
416.49	81.88
416.713	82.88
416.936	76.88
417.159	84.88
417.382	87.88
417.605	87.88
417.828	91.88
418.051	82.88
418.274	101.88
418.497	90.88
418.72	86.88
418.943	83.88
419.166	84.88
419.389	89.88
419.611	108.88
419.834	89.88
420.057	87.88
420.28	89.88
420.503	78.88
420.726	91.88
420.948	94.88
421.171	76.88
421.394	92.88
421.617	97.88
421.839	83.88
422.062	91.88
422.285	83.88
422.507	89.88
422.73	85.88
422.953	101.88
423.175	85.88
423.398	89.88
423.621	92.88
423.843	81.88
424.066	86.88
424.288	89.88
424.511	90.88
424.733	92.88
424.956	87.88
425.178	104.88
425.401	95.88
425.623	88.88
425.846	90.88
426.068	80.88
426.291	99.88
426.513	88.88
426.735	90.88
426.958	100.88
427.18	100.88
427.402	125.88
427.625	151.88
427.847	139.88
428.069	125.88
428.292	91.88
428.514	96.88
428.736	91.88
428.958	75.88
429.181	86.88
429.403	87.88
429.625	64.88
429.847	89.88
430.069	97.88
430.292	93.88
430.514	79.88
430.736	80.88
430.958	81.88
431.18	78.88
431.402	76.88
431.624	95.88
431.846	88.88
432.068	82.88
432.29	83.88
432.512	87.88
432.734	73.88
432.956	87.88
433.178	83.88
433.4	110.88
433.622	89.88
433.844	86.88
434.066	103.88
434.287	99.88
434.509	109.88
434.731	77.88
434.953	68.88
435.175	80.88
435.397	104.88
435.618	95.88
435.84	106.88
436.062	119.88
436.284	103.88
436.505	108.88
436.727	87.88
436.949	81.88
437.17	81.88
437.392	82.88
437.614	109.88
437.835	95.88
438.057	103.88
438.278	106.88
438.5	104.88
438.721	100.88
438.943	93.88
439.165	93.88
439.386	84.88
439.608	99.88
439.829	100.88
440.05	101.88
440.272	117.88
440.493	92.88
440.715	84.88
440.936	103.88
441.158	79.88
441.379	79.88
441.6	101.88
441.822	95.88
442.043	89.88
442.264	87.88
442.486	96.88
442.707	80.88
442.928	99.88
443.149	109.88
443.371	119.88
443.592	97.88
443.813	111.88
444.034	98.88
444.255	80.88
444.476	110.88
444.698	81.88
444.919	89.88
445.14	134.88
445.361	124.88
445.582	105.88
445.803	136.88
446.024	115.88
446.245	122.88
446.466	99.88
446.687	82.88
446.908	77.88
447.129	88.88
447.35	73.88
447.571	95.88
447.792	87.88
448.013	120.88
448.234	84.88
448.455	99.88
448.675	104.88
448.896	110.88
449.117	99.88
449.338	95.88
449.559	104.88
449.779	118.88
450	98.88
450.221	89.88
450.442	87.88
450.662	96.88
450.883	99.88
451.104	107.88
451.324	89.88
451.545	83.88
451.766	92.88
451.986	81.88
452.207	92.88
452.428	77.88
452.648	87.88
452.869	96.88
453.089	86.88
453.31	95.88
453.53	75.88
453.751	68.88
453.971	89.88
454.192	95.88
454.412	98.88
454.633	87.88
454.853	93.88
455.073	76.88
455.294	77.88
455.514	94.88
455.734	98.88
455.955	93.88
456.175	80.88
456.395	89.88
456.616	83.88
456.836	86.88
457.056	78.88
457.276	96.88
457.497	89.88
457.717	92.88
457.937	80.88
458.157	82.88
458.377	79.88
458.598	101.88
458.818	145.88
459.038	155.88
459.258	108.88
459.478	93.88
459.698	99.88
459.918	87.88
460.138	98.88
460.358	71.88
460.578	88.88
460.798	93.88
461.018	85.88
461.238	82.88
461.458	76.88
461.678	76.88
461.898	75.88
462.118	94.88
462.338	96.88
462.558	91.88
462.777	77.88
462.997	88.88
463.217	86.88
463.437	94.88
463.657	87.88
463.876	86.88
464.096	86.88
464.316	87.88
464.536	87.88
464.755	100.88
464.975	104.88
465.195	139.88
465.414	152.88
465.634	100.88
465.854	87.88
466.073	86.88
466.293	88.88
466.512	74.88
466.732	88.88
466.951	91.88
467.171	87.88
467.391	86.88
467.61	91.88
467.829	92.88
468.049	114.88
468.268	106.88
468.488	78.88
468.707	79.88
468.927	91.88
469.146	104.88
469.365	87.88
469.585	90.88
469.804	84.88
470.023	79.88
470.243	101.88
470.462	92.88
470.681	105.88
470.901	96.88
471.12	82.88
471.339	76.88
471.558	87.88
471.777	83.88
471.997	89.88
472.216	162.88
472.435	251.88
472.654	113.88
472.873	91.88
473.092	94.88
473.311	88.88
473.53	83.88
473.749	69.88
473.968	90.88
474.187	98.88
474.406	79.88
474.625	91.88
474.844	87.88
475.063	75.88
475.282	84.88
475.501	98.88
475.72	81.88
475.939	84.88
476.158	89.88
476.377	89.88
476.596	84.88
476.814	97.88
477.033	86.88
477.252	85.88
477.471	89.88
477.69	99.88
477.908	78.88
478.127	95.88
478.346	87.88
478.564	88.88
478.783	84.88
479.002	85.88
479.22	80.88
479.439	82.88
479.658	96.88
479.876	94.88
480.095	88.88
480.313	92.88
480.532	93.88
480.751	94.88
480.969	164.88
481.188	375.88
481.406	259.88
481.624	110.88
481.843	93.88
482.061	83.88
482.28	90.88
482.498	87.88
482.717	79.88
482.935	94.88
483.153	87.88
483.372	82.88
483.59	82.88
483.808	84.88
484.027	100.88
484.245	110.88
484.463	78.88
484.681	78.88
484.9	90.88
485.118	96.88
485.336	104.88
485.554	93.88
485.772	81.88
485.99	94.88
486.209	101.88
486.427	105.88
486.645	100.88
486.863	105.88
487.081	93.88
487.299	94.88
487.517	114.88
487.735	87.88
487.953	99.88
488.171	94.88
488.389	104.88
488.607	91.88
488.825	92.88
489.043	81.88
489.261	95.88
489.479	76.88
489.696	91.88
489.914	105.88
490.132	98.88
490.35	84.88
490.568	89.88
490.786	81.88
491.003	92.88
491.221	84.88
491.439	94.88
491.657	94.88
491.874	88.88
492.092	96.88
492.31	95.88
492.527	81.88
492.745	77.88
492.963	69.88
493.18	102.88
493.398	96.88
493.615	84.88
493.833	89.88
494.05	92.88
494.268	95.88
494.485	93.88
494.703	88.88
494.92	83.88
495.138	82.88
495.355	85.88
495.573	87.88
495.79	87.88
496.008	82.88
496.225	78.88
496.442	94.88
496.66	90.88
496.877	86.88
497.094	101.88
497.312	101.88
497.529	105.88
497.746	97.88
497.963	81.88
498.181	93.88
498.398	89.88
498.615	115.88
498.832	111.88
499.049	87.88
499.267	81.88
499.484	96.88
499.701	85.88
499.918	77.88
500.135	71.88
500.352	80.88
500.569	93.88
500.786	85.88
501.003	77.88
501.22	88.88
501.437	100.88
501.654	90.88
501.871	81.88
502.088	87.88
502.305	86.88
502.522	97.88
502.739	92.88
502.956	83.88
503.172	76.88
503.389	95.88
503.606	104.88
503.823	84.88
504.04	98.88
504.256	72.88
504.473	76.88
504.69	88.88
504.907	96.88
505.123	82.88
505.34	78.88
505.557	88.88
505.773	102.88
505.99	78.88
506.207	97.88
506.423	106.88
506.64	80.88
506.856	97.88
507.073	71.88
507.289	82.88
507.506	85.88
507.722	103.88
507.939	101.88
508.155	92.88
508.372	80.88
508.588	99.88
508.805	92.88
509.021	87.88
509.238	109.88
509.454	92.88
509.67	83.88
509.887	117.88
510.103	135.88
510.319	212.88
510.536	716.88
510.752	2255.88
510.968	634.88
511.184	162.88
511.401	118.88
511.617	91.88
511.833	84.88
512.049	96.88
512.265	93.88
512.481	81.88
512.698	83.88
512.914	88.88
513.13	80.88
513.346	101.88
513.562	100.88
513.778	100.88
513.994	100.88
514.21	95.88
514.426	108.88
514.642	116.88
514.858	113.88
515.074	145.88
515.29	397.88
515.506	1282.88
515.721	496.88
515.937	139.88
516.153	111.88
516.369	91.88
