Data from Circ_2003_H10_HRD10591_00064.txt Node
Date: Wed Jan 03 10:37:15 EST 2024
User: Yrep
Spectrometer: HR+D1059
Trigger mode: 1
Integration Time (sec): 1.000000E-1
Scans to average: 1
Electric dark correction enabled: true
Nonlinearity correction enabled: false
Boxcar width: 0
XAxis mode: Wavelengths
Number of Pixels in Spectrum: 2048
>>>>>Begin Spectral Data<<<<<
223.165	-20.81
223.4	-20.81
223.635	-20.81
223.869	-16.81
224.104	-2.81
224.338	-11.81
224.573	-13.81
224.808	-7.81
225.042	-15.81
225.277	-9.81
225.511	4.19
225.746	-7.81
225.98	-4.81
226.215	21.19
226.449	9.19
226.683	6.19
226.918	31.19
227.152	40.19
227.387	27.19
227.621	41.19
227.856	45.19
228.09	66.19
228.324	47.19
228.559	45.19
228.793	48.19
229.027	53.19
229.262	75.19
229.496	73.19
229.73	76.19
229.964	87.19
230.199	81.19
230.433	84.19
230.667	81.19
230.901	87.19
231.136	94.19
231.37	79.19
231.604	73.19
231.838	89.19
232.072	98.19
232.306	90.19
232.541	83.19
232.775	90.19
233.009	80.19
233.243	77.19
233.477	94.19
233.711	78.19
233.945	74.19
234.179	87.19
234.413	70.19
234.647	87.19
234.881	82.19
235.115	75.19
235.349	82.19
235.583	84.19
235.817	82.19
236.051	88.19
236.285	91.19
236.519	61.19
236.753	78.19
236.987	92.19
237.221	81.19
237.455	89.19
237.689	78.19
237.922	78.19
238.156	96.19
238.39	81.19
238.624	81.19
238.858	68.19
239.091	73.19
239.325	77.19
239.559	88.19
239.793	76.19
240.027	78.19
240.26	73.19
240.494	65.19
240.728	62.19
240.961	81.19
241.195	62.19
241.429	80.19
241.662	67.19
241.896	88.19
242.13	81.19
242.363	81.19
242.597	86.19
242.83	69.19
243.064	74.19
243.298	74.19
243.531	78.19
243.765	104.19
243.998	82.19
244.232	86.19
244.465	74.19
244.699	98.19
244.932	69.19
245.166	84.19
245.399	73.19
245.633	69.19
245.866	84.19
246.099	84.19
246.333	74.19
246.566	101.19
246.8	99.19
247.033	88.19
247.266	81.19
247.5	75.19
247.733	85.19
247.966	75.19
248.2	72.19
248.433	88.19
248.666	84.19
248.899	85.19
249.133	75.19
249.366	87.19
249.599	89.19
249.832	83.19
250.066	89.19
250.299	88.19
250.532	72.19
250.765	89.19
250.998	76.19
251.231	97.19
251.465	82.19
251.698	84.19
251.931	75.19
252.164	90.19
252.397	87.19
252.63	80.19
252.863	75.19
253.096	90.19
253.329	82.19
253.562	76.19
253.795	68.19
254.028	81.19
254.261	68.19
254.494	87.19
254.727	94.19
254.96	80.19
255.193	88.19
255.426	89.19
255.659	83.19
255.892	88.19
256.124	87.19
256.357	90.19
256.59	82.19
256.823	85.19
257.056	93.19
257.289	88.19
257.521	65.19
257.754	89.19
257.987	93.19
258.22	87.19
258.452	84.19
258.685	70.19
258.918	87.19
259.151	80.19
259.383	98.19
259.616	81.19
259.849	91.19
260.081	89.19
260.314	84.19
260.547	88.19
260.779	88.19
261.012	91.19
261.244	84.19
261.477	80.19
261.71	91.19
261.942	104.19
262.175	119.19
262.407	85.19
262.64	74.19
262.872	82.19
263.105	87.19
263.337	83.19
263.57	93.19
263.802	87.19
264.035	78.19
264.267	78.19
264.499	77.19
264.732	89.19
264.964	80.19
265.197	89.19
265.429	84.19
265.661	93.19
265.894	97.19
266.126	104.19
266.358	88.19
266.591	80.19
266.823	95.19
267.055	81.19
267.287	84.19
267.52	94.19
267.752	91.19
267.984	99.19
268.216	84.19
268.448	80.19
268.681	79.19
268.913	83.19
269.145	85.19
269.377	84.19
269.609	100.19
269.841	92.19
270.073	89.19
270.306	93.19
270.538	95.19
270.77	98.19
271.002	85.19
271.234	85.19
271.466	79.19
271.698	98.19
271.93	82.19
272.162	85.19
272.394	74.19
272.626	96.19
272.858	87.19
273.09	82.19
273.322	99.19
273.553	98.19
273.785	86.19
274.017	83.19
274.249	82.19
274.481	88.19
274.713	88.19
274.945	97.19
275.176	87.19
275.408	106.19
275.64	74.19
275.872	73.19
276.104	84.19
276.335	96.19
276.567	107.19
276.799	106.19
277.031	96.19
277.262	84.19
277.494	90.19
277.726	84.19
277.957	94.19
278.189	81.19
278.421	88.19
278.652	94.19
278.884	90.19
279.115	89.19
279.347	92.19
279.579	89.19
279.81	85.19
280.042	98.19
280.273	92.19
280.505	86.19
280.736	97.19
280.968	86.19
281.199	74.19
281.431	79.19
281.662	95.19
281.894	80.19
282.125	99.19
282.356	121.19
282.588	139.19
282.819	104.19
283.051	93.19
283.282	88.19
283.513	103.19
283.745	85.19
283.976	92.19
284.207	88.19
284.439	90.19
284.67	78.19
284.901	91.19
285.132	81.19
285.364	84.19
285.595	92.19
285.826	90.19
286.057	81.19
286.288	84.19
286.52	89.19
286.751	87.19
286.982	102.19
287.213	81.19
287.444	78.19
287.675	89.19
287.906	84.19
288.138	89.19
288.369	89.19
288.6	75.19
288.831	102.19
289.062	91.19
289.293	97.19
289.524	74.19
289.755	76.19
289.986	87.19
290.217	89.19
290.448	90.19
290.679	96.19
290.91	98.19
291.141	80.19
291.371	91.19
291.602	109.19
291.833	87.19
292.064	84.19
292.295	83.19
292.526	92.19
292.757	99.19
292.987	92.19
293.218	80.19
293.449	82.19
293.68	101.19
293.91	89.19
294.141	90.19
294.372	93.19
294.603	84.19
294.833	96.19
295.064	88.19
295.295	76.19
295.525	100.19
295.756	86.19
295.987	116.19
296.217	141.19
296.448	135.19
296.679	98.19
296.909	94.19
297.14	82.19
297.37	105.19
297.601	95.19
297.831	90.19
298.062	98.19
298.292	97.19
298.523	97.19
298.753	85.19
298.984	92.19
299.214	80.19
299.445	85.19
299.675	87.19
299.905	82.19
300.136	82.19
300.366	103.19
300.597	106.19
300.827	107.19
301.057	109.19
301.288	103.19
301.518	83.19
301.748	95.19
301.979	106.19
302.209	95.19
302.439	94.19
302.669	96.19
302.9	96.19
303.13	100.19
303.36	90.19
303.59	106.19
303.82	109.19
304.051	84.19
304.281	100.19
304.511	101.19
304.741	90.19
304.971	98.19
305.201	101.19
305.431	106.19
305.661	100.19
305.891	87.19
306.121	108.19
306.352	106.19
306.582	112.19
306.812	100.19
307.042	86.19
307.272	118.19
307.502	98.19
307.731	115.19
307.961	103.19
308.191	92.19
308.421	88.19
308.651	78.19
308.881	94.19
309.111	108.19
309.341	93.19
309.571	82.19
309.8	119.19
310.03	103.19
310.26	109.19
310.49	91.19
310.72	104.19
310.949	106.19
311.179	96.19
311.409	95.19
311.639	101.19
311.868	102.19
312.098	98.19
312.328	92.19
312.557	103.19
312.787	103.19
313.017	99.19
313.246	85.19
313.476	98.19
313.706	93.19
313.935	78.19
314.165	98.19
314.394	104.19
314.624	92.19
314.853	93.19
315.083	107.19
315.312	91.19
315.542	100.19
315.771	104.19
316.001	100.19
316.23	92.19
316.46	90.19
316.689	82.19
316.919	103.19
317.148	93.19
317.377	105.19
317.607	102.19
317.836	90.19
318.065	84.19
318.295	111.19
318.524	89.19
318.753	88.19
318.983	90.19
319.212	100.19
319.441	116.19
319.67	95.19
319.9	84.19
320.129	97.19
320.358	102.19
320.587	98.19
320.816	112.19
321.046	85.19
321.275	94.19
321.504	108.19
321.733	109.19
321.962	99.19
322.191	107.19
322.42	109.19
322.649	116.19
322.878	125.19
323.108	108.19
323.337	117.19
323.566	130.19
323.795	150.19
324.024	208.19
324.253	395.19
324.482	812.19
324.71	1734.19
324.939	2206.19
325.168	836.19
325.397	261.19
325.626	150.19
325.855	116.19
326.084	123.19
326.313	140.19
326.542	144.19
326.77	231.19
326.999	457.19
327.228	938.19
327.457	1730.19
327.686	1386.19
327.914	389.19
328.143	203.19
328.372	180.19
328.6	148.19
328.829	140.19
329.058	135.19
329.287	128.19
329.515	111.19
329.744	101.19
329.972	113.19
330.201	135.19
330.43	149.19
330.658	133.19
330.887	129.19
331.115	129.19
331.344	110.19
331.572	105.19
331.801	124.19
332.03	104.19
332.258	100.19
332.486	97.19
332.715	90.19
332.943	106.19
333.172	89.19
333.4	95.19
333.629	100.19
333.857	124.19
334.085	118.19
334.314	136.19
334.542	157.19
334.771	162.19
334.999	114.19
335.227	102.19
335.455	90.19
335.684	108.19
335.912	106.19
336.14	102.19
336.369	88.19
336.597	101.19
336.825	111.19
337.053	102.19
337.281	94.19
337.51	100.19
337.738	105.19
337.966	107.19
338.194	117.19
338.422	94.19
338.65	94.19
338.878	100.19
339.106	94.19
339.334	97.19
339.562	92.19
339.79	98.19
340.018	93.19
340.246	96.19
340.474	98.19
340.702	96.19
340.93	112.19
341.158	103.19
341.386	89.19
341.614	98.19
341.842	87.19
342.07	93.19
342.298	110.19
342.526	87.19
342.754	98.19
342.981	93.19
343.209	88.19
343.437	94.19
343.665	77.19
343.893	80.19
344.12	84.19
344.348	80.19
344.576	89.19
344.804	86.19
345.031	84.19
345.259	116.19
345.487	103.19
345.714	98.19
345.942	88.19
346.17	87.19
346.397	89.19
346.625	97.19
346.853	94.19
347.08	100.19
347.308	76.19
347.535	84.19
347.763	94.19
347.99	99.19
348.218	110.19
348.445	95.19
348.673	93.19
348.9	114.19
349.128	90.19
349.355	96.19
349.583	104.19
349.81	87.19
350.037	85.19
350.265	103.19
350.492	121.19
350.72	101.19
350.947	104.19
351.174	118.19
351.402	106.19
351.629	108.19
351.856	98.19
352.083	92.19
352.311	118.19
352.538	113.19
352.765	107.19
352.992	117.19
353.22	100.19
353.447	107.19
353.674	101.19
353.901	115.19
354.128	105.19
354.355	98.19
354.583	87.19
354.81	102.19
355.037	98.19
355.264	100.19
355.491	97.19
355.718	89.19
355.945	89.19
356.172	89.19
356.399	86.19
356.626	96.19
356.853	95.19
357.08	86.19
357.307	93.19
357.534	100.19
357.761	102.19
357.988	107.19
358.215	104.19
358.441	100.19
358.668	100.19
358.895	82.19
359.122	83.19
359.349	93.19
359.576	96.19
359.802	81.19
360.029	105.19
360.256	97.19
360.483	100.19
360.709	81.19
360.936	94.19
361.163	85.19
361.39	76.19
361.616	112.19
361.843	80.19
362.07	107.19
362.296	93.19
362.523	102.19
362.749	102.19
362.976	82.19
363.203	81.19
363.429	99.19
363.656	92.19
363.882	97.19
364.109	96.19
364.335	105.19
364.562	101.19
364.788	89.19
365.015	90.19
365.241	102.19
365.468	91.19
365.694	103.19
365.92	84.19
366.147	100.19
366.373	101.19
366.599	82.19
366.826	82.19
367.052	89.19
367.278	80.19
367.505	102.19
367.731	87.19
367.957	95.19
368.184	89.19
368.41	100.19
368.636	116.19
368.862	122.19
369.089	104.19
369.315	89.19
369.541	94.19
369.767	88.19
369.993	91.19
370.219	91.19
370.445	89.19
370.672	102.19
370.898	71.19
371.124	95.19
371.35	88.19
371.576	94.19
371.802	89.19
372.028	92.19
372.254	92.19
372.48	86.19
372.706	94.19
372.932	94.19
373.158	92.19
373.384	90.19
373.61	104.19
373.835	80.19
374.061	102.19
374.287	79.19
374.513	88.19
374.739	88.19
374.965	96.19
375.191	79.19
375.416	96.19
375.642	104.19
375.868	93.19
376.094	90.19
376.319	97.19
376.545	92.19
376.771	100.19
376.997	100.19
377.222	77.19
377.448	95.19
377.674	93.19
377.899	104.19
378.125	89.19
378.35	87.19
378.576	93.19
378.802	97.19
379.027	95.19
379.253	91.19
379.478	95.19
379.704	86.19
379.929	107.19
380.155	97.19
380.38	100.19
380.606	89.19
380.831	91.19
381.057	104.19
381.282	98.19
381.507	101.19
381.733	92.19
381.958	105.19
382.184	115.19
382.409	93.19
382.634	89.19
382.86	106.19
383.085	109.19
383.31	107.19
383.535	98.19
383.761	89.19
383.986	105.19
384.211	104.19
384.436	97.19
384.662	105.19
384.887	105.19
385.112	110.19
385.337	105.19
385.562	99.19
385.787	111.19
386.013	109.19
386.238	113.19
386.463	109.19
386.688	113.19
386.913	108.19
387.138	104.19
387.363	101.19
387.588	97.19
387.813	109.19
388.038	121.19
388.263	126.19
388.488	118.19
388.713	102.19
388.938	120.19
389.163	91.19
389.387	92.19
389.612	98.19
389.837	89.19
390.062	101.19
390.287	102.19
390.512	102.19
390.736	102.19
390.961	93.19
391.186	98.19
391.411	90.19
391.636	91.19
391.86	94.19
392.085	99.19
392.31	75.19
392.534	83.19
392.759	86.19
392.984	105.19
393.208	103.19
393.433	106.19
393.658	98.19
393.882	90.19
394.107	98.19
394.331	82.19
394.556	87.19
394.78	95.19
395.005	94.19
395.229	107.19
395.454	105.19
395.678	84.19
395.903	92.19
396.127	89.19
396.352	78.19
396.576	88.19
396.801	83.19
397.025	85.19
397.249	89.19
397.474	100.19
397.698	91.19
397.922	81.19
398.147	92.19
398.371	80.19
398.595	84.19
398.82	83.19
399.044	78.19
399.268	82.19
399.492	84.19
399.717	97.19
399.941	91.19
400.165	89.19
400.389	97.19
400.613	93.19
400.837	88.19
401.062	80.19
401.286	82.19
401.51	105.19
401.734	101.19
401.958	106.19
402.182	129.19
402.406	153.19
402.63	130.19
402.854	104.19
403.078	95.19
403.302	84.19
403.526	112.19
403.75	91.19
403.974	91.19
404.198	99.19
404.422	88.19
404.645	59.19
404.869	88.19
405.093	99.19
405.317	93.19
405.541	108.19
405.765	108.19
405.988	120.19
406.212	163.19
406.436	202.19
406.66	140.19
406.883	90.19
407.107	104.19
407.331	98.19
407.555	96.19
407.778	91.19
408.002	84.19
408.226	84.19
408.449	88.19
408.673	92.19
408.896	114.19
409.12	88.19
409.344	85.19
409.567	85.19
409.791	94.19
410.014	104.19
410.238	98.19
410.461	95.19
410.685	105.19
410.908	111.19
411.132	112.19
411.355	95.19
411.578	90.19
411.802	80.19
412.025	102.19
412.249	94.19
412.472	102.19
412.695	95.19
412.919	107.19
413.142	100.19
413.365	81.19
413.589	94.19
413.812	97.19
414.035	103.19
414.258	92.19
414.482	98.19
414.705	94.19
414.928	79.19
415.151	95.19
415.374	94.19
415.597	95.19
415.821	84.19
416.044	83.19
416.267	92.19
416.49	100.19
416.713	86.19
416.936	91.19
417.159	92.19
417.382	90.19
417.605	82.19
417.828	92.19
418.051	89.19
418.274	87.19
418.497	81.19
418.72	82.19
418.943	81.19
419.166	91.19
419.389	92.19
419.611	84.19
419.834	100.19
420.057	83.19
420.28	92.19
420.503	82.19
420.726	103.19
420.948	100.19
421.171	94.19
421.394	103.19
421.617	87.19
421.839	86.19
422.062	103.19
422.285	113.19
422.507	105.19
422.73	115.19
422.953	109.19
423.175	89.19
423.398	97.19
423.621	104.19
423.843	85.19
424.066	90.19
424.288	87.19
424.511	91.19
424.733	96.19
424.956	107.19
425.178	103.19
425.401	93.19
425.623	99.19
425.846	84.19
426.068	110.19
426.291	101.19
426.513	85.19
426.735	89.19
426.958	88.19
427.18	107.19
427.402	131.19
427.625	146.19
427.847	110.19
428.069	110.19
428.292	96.19
428.514	91.19
428.736	85.19
428.958	86.19
429.181	92.19
429.403	80.19
429.625	82.19
429.847	79.19
430.069	101.19
430.292	86.19
430.514	96.19
430.736	81.19
430.958	94.19
431.18	84.19
431.402	92.19
431.624	87.19
431.846	94.19
432.068	93.19
432.29	97.19
432.512	96.19
432.734	92.19
432.956	105.19
433.178	93.19
433.4	102.19
433.622	89.19
433.844	92.19
434.066	85.19
434.287	91.19
434.509	98.19
434.731	105.19
434.953	89.19
435.175	87.19
435.397	92.19
435.618	107.19
435.84	97.19
436.062	122.19
436.284	113.19
436.505	103.19
436.727	91.19
436.949	100.19
437.17	93.19
437.392	86.19
437.614	101.19
437.835	104.19
438.057	109.19
438.278	106.19
438.5	107.19
438.721	116.19
438.943	98.19
439.165	91.19
439.386	92.19
439.608	97.19
439.829	98.19
440.05	105.19
440.272	125.19
440.493	89.19
440.715	99.19
440.936	89.19
441.158	88.19
441.379	92.19
441.6	97.19
441.822	102.19
442.043	97.19
442.264	101.19
442.486	100.19
442.707	84.19
442.928	91.19
443.149	129.19
443.371	114.19
443.592	121.19
443.813	124.19
444.034	97.19
444.255	85.19
444.476	88.19
444.698	96.19
444.919	87.19
445.14	136.19
445.361	121.19
445.582	122.19
445.803	125.19
446.024	112.19
446.245	123.19
446.466	114.19
446.687	95.19
446.908	91.19
447.129	100.19
447.35	73.19
447.571	87.19
447.792	89.19
448.013	97.19
448.234	100.19
448.455	105.19
448.675	104.19
448.896	119.19
449.117	81.19
449.338	98.19
449.559	115.19
449.779	106.19
450	102.19
450.221	92.19
450.442	101.19
450.662	94.19
450.883	97.19
451.104	108.19
451.324	101.19
451.545	85.19
451.766	98.19
451.986	84.19
452.207	90.19
452.428	102.19
452.648	113.19
452.869	97.19
453.089	113.19
453.31	136.19
453.53	102.19
453.751	94.19
453.971	106.19
454.192	102.19
454.412	77.19
454.633	85.19
454.853	88.19
455.073	88.19
455.294	87.19
455.514	96.19
455.734	101.19
455.955	96.19
456.175	79.19
456.395	80.19
456.616	89.19
456.836	81.19
457.056	81.19
457.276	89.19
457.497	72.19
457.717	84.19
457.937	96.19
458.157	94.19
458.377	87.19
458.598	86.19
458.818	135.19
459.038	146.19
459.258	106.19
459.478	94.19
459.698	101.19
459.918	76.19
460.138	80.19
460.358	87.19
460.578	93.19
460.798	94.19
461.018	90.19
461.238	92.19
461.458	86.19
461.678	84.19
461.898	82.19
462.118	79.19
462.338	87.19
462.558	94.19
462.777	90.19
462.997	94.19
463.217	82.19
463.437	98.19
463.657	84.19
463.876	82.19
464.096	99.19
464.316	86.19
464.536	84.19
464.755	100.19
464.975	91.19
465.195	162.19
465.414	162.19
465.634	104.19
465.854	86.19
466.073	106.19
466.293	91.19
466.512	88.19
466.732	76.19
466.951	72.19
467.171	96.19
467.391	99.19
467.61	94.19
467.829	103.19
468.049	109.19
468.268	129.19
468.488	101.19
468.707	99.19
468.927	104.19
469.146	88.19
469.365	80.19
469.585	98.19
469.804	88.19
470.023	98.19
470.243	88.19
470.462	95.19
470.681	110.19
470.901	87.19
471.12	89.19
471.339	99.19
471.558	104.19
471.777	91.19
471.997	103.19
472.216	143.19
472.435	221.19
472.654	116.19
472.873	71.19
473.092	97.19
473.311	89.19
473.53	85.19
473.749	88.19
473.968	101.19
474.187	105.19
474.406	86.19
474.625	94.19
474.844	88.19
475.063	96.19
475.282	103.19
475.501	106.19
475.72	91.19
475.939	94.19
476.158	96.19
476.377	86.19
476.596	82.19
476.814	101.19
477.033	105.19
477.252	81.19
477.471	81.19
477.69	85.19
477.908	74.19
478.127	85.19
478.346	80.19
478.564	90.19
478.783	94.19
479.002	100.19
479.22	91.19
479.439	99.19
479.658	92.19
479.876	85.19
480.095	95.19
480.313	94.19
480.532	102.19
480.751	99.19
480.969	148.19
481.188	308.19
481.406	202.19
481.624	106.19
481.843	97.19
482.061	101.19
482.28	97.19
482.498	91.19
482.717	102.19
482.935	92.19
483.153	93.19
483.372	86.19
483.59	92.19
483.808	80.19
484.027	87.19
484.245	73.19
484.463	93.19
484.681	98.19
484.9	91.19
485.118	85.19
485.336	110.19
485.554	103.19
485.772	97.19
485.99	109.19
486.209	106.19
486.427	100.19
486.645	115.19
486.863	119.19
487.081	87.19
487.299	109.19
487.517	117.19
487.735	100.19
487.953	107.19
488.171	88.19
488.389	93.19
488.607	95.19
488.825	92.19
489.043	101.19
489.261	92.19
489.479	86.19
489.696	100.19
489.914	72.19
490.132	101.19
490.35	100.19
490.568	81.19
490.786	83.19
491.003	90.19
491.221	93.19
491.439	87.19
491.657	83.19
491.874	98.19
492.092	84.19
492.31	93.19
492.527	93.19
492.745	88.19
492.963	95.19
493.18	102.19
493.398	97.19
493.615	104.19
493.833	87.19
494.05	77.19
494.268	86.19
494.485	96.19
494.703	91.19
494.92	111.19
495.138	102.19
495.355	93.19
495.573	85.19
495.79	80.19
496.008	82.19
496.225	93.19
496.442	94.19
496.66	100.19
496.877	92.19
497.094	104.19
497.312	99.19
497.529	103.19
497.746	93.19
497.963	72.19
498.181	89.19
498.398	110.19
498.615	99.19
498.832	100.19
499.049	109.19
499.267	102.19
499.484	90.19
499.701	77.19
499.918	75.19
500.135	85.19
500.352	95.19
500.569	112.19
500.786	101.19
501.003	82.19
501.22	83.19
501.437	89.19
501.654	84.19
501.871	91.19
502.088	102.19
502.305	100.19
502.522	90.19
502.739	93.19
502.956	75.19
503.172	81.19
503.389	94.19
503.606	110.19
503.823	105.19
504.04	96.19
504.256	84.19
504.473	96.19
504.69	89.19
504.907	88.19
505.123	95.19
505.34	94.19
505.557	97.19
505.773	80.19
505.99	94.19
506.207	98.19
506.423	76.19
506.64	92.19
506.856	93.19
507.073	78.19
507.289	94.19
507.506	84.19
507.722	108.19
507.939	108.19
508.155	102.19
508.372	99.19
508.588	100.19
508.805	97.19
509.021	95.19
509.238	101.19
509.454	97.19
509.67	100.19
509.887	115.19
510.103	147.19
510.319	235.19
510.536	793.19
510.752	2602.19
510.968	708.19
511.184	164.19
511.401	116.19
511.617	100.19
511.833	103.19
512.049	100.19
512.265	97.19
512.481	95.19
512.698	85.19
512.914	92.19
513.13	105.19
513.346	101.19
513.562	109.19
513.778	105.19
513.994	112.19
514.21	94.19
