Data from Circ_2003_H10_HRD10591_00042.txt Node
Date: Wed Jan 03 10:37:11 EST 2024
User: Yrep
Spectrometer: HR+D1059
Trigger mode: 1
Integration Time (sec): 1.000000E-1
Scans to average: 1
Electric dark correction enabled: true
Nonlinearity correction enabled: false
Boxcar width: 0
XAxis mode: Wavelengths
Number of Pixels in Spectrum: 2048
>>>>>Begin Spectral Data<<<<<
223.165	-29.62
223.4	-29.62
223.635	-29.62
223.869	-12.62
224.104	-18.62
224.338	-24.62
224.573	-20.62
224.808	-21.62
225.042	0.38
225.277	-2.62
225.511	1.38
225.746	13.38
225.98	2.38
226.215	12.38
226.449	19.38
226.683	16.38
226.918	26.38
227.152	38.38
227.387	17.38
227.621	49.38
227.856	47.38
228.09	54.38
228.324	36.38
228.559	67.38
228.793	67.38
229.027	57.38
229.262	60.38
229.496	68.38
229.73	87.38
229.964	89.38
230.199	82.38
230.433	76.38
230.667	72.38
230.901	86.38
231.136	82.38
231.37	97.38
231.604	86.38
231.838	79.38
232.072	57.38
232.306	91.38
232.541	92.38
232.775	76.38
233.009	89.38
233.243	78.38
233.477	92.38
233.711	97.38
233.945	81.38
234.179	90.38
234.413	81.38
234.647	69.38
234.881	85.38
235.115	80.38
235.349	84.38
235.583	74.38
235.817	87.38
236.051	72.38
236.285	74.38
236.519	80.38
236.753	91.38
236.987	83.38
237.221	92.38
237.455	81.38
237.689	69.38
237.922	84.38
238.156	73.38
238.39	74.38
238.624	69.38
238.858	81.38
239.091	76.38
239.325	73.38
239.559	91.38
239.793	82.38
240.027	85.38
240.26	75.38
240.494	77.38
240.728	91.38
240.961	79.38
241.195	79.38
241.429	81.38
241.662	68.38
241.896	85.38
242.13	85.38
242.363	86.38
242.597	83.38
242.83	74.38
243.064	75.38
243.298	79.38
243.531	73.38
243.765	85.38
243.998	85.38
244.232	84.38
244.465	97.38
244.699	79.38
244.932	80.38
245.166	81.38
245.399	83.38
245.633	72.38
245.866	73.38
246.099	67.38
246.333	80.38
246.566	83.38
246.8	92.38
247.033	78.38
247.266	81.38
247.5	81.38
247.733	82.38
247.966	87.38
248.2	68.38
248.433	77.38
248.666	80.38
248.899	82.38
249.133	95.38
249.366	86.38
249.599	101.38
249.832	97.38
250.066	83.38
250.299	92.38
250.532	67.38
250.765	91.38
250.998	73.38
251.231	80.38
251.465	81.38
251.698	82.38
251.931	73.38
252.164	96.38
252.397	91.38
252.63	74.38
252.863	82.38
253.096	67.38
253.329	71.38
253.562	91.38
253.795	85.38
254.028	83.38
254.261	79.38
254.494	90.38
254.727	88.38
254.96	73.38
255.193	73.38
255.426	92.38
255.659	85.38
255.892	114.38
256.124	74.38
256.357	83.38
256.59	90.38
256.823	89.38
257.056	78.38
257.289	76.38
257.521	85.38
257.754	97.38
257.987	99.38
258.22	89.38
258.452	85.38
258.685	76.38
258.918	79.38
259.151	76.38
259.383	82.38
259.616	67.38
259.849	86.38
260.081	85.38
260.314	78.38
260.547	87.38
260.779	84.38
261.012	88.38
261.244	86.38
261.477	80.38
261.71	93.38
261.942	126.38
262.175	121.38
262.407	86.38
262.64	82.38
262.872	73.38
263.105	85.38
263.337	69.38
263.57	79.38
263.802	74.38
264.035	97.38
264.267	97.38
264.499	88.38
264.732	77.38
264.964	83.38
265.197	92.38
265.429	71.38
265.661	77.38
265.894	83.38
266.126	87.38
266.358	87.38
266.591	96.38
266.823	91.38
267.055	79.38
267.287	77.38
267.52	86.38
267.752	76.38
267.984	83.38
268.216	101.38
268.448	87.38
268.681	77.38
268.913	82.38
269.145	96.38
269.377	75.38
269.609	87.38
269.841	81.38
270.073	72.38
270.306	79.38
270.538	76.38
270.77	98.38
271.002	80.38
271.234	83.38
271.466	81.38
271.698	78.38
271.93	96.38
272.162	77.38
272.394	90.38
272.626	82.38
272.858	97.38
273.09	86.38
273.322	91.38
273.553	70.38
273.785	93.38
274.017	100.38
274.249	99.38
274.481	73.38
274.713	90.38
274.945	93.38
275.176	78.38
275.408	87.38
275.64	89.38
275.872	100.38
276.104	90.38
276.335	102.38
276.567	92.38
276.799	107.38
277.031	99.38
277.262	86.38
277.494	95.38
277.726	88.38
277.957	78.38
278.189	79.38
278.421	82.38
278.652	85.38
278.884	90.38
279.115	91.38
279.347	95.38
279.579	81.38
279.81	98.38
280.042	91.38
280.273	84.38
280.505	85.38
280.736	84.38
280.968	91.38
281.199	83.38
281.431	90.38
281.662	94.38
281.894	88.38
282.125	91.38
282.356	107.38
282.588	156.38
282.819	121.38
283.051	90.38
283.282	91.38
283.513	75.38
283.745	91.38
283.976	91.38
284.207	99.38
284.439	89.38
284.67	102.38
284.901	92.38
285.132	96.38
285.364	86.38
285.595	89.38
285.826	89.38
286.057	91.38
286.288	88.38
286.52	79.38
286.751	97.38
286.982	97.38
287.213	72.38
287.444	75.38
287.675	85.38
287.906	95.38
288.138	97.38
288.369	115.38
288.6	85.38
288.831	81.38
289.062	92.38
289.293	100.38
289.524	80.38
289.755	97.38
289.986	74.38
290.217	93.38
290.448	93.38
290.679	88.38
290.91	94.38
291.141	92.38
291.371	90.38
291.602	85.38
291.833	85.38
292.064	81.38
292.295	86.38
292.526	90.38
292.757	96.38
292.987	89.38
293.218	85.38
293.449	83.38
293.68	79.38
293.91	78.38
294.141	80.38
294.372	88.38
294.603	77.38
294.833	79.38
295.064	91.38
295.295	85.38
295.525	96.38
295.756	118.38
295.987	110.38
296.217	143.38
296.448	131.38
296.679	99.38
296.909	96.38
297.14	89.38
297.37	83.38
297.601	77.38
297.831	94.38
298.062	75.38
298.292	84.38
298.523	86.38
298.753	86.38
298.984	107.38
299.214	76.38
299.445	91.38
299.675	88.38
299.905	101.38
300.136	103.38
300.366	96.38
300.597	90.38
300.827	106.38
301.057	100.38
301.288	89.38
301.518	86.38
301.748	93.38
301.979	77.38
302.209	103.38
302.439	88.38
302.669	94.38
302.9	93.38
303.13	90.38
303.36	81.38
303.59	101.38
303.82	116.38
304.051	96.38
304.281	88.38
304.511	83.38
304.741	105.38
304.971	92.38
305.201	85.38
305.431	97.38
305.661	91.38
305.891	99.38
306.121	112.38
306.352	107.38
306.582	101.38
306.812	99.38
307.042	103.38
307.272	105.38
307.502	83.38
307.731	94.38
307.961	97.38
308.191	106.38
308.421	90.38
308.651	91.38
308.881	86.38
309.111	87.38
309.341	99.38
309.571	103.38
309.8	103.38
310.03	105.38
310.26	118.38
310.49	89.38
310.72	103.38
310.949	90.38
311.179	94.38
311.409	97.38
311.639	96.38
311.868	101.38
312.098	98.38
312.328	107.38
312.557	100.38
312.787	107.38
313.017	97.38
313.246	104.38
313.476	96.38
313.706	100.38
313.935	103.38
314.165	99.38
314.394	85.38
314.624	80.38
314.853	97.38
315.083	96.38
315.312	91.38
315.542	90.38
315.771	96.38
316.001	102.38
316.23	90.38
316.46	93.38
316.689	85.38
316.919	82.38
317.148	97.38
317.377	102.38
317.607	90.38
317.836	95.38
318.065	108.38
318.295	92.38
318.524	99.38
318.753	114.38
318.983	96.38
319.212	106.38
319.441	117.38
319.67	108.38
319.9	100.38
320.129	99.38
320.358	101.38
320.587	97.38
320.816	90.38
321.046	81.38
321.275	102.38
321.504	89.38
321.733	93.38
321.962	99.38
322.191	116.38
322.42	115.38
322.649	93.38
322.878	105.38
323.108	110.38
323.337	139.38
323.566	135.38
323.795	145.38
324.024	213.38
324.253	416.38
324.482	870.38
324.71	1793.38
324.939	2325.38
325.168	861.38
325.397	257.38
325.626	154.38
325.855	138.38
326.084	134.38
326.313	149.38
326.542	159.38
326.77	236.38
326.999	488.38
327.228	988.38
327.457	1814.38
327.686	1468.38
327.914	383.38
328.143	207.38
328.372	149.38
328.6	123.38
328.829	111.38
329.058	121.38
329.287	119.38
329.515	115.38
329.744	98.38
329.972	98.38
330.201	124.38
330.43	139.38
330.658	118.38
330.887	138.38
331.115	110.38
331.344	98.38
331.572	107.38
331.801	107.38
332.03	98.38
332.258	92.38
332.486	99.38
332.715	103.38
332.943	113.38
333.172	90.38
333.4	101.38
333.629	109.38
333.857	113.38
334.085	109.38
334.314	122.38
334.542	112.38
334.771	118.38
334.999	92.38
335.227	88.38
335.455	91.38
335.684	107.38
335.912	102.38
336.14	103.38
336.369	94.38
336.597	98.38
336.825	95.38
337.053	84.38
337.281	88.38
337.51	96.38
337.738	98.38
337.966	88.38
338.194	100.38
338.422	92.38
338.65	89.38
338.878	104.38
339.106	93.38
339.334	96.38
339.562	97.38
339.79	98.38
340.018	103.38
340.246	86.38
340.474	98.38
340.702	91.38
340.93	100.38
341.158	78.38
341.386	73.38
341.614	111.38
341.842	111.38
342.07	92.38
342.298	90.38
342.526	79.38
342.754	88.38
342.981	87.38
343.209	75.38
343.437	96.38
343.665	82.38
343.893	71.38
344.12	96.38
344.348	88.38
344.576	90.38
344.804	85.38
345.031	90.38
345.259	97.38
345.487	96.38
345.714	96.38
345.942	99.38
346.17	92.38
346.397	97.38
346.625	91.38
346.853	101.38
347.08	81.38
347.308	94.38
347.535	100.38
347.763	101.38
347.99	100.38
348.218	104.38
348.445	103.38
348.673	101.38
348.9	92.38
349.128	97.38
349.355	76.38
349.583	99.38
349.81	102.38
350.037	96.38
350.265	97.38
350.492	77.38
350.72	95.38
350.947	112.38
351.174	93.38
351.402	104.38
351.629	119.38
351.856	101.38
352.083	104.38
352.311	112.38
352.538	107.38
352.765	117.38
352.992	113.38
353.22	122.38
353.447	113.38
353.674	124.38
353.901	103.38
354.128	97.38
354.355	103.38
354.583	117.38
354.81	105.38
355.037	90.38
355.264	107.38
355.491	89.38
355.718	95.38
355.945	97.38
356.172	101.38
356.399	101.38
356.626	92.38
356.853	89.38
357.08	88.38
357.307	94.38
357.534	78.38
357.761	96.38
357.988	94.38
358.215	110.38
358.441	101.38
358.668	93.38
358.895	96.38
359.122	88.38
359.349	87.38
359.576	90.38
359.802	105.38
360.029	102.38
360.256	112.38
360.483	98.38
360.709	93.38
360.936	93.38
361.163	92.38
361.39	101.38
361.616	97.38
361.843	99.38
362.07	92.38
362.296	99.38
362.523	98.38
362.749	89.38
362.976	100.38
363.203	97.38
363.429	92.38
363.656	92.38
363.882	79.38
364.109	96.38
364.335	90.38
364.562	97.38
364.788	79.38
365.015	87.38
365.241	118.38
365.468	107.38
365.694	109.38
365.92	97.38
366.147	88.38
366.373	82.38
366.599	79.38
366.826	84.38
367.052	89.38
367.278	96.38
367.505	87.38
367.731	110.38
367.957	84.38
368.184	101.38
368.41	89.38
368.636	98.38
368.862	119.38
369.089	114.38
369.315	96.38
369.541	93.38
369.767	96.38
369.993	94.38
370.219	100.38
370.445	98.38
370.672	81.38
370.898	89.38
371.124	81.38
371.35	80.38
371.576	83.38
371.802	72.38
372.028	90.38
372.254	104.38
372.48	93.38
372.706	82.38
372.932	84.38
373.158	104.38
373.384	96.38
373.61	104.38
373.835	93.38
374.061	84.38
374.287	96.38
374.513	91.38
374.739	91.38
374.965	98.38
375.191	93.38
375.416	91.38
375.642	104.38
375.868	90.38
376.094	104.38
376.319	93.38
376.545	85.38
376.771	83.38
376.997	103.38
377.222	94.38
377.448	93.38
377.674	95.38
377.899	93.38
378.125	92.38
378.35	104.38
378.576	96.38
378.802	92.38
379.027	91.38
379.253	93.38
379.478	95.38
379.704	99.38
379.929	89.38
380.155	90.38
380.38	93.38
380.606	108.38
380.831	92.38
381.057	100.38
381.282	105.38
381.507	99.38
381.733	101.38
381.958	91.38
382.184	102.38
382.409	105.38
382.634	106.38
382.86	104.38
383.085	106.38
383.31	120.38
383.535	106.38
383.761	100.38
383.986	110.38
384.211	89.38
384.436	112.38
384.662	118.38
384.887	105.38
385.112	115.38
385.337	122.38
385.562	113.38
385.787	120.38
386.013	119.38
386.238	112.38
386.463	126.38
386.688	109.38
386.913	117.38
387.138	115.38
387.363	122.38
387.588	105.38
387.813	102.38
388.038	103.38
388.263	121.38
388.488	115.38
388.713	91.38
388.938	95.38
389.163	98.38
389.387	101.38
389.612	96.38
389.837	91.38
390.062	94.38
390.287	99.38
390.512	85.38
390.736	85.38
390.961	100.38
391.186	111.38
391.411	85.38
391.636	87.38
391.86	67.38
392.085	75.38
392.31	81.38
392.534	96.38
392.759	86.38
392.984	89.38
393.208	90.38
393.433	90.38
393.658	105.38
393.882	76.38
394.107	84.38
394.331	78.38
394.556	96.38
394.78	93.38
395.005	95.38
395.229	96.38
395.454	79.38
395.678	97.38
395.903	100.38
396.127	101.38
396.352	74.38
396.576	83.38
396.801	95.38
397.025	86.38
397.249	84.38
397.474	95.38
397.698	83.38
397.922	71.38
398.147	87.38
398.371	85.38
398.595	94.38
398.82	81.38
399.044	92.38
399.268	87.38
399.492	81.38
399.717	91.38
399.941	80.38
400.165	84.38
400.389	104.38
400.613	87.38
400.837	69.38
401.062	89.38
401.286	104.38
401.51	88.38
401.734	96.38
401.958	100.38
402.182	122.38
402.406	143.38
402.63	105.38
402.854	93.38
403.078	83.38
403.302	97.38
403.526	88.38
403.75	79.38
403.974	87.38
404.198	88.38
404.422	93.38
404.645	84.38
404.869	98.38
405.093	80.38
405.317	99.38
405.541	98.38
405.765	93.38
405.988	116.38
406.212	178.38
406.436	229.38
406.66	148.38
406.883	89.38
407.107	91.38
407.331	102.38
407.555	95.38
407.778	87.38
408.002	93.38
408.226	85.38
408.449	90.38
408.673	93.38
408.896	90.38
409.12	88.38
409.344	105.38
409.567	94.38
409.791	88.38
410.014	99.38
410.238	106.38
410.461	97.38
410.685	100.38
410.908	96.38
411.132	113.38
411.355	106.38
411.578	79.38
411.802	91.38
412.025	93.38
412.249	88.38
412.472	96.38
412.695	93.38
412.919	102.38
413.142	95.38
413.365	87.38
413.589	79.38
413.812	98.38
414.035	99.38
414.258	97.38
414.482	91.38
414.705	108.38
414.928	82.38
415.151	87.38
415.374	90.38
415.597	84.38
415.821	91.38
416.044	91.38
416.267	93.38
416.49	86.38
416.713	79.38
416.936	88.38
417.159	87.38
417.382	95.38
417.605	93.38
417.828	99.38
418.051	88.38
418.274	90.38
418.497	83.38
418.72	85.38
418.943	86.38
419.166	83.38
419.389	100.38
419.611	88.38
419.834	88.38
420.057	88.38
420.28	93.38
420.503	98.38
420.726	84.38
420.948	84.38
421.171	87.38
421.394	99.38
421.617	91.38
421.839	93.38
422.062	102.38
422.285	93.38
422.507	93.38
422.73	97.38
422.953	99.38
423.175	88.38
423.398	82.38
423.621	89.38
423.843	84.38
424.066	77.38
424.288	88.38
424.511	83.38
424.733	84.38
424.956	96.38
425.178	109.38
425.401	84.38
425.623	109.38
425.846	99.38
426.068	90.38
426.291	83.38
426.513	89.38
426.735	97.38
426.958	104.38
427.18	96.38
427.402	138.38
427.625	157.38
427.847	144.38
428.069	97.38
428.292	87.38
428.514	92.38
428.736	73.38
428.958	75.38
429.181	86.38
429.403	88.38
429.625	88.38
429.847	98.38
430.069	92.38
430.292	91.38
430.514	90.38
430.736	80.38
430.958	93.38
431.18	96.38
431.402	90.38
431.624	97.38
431.846	93.38
432.068	89.38
432.29	93.38
432.512	87.38
432.734	81.38
432.956	97.38
433.178	101.38
433.4	95.38
433.622	107.38
433.844	100.38
434.066	97.38
434.287	91.38
434.509	92.38
434.731	84.38
434.953	88.38
435.175	97.38
435.397	92.38
435.618	97.38
435.84	109.38
436.062	117.38
436.284	95.38
436.505	107.38
436.727	109.38
436.949	82.38
437.17	98.38
437.392	89.38
437.614	96.38
437.835	111.38
438.057	107.38
438.278	102.38
438.5	87.38
438.721	114.38
438.943	103.38
439.165	81.38
439.386	104.38
439.608	84.38
439.829	95.38
440.05	112.38
440.272	129.38
440.493	112.38
440.715	95.38
440.936	73.38
441.158	79.38
441.379	85.38
441.6	91.38
441.822	101.38
442.043	102.38
442.264	100.38
442.486	99.38
442.707	85.38
442.928	91.38
443.149	124.38
443.371	131.38
443.592	112.38
443.813	114.38
444.034	105.38
444.255	87.38
444.476	89.38
444.698	90.38
444.919	101.38
445.14	130.38
445.361	121.38
445.582	121.38
445.803	134.38
446.024	143.38
446.245	133.38
446.466	114.38
446.687	91.38
446.908	96.38
447.129	95.38
447.35	92.38
447.571	88.38
447.792	80.38
448.013	94.38
448.234	96.38
448.455	89.38
448.675	102.38
448.896	119.38
449.117	99.38
449.338	110.38
449.559	120.38
449.779	122.38
450	98.38
450.221	84.38
450.442	95.38
450.662	101.38
450.883	101.38
451.104	95.38
451.324	92.38
451.545	90.38
451.766	79.38
451.986	83.38
452.207	100.38
452.428	91.38
452.648	110.38
452.869	111.38
453.089	111.38
453.31	123.38
453.53	107.38
453.751	91.38
453.971	91.38
454.192	106.38
454.412	84.38
454.633	87.38
454.853	78.38
455.073	100.38
455.294	88.38
455.514	108.38
455.734	90.38
455.955	84.38
456.175	94.38
456.395	100.38
456.616	96.38
456.836	82.38
457.056	79.38
457.276	83.38
457.497	82.38
457.717	93.38
457.937	83.38
458.157	89.38
458.377	96.38
458.598	105.38
458.818	140.38
459.038	143.38
459.258	105.38
459.478	92.38
459.698	96.38
459.918	76.38
460.138	93.38
460.358	85.38
460.578	92.38
460.798	76.38
461.018	87.38
461.238	75.38
461.458	100.38
461.678	85.38
461.898	84.38
462.118	101.38
462.338	88.38
462.558	99.38
462.777	88.38
462.997	101.38
463.217	79.38
463.437	91.38
463.657	83.38
463.876	84.38
464.096	103.38
464.316	113.38
464.536	98.38
464.755	83.38
464.975	96.38
465.195	152.38
465.414	153.38
465.634	101.38
465.854	92.38
466.073	83.38
466.293	107.38
466.512	99.38
466.732	85.38
466.951	89.38
467.171	94.38
467.391	101.38
467.61	101.38
467.829	75.38
468.049	76.38
468.268	109.38
468.488	100.38
468.707	81.38
468.927	92.38
469.146	83.38
469.365	97.38
469.585	94.38
469.804	108.38
470.023	99.38
470.243	92.38
470.462	99.38
470.681	105.38
470.901	82.38
471.12	91.38
471.339	80.38
471.558	98.38
471.777	105.38
471.997	94.38
472.216	118.38
472.435	135.38
472.654	103.38
472.873	106.38
473.092	78.38
473.311	83.38
473.53	85.38
473.749	104.38
473.968	90.38
474.187	103.38
474.406	117.38
474.625	80.38
474.844	88.38
475.063	95.38
475.282	94.38
475.501	82.38
475.72	82.38
475.939	75.38
476.158	88.38
476.377	83.38
476.596	77.38
476.814	96.38
477.033	89.38
477.252	95.38
477.471	83.38
477.69	91.38
477.908	93.38
478.127	75.38
478.346	85.38
478.564	90.38
478.783	91.38
479.002	97.38
479.22	86.38
479.439	93.38
479.658	110.38
479.876	97.38
480.095	91.38
480.313	92.38
480.532	105.38
480.751	92.38
480.969	117.38
481.188	174.38
481.406	127.38
481.624	109.38
481.843	83.38
482.061	75.38
482.28	92.38
482.498	97.38
482.717	102.38
482.935	101.38
483.153	99.38
483.372	83.38
483.59	87.38
483.808	101.38
484.027	73.38
484.245	105.38
484.463	91.38
484.681	95.38
484.9	95.38
485.118	105.38
485.336	90.38
485.554	97.38
485.772	103.38
485.99	106.38
486.209	119.38
486.427	107.38
486.645	106.38
486.863	99.38
487.081	102.38
487.299	97.38
487.517	90.38
487.735	92.38
487.953	95.38
488.171	97.38
488.389	100.38
488.607	104.38
488.825	107.38
489.043	93.38
489.261	84.38
489.479	87.38
489.696	89.38
489.914	97.38
490.132	88.38
490.35	94.38
490.568	97.38
490.786	83.38
491.003	90.38
491.221	84.38
491.439	76.38
491.657	98.38
491.874	105.38
492.092	109.38
492.31	107.38
492.527	98.38
492.745	94.38
492.963	95.38
493.18	79.38
493.398	88.38
493.615	91.38
493.833	87.38
494.05	99.38
494.268	102.38
494.485	93.38
494.703	95.38
494.92	87.38
495.138	90.38
495.355	89.38
495.573	88.38
495.79	102.38
496.008	89.38
496.225	85.38
496.442	86.38
496.66	103.38
496.877	98.38
497.094	95.38
497.312	73.38
497.529	85.38
497.746	97.38
497.963	103.38
498.181	90.38
498.398	95.38
498.615	104.38
498.832	97.38
499.049	106.38
499.267	92.38
499.484	96.38
499.701	85.38
499.918	105.38
500.135	92.38
500.352	91.38
500.569	90.38
500.786	83.38
501.003	83.38
501.22	91.38
501.437	96.38
501.654	104.38
501.871	110.38
502.088	111.38
502.305	92.38
502.522	95.38
502.739	85.38
502.956	99.38
503.172	86.38
503.389	83.38
503.606	106.38
503.823	107.38
504.04	86.38
504.256	91.38
504.473	104.38
504.69	90.38
504.907	93.38
505.123	93.38
505.34	95.38
505.557	105.38
505.773	89.38
505.99	88.38
506.207	95.38
506.423	80.38
506.64	81.38
506.856	95.38
507.073	101.38
507.289	97.38
507.506	98.38
507.722	110.38
507.939	107.38
508.155	99.38
508.372	93.38
508.588	93.38
508.805	104.38
509.021	102.38
509.238	107.38
509.454	103.38
509.67	111.38
509.887	108.38
510.103	135.38
510.319	230.38
510.536	763.38
510.752	2520.38
510.968	699.38
511.184	169.38
511.401	111.38
511.617	90.38
511.833	93.38
512.049	82.38
512.265	92.38
512.481	93.38
512.698	90.38
512.914	97.38
513.13	100.38
513.346	84.38
513.562	94.38
513.778	109.38
513.994	104.38
514.21	115.38
514.426	120.38
514.642	121.38
514.858	120.38
