Data from Circ_2003_H10_HRD10591_00006.txt Node
Date: Wed Jan 03 10:37:03 EST 2024
User: Yrep
Spectrometer: HR+D1059
Trigger mode: 1
Integration Time (sec): 1.000000E-1
Scans to average: 1
Electric dark correction enabled: true
Nonlinearity correction enabled: false
Boxcar width: 0
XAxis mode: Wavelengths
Number of Pixels in Spectrum: 2048
>>>>>Begin Spectral Data<<<<<
223.165	-16.75
223.4	-16.75
223.635	-16.75
223.869	-26.75
224.104	-11.75
224.338	-16.75
224.573	3.25
224.808	-4.75
225.042	-5.75
225.277	-5.75
225.511	7.25
225.746	-0.75
225.98	3.25
226.215	11.25
226.449	3.25
226.683	17.25
226.918	6.25
227.152	37.25
227.387	32.25
227.621	52.25
227.856	43.25
228.09	36.25
228.324	58.25
228.559	57.25
228.793	53.25
229.027	45.25
229.262	70.25
229.496	63.25
229.73	79.25
229.964	89.25
230.199	64.25
230.433	65.25
230.667	74.25
230.901	83.25
231.136	80.25
231.37	90.25
231.604	74.25
231.838	72.25
232.072	83.25
232.306	85.25
232.541	73.25
232.775	72.25
233.009	72.25
233.243	93.25
233.477	84.25
233.711	72.25
233.945	81.25
234.179	90.25
234.413	79.25
234.647	75.25
234.881	67.25
235.115	73.25
235.349	70.25
235.583	70.25
235.817	83.25
236.051	81.25
236.285	64.25
236.519	75.25
236.753	86.25
236.987	61.25
237.221	85.25
237.455	93.25
237.689	85.25
237.922	68.25
238.156	73.25
238.39	71.25
238.624	70.25
238.858	74.25
239.091	76.25
239.325	77.25
239.559	63.25
239.793	84.25
240.027	96.25
240.26	75.25
240.494	83.25
240.728	94.25
240.961	85.25
241.195	76.25
241.429	75.25
241.662	74.25
241.896	78.25
242.13	78.25
242.363	86.25
242.597	85.25
242.83	80.25
243.064	70.25
243.298	75.25
243.531	66.25
243.765	73.25
243.998	78.25
244.232	85.25
244.465	88.25
244.699	72.25
244.932	70.25
245.166	74.25
245.399	71.25
245.633	81.25
245.866	72.25
246.099	86.25
246.333	83.25
246.566	78.25
246.8	81.25
247.033	66.25
247.266	71.25
247.5	63.25
247.733	62.25
247.966	80.25
248.2	80.25
248.433	82.25
248.666	83.25
248.899	79.25
249.133	93.25
249.366	88.25
249.599	79.25
249.832	98.25
250.066	62.25
250.299	73.25
250.532	77.25
250.765	68.25
250.998	79.25
251.231	75.25
251.465	93.25
251.698	78.25
251.931	82.25
252.164	74.25
252.397	87.25
252.63	76.25
252.863	74.25
253.096	77.25
253.329	90.25
253.562	85.25
253.795	65.25
254.028	85.25
254.261	81.25
254.494	85.25
254.727	82.25
254.96	79.25
255.193	63.25
255.426	82.25
255.659	87.25
255.892	78.25
256.124	78.25
256.357	77.25
256.59	80.25
256.823	69.25
257.056	89.25
257.289	79.25
257.521	85.25
257.754	67.25
257.987	71.25
258.22	68.25
258.452	79.25
258.685	84.25
258.918	88.25
259.151	78.25
259.383	85.25
259.616	81.25
259.849	89.25
260.081	84.25
260.314	91.25
260.547	75.25
260.779	88.25
261.012	80.25
261.244	79.25
261.477	88.25
261.71	74.25
261.942	98.25
262.175	107.25
262.407	70.25
262.64	93.25
262.872	78.25
263.105	71.25
263.337	89.25
263.57	79.25
263.802	81.25
264.035	74.25
264.267	83.25
264.499	74.25
264.732	90.25
264.964	89.25
265.197	68.25
265.429	75.25
265.661	82.25
265.894	89.25
266.126	98.25
266.358	81.25
266.591	73.25
266.823	72.25
267.055	75.25
267.287	82.25
267.52	75.25
267.752	91.25
267.984	87.25
268.216	86.25
268.448	88.25
268.681	80.25
268.913	75.25
269.145	81.25
269.377	83.25
269.609	90.25
269.841	82.25
270.073	87.25
270.306	86.25
270.538	101.25
270.77	78.25
271.002	94.25
271.234	94.25
271.466	92.25
271.698	73.25
271.93	95.25
272.162	80.25
272.394	81.25
272.626	83.25
272.858	87.25
273.09	78.25
273.322	93.25
273.553	83.25
273.785	86.25
274.017	93.25
274.249	101.25
274.481	81.25
274.713	74.25
274.945	80.25
275.176	85.25
275.408	99.25
275.64	87.25
275.872	77.25
276.104	84.25
276.335	81.25
276.567	77.25
276.799	94.25
277.031	101.25
277.262	84.25
277.494	81.25
277.726	71.25
277.957	87.25
278.189	86.25
278.421	89.25
278.652	95.25
278.884	81.25
279.115	78.25
279.347	97.25
279.579	95.25
279.81	77.25
280.042	101.25
280.273	83.25
280.505	90.25
280.736	82.25
280.968	89.25
281.199	80.25
281.431	67.25
281.662	73.25
281.894	89.25
282.125	89.25
282.356	110.25
282.588	110.25
282.819	108.25
283.051	91.25
283.282	93.25
283.513	91.25
283.745	89.25
283.976	89.25
284.207	80.25
284.439	93.25
284.67	99.25
284.901	86.25
285.132	94.25
285.364	90.25
285.595	77.25
285.826	87.25
286.057	94.25
286.288	88.25
286.52	74.25
286.751	92.25
286.982	81.25
287.213	77.25
287.444	93.25
287.675	90.25
287.906	79.25
288.138	80.25
288.369	87.25
288.6	95.25
288.831	81.25
289.062	94.25
289.293	97.25
289.524	65.25
289.755	80.25
289.986	75.25
290.217	94.25
290.448	79.25
290.679	70.25
290.91	83.25
291.141	90.25
291.371	80.25
291.602	90.25
291.833	84.25
292.064	77.25
292.295	91.25
292.526	99.25
292.757	89.25
292.987	84.25
293.218	90.25
293.449	87.25
293.68	82.25
293.91	77.25
294.141	91.25
294.372	86.25
294.603	92.25
294.833	104.25
295.064	87.25
295.295	85.25
295.525	85.25
295.756	94.25
295.987	109.25
296.217	117.25
296.448	118.25
296.679	84.25
296.909	73.25
297.14	86.25
297.37	98.25
297.601	73.25
297.831	77.25
298.062	88.25
298.292	88.25
298.523	81.25
298.753	95.25
298.984	84.25
299.214	96.25
299.445	85.25
299.675	81.25
299.905	101.25
300.136	93.25
300.366	85.25
300.597	89.25
300.827	78.25
301.057	104.25
301.288	106.25
301.518	84.25
301.748	86.25
301.979	103.25
302.209	94.25
302.439	103.25
302.669	79.25
302.9	86.25
303.13	86.25
303.36	78.25
303.59	94.25
303.82	106.25
304.051	87.25
304.281	97.25
304.511	95.25
304.741	80.25
304.971	91.25
305.201	89.25
305.431	81.25
305.661	88.25
305.891	85.25
306.121	96.25
306.352	94.25
306.582	98.25
306.812	107.25
307.042	90.25
307.272	86.25
307.502	72.25
307.731	111.25
307.961	75.25
308.191	88.25
308.421	81.25
308.651	104.25
308.881	86.25
309.111	87.25
309.341	89.25
309.571	83.25
309.8	88.25
310.03	101.25
310.26	89.25
310.49	89.25
310.72	103.25
310.949	93.25
311.179	104.25
311.409	104.25
311.639	99.25
311.868	83.25
312.098	90.25
312.328	103.25
312.557	94.25
312.787	108.25
313.017	108.25
313.246	87.25
313.476	81.25
313.706	92.25
313.935	92.25
314.165	94.25
314.394	91.25
314.624	89.25
314.853	83.25
315.083	81.25
315.312	75.25
315.542	84.25
315.771	75.25
316.001	93.25
316.23	69.25
316.46	89.25
316.689	90.25
316.919	82.25
317.148	91.25
317.377	77.25
317.607	89.25
317.836	85.25
318.065	98.25
318.295	88.25
318.524	74.25
318.753	91.25
318.983	87.25
319.212	84.25
319.441	107.25
319.67	97.25
319.9	96.25
320.129	100.25
320.358	95.25
320.587	94.25
320.816	81.25
321.046	100.25
321.275	105.25
321.504	95.25
321.733	92.25
321.962	95.25
322.191	100.25
322.42	107.25
322.649	116.25
322.878	109.25
323.108	110.25
323.337	115.25
323.566	121.25
323.795	137.25
324.024	198.25
324.253	349.25
324.482	717.25
324.71	1439.25
324.939	1935.25
325.168	709.25
325.397	226.25
325.626	135.25
325.855	125.25
326.084	134.25
326.313	114.25
326.542	147.25
326.77	198.25
326.999	393.25
327.228	815.25
327.457	1494.25
327.686	1201.25
327.914	327.25
328.143	161.25
328.372	150.25
328.6	109.25
328.829	105.25
329.058	110.25
329.287	125.25
329.515	91.25
329.744	101.25
329.972	93.25
330.201	93.25
330.43	103.25
330.658	112.25
330.887	135.25
331.115	127.25
331.344	80.25
331.572	86.25
331.801	96.25
332.03	95.25
332.258	103.25
332.486	97.25
332.715	104.25
332.943	94.25
333.172	87.25
333.4	92.25
333.629	99.25
333.857	100.25
334.085	94.25
334.314	88.25
334.542	100.25
334.771	96.25
334.999	90.25
335.227	89.25
335.455	99.25
335.684	101.25
335.912	109.25
336.14	97.25
336.369	94.25
336.597	105.25
336.825	84.25
337.053	85.25
337.281	87.25
337.51	105.25
337.738	91.25
337.966	98.25
338.194	99.25
338.422	93.25
338.65	89.25
338.878	94.25
339.106	90.25
339.334	88.25
339.562	105.25
339.79	89.25
340.018	100.25
340.246	79.25
340.474	88.25
340.702	101.25
340.93	94.25
341.158	87.25
341.386	108.25
341.614	89.25
341.842	99.25
342.07	93.25
342.298	99.25
342.526	85.25
342.754	90.25
342.981	88.25
343.209	85.25
343.437	97.25
343.665	91.25
343.893	82.25
344.12	89.25
344.348	95.25
344.576	85.25
344.804	93.25
345.031	102.25
345.259	99.25
345.487	106.25
345.714	95.25
345.942	87.25
346.17	69.25
346.397	104.25
346.625	94.25
346.853	85.25
347.08	86.25
347.308	95.25
347.535	97.25
347.763	102.25
347.99	87.25
348.218	98.25
348.445	98.25
348.673	87.25
348.9	93.25
349.128	92.25
349.355	78.25
349.583	85.25
349.81	89.25
350.037	92.25
350.265	94.25
350.492	94.25
350.72	97.25
350.947	89.25
351.174	107.25
351.402	88.25
351.629	99.25
351.856	77.25
352.083	96.25
352.311	95.25
352.538	90.25
352.765	101.25
352.992	114.25
353.22	101.25
353.447	106.25
353.674	99.25
353.901	109.25
354.128	109.25
354.355	114.25
354.583	101.25
354.81	97.25
355.037	98.25
355.264	109.25
355.491	102.25
355.718	93.25
355.945	96.25
356.172	104.25
356.399	103.25
356.626	95.25
356.853	86.25
357.08	98.25
357.307	102.25
357.534	90.25
357.761	97.25
357.988	96.25
358.215	98.25
358.441	104.25
358.668	97.25
358.895	103.25
359.122	95.25
359.349	95.25
359.576	91.25
359.802	81.25
360.029	109.25
360.256	110.25
360.483	97.25
360.709	88.25
360.936	86.25
361.163	81.25
361.39	101.25
361.616	93.25
361.843	98.25
362.07	97.25
362.296	98.25
362.523	85.25
362.749	81.25
362.976	85.25
363.203	81.25
363.429	80.25
363.656	107.25
363.882	91.25
364.109	87.25
364.335	93.25
364.562	78.25
364.788	85.25
365.015	91.25
365.241	99.25
365.468	92.25
365.694	106.25
365.92	91.25
366.147	87.25
366.373	76.25
366.599	91.25
366.826	81.25
367.052	97.25
367.278	77.25
367.505	89.25
367.731	87.25
367.957	81.25
368.184	89.25
368.41	89.25
368.636	107.25
368.862	102.25
369.089	93.25
369.315	93.25
369.541	99.25
369.767	90.25
369.993	90.25
370.219	88.25
370.445	81.25
370.672	92.25
370.898	91.25
371.124	95.25
371.35	95.25
371.576	83.25
371.802	96.25
372.028	78.25
372.254	87.25
372.48	79.25
372.706	88.25
372.932	77.25
373.158	81.25
373.384	88.25
373.61	105.25
373.835	82.25
374.061	86.25
374.287	92.25
374.513	85.25
374.739	83.25
374.965	98.25
375.191	85.25
375.416	97.25
375.642	97.25
375.868	109.25
376.094	89.25
376.319	98.25
376.545	98.25
376.771	99.25
376.997	103.25
377.222	91.25
377.448	98.25
377.674	105.25
377.899	112.25
378.125	92.25
378.35	104.25
378.576	89.25
378.802	95.25
379.027	85.25
379.253	104.25
379.478	106.25
379.704	102.25
379.929	107.25
380.155	101.25
380.38	102.25
380.606	106.25
380.831	105.25
381.057	116.25
381.282	116.25
381.507	110.25
381.733	105.25
381.958	92.25
382.184	118.25
382.409	121.25
382.634	118.25
382.86	106.25
383.085	116.25
383.31	109.25
383.535	119.25
383.761	121.25
383.986	96.25
384.211	114.25
384.436	121.25
384.662	126.25
384.887	135.25
385.112	137.25
385.337	145.25
385.562	133.25
385.787	127.25
386.013	137.25
386.238	127.25
386.463	133.25
386.688	129.25
386.913	126.25
387.138	122.25
387.363	129.25
387.588	107.25
387.813	114.25
388.038	134.25
388.263	155.25
388.488	143.25
388.713	112.25
388.938	97.25
389.163	115.25
389.387	114.25
389.612	99.25
389.837	85.25
390.062	104.25
390.287	86.25
390.512	103.25
390.736	100.25
390.961	101.25
391.186	95.25
391.411	100.25
391.636	101.25
391.86	77.25
392.085	86.25
392.31	96.25
392.534	87.25
392.759	86.25
392.984	86.25
393.208	99.25
393.433	127.25
393.658	91.25
393.882	91.25
394.107	79.25
394.331	85.25
394.556	86.25
394.78	84.25
395.005	110.25
395.229	93.25
395.454	88.25
395.678	82.25
395.903	96.25
396.127	87.25
396.352	97.25
396.576	90.25
396.801	95.25
397.025	90.25
397.249	90.25
397.474	96.25
397.698	93.25
397.922	67.25
398.147	104.25
398.371	85.25
398.595	91.25
398.82	78.25
399.044	90.25
399.268	70.25
399.492	89.25
399.717	72.25
399.941	78.25
400.165	99.25
400.389	85.25
400.613	94.25
400.837	80.25
401.062	93.25
401.286	86.25
401.51	88.25
401.734	93.25
401.958	100.25
402.182	116.25
402.406	145.25
402.63	120.25
402.854	104.25
403.078	97.25
403.302	91.25
403.526	91.25
403.75	83.25
403.974	81.25
404.198	77.25
404.422	81.25
404.645	79.25
404.869	86.25
405.093	100.25
405.317	105.25
405.541	91.25
405.765	95.25
405.988	107.25
406.212	157.25
406.436	200.25
406.66	121.25
406.883	118.25
407.107	102.25
407.331	96.25
407.555	111.25
407.778	102.25
408.002	80.25
408.226	88.25
408.449	84.25
408.673	93.25
408.896	89.25
409.12	101.25
409.344	92.25
409.567	98.25
409.791	88.25
410.014	94.25
410.238	104.25
410.461	106.25
410.685	91.25
410.908	94.25
411.132	93.25
411.355	92.25
411.578	74.25
411.802	67.25
412.025	93.25
412.249	101.25
412.472	90.25
412.695	90.25
412.919	90.25
413.142	91.25
413.365	95.25
413.589	98.25
413.812	94.25
414.035	87.25
414.258	98.25
414.482	80.25
414.705	98.25
414.928	85.25
415.151	104.25
415.374	100.25
415.597	78.25
415.821	97.25
416.044	81.25
416.267	85.25
416.49	75.25
416.713	98.25
416.936	87.25
417.159	86.25
417.382	86.25
417.605	80.25
417.828	86.25
418.051	87.25
418.274	87.25
418.497	93.25
418.72	90.25
418.943	88.25
419.166	81.25
419.389	101.25
419.611	82.25
419.834	87.25
420.057	84.25
420.28	103.25
420.503	90.25
420.726	95.25
420.948	93.25
421.171	84.25
421.394	79.25
421.617	90.25
421.839	100.25
422.062	81.25
422.285	99.25
422.507	106.25
422.73	106.25
422.953	97.25
423.175	100.25
423.398	86.25
423.621	93.25
423.843	83.25
424.066	91.25
424.288	88.25
424.511	97.25
424.733	100.25
424.956	102.25
425.178	87.25
425.401	88.25
425.623	97.25
425.846	101.25
426.068	94.25
426.291	90.25
426.513	94.25
426.735	98.25
426.958	91.25
427.18	98.25
427.402	120.25
427.625	130.25
427.847	112.25
428.069	89.25
428.292	93.25
428.514	89.25
428.736	80.25
428.958	87.25
429.181	85.25
429.403	94.25
429.625	95.25
429.847	76.25
430.069	99.25
430.292	85.25
430.514	66.25
430.736	91.25
430.958	91.25
431.18	85.25
431.402	92.25
431.624	87.25
431.846	82.25
432.068	85.25
432.29	88.25
432.512	76.25
432.734	85.25
432.956	106.25
433.178	93.25
433.4	90.25
433.622	96.25
433.844	84.25
434.066	91.25
434.287	84.25
434.509	89.25
434.731	85.25
434.953	93.25
435.175	89.25
435.397	84.25
435.618	106.25
435.84	99.25
436.062	106.25
436.284	111.25
436.505	100.25
436.727	89.25
436.949	78.25
437.17	91.25
437.392	84.25
437.614	89.25
437.835	111.25
438.057	116.25
438.278	98.25
438.5	100.25
438.721	109.25
438.943	96.25
439.165	93.25
439.386	81.25
439.608	77.25
439.829	96.25
440.05	109.25
440.272	127.25
440.493	112.25
440.715	91.25
440.936	89.25
441.158	83.25
441.379	90.25
441.6	98.25
441.822	107.25
442.043	95.25
442.264	97.25
442.486	103.25
442.707	89.25
442.928	96.25
443.149	113.25
443.371	121.25
443.592	100.25
443.813	103.25
444.034	113.25
444.255	87.25
444.476	86.25
444.698	89.25
444.919	86.25
445.14	117.25
445.361	116.25
445.582	114.25
445.803	121.25
446.024	114.25
446.245	112.25
446.466	94.25
446.687	82.25
446.908	95.25
447.129	102.25
447.35	89.25
447.571	93.25
447.792	87.25
448.013	89.25
448.234	94.25
448.455	99.25
448.675	105.25
448.896	110.25
449.117	100.25
449.338	101.25
449.559	109.25
449.779	114.25
450	89.25
450.221	76.25
450.442	81.25
450.662	105.25
450.883	89.25
451.104	110.25
451.324	99.25
451.545	94.25
451.766	95.25
451.986	97.25
452.207	85.25
452.428	98.25
452.648	95.25
452.869	115.25
453.089	111.25
453.31	106.25
453.53	89.25
453.751	94.25
453.971	102.25
454.192	106.25
454.412	84.25
454.633	83.25
454.853	76.25
455.073	84.25
455.294	81.25
455.514	95.25
455.734	80.25
455.955	67.25
456.175	85.25
456.395	93.25
456.616	94.25
456.836	86.25
457.056	94.25
457.276	100.25
457.497	89.25
457.717	71.25
457.937	87.25
458.157	79.25
458.377	91.25
458.598	107.25
458.818	137.25
459.038	134.25
459.258	90.25
459.478	83.25
459.698	79.25
459.918	95.25
460.138	86.25
460.358	87.25
460.578	88.25
460.798	85.25
461.018	76.25
461.238	85.25
461.458	82.25
461.678	86.25
461.898	85.25
462.118	84.25
462.338	83.25
462.558	82.25
462.777	100.25
462.997	74.25
463.217	84.25
463.437	79.25
463.657	83.25
463.876	86.25
464.096	94.25
464.316	85.25
464.536	90.25
464.755	89.25
464.975	98.25
465.195	129.25
465.414	125.25
465.634	105.25
465.854	82.25
466.073	104.25
466.293	76.25
466.512	90.25
466.732	90.25
466.951	101.25
467.171	92.25
467.391	76.25
467.61	97.25
467.829	97.25
468.049	96.25
468.268	95.25
468.488	83.25
468.707	98.25
468.927	87.25
469.146	98.25
469.365	85.25
469.585	89.25
469.804	98.25
470.023	105.25
470.243	93.25
470.462	98.25
470.681	107.25
470.901	96.25
471.12	73.25
471.339	82.25
471.558	74.25
471.777	91.25
471.997	95.25
472.216	73.25
472.435	86.25
472.654	75.25
472.873	83.25
473.092	84.25
473.311	77.25
473.53	88.25
473.749	76.25
473.968	83.25
474.187	111.25
474.406	102.25
474.625	74.25
474.844	84.25
475.063	70.25
475.282	72.25
475.501	73.25
475.72	92.25
475.939	86.25
476.158	96.25
476.377	89.25
476.596	97.25
476.814	89.25
477.033	95.25
477.252	92.25
477.471	85.25
477.69	84.25
477.908	87.25
478.127	94.25
478.346	83.25
478.564	79.25
478.783	82.25
479.002	91.25
479.22	81.25
479.439	101.25
479.658	95.25
479.876	83.25
480.095	101.25
480.313	90.25
480.532	89.25
480.751	91.25
480.969	86.25
481.188	86.25
481.406	90.25
481.624	79.25
481.843	86.25
482.061	92.25
482.28	89.25
482.498	101.25
482.717	88.25
482.935	93.25
483.153	91.25
483.372	85.25
483.59	97.25
483.808	79.25
484.027	91.25
484.245	100.25
484.463	84.25
484.681	87.25
484.9	100.25
485.118	98.25
485.336	88.25
485.554	96.25
485.772	94.25
485.99	106.25
486.209	105.25
486.427	89.25
486.645	118.25
486.863	114.25
487.081	104.25
487.299	105.25
487.517	92.25
487.735	100.25
487.953	87.25
488.171	98.25
488.389	95.25
488.607	93.25
488.825	80.25
489.043	77.25
489.261	87.25
489.479	91.25
489.696	93.25
489.914	89.25
490.132	105.25
490.35	87.25
490.568	69.25
490.786	91.25
491.003	88.25
491.221	90.25
491.439	104.25
491.657	83.25
491.874	92.25
492.092	88.25
492.31	99.25
492.527	78.25
492.745	79.25
492.963	94.25
493.18	87.25
493.398	83.25
493.615	79.25
493.833	87.25
494.05	92.25
494.268	81.25
494.485	73.25
494.703	83.25
494.92	79.25
495.138	84.25
495.355	74.25
495.573	93.25
495.79	97.25
496.008	109.25
496.225	93.25
496.442	99.25
496.66	102.25
496.877	85.25
497.094	97.25
497.312	87.25
497.529	104.25
497.746	97.25
497.963	89.25
498.181	92.25
498.398	102.25
498.615	96.25
498.832	94.25
499.049	91.25
499.267	90.25
499.484	96.25
499.701	91.25
499.918	91.25
500.135	90.25
500.352	102.25
500.569	95.25
500.786	97.25
501.003	92.25
501.22	90.25
501.437	92.25
501.654	87.25
501.871	92.25
502.088	95.25
502.305	99.25
502.522	90.25
502.739	100.25
502.956	90.25
503.172	75.25
503.389	98.25
503.606	93.25
503.823	89.25
504.04	87.25
504.256	91.25
504.473	77.25
504.69	85.25
504.907	83.25
505.123	99.25
505.34	94.25
505.557	87.25
505.773	88.25
505.99	73.25
506.207	98.25
506.423	95.25
506.64	87.25
506.856	77.25
507.073	95.25
507.289	80.25
507.506	93.25
507.722	113.25
507.939	106.25
508.155	90.25
508.372	88.25
508.588	85.25
508.805	84.25
509.021	90.25
509.238	85.25
509.454	101.25
509.67	84.25
509.887	98.25
510.103	134.25
510.319	200.25
510.536	624.25
510.752	2035.25
510.968	595.25
511.184	131.25
511.401	99.25
511.617	95.25
511.833	101.25
512.049	99.25
512.265	88.25
512.481	79.25
512.698	88.25
512.914	87.25
513.13	89.25
513.346	83.25
513.562	94.25
513.778	103.25
513.994	116.25
514.21	91.25
514.426	116.25
514.642	119.25
514.858	104.25
515.074	152.25
515.29	365.25
515.506	1211.25
515.721	451.25
515.937	133.25
