Data from Circ_2003_H10_HRD10591_00066.txt Node
Date: Wed Jan 03 10:37:15 EST 2024
User: Yrep
Spectrometer: HR+D1059
Trigger mode: 1
Integration Time (sec): 1.000000E-1
Scans to average: 1
Electric dark correction enabled: true
Nonlinearity correction enabled: false
Boxcar width: 0
XAxis mode: Wavelengths
Number of Pixels in Spectrum: 2048
>>>>>Begin Spectral Data<<<<<
223.165	-16.94
223.4	-16.94
223.635	-16.94
223.869	-17.94
224.104	-29.94
224.338	-14.94
224.573	-2.94
224.808	-26.94
225.042	-14.94
225.277	7.06
225.511	8.06
225.746	3.06
225.98	13.06
226.215	6.06
226.449	5.06
226.683	14.06
226.918	32.06
227.152	36.06
227.387	39.06
227.621	24.06
227.856	41.06
228.09	46.06
228.324	39.06
228.559	57.06
228.793	64.06
229.027	71.06
229.262	48.06
229.496	65.06
229.73	79.06
229.964	62.06
230.199	69.06
230.433	83.06
230.667	91.06
230.901	93.06
231.136	86.06
231.37	85.06
231.604	73.06
231.838	82.06
232.072	75.06
232.306	89.06
232.541	91.06
232.775	76.06
233.009	71.06
233.243	88.06
233.477	86.06
233.711	91.06
233.945	78.06
234.179	86.06
234.413	80.06
234.647	83.06
234.881	90.06
235.115	85.06
235.349	84.06
235.583	89.06
235.817	88.06
236.051	88.06
236.285	87.06
236.519	86.06
236.753	86.06
236.987	79.06
237.221	88.06
237.455	92.06
237.689	72.06
237.922	73.06
238.156	76.06
238.39	79.06
238.624	92.06
238.858	82.06
239.091	77.06
239.325	82.06
239.559	83.06
239.793	68.06
240.027	64.06
240.26	84.06
240.494	77.06
240.728	57.06
240.961	97.06
241.195	82.06
241.429	87.06
241.662	81.06
241.896	80.06
242.13	65.06
242.363	65.06
242.597	72.06
242.83	80.06
243.064	74.06
243.298	99.06
243.531	83.06
243.765	86.06
243.998	61.06
244.232	81.06
244.465	86.06
244.699	86.06
244.932	82.06
245.166	82.06
245.399	88.06
245.633	85.06
245.866	72.06
246.099	64.06
246.333	78.06
246.566	96.06
246.8	84.06
247.033	71.06
247.266	76.06
247.5	85.06
247.733	78.06
247.966	85.06
248.2	85.06
248.433	84.06
248.666	73.06
248.899	76.06
249.133	90.06
249.366	102.06
249.599	103.06
249.832	77.06
250.066	85.06
250.299	74.06
250.532	93.06
250.765	86.06
250.998	87.06
251.231	71.06
251.465	91.06
251.698	80.06
251.931	91.06
252.164	72.06
252.397	86.06
252.63	94.06
252.863	77.06
253.096	78.06
253.329	77.06
253.562	76.06
253.795	84.06
254.028	90.06
254.261	87.06
254.494	87.06
254.727	87.06
254.96	74.06
255.193	99.06
255.426	84.06
255.659	83.06
255.892	84.06
256.124	89.06
256.357	73.06
256.59	94.06
256.823	99.06
257.056	81.06
257.289	89.06
257.521	76.06
257.754	85.06
257.987	69.06
258.22	79.06
258.452	72.06
258.685	78.06
258.918	76.06
259.151	90.06
259.383	94.06
259.616	95.06
259.849	76.06
260.081	84.06
260.314	84.06
260.547	92.06
260.779	75.06
261.012	89.06
261.244	86.06
261.477	102.06
261.71	97.06
261.942	116.06
262.175	117.06
262.407	91.06
262.64	74.06
262.872	86.06
263.105	90.06
263.337	80.06
263.57	99.06
263.802	88.06
264.035	82.06
264.267	76.06
264.499	77.06
264.732	97.06
264.964	93.06
265.197	85.06
265.429	93.06
265.661	85.06
265.894	96.06
266.126	87.06
266.358	86.06
266.591	84.06
266.823	96.06
267.055	83.06
267.287	82.06
267.52	92.06
267.752	69.06
267.984	82.06
268.216	79.06
268.448	82.06
268.681	84.06
268.913	81.06
269.145	91.06
269.377	99.06
269.609	90.06
269.841	76.06
270.073	85.06
270.306	94.06
270.538	88.06
270.77	64.06
271.002	93.06
271.234	93.06
271.466	91.06
271.698	94.06
271.93	89.06
272.162	94.06
272.394	90.06
272.626	90.06
272.858	93.06
273.09	103.06
273.322	91.06
273.553	103.06
273.785	99.06
274.017	81.06
274.249	82.06
274.481	98.06
274.713	84.06
274.945	83.06
275.176	86.06
275.408	109.06
275.64	83.06
275.872	83.06
276.104	86.06
276.335	96.06
276.567	105.06
276.799	110.06
277.031	91.06
277.262	114.06
277.494	86.06
277.726	102.06
277.957	91.06
278.189	80.06
278.421	84.06
278.652	95.06
278.884	92.06
279.115	92.06
279.347	84.06
279.579	89.06
279.81	73.06
280.042	86.06
280.273	95.06
280.505	74.06
280.736	71.06
280.968	91.06
281.199	94.06
281.431	88.06
281.662	89.06
281.894	107.06
282.125	98.06
282.356	111.06
282.588	130.06
282.819	95.06
283.051	90.06
283.282	82.06
283.513	83.06
283.745	100.06
283.976	85.06
284.207	81.06
284.439	86.06
284.67	104.06
284.901	94.06
285.132	85.06
285.364	92.06
285.595	89.06
285.826	83.06
286.057	86.06
286.288	90.06
286.52	89.06
286.751	77.06
286.982	100.06
287.213	70.06
287.444	90.06
287.675	79.06
287.906	88.06
288.138	77.06
288.369	91.06
288.6	91.06
288.831	80.06
289.062	84.06
289.293	97.06
289.524	98.06
289.755	86.06
289.986	83.06
290.217	87.06
290.448	81.06
290.679	76.06
290.91	99.06
291.141	101.06
291.371	93.06
291.602	80.06
291.833	72.06
292.064	86.06
292.295	99.06
292.526	77.06
292.757	96.06
292.987	96.06
293.218	86.06
293.449	99.06
293.68	94.06
293.91	95.06
294.141	93.06
294.372	88.06
294.603	78.06
294.833	101.06
295.064	88.06
295.295	89.06
295.525	96.06
295.756	102.06
295.987	112.06
296.217	140.06
296.448	132.06
296.679	89.06
296.909	87.06
297.14	89.06
297.37	97.06
297.601	88.06
297.831	98.06
298.062	90.06
298.292	105.06
298.523	89.06
298.753	93.06
298.984	85.06
299.214	85.06
299.445	91.06
299.675	92.06
299.905	102.06
300.136	85.06
300.366	80.06
300.597	90.06
300.827	93.06
301.057	90.06
301.288	105.06
301.518	97.06
301.748	94.06
301.979	102.06
302.209	101.06
302.439	87.06
302.669	99.06
302.9	81.06
303.13	90.06
303.36	101.06
303.59	101.06
303.82	104.06
304.051	93.06
304.281	90.06
304.511	84.06
304.741	94.06
304.971	99.06
305.201	107.06
305.431	91.06
305.661	94.06
305.891	94.06
306.121	111.06
306.352	102.06
306.582	89.06
306.812	101.06
307.042	110.06
307.272	96.06
307.502	108.06
307.731	97.06
307.961	98.06
308.191	98.06
308.421	98.06
308.651	98.06
308.881	98.06
309.111	102.06
309.341	101.06
309.571	113.06
309.8	88.06
310.03	101.06
310.26	105.06
310.49	103.06
310.72	102.06
310.949	98.06
311.179	112.06
311.409	101.06
311.639	98.06
311.868	102.06
312.098	93.06
312.328	84.06
312.557	101.06
312.787	109.06
313.017	106.06
313.246	104.06
313.476	111.06
313.706	90.06
313.935	94.06
314.165	100.06
314.394	112.06
314.624	93.06
314.853	90.06
315.083	100.06
315.312	91.06
315.542	86.06
315.771	89.06
316.001	94.06
316.23	98.06
316.46	85.06
316.689	89.06
316.919	95.06
317.148	105.06
317.377	86.06
317.607	97.06
317.836	96.06
318.065	105.06
318.295	114.06
318.524	91.06
318.753	90.06
318.983	105.06
319.212	92.06
319.441	110.06
319.67	115.06
319.9	99.06
320.129	77.06
320.358	91.06
320.587	95.06
320.816	104.06
321.046	98.06
321.275	102.06
321.504	100.06
321.733	97.06
321.962	101.06
322.191	97.06
322.42	106.06
322.649	100.06
322.878	100.06
323.108	113.06
323.337	128.06
323.566	132.06
323.795	160.06
324.024	190.06
324.253	344.06
324.482	756.06
324.71	1540.06
324.939	1978.06
325.168	751.06
325.397	220.06
325.626	158.06
325.855	126.06
326.084	128.06
326.313	115.06
326.542	164.06
326.77	233.06
326.999	449.06
327.228	846.06
327.457	1562.06
327.686	1230.06
327.914	342.06
328.143	195.06
328.372	160.06
328.6	135.06
328.829	106.06
329.058	107.06
329.287	126.06
329.515	125.06
329.744	120.06
329.972	109.06
330.201	139.06
330.43	165.06
330.658	131.06
330.887	131.06
331.115	115.06
331.344	97.06
331.572	101.06
331.801	103.06
332.03	101.06
332.258	85.06
332.486	105.06
332.715	95.06
332.943	86.06
333.172	104.06
333.4	93.06
333.629	95.06
333.857	107.06
334.085	111.06
334.314	135.06
334.542	170.06
334.771	164.06
334.999	106.06
335.227	109.06
335.455	90.06
335.684	98.06
335.912	102.06
336.14	92.06
336.369	101.06
336.597	105.06
336.825	91.06
337.053	105.06
337.281	90.06
337.51	86.06
337.738	97.06
337.966	110.06
338.194	101.06
338.422	112.06
338.65	93.06
338.878	95.06
339.106	95.06
339.334	95.06
339.562	94.06
339.79	93.06
340.018	85.06
340.246	81.06
340.474	89.06
340.702	96.06
340.93	89.06
341.158	86.06
341.386	108.06
341.614	93.06
341.842	93.06
342.07	84.06
342.298	94.06
342.526	88.06
342.754	84.06
342.981	82.06
343.209	87.06
343.437	102.06
343.665	98.06
343.893	101.06
344.12	99.06
344.348	80.06
344.576	87.06
344.804	79.06
345.031	88.06
345.259	96.06
345.487	106.06
345.714	104.06
345.942	92.06
346.17	104.06
346.397	100.06
346.625	88.06
346.853	89.06
347.08	89.06
347.308	98.06
347.535	104.06
347.763	93.06
347.99	100.06
348.218	102.06
348.445	105.06
348.673	95.06
348.9	98.06
349.128	90.06
349.355	106.06
349.583	96.06
349.81	93.06
350.037	102.06
350.265	99.06
350.492	84.06
350.72	99.06
350.947	112.06
351.174	112.06
351.402	105.06
351.629	101.06
351.856	99.06
352.083	107.06
352.311	99.06
352.538	96.06
352.765	113.06
352.992	106.06
353.22	121.06
353.447	100.06
353.674	105.06
353.901	88.06
354.128	87.06
354.355	110.06
354.583	98.06
354.81	110.06
355.037	99.06
355.264	93.06
355.491	89.06
355.718	93.06
355.945	85.06
356.172	88.06
356.399	109.06
356.626	88.06
356.853	89.06
357.08	92.06
357.307	92.06
357.534	93.06
357.761	86.06
357.988	96.06
358.215	86.06
358.441	91.06
358.668	89.06
358.895	101.06
359.122	101.06
359.349	90.06
359.576	94.06
359.802	102.06
360.029	91.06
360.256	94.06
360.483	89.06
360.709	100.06
360.936	97.06
361.163	106.06
361.39	97.06
361.616	109.06
361.843	101.06
362.07	83.06
362.296	97.06
362.523	88.06
362.749	92.06
362.976	88.06
363.203	105.06
363.429	81.06
363.656	90.06
363.882	98.06
364.109	90.06
364.335	101.06
364.562	81.06
364.788	92.06
365.015	107.06
365.241	102.06
365.468	108.06
365.694	99.06
365.92	90.06
366.147	91.06
366.373	85.06
366.599	87.06
366.826	92.06
367.052	94.06
367.278	94.06
367.505	103.06
367.731	81.06
367.957	87.06
368.184	97.06
368.41	100.06
368.636	122.06
368.862	102.06
369.089	98.06
369.315	114.06
369.541	88.06
369.767	120.06
369.993	102.06
370.219	109.06
370.445	101.06
370.672	87.06
370.898	95.06
371.124	86.06
371.35	88.06
371.576	88.06
371.802	85.06
372.028	92.06
372.254	85.06
372.48	84.06
372.706	87.06
372.932	89.06
373.158	101.06
373.384	98.06
373.61	93.06
373.835	97.06
374.061	90.06
374.287	95.06
374.513	96.06
374.739	84.06
374.965	82.06
375.191	94.06
375.416	98.06
375.642	100.06
375.868	87.06
376.094	85.06
376.319	97.06
376.545	94.06
376.771	84.06
376.997	96.06
377.222	87.06
377.448	89.06
377.674	92.06
377.899	90.06
378.125	92.06
378.35	91.06
378.576	95.06
378.802	90.06
379.027	85.06
379.253	92.06
379.478	93.06
379.704	87.06
379.929	94.06
380.155	104.06
380.38	84.06
380.606	88.06
380.831	92.06
381.057	109.06
381.282	116.06
381.507	104.06
381.733	106.06
381.958	84.06
382.184	106.06
382.409	116.06
382.634	121.06
382.86	104.06
383.085	106.06
383.31	95.06
383.535	105.06
383.761	99.06
383.986	102.06
384.211	107.06
384.436	101.06
384.662	87.06
384.887	101.06
385.112	109.06
385.337	99.06
385.562	104.06
385.787	104.06
386.013	121.06
386.238	109.06
386.463	110.06
386.688	122.06
386.913	116.06
387.138	104.06
387.363	92.06
387.588	110.06
387.813	99.06
388.038	101.06
388.263	103.06
388.488	117.06
388.713	105.06
388.938	89.06
389.163	104.06
389.387	93.06
389.612	91.06
389.837	92.06
390.062	99.06
390.287	90.06
390.512	109.06
390.736	105.06
390.961	100.06
391.186	84.06
391.411	93.06
391.636	88.06
391.86	83.06
392.085	83.06
392.31	92.06
392.534	74.06
392.759	99.06
392.984	93.06
393.208	94.06
393.433	93.06
393.658	93.06
393.882	81.06
394.107	80.06
394.331	103.06
394.556	97.06
394.78	92.06
395.005	84.06
395.229	78.06
395.454	100.06
395.678	90.06
395.903	88.06
396.127	99.06
396.352	89.06
396.576	93.06
396.801	85.06
397.025	79.06
397.249	82.06
397.474	88.06
397.698	104.06
397.922	95.06
398.147	90.06
398.371	82.06
398.595	98.06
398.82	93.06
399.044	86.06
399.268	90.06
399.492	88.06
399.717	99.06
399.941	91.06
400.165	108.06
400.389	101.06
400.613	82.06
400.837	88.06
401.062	70.06
401.286	83.06
401.51	93.06
401.734	96.06
401.958	112.06
402.182	119.06
402.406	139.06
402.63	103.06
402.854	90.06
403.078	90.06
403.302	93.06
403.526	83.06
403.75	86.06
403.974	85.06
404.198	91.06
404.422	83.06
404.645	94.06
404.869	98.06
405.093	88.06
405.317	92.06
405.541	83.06
405.765	102.06
405.988	100.06
406.212	146.06
406.436	210.06
406.66	149.06
406.883	101.06
407.107	89.06
407.331	98.06
407.555	104.06
407.778	96.06
408.002	101.06
408.226	90.06
408.449	100.06
408.673	84.06
408.896	107.06
409.12	106.06
409.344	88.06
409.567	103.06
409.791	102.06
410.014	100.06
410.238	95.06
410.461	79.06
410.685	93.06
410.908	89.06
411.132	101.06
411.355	94.06
411.578	105.06
411.802	105.06
412.025	90.06
412.249	92.06
412.472	94.06
412.695	101.06
412.919	86.06
413.142	97.06
413.365	91.06
413.589	92.06
413.812	83.06
414.035	88.06
414.258	95.06
414.482	93.06
414.705	89.06
414.928	97.06
415.151	95.06
415.374	95.06
415.597	93.06
415.821	96.06
416.044	98.06
416.267	102.06
416.49	94.06
416.713	91.06
416.936	92.06
417.159	92.06
417.382	77.06
417.605	93.06
417.828	100.06
418.051	102.06
418.274	101.06
418.497	101.06
418.72	87.06
418.943	92.06
419.166	110.06
419.389	91.06
419.611	88.06
419.834	93.06
420.057	103.06
420.28	83.06
420.503	88.06
420.726	96.06
420.948	75.06
421.171	93.06
421.394	89.06
421.617	91.06
421.839	85.06
422.062	96.06
422.285	94.06
422.507	84.06
422.73	111.06
422.953	99.06
423.175	87.06
423.398	79.06
423.621	86.06
423.843	83.06
424.066	88.06
424.288	90.06
424.511	94.06
424.733	93.06
424.956	104.06
425.178	96.06
425.401	101.06
425.623	90.06
425.846	93.06
426.068	96.06
426.291	93.06
426.513	96.06
426.735	93.06
426.958	89.06
427.18	95.06
427.402	114.06
427.625	140.06
427.847	128.06
428.069	123.06
428.292	108.06
428.514	103.06
428.736	100.06
428.958	92.06
429.181	81.06
429.403	88.06
429.625	100.06
429.847	90.06
430.069	101.06
430.292	98.06
430.514	92.06
430.736	102.06
430.958	80.06
431.18	70.06
431.402	84.06
431.624	101.06
431.846	85.06
432.068	92.06
432.29	83.06
432.512	89.06
432.734	95.06
432.956	84.06
433.178	96.06
433.4	102.06
433.622	92.06
433.844	70.06
434.066	97.06
434.287	83.06
434.509	90.06
434.731	98.06
434.953	80.06
435.175	99.06
435.397	91.06
435.618	105.06
435.84	100.06
436.062	118.06
436.284	106.06
436.505	87.06
436.727	94.06
436.949	104.06
437.17	90.06
437.392	84.06
437.614	92.06
437.835	100.06
438.057	113.06
438.278	103.06
438.5	108.06
438.721	104.06
438.943	104.06
439.165	87.06
439.386	91.06
439.608	97.06
439.829	98.06
440.05	119.06
440.272	122.06
440.493	105.06
440.715	93.06
440.936	94.06
441.158	100.06
441.379	102.06
441.6	93.06
441.822	95.06
442.043	104.06
442.264	93.06
442.486	100.06
442.707	98.06
442.928	104.06
443.149	124.06
443.371	121.06
443.592	115.06
443.813	109.06
444.034	104.06
444.255	86.06
444.476	97.06
444.698	88.06
444.919	74.06
445.14	130.06
445.361	116.06
445.582	110.06
445.803	115.06
446.024	121.06
446.245	121.06
446.466	103.06
446.687	90.06
446.908	82.06
447.129	105.06
447.35	88.06
447.571	89.06
447.792	82.06
448.013	90.06
448.234	97.06
448.455	100.06
448.675	118.06
448.896	110.06
449.117	109.06
449.338	95.06
449.559	111.06
449.779	114.06
450	92.06
450.221	99.06
450.442	98.06
450.662	105.06
450.883	94.06
451.104	128.06
451.324	84.06
451.545	90.06
451.766	84.06
451.986	88.06
452.207	82.06
452.428	93.06
452.648	97.06
452.869	91.06
453.089	99.06
453.31	107.06
453.53	94.06
453.751	94.06
453.971	91.06
454.192	108.06
454.412	85.06
454.633	99.06
454.853	84.06
455.073	78.06
455.294	91.06
455.514	100.06
455.734	96.06
455.955	94.06
456.175	85.06
456.395	96.06
456.616	83.06
456.836	94.06
457.056	86.06
457.276	88.06
457.497	95.06
457.717	87.06
457.937	98.06
458.157	87.06
458.377	86.06
458.598	108.06
458.818	123.06
459.038	149.06
459.258	120.06
459.478	99.06
459.698	81.06
459.918	87.06
460.138	75.06
460.358	85.06
460.578	103.06
460.798	86.06
461.018	87.06
461.238	91.06
461.458	97.06
461.678	85.06
461.898	97.06
462.118	80.06
462.338	84.06
462.558	81.06
462.777	90.06
462.997	78.06
463.217	78.06
463.437	84.06
463.657	78.06
463.876	101.06
464.096	81.06
464.316	102.06
464.536	82.06
464.755	101.06
464.975	104.06
465.195	137.06
465.414	137.06
465.634	108.06
465.854	88.06
466.073	80.06
466.293	78.06
466.512	84.06
466.732	83.06
466.951	90.06
467.171	100.06
467.391	89.06
467.61	111.06
467.829	102.06
468.049	99.06
468.268	120.06
468.488	94.06
468.707	83.06
468.927	78.06
469.146	99.06
469.365	98.06
469.585	89.06
469.804	94.06
470.023	87.06
470.243	87.06
470.462	101.06
470.681	112.06
470.901	89.06
471.12	102.06
471.339	87.06
471.558	98.06
471.777	85.06
471.997	104.06
472.216	138.06
472.435	205.06
472.654	112.06
472.873	86.06
473.092	97.06
473.311	84.06
473.53	96.06
473.749	91.06
473.968	103.06
474.187	91.06
474.406	92.06
474.625	85.06
474.844	92.06
475.063	97.06
475.282	93.06
475.501	93.06
475.72	86.06
475.939	83.06
476.158	78.06
476.377	82.06
476.596	104.06
476.814	87.06
477.033	92.06
477.252	96.06
477.471	93.06
477.69	101.06
477.908	114.06
478.127	99.06
478.346	98.06
478.564	77.06
478.783	94.06
479.002	105.06
479.22	91.06
479.439	96.06
479.658	102.06
479.876	101.06
480.095	82.06
480.313	96.06
480.532	97.06
480.751	106.06
480.969	150.06
481.188	304.06
481.406	201.06
481.624	116.06
481.843	90.06
482.061	97.06
482.28	95.06
482.498	93.06
482.717	89.06
482.935	89.06
483.153	93.06
483.372	106.06
483.59	92.06
483.808	82.06
484.027	90.06
484.245	84.06
484.463	98.06
484.681	109.06
484.9	99.06
485.118	92.06
485.336	92.06
485.554	98.06
485.772	88.06
485.99	113.06
486.209	115.06
486.427	106.06
486.645	102.06
486.863	113.06
487.081	90.06
487.299	104.06
487.517	106.06
487.735	100.06
487.953	93.06
488.171	94.06
488.389	93.06
488.607	108.06
488.825	85.06
489.043	81.06
489.261	93.06
489.479	84.06
489.696	92.06
489.914	84.06
490.132	90.06
490.35	97.06
490.568	87.06
490.786	86.06
491.003	99.06
491.221	82.06
491.439	92.06
491.657	91.06
491.874	81.06
492.092	83.06
492.31	89.06
492.527	98.06
492.745	90.06
492.963	94.06
493.18	95.06
493.398	85.06
493.615	103.06
493.833	100.06
494.05	90.06
494.268	89.06
494.485	100.06
494.703	90.06
494.92	90.06
495.138	90.06
495.355	94.06
495.573	100.06
495.79	100.06
496.008	87.06
496.225	100.06
496.442	83.06
496.66	81.06
496.877	88.06
497.094	79.06
497.312	81.06
497.529	98.06
497.746	89.06
497.963	101.06
498.181	93.06
498.398	91.06
498.615	105.06
498.832	99.06
499.049	100.06
499.267	100.06
499.484	88.06
499.701	93.06
499.918	101.06
500.135	90.06
500.352	88.06
500.569	96.06
500.786	89.06
501.003	87.06
501.22	99.06
501.437	94.06
501.654	105.06
501.871	109.06
502.088	104.06
502.305	98.06
502.522	98.06
502.739	89.06
502.956	90.06
503.172	92.06
503.389	90.06
503.606	91.06
503.823	115.06
504.04	99.06
504.256	91.06
504.473	94.06
504.69	91.06
504.907	84.06
505.123	89.06
505.34	96.06
505.557	91.06
505.773	91.06
505.99	86.06
506.207	98.06
506.423	83.06
506.64	95.06
506.856	94.06
507.073	88.06
507.289	95.06
507.506	102.06
507.722	97.06
507.939	114.06
508.155	100.06
508.372	82.06
508.588	96.06
508.805	94.06
509.021	93.06
509.238	101.06
509.454	91.06
509.67	101.06
509.887	112.06
510.103	145.06
510.319	211.06
510.536	720.06
510.752	2366.06
510.968	656.06
511.184	146.06
511.401	120.06
511.617	92.06
511.833	94.06
512.049	91.06
512.265	93.06
512.481	100.06
512.698	96.06
512.914	113.06
513.13	96.06
513.346	102.06
513.562	106.06
513.778	99.06
513.994	105.06
514.21	103.06
514.426	109.06
514.642	123.06
