Data from Circ_2003_H10_HRD10591_00043.txt Node
Date: Wed Jan 03 10:37:11 EST 2024
User: Yrep
Spectrometer: HR+D1059
Trigger mode: 1
Integration Time (sec): 1.000000E-1
Scans to average: 1
Electric dark correction enabled: true
Nonlinearity correction enabled: false
Boxcar width: 0
XAxis mode: Wavelengths
Number of Pixels in Spectrum: 2048
>>>>>Begin Spectral Data<<<<<
223.165	-25.31
223.4	-25.31
223.635	-25.31
223.869	-29.31
224.104	-27.31
224.338	-18.31
224.573	-23.31
224.808	-19.31
225.042	-7.31
225.277	5.69
225.511	4.69
225.746	-0.31
225.98	7.69
226.215	7.69
226.449	19.69
226.683	25.69
226.918	44.69
227.152	34.69
227.387	32.69
227.621	36.69
227.856	35.69
228.09	36.69
228.324	60.69
228.559	69.69
228.793	47.69
229.027	58.69
229.262	62.69
229.496	75.69
229.73	71.69
229.964	73.69
230.199	63.69
230.433	80.69
230.667	69.69
230.901	76.69
231.136	78.69
231.37	84.69
231.604	68.69
231.838	64.69
232.072	71.69
232.306	75.69
232.541	82.69
232.775	78.69
233.009	76.69
233.243	61.69
233.477	83.69
233.711	77.69
233.945	92.69
234.179	75.69
234.413	73.69
234.647	75.69
234.881	79.69
235.115	81.69
235.349	81.69
235.583	81.69
235.817	80.69
236.051	81.69
236.285	85.69
236.519	63.69
236.753	82.69
236.987	91.69
237.221	82.69
237.455	78.69
237.689	88.69
237.922	79.69
238.156	71.69
238.39	77.69
238.624	73.69
238.858	93.69
239.091	70.69
239.325	79.69
239.559	85.69
239.793	72.69
240.027	74.69
240.26	92.69
240.494	86.69
240.728	72.69
240.961	72.69
241.195	77.69
241.429	70.69
241.662	88.69
241.896	70.69
242.13	74.69
242.363	77.69
242.597	79.69
242.83	89.69
243.064	69.69
243.298	62.69
243.531	80.69
243.765	72.69
243.998	72.69
244.232	87.69
244.465	85.69
244.699	91.69
244.932	78.69
245.166	82.69
245.399	80.69
245.633	61.69
245.866	70.69
246.099	78.69
246.333	75.69
246.566	82.69
246.8	73.69
247.033	79.69
247.266	70.69
247.5	81.69
247.733	81.69
247.966	61.69
248.2	84.69
248.433	75.69
248.666	76.69
248.899	86.69
249.133	77.69
249.366	86.69
249.599	92.69
249.832	83.69
250.066	75.69
250.299	66.69
250.532	83.69
250.765	72.69
250.998	72.69
251.231	93.69
251.465	89.69
251.698	72.69
251.931	78.69
252.164	88.69
252.397	73.69
252.63	79.69
252.863	70.69
253.096	76.69
253.329	83.69
253.562	85.69
253.795	63.69
254.028	73.69
254.261	84.69
254.494	81.69
254.727	84.69
254.96	86.69
255.193	75.69
255.426	87.69
255.659	71.69
255.892	86.69
256.124	80.69
256.357	87.69
256.59	75.69
256.823	75.69
257.056	88.69
257.289	81.69
257.521	84.69
257.754	72.69
257.987	70.69
258.22	79.69
258.452	89.69
258.685	74.69
258.918	69.69
259.151	82.69
259.383	81.69
259.616	86.69
259.849	86.69
260.081	80.69
260.314	88.69
260.547	75.69
260.779	75.69
261.012	72.69
261.244	79.69
261.477	92.69
261.71	91.69
261.942	109.69
262.175	96.69
262.407	83.69
262.64	65.69
262.872	75.69
263.105	90.69
263.337	79.69
263.57	81.69
263.802	87.69
264.035	62.69
264.267	87.69
264.499	83.69
264.732	66.69
264.964	87.69
265.197	72.69
265.429	91.69
265.661	86.69
265.894	89.69
266.126	92.69
266.358	83.69
266.591	93.69
266.823	85.69
267.055	75.69
267.287	69.69
267.52	66.69
267.752	94.69
267.984	95.69
268.216	80.69
268.448	89.69
268.681	83.69
268.913	81.69
269.145	68.69
269.377	86.69
269.609	86.69
269.841	75.69
270.073	81.69
270.306	88.69
270.538	70.69
270.77	85.69
271.002	86.69
271.234	83.69
271.466	86.69
271.698	75.69
271.93	94.69
272.162	88.69
272.394	73.69
272.626	76.69
272.858	74.69
273.09	91.69
273.322	83.69
273.553	87.69
273.785	81.69
274.017	70.69
274.249	88.69
274.481	75.69
274.713	92.69
274.945	87.69
275.176	68.69
275.408	72.69
275.64	80.69
275.872	70.69
276.104	91.69
276.335	100.69
276.567	98.69
276.799	100.69
277.031	94.69
277.262	94.69
277.494	91.69
277.726	97.69
277.957	69.69
278.189	76.69
278.421	90.69
278.652	84.69
278.884	85.69
279.115	82.69
279.347	84.69
279.579	88.69
279.81	78.69
280.042	85.69
280.273	99.69
280.505	75.69
280.736	72.69
280.968	79.69
281.199	87.69
281.431	94.69
281.662	83.69
281.894	94.69
282.125	94.69
282.356	114.69
282.588	131.69
282.819	102.69
283.051	75.69
283.282	91.69
283.513	77.69
283.745	85.69
283.976	85.69
284.207	100.69
284.439	86.69
284.67	79.69
284.901	80.69
285.132	82.69
285.364	96.69
285.595	84.69
285.826	98.69
286.057	104.69
286.288	75.69
286.52	84.69
286.751	92.69
286.982	71.69
287.213	78.69
287.444	80.69
287.675	80.69
287.906	83.69
288.138	84.69
288.369	73.69
288.6	89.69
288.831	101.69
289.062	98.69
289.293	83.69
289.524	86.69
289.755	83.69
289.986	90.69
290.217	84.69
290.448	84.69
290.679	98.69
290.91	100.69
291.141	84.69
291.371	97.69
291.602	91.69
291.833	84.69
292.064	82.69
292.295	88.69
292.526	79.69
292.757	90.69
292.987	85.69
293.218	81.69
293.449	73.69
293.68	89.69
293.91	89.69
294.141	93.69
294.372	81.69
294.603	85.69
294.833	80.69
295.064	84.69
295.295	96.69
295.525	80.69
295.756	86.69
295.987	115.69
296.217	121.69
296.448	125.69
296.679	88.69
296.909	92.69
297.14	94.69
297.37	96.69
297.601	89.69
297.831	77.69
298.062	103.69
298.292	89.69
298.523	82.69
298.753	76.69
298.984	78.69
299.214	84.69
299.445	85.69
299.675	88.69
299.905	83.69
300.136	86.69
300.366	104.69
300.597	89.69
300.827	99.69
301.057	97.69
301.288	104.69
301.518	94.69
301.748	83.69
301.979	80.69
302.209	88.69
302.439	71.69
302.669	95.69
302.9	78.69
303.13	95.69
303.36	101.69
303.59	101.69
303.82	113.69
304.051	74.69
304.281	85.69
304.511	70.69
304.741	81.69
304.971	102.69
305.201	82.69
305.431	89.69
305.661	79.69
305.891	86.69
306.121	89.69
306.352	71.69
306.582	91.69
306.812	102.69
307.042	102.69
307.272	90.69
307.502	73.69
307.731	77.69
307.961	79.69
308.191	77.69
308.421	83.69
308.651	87.69
308.881	78.69
309.111	84.69
309.341	94.69
309.571	106.69
309.8	101.69
310.03	99.69
310.26	100.69
310.49	90.69
310.72	81.69
310.949	103.69
311.179	107.69
311.409	101.69
311.639	91.69
311.868	94.69
312.098	100.69
312.328	99.69
312.557	100.69
312.787	93.69
313.017	86.69
313.246	89.69
313.476	99.69
313.706	99.69
313.935	87.69
314.165	93.69
314.394	99.69
314.624	111.69
314.853	109.69
315.083	88.69
315.312	87.69
315.542	95.69
315.771	77.69
316.001	95.69
316.23	93.69
316.46	91.69
316.689	89.69
316.919	96.69
317.148	100.69
317.377	94.69
317.607	99.69
317.836	86.69
318.065	89.69
318.295	97.69
318.524	86.69
318.753	78.69
318.983	97.69
319.212	100.69
319.441	112.69
319.67	105.69
319.9	85.69
320.129	75.69
320.358	80.69
320.587	93.69
320.816	108.69
321.046	93.69
321.275	86.69
321.504	105.69
321.733	86.69
321.962	91.69
322.191	111.69
322.42	107.69
322.649	105.69
322.878	110.69
323.108	115.69
323.337	120.69
323.566	132.69
323.795	150.69
324.024	200.69
324.253	399.69
324.482	827.69
324.71	1795.69
324.939	2365.69
325.168	838.69
325.397	243.69
325.626	159.69
325.855	126.69
326.084	126.69
326.313	128.69
326.542	157.69
326.77	225.69
326.999	473.69
327.228	975.69
327.457	1781.69
327.686	1417.69
327.914	380.69
328.143	203.69
328.372	153.69
328.6	127.69
328.829	107.69
329.058	129.69
329.287	109.69
329.515	99.69
329.744	101.69
329.972	89.69
330.201	126.69
330.43	128.69
330.658	124.69
330.887	129.69
331.115	110.69
331.344	108.69
331.572	87.69
331.801	93.69
332.03	90.69
332.258	89.69
332.486	88.69
332.715	86.69
332.943	97.69
333.172	94.69
333.4	99.69
333.629	104.69
333.857	115.69
334.085	103.69
334.314	112.69
334.542	118.69
334.771	92.69
334.999	97.69
335.227	96.69
335.455	91.69
335.684	82.69
335.912	101.69
336.14	93.69
336.369	85.69
336.597	91.69
336.825	99.69
337.053	94.69
337.281	82.69
337.51	94.69
337.738	96.69
337.966	106.69
338.194	99.69
338.422	83.69
338.65	96.69
338.878	99.69
339.106	92.69
339.334	104.69
339.562	83.69
339.79	82.69
340.018	86.69
340.246	93.69
340.474	99.69
340.702	85.69
340.93	79.69
341.158	81.69
341.386	102.69
341.614	81.69
341.842	91.69
342.07	86.69
342.298	95.69
342.526	70.69
342.754	80.69
342.981	96.69
343.209	85.69
343.437	98.69
343.665	96.69
343.893	94.69
344.12	102.69
344.348	80.69
344.576	94.69
344.804	89.69
345.031	101.69
345.259	82.69
345.487	87.69
345.714	80.69
345.942	92.69
346.17	92.69
346.397	96.69
346.625	95.69
346.853	84.69
347.08	96.69
347.308	100.69
347.535	97.69
347.763	87.69
347.99	82.69
348.218	103.69
348.445	108.69
348.673	97.69
348.9	103.69
349.128	91.69
349.355	87.69
349.583	94.69
349.81	91.69
350.037	97.69
350.265	92.69
350.492	80.69
350.72	97.69
350.947	94.69
351.174	112.69
351.402	97.69
351.629	89.69
351.856	111.69
352.083	101.69
352.311	95.69
352.538	101.69
352.765	111.69
352.992	115.69
353.22	115.69
353.447	105.69
353.674	79.69
353.901	78.69
354.128	87.69
354.355	83.69
354.583	110.69
354.81	96.69
355.037	88.69
355.264	93.69
355.491	92.69
355.718	79.69
355.945	99.69
356.172	99.69
356.399	84.69
356.626	88.69
356.853	98.69
357.08	103.69
357.307	81.69
357.534	81.69
357.761	101.69
357.988	101.69
358.215	100.69
358.441	98.69
358.668	97.69
358.895	91.69
359.122	99.69
359.349	80.69
359.576	98.69
359.802	90.69
360.029	82.69
360.256	98.69
360.483	112.69
360.709	76.69
360.936	85.69
361.163	94.69
361.39	89.69
361.616	92.69
361.843	89.69
362.07	97.69
362.296	95.69
362.523	83.69
362.749	93.69
362.976	84.69
363.203	95.69
363.429	84.69
363.656	93.69
363.882	73.69
364.109	87.69
364.335	83.69
364.562	106.69
364.788	79.69
365.015	94.69
365.241	96.69
365.468	115.69
365.694	98.69
365.92	93.69
366.147	92.69
366.373	86.69
366.599	85.69
366.826	89.69
367.052	77.69
367.278	85.69
367.505	81.69
367.731	76.69
367.957	81.69
368.184	79.69
368.41	87.69
368.636	101.69
368.862	124.69
369.089	103.69
369.315	92.69
369.541	102.69
369.767	73.69
369.993	92.69
370.219	75.69
370.445	94.69
370.672	89.69
370.898	92.69
371.124	82.69
371.35	88.69
371.576	85.69
371.802	77.69
372.028	82.69
372.254	97.69
372.48	96.69
372.706	96.69
372.932	78.69
373.158	97.69
373.384	81.69
373.61	96.69
373.835	87.69
374.061	91.69
374.287	89.69
374.513	89.69
374.739	80.69
374.965	88.69
375.191	77.69
375.416	93.69
375.642	107.69
375.868	75.69
376.094	84.69
376.319	88.69
376.545	92.69
376.771	90.69
376.997	94.69
377.222	76.69
377.448	85.69
377.674	76.69
377.899	78.69
378.125	82.69
378.35	94.69
378.576	91.69
378.802	80.69
379.027	93.69
379.253	87.69
379.478	84.69
379.704	83.69
379.929	88.69
380.155	88.69
380.38	88.69
380.606	100.69
380.831	79.69
381.057	100.69
381.282	101.69
381.507	107.69
381.733	104.69
381.958	107.69
382.184	100.69
382.409	123.69
382.634	102.69
382.86	113.69
383.085	102.69
383.31	89.69
383.535	112.69
383.761	107.69
383.986	111.69
384.211	96.69
384.436	97.69
384.662	112.69
384.887	105.69
385.112	118.69
385.337	103.69
385.562	109.69
385.787	101.69
386.013	103.69
386.238	109.69
386.463	116.69
386.688	110.69
386.913	95.69
387.138	111.69
387.363	103.69
387.588	104.69
387.813	97.69
388.038	115.69
388.263	107.69
388.488	108.69
388.713	98.69
388.938	94.69
389.163	97.69
389.387	87.69
389.612	92.69
389.837	87.69
390.062	83.69
390.287	90.69
390.512	94.69
390.736	93.69
390.961	77.69
391.186	109.69
391.411	93.69
391.636	89.69
391.86	79.69
392.085	89.69
392.31	86.69
392.534	78.69
392.759	78.69
392.984	87.69
393.208	86.69
393.433	97.69
393.658	88.69
393.882	87.69
394.107	80.69
394.331	83.69
394.556	80.69
394.78	86.69
395.005	90.69
395.229	85.69
395.454	80.69
395.678	95.69
395.903	78.69
396.127	85.69
396.352	75.69
396.576	80.69
396.801	94.69
397.025	89.69
397.249	91.69
397.474	79.69
397.698	94.69
397.922	91.69
398.147	100.69
398.371	84.69
398.595	72.69
398.82	72.69
399.044	77.69
399.268	79.69
399.492	85.69
399.717	88.69
399.941	83.69
400.165	93.69
400.389	91.69
400.613	73.69
400.837	82.69
401.062	91.69
401.286	98.69
401.51	88.69
401.734	91.69
401.958	100.69
402.182	113.69
402.406	157.69
402.63	105.69
402.854	93.69
403.078	95.69
403.302	86.69
403.526	84.69
403.75	78.69
403.974	77.69
404.198	84.69
404.422	89.69
404.645	84.69
404.869	102.69
405.093	89.69
405.317	100.69
405.541	99.69
405.765	99.69
405.988	106.69
406.212	175.69
406.436	246.69
406.66	136.69
406.883	106.69
407.107	84.69
407.331	95.69
407.555	94.69
407.778	89.69
408.002	81.69
408.226	92.69
408.449	89.69
408.673	83.69
408.896	92.69
409.12	94.69
409.344	86.69
409.567	88.69
409.791	96.69
410.014	101.69
410.238	84.69
410.461	91.69
410.685	93.69
410.908	105.69
411.132	113.69
411.355	97.69
411.578	99.69
411.802	83.69
412.025	83.69
412.249	84.69
412.472	86.69
412.695	97.69
412.919	80.69
413.142	81.69
413.365	87.69
413.589	92.69
413.812	87.69
414.035	93.69
414.258	79.69
414.482	93.69
414.705	81.69
414.928	80.69
415.151	93.69
415.374	89.69
415.597	81.69
415.821	101.69
416.044	73.69
416.267	88.69
416.49	85.69
416.713	88.69
416.936	94.69
417.159	86.69
417.382	81.69
417.605	79.69
417.828	96.69
418.051	78.69
418.274	80.69
418.497	80.69
418.72	89.69
418.943	82.69
419.166	89.69
419.389	92.69
419.611	90.69
419.834	88.69
420.057	84.69
420.28	84.69
420.503	85.69
420.726	84.69
420.948	91.69
421.171	85.69
421.394	90.69
421.617	91.69
421.839	81.69
422.062	75.69
422.285	80.69
422.507	84.69
422.73	98.69
422.953	99.69
423.175	95.69
423.398	85.69
423.621	87.69
423.843	80.69
424.066	94.69
424.288	80.69
424.511	85.69
424.733	94.69
424.956	100.69
425.178	86.69
425.401	107.69
425.623	104.69
425.846	75.69
426.068	82.69
426.291	102.69
426.513	73.69
426.735	89.69
426.958	89.69
427.18	89.69
427.402	116.69
427.625	161.69
427.847	129.69
428.069	115.69
428.292	91.69
428.514	87.69
428.736	77.69
428.958	85.69
429.181	94.69
429.403	86.69
429.625	88.69
429.847	93.69
430.069	86.69
430.292	85.69
430.514	80.69
430.736	89.69
430.958	74.69
431.18	91.69
431.402	91.69
431.624	96.69
431.846	82.69
432.068	87.69
432.29	96.69
432.512	90.69
432.734	95.69
432.956	91.69
433.178	84.69
433.4	88.69
433.622	81.69
433.844	88.69
434.066	89.69
434.287	103.69
434.509	93.69
434.731	80.69
434.953	91.69
435.175	82.69
435.397	80.69
435.618	88.69
435.84	110.69
436.062	112.69
436.284	108.69
436.505	101.69
436.727	87.69
436.949	87.69
437.17	88.69
437.392	64.69
437.614	93.69
437.835	110.69
438.057	98.69
438.278	102.69
438.5	102.69
438.721	107.69
438.943	111.69
439.165	84.69
439.386	85.69
439.608	89.69
439.829	97.69
440.05	102.69
440.272	139.69
440.493	110.69
440.715	72.69
440.936	83.69
441.158	97.69
441.379	93.69
441.6	87.69
441.822	76.69
442.043	77.69
442.264	95.69
442.486	90.69
442.707	95.69
442.928	109.69
443.149	135.69
443.371	130.69
443.592	108.69
443.813	107.69
444.034	90.69
444.255	84.69
444.476	86.69
444.698	84.69
444.919	98.69
445.14	136.69
445.361	114.69
445.582	109.69
445.803	143.69
446.024	115.69
446.245	119.69
446.466	105.69
446.687	86.69
446.908	71.69
447.129	79.69
447.35	89.69
447.571	87.69
447.792	89.69
448.013	94.69
448.234	102.69
448.455	104.69
448.675	117.69
448.896	106.69
449.117	94.69
449.338	104.69
449.559	112.69
449.779	107.69
450	100.69
450.221	83.69
450.442	87.69
450.662	99.69
450.883	94.69
451.104	102.69
451.324	84.69
451.545	83.69
451.766	72.69
451.986	88.69
452.207	90.69
452.428	92.69
452.648	99.69
452.869	103.69
453.089	101.69
453.31	122.69
453.53	97.69
453.751	90.69
453.971	94.69
454.192	102.69
454.412	69.69
454.633	81.69
454.853	86.69
455.073	89.69
455.294	77.69
455.514	102.69
455.734	89.69
455.955	86.69
456.175	94.69
456.395	71.69
456.616	88.69
456.836	73.69
457.056	83.69
457.276	85.69
457.497	89.69
457.717	69.69
457.937	76.69
458.157	89.69
458.377	98.69
458.598	100.69
458.818	138.69
459.038	146.69
459.258	112.69
459.478	99.69
459.698	90.69
459.918	96.69
460.138	82.69
460.358	70.69
460.578	84.69
460.798	87.69
461.018	94.69
461.238	81.69
461.458	88.69
461.678	96.69
461.898	80.69
462.118	87.69
462.338	72.69
462.558	81.69
462.777	86.69
462.997	79.69
463.217	80.69
463.437	79.69
463.657	78.69
463.876	91.69
464.096	86.69
464.316	88.69
464.536	95.69
464.755	96.69
464.975	86.69
465.195	147.69
465.414	162.69
465.634	100.69
465.854	94.69
466.073	75.69
466.293	65.69
466.512	85.69
466.732	84.69
466.951	95.69
467.171	104.69
467.391	88.69
467.61	89.69
467.829	83.69
468.049	99.69
468.268	97.69
468.488	100.69
468.707	92.69
468.927	77.69
469.146	75.69
469.365	84.69
469.585	87.69
469.804	74.69
470.023	93.69
470.243	88.69
470.462	94.69
470.681	100.69
470.901	90.69
471.12	70.69
471.339	94.69
471.558	94.69
471.777	78.69
471.997	93.69
472.216	97.69
472.435	136.69
472.654	92.69
472.873	95.69
473.092	80.69
473.311	81.69
473.53	89.69
473.749	80.69
473.968	92.69
474.187	98.69
474.406	92.69
474.625	80.69
474.844	79.69
475.063	77.69
475.282	69.69
475.501	78.69
475.72	91.69
475.939	90.69
476.158	72.69
476.377	82.69
476.596	87.69
476.814	101.69
477.033	99.69
477.252	96.69
477.471	87.69
477.69	90.69
477.908	79.69
478.127	93.69
478.346	95.69
478.564	106.69
478.783	107.69
479.002	97.69
479.22	90.69
479.439	88.69
479.658	93.69
479.876	80.69
480.095	100.69
480.313	86.69
480.532	90.69
480.751	84.69
480.969	100.69
481.188	176.69
481.406	141.69
481.624	95.69
481.843	93.69
482.061	94.69
482.28	86.69
482.498	75.69
482.717	91.69
482.935	86.69
483.153	81.69
483.372	76.69
483.59	82.69
483.808	87.69
484.027	80.69
484.245	95.69
484.463	82.69
484.681	93.69
484.9	94.69
485.118	96.69
485.336	89.69
485.554	92.69
485.772	103.69
485.99	102.69
486.209	104.69
486.427	116.69
486.645	119.69
486.863	105.69
487.081	84.69
487.299	83.69
487.517	86.69
487.735	90.69
487.953	90.69
488.171	102.69
488.389	99.69
488.607	100.69
488.825	81.69
489.043	92.69
489.261	88.69
489.479	82.69
489.696	93.69
489.914	88.69
490.132	83.69
490.35	89.69
490.568	106.69
490.786	80.69
491.003	93.69
491.221	90.69
491.439	94.69
491.657	87.69
491.874	81.69
492.092	84.69
492.31	68.69
492.527	92.69
492.745	84.69
492.963	95.69
493.18	92.69
493.398	65.69
493.615	94.69
493.833	89.69
494.05	101.69
494.268	91.69
494.485	77.69
494.703	96.69
494.92	70.69
495.138	96.69
495.355	82.69
495.573	100.69
495.79	93.69
496.008	100.69
496.225	106.69
496.442	79.69
496.66	95.69
496.877	96.69
497.094	96.69
497.312	84.69
497.529	77.69
497.746	98.69
497.963	83.69
498.181	89.69
498.398	94.69
498.615	111.69
498.832	117.69
499.049	89.69
499.267	96.69
499.484	88.69
499.701	91.69
499.918	82.69
500.135	80.69
500.352	82.69
500.569	88.69
500.786	80.69
501.003	88.69
501.22	100.69
501.437	90.69
501.654	96.69
501.871	101.69
502.088	100.69
502.305	93.69
502.522	95.69
502.739	92.69
502.956	103.69
503.172	89.69
503.389	96.69
503.606	100.69
503.823	86.69
504.04	102.69
504.256	84.69
504.473	99.69
504.69	88.69
504.907	84.69
505.123	95.69
505.34	94.69
505.557	80.69
505.773	76.69
505.99	98.69
506.207	87.69
506.423	95.69
506.64	93.69
506.856	84.69
507.073	89.69
507.289	82.69
507.506	103.69
507.722	103.69
507.939	99.69
508.155	89.69
508.372	102.69
508.588	95.69
508.805	97.69
509.021	104.69
509.238	99.69
509.454	97.69
509.67	115.69
509.887	111.69
510.103	137.69
510.319	222.69
510.536	794.69
510.752	2638.69
510.968	740.69
511.184	163.69
511.401	111.69
511.617	102.69
511.833	97.69
512.049	85.69
512.265	88.69
512.481	85.69
512.698	91.69
512.914	95.69
513.13	102.69
513.346	89.69
513.562	93.69
513.778	93.69
513.994	93.69
514.21	84.69
514.426	130.69
514.642	141.69
514.858	135.69
515.074	167.69
515.29	471.69
515.506	1581.69
515.721	574.69
515.937	155.69
516.153	98.69
516.369	99.69
