Data from Circ_2003_H10_HRD10591_00090.txt Node
Date: Wed Jan 03 10:37:20 EST 2024
User: Yrep
Spectrometer: HR+D1059
Trigger mode: 1
Integration Time (sec): 1.000000E-1
Scans to average: 1
Electric dark correction enabled: true
Nonlinearity correction enabled: false
Boxcar width: 0
XAxis mode: Wavelengths
Number of Pixels in Spectrum: 2048
>>>>>Begin Spectral Data<<<<<
223.165	-18.19
223.4	-18.19
223.635	-18.19
223.869	-20.19
224.104	-22.19
224.338	-18.19
224.573	-2.19
224.808	-7.19
225.042	-8.19
225.277	0.81
225.511	-2.19
225.746	5.81
225.98	-3.19
226.215	7.81
226.449	13.81
226.683	11.81
226.918	30.81
227.152	30.81
227.387	37.81
227.621	27.81
227.856	49.81
228.09	56.81
228.324	52.81
228.559	53.81
228.793	51.81
229.027	63.81
229.262	59.81
229.496	68.81
229.73	84.81
229.964	85.81
230.199	72.81
230.433	80.81
230.667	80.81
230.901	77.81
231.136	71.81
231.37	78.81
231.604	76.81
231.838	92.81
232.072	81.81
232.306	68.81
232.541	81.81
232.775	75.81
233.009	86.81
233.243	73.81
233.477	73.81
233.711	56.81
233.945	62.81
234.179	70.81
234.413	71.81
234.647	76.81
234.881	85.81
235.115	74.81
235.349	81.81
235.583	67.81
235.817	56.81
236.051	69.81
236.285	89.81
236.519	79.81
236.753	71.81
236.987	71.81
237.221	79.81
237.455	79.81
237.689	74.81
237.922	81.81
238.156	64.81
238.39	71.81
238.624	66.81
238.858	84.81
239.091	70.81
239.325	68.81
239.559	72.81
239.793	70.81
240.027	65.81
240.26	63.81
240.494	83.81
240.728	75.81
240.961	70.81
241.195	80.81
241.429	76.81
241.662	68.81
241.896	68.81
242.13	77.81
242.363	81.81
242.597	96.81
242.83	72.81
243.064	75.81
243.298	77.81
243.531	87.81
243.765	77.81
243.998	72.81
244.232	77.81
244.465	76.81
244.699	72.81
244.932	68.81
245.166	69.81
245.399	56.81
245.633	61.81
245.866	67.81
246.099	69.81
246.333	80.81
246.566	71.81
246.8	77.81
247.033	80.81
247.266	78.81
247.5	75.81
247.733	79.81
247.966	84.81
248.2	83.81
248.433	75.81
248.666	79.81
248.899	82.81
249.133	78.81
249.366	97.81
249.599	94.81
249.832	85.81
250.066	72.81
250.299	84.81
250.532	77.81
250.765	89.81
250.998	65.81
251.231	73.81
251.465	75.81
251.698	71.81
251.931	60.81
252.164	77.81
252.397	81.81
252.63	78.81
252.863	77.81
253.096	84.81
253.329	86.81
253.562	69.81
253.795	87.81
254.028	73.81
254.261	82.81
254.494	69.81
254.727	80.81
254.96	79.81
255.193	79.81
255.426	66.81
255.659	81.81
255.892	70.81
256.124	79.81
256.357	81.81
256.59	79.81
256.823	88.81
257.056	84.81
257.289	93.81
257.521	97.81
257.754	76.81
257.987	67.81
258.22	69.81
258.452	96.81
258.685	66.81
258.918	69.81
259.151	92.81
259.383	82.81
259.616	80.81
259.849	73.81
260.081	73.81
260.314	79.81
260.547	85.81
260.779	72.81
261.012	78.81
261.244	75.81
261.477	88.81
261.71	95.81
261.942	103.81
262.175	116.81
262.407	101.81
262.64	85.81
262.872	77.81
263.105	73.81
263.337	88.81
263.57	75.81
263.802	86.81
264.035	78.81
264.267	90.81
264.499	80.81
264.732	89.81
264.964	75.81
265.197	82.81
265.429	80.81
265.661	79.81
265.894	80.81
266.126	75.81
266.358	70.81
266.591	71.81
266.823	86.81
267.055	87.81
267.287	74.81
267.52	79.81
267.752	79.81
267.984	75.81
268.216	83.81
268.448	88.81
268.681	79.81
268.913	82.81
269.145	82.81
269.377	75.81
269.609	76.81
269.841	69.81
270.073	72.81
270.306	73.81
270.538	77.81
270.77	72.81
271.002	81.81
271.234	93.81
271.466	79.81
271.698	76.81
271.93	85.81
272.162	91.81
272.394	88.81
272.626	76.81
272.858	82.81
273.09	69.81
273.322	75.81
273.553	83.81
273.785	96.81
274.017	71.81
274.249	100.81
274.481	82.81
274.713	95.81
274.945	91.81
275.176	89.81
275.408	90.81
275.64	84.81
275.872	89.81
276.104	91.81
276.335	85.81
276.567	103.81
276.799	104.81
277.031	100.81
277.262	83.81
277.494	85.81
277.726	81.81
277.957	62.81
278.189	77.81
278.421	76.81
278.652	79.81
278.884	74.81
279.115	85.81
279.347	80.81
279.579	93.81
279.81	77.81
280.042	103.81
280.273	93.81
280.505	91.81
280.736	81.81
280.968	93.81
281.199	84.81
281.431	89.81
281.662	84.81
281.894	78.81
282.125	79.81
282.356	111.81
282.588	148.81
282.819	116.81
283.051	84.81
283.282	85.81
283.513	69.81
283.745	78.81
283.976	83.81
284.207	79.81
284.439	85.81
284.67	93.81
284.901	103.81
285.132	75.81
285.364	81.81
285.595	82.81
285.826	85.81
286.057	91.81
286.288	72.81
286.52	99.81
286.751	72.81
286.982	93.81
287.213	77.81
287.444	87.81
287.675	76.81
287.906	75.81
288.138	83.81
288.369	110.81
288.6	76.81
288.831	93.81
289.062	94.81
289.293	79.81
289.524	79.81
289.755	87.81
289.986	78.81
290.217	88.81
290.448	88.81
290.679	83.81
290.91	78.81
291.141	95.81
291.371	88.81
291.602	79.81
291.833	75.81
292.064	90.81
292.295	77.81
292.526	89.81
292.757	97.81
292.987	94.81
293.218	99.81
293.449	77.81
293.68	84.81
293.91	81.81
294.141	71.81
294.372	73.81
294.603	73.81
294.833	83.81
295.064	94.81
295.295	80.81
295.525	98.81
295.756	102.81
295.987	103.81
296.217	118.81
296.448	112.81
296.679	99.81
296.909	88.81
297.14	77.81
297.37	98.81
297.601	87.81
297.831	77.81
298.062	75.81
298.292	84.81
298.523	87.81
298.753	97.81
298.984	91.81
299.214	77.81
299.445	89.81
299.675	94.81
299.905	88.81
300.136	78.81
300.366	74.81
300.597	86.81
300.827	82.81
301.057	106.81
301.288	102.81
301.518	101.81
301.748	82.81
301.979	85.81
302.209	86.81
302.439	80.81
302.669	80.81
302.9	95.81
303.13	85.81
303.36	91.81
303.59	97.81
303.82	113.81
304.051	92.81
304.281	90.81
304.511	88.81
304.741	75.81
304.971	80.81
305.201	98.81
305.431	88.81
305.661	70.81
305.891	89.81
306.121	73.81
306.352	101.81
306.582	88.81
306.812	94.81
307.042	101.81
307.272	88.81
307.502	91.81
307.731	95.81
307.961	97.81
308.191	88.81
308.421	95.81
308.651	78.81
308.881	84.81
309.111	85.81
309.341	93.81
309.571	99.81
309.8	84.81
310.03	87.81
310.26	94.81
310.49	89.81
310.72	89.81
310.949	97.81
311.179	110.81
311.409	93.81
311.639	102.81
311.868	84.81
312.098	89.81
312.328	92.81
312.557	109.81
312.787	99.81
313.017	94.81
313.246	87.81
313.476	92.81
313.706	84.81
313.935	91.81
314.165	95.81
314.394	97.81
314.624	97.81
314.853	109.81
315.083	95.81
315.312	96.81
315.542	83.81
315.771	92.81
316.001	89.81
316.23	82.81
316.46	79.81
316.689	98.81
316.919	83.81
317.148	95.81
317.377	99.81
317.607	78.81
317.836	88.81
318.065	92.81
318.295	101.81
318.524	96.81
318.753	95.81
318.983	80.81
319.212	84.81
319.441	112.81
319.67	114.81
319.9	106.81
320.129	81.81
320.358	77.81
320.587	80.81
320.816	95.81
321.046	88.81
321.275	99.81
321.504	88.81
321.733	95.81
321.962	96.81
322.191	103.81
322.42	107.81
322.649	90.81
322.878	120.81
323.108	100.81
323.337	139.81
323.566	130.81
323.795	154.81
324.024	219.81
324.253	455.81
324.482	949.81
324.71	1976.81
324.939	2584.81
325.168	916.81
325.397	263.81
325.626	149.81
325.855	139.81
326.084	129.81
326.313	129.81
326.542	147.81
326.77	248.81
326.999	524.81
327.228	1062.81
327.457	2003.81
327.686	1591.81
327.914	420.81
328.143	223.81
328.372	167.81
328.6	125.81
328.829	131.81
329.058	120.81
329.287	125.81
329.515	115.81
329.744	107.81
329.972	141.81
330.201	160.81
330.43	188.81
330.658	141.81
330.887	134.81
331.115	109.81
331.344	113.81
331.572	92.81
331.801	109.81
332.03	88.81
332.258	104.81
332.486	93.81
332.715	98.81
332.943	87.81
333.172	96.81
333.4	99.81
333.629	110.81
333.857	115.81
334.085	134.81
334.314	155.81
334.542	207.81
334.771	205.81
334.999	116.81
335.227	100.81
335.455	88.81
335.684	107.81
335.912	97.81
336.14	102.81
336.369	111.81
336.597	94.81
336.825	105.81
337.053	108.81
337.281	105.81
337.51	87.81
337.738	88.81
337.966	107.81
338.194	89.81
338.422	80.81
338.65	96.81
338.878	85.81
339.106	100.81
339.334	83.81
339.562	83.81
339.79	76.81
340.018	72.81
340.246	78.81
340.474	91.81
340.702	92.81
340.93	96.81
341.158	87.81
341.386	97.81
341.614	98.81
341.842	104.81
342.07	80.81
342.298	92.81
342.526	86.81
342.754	84.81
342.981	98.81
343.209	100.81
343.437	95.81
343.665	95.81
343.893	94.81
344.12	92.81
344.348	85.81
344.576	88.81
344.804	84.81
345.031	97.81
345.259	80.81
345.487	80.81
345.714	95.81
345.942	94.81
346.17	88.81
346.397	94.81
346.625	83.81
346.853	94.81
347.08	92.81
347.308	90.81
347.535	100.81
347.763	106.81
347.99	89.81
348.218	111.81
348.445	108.81
348.673	88.81
348.9	99.81
349.128	101.81
349.355	85.81
349.583	96.81
349.81	87.81
350.037	82.81
350.265	85.81
350.492	101.81
350.72	93.81
350.947	94.81
351.174	108.81
351.402	102.81
351.629	107.81
351.856	85.81
352.083	103.81
352.311	87.81
352.538	115.81
352.765	106.81
352.992	100.81
353.22	102.81
353.447	100.81
353.674	108.81
353.901	86.81
354.128	87.81
354.355	98.81
354.583	91.81
354.81	98.81
355.037	103.81
355.264	97.81
355.491	91.81
355.718	85.81
355.945	97.81
356.172	87.81
356.399	83.81
356.626	88.81
356.853	85.81
357.08	95.81
357.307	85.81
357.534	95.81
357.761	100.81
357.988	91.81
358.215	98.81
358.441	109.81
358.668	81.81
358.895	100.81
359.122	81.81
359.349	84.81
359.576	88.81
359.802	103.81
360.029	99.81
360.256	109.81
360.483	89.81
360.709	77.81
360.936	89.81
361.163	91.81
361.39	86.81
361.616	110.81
361.843	81.81
362.07	99.81
362.296	104.81
362.523	94.81
362.749	81.81
362.976	94.81
363.203	84.81
363.429	79.81
363.656	86.81
363.882	99.81
364.109	97.81
364.335	91.81
364.562	82.81
364.788	77.81
365.015	87.81
365.241	101.81
365.468	103.81
365.694	93.81
365.92	83.81
366.147	93.81
366.373	83.81
366.599	93.81
366.826	81.81
367.052	87.81
367.278	84.81
367.505	80.81
367.731	81.81
367.957	89.81
368.184	98.81
368.41	101.81
368.636	123.81
368.862	114.81
369.089	111.81
369.315	83.81
369.541	81.81
369.767	95.81
369.993	87.81
370.219	88.81
370.445	83.81
370.672	86.81
370.898	80.81
371.124	77.81
371.35	97.81
371.576	79.81
371.802	85.81
372.028	83.81
372.254	76.81
372.48	83.81
372.706	83.81
372.932	91.81
373.158	94.81
373.384	79.81
373.61	86.81
373.835	83.81
374.061	93.81
374.287	82.81
374.513	87.81
374.739	91.81
374.965	95.81
375.191	77.81
375.416	99.81
375.642	84.81
375.868	91.81
376.094	87.81
376.319	85.81
376.545	88.81
376.771	95.81
376.997	83.81
377.222	84.81
377.448	82.81
377.674	89.81
377.899	105.81
378.125	86.81
378.35	106.81
378.576	91.81
378.802	85.81
379.027	91.81
379.253	95.81
379.478	103.81
379.704	93.81
379.929	102.81
380.155	96.81
380.38	93.81
380.606	99.81
380.831	97.81
381.057	93.81
381.282	105.81
381.507	83.81
381.733	107.81
381.958	106.81
382.184	98.81
382.409	88.81
382.634	99.81
382.86	98.81
383.085	94.81
383.31	109.81
383.535	90.81
383.761	95.81
383.986	97.81
384.211	89.81
384.436	92.81
384.662	105.81
384.887	91.81
385.112	101.81
385.337	107.81
385.562	99.81
385.787	93.81
386.013	97.81
386.238	114.81
386.463	104.81
386.688	98.81
386.913	89.81
387.138	92.81
387.363	109.81
387.588	82.81
387.813	100.81
388.038	101.81
388.263	109.81
388.488	113.81
388.713	92.81
388.938	93.81
389.163	92.81
389.387	102.81
389.612	85.81
389.837	89.81
390.062	97.81
390.287	101.81
390.512	95.81
390.736	92.81
390.961	80.81
391.186	95.81
391.411	80.81
391.636	92.81
391.86	73.81
392.085	87.81
392.31	88.81
392.534	82.81
392.759	84.81
392.984	84.81
393.208	90.81
393.433	97.81
393.658	93.81
393.882	94.81
394.107	92.81
394.331	85.81
394.556	70.81
394.78	77.81
395.005	75.81
395.229	85.81
395.454	81.81
395.678	102.81
395.903	98.81
396.127	85.81
396.352	81.81
396.576	80.81
396.801	76.81
397.025	75.81
397.249	95.81
397.474	98.81
397.698	77.81
397.922	85.81
398.147	89.81
398.371	95.81
398.595	83.81
398.82	92.81
399.044	88.81
399.268	78.81
399.492	92.81
399.717	89.81
399.941	81.81
400.165	108.81
400.389	88.81
400.613	74.81
400.837	86.81
401.062	90.81
401.286	84.81
401.51	97.81
401.734	76.81
401.958	96.81
402.182	126.81
402.406	150.81
402.63	100.81
402.854	84.81
403.078	87.81
403.302	88.81
403.526	85.81
403.75	99.81
403.974	92.81
404.198	87.81
404.422	86.81
404.645	84.81
404.869	86.81
405.093	93.81
405.317	100.81
405.541	88.81
405.765	107.81
405.988	112.81
406.212	163.81
406.436	216.81
406.66	130.81
406.883	90.81
407.107	95.81
407.331	103.81
407.555	102.81
407.778	92.81
408.002	96.81
408.226	86.81
408.449	80.81
408.673	73.81
408.896	86.81
409.12	102.81
409.344	96.81
409.567	93.81
409.791	92.81
410.014	105.81
410.238	90.81
410.461	89.81
410.685	90.81
410.908	87.81
411.132	100.81
411.355	85.81
411.578	84.81
411.802	85.81
412.025	100.81
412.249	95.81
412.472	89.81
412.695	93.81
412.919	97.81
413.142	89.81
413.365	100.81
413.589	84.81
413.812	89.81
414.035	99.81
414.258	76.81
414.482	75.81
414.705	83.81
414.928	93.81
415.151	90.81
415.374	93.81
415.597	93.81
415.821	87.81
416.044	74.81
416.267	89.81
416.49	86.81
416.713	94.81
416.936	81.81
417.159	93.81
417.382	80.81
417.605	86.81
417.828	99.81
418.051	102.81
418.274	77.81
418.497	80.81
418.72	85.81
418.943	80.81
419.166	86.81
419.389	85.81
419.611	89.81
419.834	78.81
420.057	87.81
420.28	87.81
420.503	71.81
420.726	89.81
420.948	82.81
421.171	89.81
421.394	79.81
421.617	97.81
421.839	91.81
422.062	84.81
422.285	88.81
422.507	80.81
422.73	104.81
422.953	91.81
423.175	87.81
423.398	91.81
423.621	76.81
423.843	84.81
424.066	82.81
424.288	71.81
424.511	90.81
424.733	95.81
424.956	102.81
425.178	104.81
425.401	103.81
425.623	100.81
425.846	88.81
426.068	92.81
426.291	91.81
426.513	104.81
426.735	82.81
426.958	100.81
427.18	100.81
427.402	123.81
427.625	162.81
427.847	119.81
428.069	117.81
428.292	102.81
428.514	88.81
428.736	84.81
428.958	90.81
429.181	79.81
429.403	78.81
429.625	83.81
429.847	103.81
430.069	101.81
430.292	106.81
430.514	97.81
430.736	89.81
430.958	99.81
431.18	87.81
431.402	101.81
431.624	75.81
431.846	84.81
432.068	86.81
432.29	81.81
432.512	84.81
432.734	91.81
432.956	79.81
433.178	97.81
433.4	89.81
433.622	83.81
433.844	75.81
434.066	85.81
434.287	82.81
434.509	82.81
434.731	87.81
434.953	102.81
435.175	78.81
435.397	90.81
435.618	88.81
435.84	102.81
436.062	126.81
436.284	116.81
436.505	107.81
436.727	93.81
436.949	89.81
437.17	92.81
437.392	78.81
437.614	94.81
437.835	100.81
438.057	105.81
438.278	99.81
438.5	106.81
438.721	112.81
438.943	101.81
439.165	99.81
439.386	90.81
439.608	93.81
439.829	105.81
440.05	119.81
440.272	155.81
440.493	108.81
440.715	72.81
440.936	89.81
441.158	107.81
441.379	80.81
441.6	110.81
441.822	101.81
442.043	100.81
442.264	88.81
442.486	91.81
442.707	89.81
442.928	100.81
443.149	126.81
443.371	120.81
443.592	113.81
443.813	109.81
444.034	94.81
444.255	77.81
444.476	99.81
444.698	110.81
444.919	91.81
445.14	137.81
445.361	115.81
445.582	110.81
445.803	126.81
446.024	120.81
446.245	141.81
446.466	118.81
446.687	82.81
446.908	89.81
447.129	79.81
447.35	96.81
447.571	73.81
447.792	101.81
448.013	89.81
448.234	92.81
448.455	97.81
448.675	105.81
448.896	99.81
449.117	101.81
449.338	104.81
449.559	135.81
449.779	127.81
450	97.81
450.221	92.81
450.442	91.81
450.662	100.81
450.883	94.81
451.104	104.81
451.324	89.81
451.545	90.81
451.766	87.81
451.986	84.81
452.207	100.81
452.428	84.81
452.648	92.81
452.869	109.81
453.089	106.81
453.31	113.81
453.53	84.81
453.751	79.81
453.971	90.81
454.192	113.81
454.412	85.81
454.633	73.81
454.853	70.81
455.073	103.81
455.294	80.81
455.514	98.81
455.734	97.81
455.955	87.81
456.175	82.81
456.395	92.81
456.616	84.81
456.836	76.81
457.056	87.81
457.276	91.81
457.497	78.81
457.717	84.81
457.937	85.81
458.157	73.81
458.377	71.81
458.598	95.81
458.818	137.81
459.038	165.81
459.258	113.81
459.478	93.81
459.698	81.81
459.918	88.81
460.138	96.81
460.358	94.81
460.578	92.81
460.798	92.81
461.018	82.81
461.238	99.81
461.458	89.81
461.678	68.81
461.898	83.81
462.118	80.81
462.338	78.81
462.558	91.81
462.777	71.81
462.997	83.81
463.217	87.81
463.437	93.81
463.657	94.81
463.876	76.81
464.096	91.81
464.316	88.81
464.536	105.81
464.755	95.81
464.975	96.81
465.195	164.81
465.414	163.81
465.634	106.81
465.854	101.81
466.073	88.81
466.293	78.81
466.512	82.81
466.732	95.81
466.951	86.81
467.171	91.81
467.391	94.81
467.61	104.81
467.829	100.81
468.049	121.81
468.268	128.81
468.488	111.81
468.707	99.81
468.927	80.81
469.146	84.81
469.365	76.81
469.585	90.81
469.804	76.81
470.023	118.81
470.243	101.81
470.462	92.81
470.681	106.81
470.901	95.81
471.12	97.81
471.339	88.81
471.558	92.81
471.777	85.81
471.997	110.81
472.216	159.81
472.435	282.81
472.654	120.81
472.873	87.81
473.092	78.81
473.311	80.81
473.53	85.81
473.749	81.81
473.968	92.81
474.187	95.81
474.406	88.81
474.625	84.81
474.844	100.81
475.063	86.81
475.282	93.81
475.501	85.81
475.72	82.81
475.939	78.81
476.158	89.81
476.377	88.81
476.596	73.81
476.814	80.81
477.033	89.81
477.252	94.81
477.471	88.81
477.69	67.81
477.908	89.81
478.127	88.81
478.346	83.81
478.564	93.81
478.783	97.81
479.002	87.81
479.22	89.81
479.439	89.81
479.658	111.81
479.876	91.81
480.095	88.81
480.313	105.81
480.532	88.81
480.751	107.81
480.969	187.81
481.188	436.81
481.406	288.81
481.624	118.81
481.843	95.81
482.061	101.81
482.28	113.81
482.498	95.81
482.717	81.81
482.935	90.81
483.153	89.81
483.372	93.81
483.59	82.81
483.808	83.81
484.027	98.81
484.245	96.81
484.463	84.81
484.681	96.81
484.9	96.81
485.118	95.81
485.336	83.81
485.554	82.81
485.772	88.81
485.99	95.81
486.209	116.81
486.427	102.81
486.645	123.81
486.863	102.81
487.081	75.81
487.299	94.81
487.517	98.81
487.735	97.81
487.953	98.81
488.171	83.81
488.389	87.81
488.607	102.81
488.825	89.81
489.043	95.81
489.261	90.81
489.479	81.81
489.696	85.81
489.914	86.81
490.132	93.81
490.35	93.81
490.568	72.81
490.786	84.81
491.003	83.81
491.221	100.81
491.439	95.81
491.657	91.81
491.874	88.81
492.092	96.81
492.31	96.81
492.527	85.81
492.745	96.81
492.963	82.81
493.18	93.81
493.398	77.81
493.615	98.81
493.833	98.81
494.05	99.81
494.268	94.81
494.485	84.81
494.703	97.81
494.92	113.81
495.138	92.81
495.355	89.81
495.573	91.81
495.79	86.81
496.008	93.81
496.225	86.81
496.442	67.81
496.66	93.81
496.877	77.81
497.094	73.81
497.312	87.81
497.529	83.81
497.746	86.81
497.963	76.81
498.181	89.81
498.398	101.81
498.615	97.81
498.832	85.81
499.049	88.81
499.267	112.81
499.484	86.81
499.701	92.81
499.918	72.81
500.135	99.81
500.352	78.81
500.569	81.81
500.786	83.81
501.003	103.81
501.22	85.81
501.437	92.81
501.654	93.81
501.871	109.81
502.088	87.81
502.305	87.81
502.522	80.81
502.739	103.81
502.956	93.81
503.172	98.81
503.389	90.81
503.606	93.81
503.823	95.81
504.04	92.81
504.256	90.81
504.473	85.81
504.69	89.81
504.907	97.81
505.123	80.81
505.34	86.81
505.557	86.81
505.773	85.81
505.99	93.81
506.207	89.81
506.423	77.81
506.64	83.81
506.856	100.81
507.073	96.81
507.289	114.81
507.506	96.81
507.722	104.81
507.939	104.81
508.155	99.81
508.372	95.81
508.588	92.81
508.805	101.81
509.021	93.81
509.238	86.81
509.454	103.81
509.67	104.81
509.887	123.81
510.103	133.81
510.319	230.81
510.536	837.81
510.752	2769.81
510.968	760.81
511.184	161.81
511.401	119.81
511.617	100.81
511.833	83.81
512.049	94.81
512.265	100.81
512.481	92.81
512.698	99.81
512.914	90.81
513.13	100.81
513.346	87.81
513.562	85.81
513.778	105.81
513.994	88.81
514.21	93.81
514.426	111.81
514.642	126.81
514.858	121.81
515.074	152.81
515.29	499.81
515.506	1625.81
515.721	576.81
515.937	153.81
