Data from Circ_2003_H10_HRD10591_00075.txt Node
Date: Wed Jan 03 10:37:17 EST 2024
User: Yrep
Spectrometer: HR+D1059
Trigger mode: 1
Integration Time (sec): 1.000000E-1
Scans to average: 1
Electric dark correction enabled: true
Nonlinearity correction enabled: false
Boxcar width: 0
XAxis mode: Wavelengths
Number of Pixels in Spectrum: 2048
>>>>>Begin Spectral Data<<<<<
223.165	-8.12
223.4	-8.12
223.635	-8.12
223.869	-16.12
224.104	-17.12
224.338	-20.12
224.573	-13.12
224.808	-9.12
225.042	-8.12
225.277	-6.12
225.511	-7.12
225.746	1.88
225.98	-0.12
226.215	17.88
226.449	19.88
226.683	21.88
226.918	21.88
227.152	21.88
227.387	26.88
227.621	35.88
227.856	38.88
228.09	53.88
228.324	48.88
228.559	66.88
228.793	56.88
229.027	65.88
229.262	72.88
229.496	62.88
229.73	79.88
229.964	86.88
230.199	69.88
230.433	71.88
230.667	66.88
230.901	65.88
231.136	77.88
231.37	90.88
231.604	84.88
231.838	90.88
232.072	78.88
232.306	89.88
232.541	91.88
232.775	84.88
233.009	81.88
233.243	77.88
233.477	74.88
233.711	82.88
233.945	80.88
234.179	87.88
234.413	83.88
234.647	94.88
234.881	89.88
235.115	76.88
235.349	74.88
235.583	77.88
235.817	83.88
236.051	79.88
236.285	83.88
236.519	71.88
236.753	70.88
236.987	67.88
237.221	74.88
237.455	78.88
237.689	80.88
237.922	82.88
238.156	73.88
238.39	83.88
238.624	90.88
238.858	72.88
239.091	87.88
239.325	74.88
239.559	70.88
239.793	65.88
240.027	76.88
240.26	73.88
240.494	72.88
240.728	68.88
240.961	65.88
241.195	84.88
241.429	76.88
241.662	87.88
241.896	97.88
242.13	87.88
242.363	81.88
242.597	100.88
242.83	65.88
243.064	77.88
243.298	79.88
243.531	84.88
243.765	82.88
243.998	83.88
244.232	90.88
244.465	90.88
244.699	65.88
244.932	83.88
245.166	82.88
245.399	101.88
245.633	86.88
245.866	68.88
246.099	84.88
246.333	78.88
246.566	72.88
246.8	79.88
247.033	75.88
247.266	64.88
247.5	82.88
247.733	68.88
247.966	79.88
248.2	77.88
248.433	75.88
248.666	72.88
248.899	78.88
249.133	93.88
249.366	100.88
249.599	91.88
249.832	86.88
250.066	89.88
250.299	86.88
250.532	78.88
250.765	85.88
250.998	72.88
251.231	72.88
251.465	71.88
251.698	69.88
251.931	79.88
252.164	91.88
252.397	101.88
252.63	74.88
252.863	83.88
253.096	73.88
253.329	84.88
253.562	71.88
253.795	75.88
254.028	87.88
254.261	69.88
254.494	71.88
254.727	87.88
254.96	74.88
255.193	83.88
255.426	86.88
255.659	87.88
255.892	82.88
256.124	78.88
256.357	81.88
256.59	72.88
256.823	96.88
257.056	97.88
257.289	55.88
257.521	78.88
257.754	86.88
257.987	76.88
258.22	82.88
258.452	82.88
258.685	64.88
258.918	87.88
259.151	84.88
259.383	66.88
259.616	92.88
259.849	66.88
260.081	89.88
260.314	70.88
260.547	79.88
260.779	75.88
261.012	64.88
261.244	94.88
261.477	88.88
261.71	103.88
261.942	104.88
262.175	112.88
262.407	90.88
262.64	86.88
262.872	89.88
263.105	90.88
263.337	98.88
263.57	80.88
263.802	84.88
264.035	86.88
264.267	78.88
264.499	89.88
264.732	97.88
264.964	87.88
265.197	78.88
265.429	83.88
265.661	85.88
265.894	90.88
266.126	102.88
266.358	88.88
266.591	74.88
266.823	91.88
267.055	84.88
267.287	87.88
267.52	84.88
267.752	79.88
267.984	87.88
268.216	94.88
268.448	91.88
268.681	83.88
268.913	92.88
269.145	82.88
269.377	83.88
269.609	86.88
269.841	91.88
270.073	89.88
270.306	84.88
270.538	96.88
270.77	83.88
271.002	84.88
271.234	77.88
271.466	90.88
271.698	82.88
271.93	82.88
272.162	87.88
272.394	80.88
272.626	100.88
272.858	82.88
273.09	84.88
273.322	80.88
273.553	82.88
273.785	87.88
274.017	81.88
274.249	91.88
274.481	87.88
274.713	88.88
274.945	102.88
275.176	94.88
275.408	98.88
275.64	88.88
275.872	86.88
276.104	97.88
276.335	107.88
276.567	97.88
276.799	100.88
277.031	94.88
277.262	87.88
277.494	86.88
277.726	89.88
277.957	82.88
278.189	75.88
278.421	96.88
278.652	86.88
278.884	91.88
279.115	97.88
279.347	86.88
279.579	90.88
279.81	87.88
280.042	86.88
280.273	88.88
280.505	88.88
280.736	81.88
280.968	84.88
281.199	86.88
281.431	56.88
281.662	83.88
281.894	100.88
282.125	89.88
282.356	104.88
282.588	130.88
282.819	107.88
283.051	94.88
283.282	79.88
283.513	93.88
283.745	86.88
283.976	93.88
284.207	83.88
284.439	95.88
284.67	109.88
284.901	91.88
285.132	82.88
285.364	82.88
285.595	77.88
285.826	86.88
286.057	85.88
286.288	85.88
286.52	91.88
286.751	88.88
286.982	97.88
287.213	86.88
287.444	85.88
287.675	79.88
287.906	93.88
288.138	89.88
288.369	80.88
288.6	94.88
288.831	93.88
289.062	87.88
289.293	102.88
289.524	88.88
289.755	91.88
289.986	81.88
290.217	87.88
290.448	94.88
290.679	86.88
290.91	94.88
291.141	80.88
291.371	83.88
291.602	80.88
291.833	93.88
292.064	98.88
292.295	81.88
292.526	91.88
292.757	87.88
292.987	97.88
293.218	87.88
293.449	83.88
293.68	90.88
293.91	87.88
294.141	95.88
294.372	83.88
294.603	79.88
294.833	102.88
295.064	94.88
295.295	89.88
295.525	84.88
295.756	109.88
295.987	108.88
296.217	139.88
296.448	105.88
296.679	94.88
296.909	97.88
297.14	86.88
297.37	100.88
297.601	102.88
297.831	82.88
298.062	95.88
298.292	98.88
298.523	80.88
298.753	89.88
298.984	98.88
299.214	88.88
299.445	80.88
299.675	91.88
299.905	95.88
300.136	93.88
300.366	112.88
300.597	98.88
300.827	87.88
301.057	92.88
301.288	98.88
301.518	102.88
301.748	95.88
301.979	98.88
302.209	96.88
302.439	84.88
302.669	99.88
302.9	89.88
303.13	87.88
303.36	79.88
303.59	92.88
303.82	108.88
304.051	83.88
304.281	95.88
304.511	96.88
304.741	82.88
304.971	82.88
305.201	87.88
305.431	85.88
305.661	91.88
305.891	85.88
306.121	104.88
306.352	110.88
306.582	105.88
306.812	91.88
307.042	91.88
307.272	85.88
307.502	98.88
307.731	113.88
307.961	94.88
308.191	74.88
308.421	87.88
308.651	103.88
308.881	94.88
309.111	91.88
309.341	82.88
309.571	103.88
309.8	111.88
310.03	82.88
310.26	98.88
310.49	90.88
310.72	89.88
310.949	102.88
311.179	96.88
311.409	89.88
311.639	88.88
311.868	89.88
312.098	80.88
312.328	85.88
312.557	86.88
312.787	109.88
313.017	97.88
313.246	90.88
313.476	85.88
313.706	92.88
313.935	87.88
314.165	88.88
314.394	99.88
314.624	102.88
314.853	98.88
315.083	90.88
315.312	80.88
315.542	86.88
315.771	97.88
316.001	113.88
316.23	95.88
316.46	97.88
316.689	84.88
316.919	95.88
317.148	94.88
317.377	92.88
317.607	79.88
317.836	91.88
318.065	89.88
318.295	89.88
318.524	83.88
318.753	108.88
318.983	90.88
319.212	91.88
319.441	90.88
319.67	97.88
319.9	89.88
320.129	89.88
320.358	97.88
320.587	100.88
320.816	93.88
321.046	116.88
321.275	104.88
321.504	105.88
321.733	98.88
321.962	110.88
322.191	96.88
322.42	110.88
322.649	121.88
322.878	94.88
323.108	113.88
323.337	106.88
323.566	127.88
323.795	150.88
324.024	178.88
324.253	353.88
324.482	766.88
324.71	1548.88
324.939	2055.88
325.168	762.88
325.397	228.88
325.626	138.88
325.855	116.88
326.084	116.88
326.313	127.88
326.542	144.88
326.77	219.88
326.999	422.88
327.228	885.88
327.457	1584.88
327.686	1314.88
327.914	359.88
328.143	191.88
328.372	161.88
328.6	124.88
328.829	122.88
329.058	115.88
329.287	112.88
329.515	104.88
329.744	100.88
329.972	126.88
330.201	147.88
330.43	164.88
330.658	152.88
330.887	112.88
331.115	110.88
331.344	92.88
331.572	102.88
331.801	104.88
332.03	99.88
332.258	111.88
332.486	103.88
332.715	85.88
332.943	106.88
333.172	101.88
333.4	95.88
333.629	98.88
333.857	112.88
334.085	137.88
334.314	154.88
334.542	183.88
334.771	193.88
334.999	114.88
335.227	105.88
335.455	76.88
335.684	85.88
335.912	100.88
336.14	96.88
336.369	99.88
336.597	86.88
336.825	100.88
337.053	82.88
337.281	88.88
337.51	91.88
337.738	83.88
337.966	92.88
338.194	100.88
338.422	104.88
338.65	88.88
338.878	99.88
339.106	85.88
339.334	88.88
339.562	100.88
339.79	94.88
340.018	92.88
340.246	88.88
340.474	81.88
340.702	103.88
340.93	95.88
341.158	84.88
341.386	91.88
341.614	97.88
341.842	107.88
342.07	94.88
342.298	96.88
342.526	85.88
342.754	88.88
342.981	91.88
343.209	81.88
343.437	95.88
343.665	100.88
343.893	95.88
344.12	95.88
344.348	72.88
344.576	85.88
344.804	87.88
345.031	95.88
345.259	88.88
345.487	110.88
345.714	99.88
345.942	95.88
346.17	93.88
346.397	98.88
346.625	97.88
346.853	89.88
347.08	72.88
347.308	73.88
347.535	86.88
347.763	91.88
347.99	96.88
348.218	97.88
348.445	102.88
348.673	103.88
348.9	86.88
349.128	101.88
349.355	85.88
349.583	95.88
349.81	90.88
350.037	100.88
350.265	100.88
350.492	97.88
350.72	106.88
350.947	108.88
351.174	113.88
351.402	105.88
351.629	103.88
351.856	104.88
352.083	106.88
352.311	103.88
352.538	131.88
352.765	113.88
352.992	115.88
353.22	115.88
353.447	105.88
353.674	90.88
353.901	90.88
354.128	92.88
354.355	87.88
354.583	103.88
354.81	107.88
355.037	88.88
355.264	83.88
355.491	92.88
355.718	79.88
355.945	86.88
356.172	89.88
356.399	83.88
356.626	101.88
356.853	88.88
357.08	81.88
357.307	93.88
357.534	87.88
357.761	104.88
357.988	89.88
358.215	96.88
358.441	103.88
358.668	91.88
358.895	90.88
359.122	86.88
359.349	86.88
359.576	90.88
359.802	94.88
360.029	86.88
360.256	105.88
360.483	97.88
360.709	110.88
360.936	106.88
361.163	72.88
361.39	87.88
361.616	85.88
361.843	103.88
362.07	83.88
362.296	85.88
362.523	85.88
362.749	99.88
362.976	90.88
363.203	88.88
363.429	83.88
363.656	88.88
363.882	82.88
364.109	76.88
364.335	89.88
364.562	90.88
364.788	75.88
365.015	96.88
365.241	102.88
365.468	99.88
365.694	111.88
365.92	91.88
366.147	75.88
366.373	100.88
366.599	96.88
366.826	85.88
367.052	88.88
367.278	88.88
367.505	98.88
367.731	98.88
367.957	88.88
368.184	87.88
368.41	95.88
368.636	120.88
368.862	102.88
369.089	89.88
369.315	99.88
369.541	87.88
369.767	84.88
369.993	87.88
370.219	94.88
370.445	85.88
370.672	88.88
370.898	82.88
371.124	97.88
371.35	104.88
371.576	85.88
371.802	84.88
372.028	94.88
372.254	79.88
372.48	84.88
372.706	98.88
372.932	87.88
373.158	74.88
373.384	95.88
373.61	99.88
373.835	88.88
374.061	94.88
374.287	90.88
374.513	93.88
374.739	98.88
374.965	94.88
375.191	91.88
375.416	84.88
375.642	105.88
375.868	93.88
376.094	91.88
376.319	72.88
376.545	85.88
376.771	98.88
376.997	81.88
377.222	83.88
377.448	82.88
377.674	91.88
377.899	95.88
378.125	84.88
378.35	89.88
378.576	84.88
378.802	80.88
379.027	98.88
379.253	107.88
379.478	91.88
379.704	88.88
379.929	104.88
380.155	101.88
380.38	95.88
380.606	94.88
380.831	96.88
381.057	98.88
381.282	94.88
381.507	98.88
381.733	98.88
381.958	102.88
382.184	106.88
382.409	88.88
382.634	90.88
382.86	100.88
383.085	112.88
383.31	101.88
383.535	104.88
383.761	102.88
383.986	92.88
384.211	104.88
384.436	112.88
384.662	105.88
384.887	122.88
385.112	101.88
385.337	105.88
385.562	112.88
385.787	113.88
386.013	105.88
386.238	97.88
386.463	104.88
386.688	112.88
386.913	103.88
387.138	108.88
387.363	99.88
387.588	102.88
387.813	99.88
388.038	97.88
388.263	110.88
388.488	119.88
388.713	90.88
388.938	83.88
389.163	98.88
389.387	95.88
389.612	89.88
389.837	82.88
390.062	98.88
390.287	103.88
390.512	83.88
390.736	75.88
390.961	83.88
391.186	91.88
391.411	99.88
391.636	85.88
391.86	91.88
392.085	82.88
392.31	79.88
392.534	90.88
392.759	85.88
392.984	101.88
393.208	92.88
393.433	89.88
393.658	92.88
393.882	87.88
394.107	90.88
394.331	92.88
394.556	82.88
394.78	78.88
395.005	99.88
395.229	84.88
395.454	89.88
395.678	91.88
395.903	92.88
396.127	76.88
396.352	89.88
396.576	79.88
396.801	82.88
397.025	92.88
397.249	98.88
397.474	88.88
397.698	98.88
397.922	87.88
398.147	89.88
398.371	77.88
398.595	82.88
398.82	66.88
399.044	67.88
399.268	74.88
399.492	98.88
399.717	89.88
399.941	78.88
400.165	95.88
400.389	95.88
400.613	84.88
400.837	86.88
401.062	93.88
401.286	75.88
401.51	95.88
401.734	95.88
401.958	99.88
402.182	128.88
402.406	154.88
402.63	110.88
402.854	94.88
403.078	92.88
403.302	89.88
403.526	93.88
403.75	88.88
403.974	67.88
404.198	86.88
404.422	90.88
404.645	86.88
404.869	103.88
405.093	96.88
405.317	83.88
405.541	103.88
405.765	93.88
405.988	105.88
406.212	153.88
406.436	207.88
406.66	135.88
406.883	110.88
407.107	88.88
407.331	96.88
407.555	102.88
407.778	107.88
408.002	78.88
408.226	86.88
408.449	96.88
408.673	74.88
408.896	99.88
409.12	92.88
409.344	91.88
409.567	90.88
409.791	99.88
410.014	92.88
410.238	80.88
410.461	98.88
410.685	96.88
410.908	98.88
411.132	104.88
411.355	90.88
411.578	91.88
411.802	95.88
412.025	83.88
412.249	89.88
412.472	101.88
412.695	99.88
412.919	98.88
413.142	101.88
413.365	95.88
413.589	91.88
413.812	91.88
414.035	90.88
414.258	87.88
414.482	92.88
414.705	91.88
414.928	87.88
415.151	105.88
415.374	91.88
415.597	87.88
415.821	92.88
416.044	88.88
416.267	86.88
416.49	87.88
416.713	95.88
416.936	91.88
417.159	96.88
417.382	96.88
417.605	78.88
417.828	90.88
418.051	90.88
418.274	101.88
418.497	94.88
418.72	81.88
418.943	95.88
419.166	87.88
419.389	109.88
419.611	91.88
419.834	92.88
420.057	80.88
420.28	75.88
420.503	99.88
420.726	83.88
420.948	87.88
421.171	86.88
421.394	98.88
421.617	90.88
421.839	91.88
422.062	92.88
422.285	87.88
422.507	102.88
422.73	105.88
422.953	104.88
423.175	80.88
423.398	95.88
423.621	94.88
423.843	91.88
424.066	91.88
424.288	88.88
424.511	101.88
424.733	97.88
424.956	94.88
425.178	98.88
425.401	102.88
425.623	96.88
425.846	95.88
426.068	94.88
426.291	94.88
426.513	97.88
426.735	98.88
426.958	94.88
427.18	92.88
427.402	122.88
427.625	157.88
427.847	134.88
428.069	115.88
428.292	98.88
428.514	88.88
428.736	94.88
428.958	86.88
429.181	87.88
429.403	91.88
429.625	86.88
429.847	102.88
430.069	95.88
430.292	85.88
430.514	98.88
430.736	94.88
430.958	79.88
431.18	74.88
431.402	74.88
431.624	87.88
431.846	101.88
432.068	70.88
432.29	96.88
432.512	87.88
432.734	96.88
432.956	95.88
433.178	95.88
433.4	111.88
433.622	89.88
433.844	87.88
434.066	90.88
434.287	95.88
434.509	93.88
434.731	98.88
434.953	83.88
435.175	95.88
435.397	98.88
435.618	99.88
435.84	108.88
436.062	100.88
436.284	116.88
436.505	101.88
436.727	103.88
436.949	97.88
437.17	86.88
437.392	95.88
437.614	98.88
437.835	105.88
438.057	102.88
438.278	98.88
438.5	87.88
438.721	108.88
438.943	100.88
439.165	86.88
439.386	87.88
439.608	95.88
439.829	93.88
440.05	104.88
440.272	137.88
440.493	101.88
440.715	74.88
440.936	80.88
441.158	91.88
441.379	88.88
441.6	92.88
441.822	99.88
442.043	96.88
442.264	96.88
442.486	100.88
442.707	80.88
442.928	106.88
443.149	122.88
443.371	134.88
443.592	111.88
443.813	114.88
444.034	111.88
444.255	100.88
444.476	89.88
444.698	71.88
444.919	88.88
445.14	110.88
445.361	118.88
445.582	115.88
445.803	127.88
446.024	123.88
446.245	124.88
446.466	109.88
446.687	85.88
446.908	86.88
447.129	89.88
447.35	88.88
447.571	91.88
447.792	96.88
448.013	98.88
448.234	103.88
448.455	99.88
448.675	96.88
448.896	107.88
449.117	102.88
449.338	96.88
449.559	121.88
449.779	115.88
450	100.88
450.221	71.88
450.442	83.88
450.662	81.88
450.883	98.88
451.104	100.88
451.324	92.88
451.545	78.88
451.766	99.88
451.986	87.88
452.207	88.88
452.428	82.88
452.648	102.88
452.869	93.88
453.089	99.88
453.31	121.88
453.53	99.88
453.751	92.88
453.971	97.88
454.192	89.88
454.412	85.88
454.633	95.88
454.853	84.88
455.073	80.88
455.294	78.88
455.514	104.88
455.734	87.88
455.955	88.88
456.175	78.88
456.395	81.88
456.616	100.88
456.836	101.88
457.056	92.88
457.276	86.88
457.497	76.88
457.717	84.88
457.937	78.88
458.157	89.88
458.377	86.88
458.598	114.88
458.818	137.88
459.038	144.88
459.258	91.88
459.478	94.88
459.698	85.88
459.918	92.88
460.138	88.88
460.358	88.88
460.578	82.88
460.798	74.88
461.018	91.88
461.238	82.88
461.458	95.88
461.678	91.88
461.898	90.88
462.118	89.88
462.338	79.88
462.558	90.88
462.777	85.88
462.997	90.88
463.217	83.88
463.437	91.88
463.657	72.88
463.876	79.88
464.096	90.88
464.316	86.88
464.536	102.88
464.755	110.88
464.975	105.88
465.195	153.88
465.414	144.88
465.634	99.88
465.854	87.88
466.073	91.88
466.293	88.88
466.512	77.88
466.732	75.88
466.951	83.88
467.171	91.88
467.391	99.88
467.61	111.88
467.829	94.88
468.049	111.88
468.268	121.88
468.488	103.88
468.707	87.88
468.927	83.88
469.146	88.88
469.365	100.88
469.585	83.88
469.804	95.88
470.023	87.88
470.243	85.88
470.462	111.88
470.681	101.88
470.901	95.88
471.12	86.88
471.339	89.88
471.558	82.88
471.777	88.88
471.997	105.88
472.216	156.88
472.435	230.88
472.654	124.88
472.873	100.88
473.092	90.88
473.311	94.88
473.53	86.88
473.749	89.88
473.968	93.88
474.187	104.88
474.406	90.88
474.625	88.88
474.844	86.88
475.063	85.88
475.282	79.88
475.501	95.88
475.72	86.88
475.939	89.88
476.158	88.88
476.377	90.88
476.596	86.88
476.814	98.88
477.033	97.88
477.252	87.88
477.471	84.88
477.69	105.88
477.908	94.88
478.127	75.88
478.346	96.88
478.564	92.88
478.783	86.88
479.002	94.88
479.22	90.88
479.439	97.88
479.658	107.88
479.876	98.88
480.095	85.88
480.313	90.88
480.532	88.88
480.751	103.88
480.969	166.88
481.188	370.88
481.406	247.88
481.624	106.88
481.843	88.88
482.061	97.88
482.28	86.88
482.498	98.88
482.717	94.88
482.935	80.88
483.153	91.88
483.372	86.88
483.59	96.88
483.808	70.88
484.027	99.88
484.245	82.88
484.463	86.88
484.681	107.88
484.9	86.88
485.118	108.88
485.336	100.88
485.554	94.88
485.772	105.88
485.99	102.88
486.209	92.88
486.427	95.88
486.645	111.88
486.863	123.88
487.081	92.88
487.299	96.88
487.517	105.88
487.735	96.88
487.953	107.88
488.171	98.88
488.389	89.88
488.607	97.88
488.825	96.88
489.043	93.88
489.261	96.88
489.479	83.88
489.696	90.88
489.914	86.88
490.132	98.88
490.35	85.88
490.568	99.88
490.786	75.88
491.003	88.88
491.221	86.88
491.439	100.88
491.657	92.88
491.874	100.88
492.092	98.88
492.31	74.88
492.527	96.88
492.745	82.88
492.963	103.88
493.18	90.88
493.398	98.88
493.615	88.88
493.833	83.88
494.05	95.88
494.268	91.88
494.485	91.88
494.703	96.88
494.92	89.88
495.138	98.88
495.355	98.88
495.573	104.88
495.79	95.88
496.008	80.88
496.225	90.88
496.442	84.88
496.66	92.88
496.877	87.88
497.094	85.88
497.312	83.88
497.529	88.88
497.746	92.88
497.963	95.88
498.181	86.88
498.398	96.88
498.615	106.88
498.832	86.88
499.049	102.88
499.267	95.88
499.484	84.88
499.701	84.88
499.918	91.88
500.135	101.88
500.352	95.88
500.569	90.88
500.786	88.88
501.003	94.88
501.22	87.88
501.437	99.88
501.654	86.88
501.871	105.88
502.088	85.88
502.305	84.88
502.522	82.88
502.739	85.88
502.956	87.88
503.172	86.88
503.389	103.88
503.606	106.88
503.823	83.88
504.04	101.88
504.256	92.88
504.473	95.88
504.69	82.88
504.907	76.88
505.123	71.88
505.34	104.88
505.557	95.88
505.773	75.88
505.99	94.88
506.207	104.88
506.423	95.88
506.64	88.88
506.856	101.88
507.073	88.88
507.289	89.88
507.506	102.88
507.722	115.88
507.939	105.88
508.155	94.88
508.372	94.88
508.588	107.88
508.805	92.88
509.021	78.88
509.238	100.88
509.454	88.88
509.67	100.88
509.887	94.88
510.103	122.88
510.319	198.88
510.536	703.88
510.752	2294.88
510.968	645.88
511.184	156.88
511.401	102.88
511.617	99.88
511.833	104.88
512.049	85.88
512.265	88.88
512.481	98.88
512.698	82.88
512.914	81.88
513.13	97.88
513.346	94.88
513.562	94.88
513.778	91.88
513.994	82.88
514.21	91.88
514.426	104.88
514.642	130.88
514.858	114.88
515.074	150.88
515.29	412.88
515.506	1288.88
515.721	496.88
