Data from Circ_2003_H10_HRD10591_00038.txt Node
Date: Wed Jan 03 10:37:10 EST 2024
User: Yrep
Spectrometer: HR+D1059
Trigger mode: 1
Integration Time (sec): 1.000000E-1
Scans to average: 1
Electric dark correction enabled: true
Nonlinearity correction enabled: false
Boxcar width: 0
XAxis mode: Wavelengths
Number of Pixels in Spectrum: 2048
>>>>>Begin Spectral Data<<<<<
223.165	-19.31
223.4	-19.31
223.635	-19.31
223.869	-11.31
224.104	-18.31
224.338	-6.31
224.573	-26.31
224.808	-15.31
225.042	2.69
225.277	-12.31
225.511	-0.31
225.746	6.69
225.98	2.69
226.215	-1.31
226.449	16.69
226.683	22.69
226.918	35.69
227.152	23.69
227.387	38.69
227.621	44.69
227.856	41.69
228.09	47.69
228.324	50.69
228.559	63.69
228.793	157.69
229.027	456.69
229.262	495.69
229.496	574.69
229.73	793.69
229.964	791.69
230.199	525.69
230.433	473.69
230.667	461.69
230.901	450.69
231.136	422.69
231.37	423.69
231.604	430.69
231.838	419.69
232.072	447.69
232.306	430.69
232.541	482.69
232.775	465.69
233.009	449.69
233.243	461.69
233.477	476.69
233.711	479.69
233.945	489.69
234.179	516.69
234.413	499.69
234.647	486.69
234.881	497.69
235.115	529.69
235.349	535.69
235.583	562.69
235.817	564.69
236.051	597.69
236.285	571.69
236.519	605.69
236.753	682.69
236.987	913.69
237.221	1366.69
237.455	1471.69
237.689	849.69
237.922	730.69
238.156	705.69
238.39	684.69
238.624	628.69
238.858	611.69
239.091	633.69
239.325	662.69
239.559	660.69
239.793	707.69
240.027	749.69
240.26	878.69
240.494	939.69
240.728	909.69
240.961	882.69
241.195	794.69
241.429	742.69
241.662	745.69
241.896	759.69
242.13	753.69
242.363	772.69
242.597	769.69
242.83	800.69
243.064	812.69
243.298	777.69
243.531	791.69
243.765	785.69
243.998	833.69
244.232	852.69
244.465	863.69
244.699	898.69
244.932	875.69
245.166	869.69
245.399	893.69
245.633	866.69
245.866	865.69
246.099	878.69
246.333	930.69
246.566	917.69
246.8	933.69
247.033	984.69
247.266	1014.69
247.5	1085.69
247.733	1152.69
247.966	1104.69
248.2	1128.69
248.433	1121.69
248.666	1142.69
248.899	1297.69
249.133	1415.69
249.366	1392.69
249.599	1255.69
249.832	1155.69
250.066	1206.69
250.299	1243.69
250.532	1352.69
250.765	1517.69
250.998	1692.69
251.231	1594.69
251.465	1453.69
251.698	1385.69
251.931	1349.69
252.164	1359.69
252.397	1376.69
252.63	1423.69
252.863	1482.69
253.096	1623.69
253.329	1658.69
253.562	1589.69
253.795	1506.69
254.028	1527.69
254.261	1519.69
254.494	1791.69
254.727	2111.69
254.96	2167.69
255.193	1915.69
255.426	1689.69
255.659	1566.69
255.892	1591.69
256.124	1628.69
256.357	1625.69
256.59	1561.69
256.823	1470.69
257.056	1490.69
257.289	1488.69
257.521	1497.69
257.754	1505.69
257.987	1497.69
258.22	1470.69
258.452	1496.69
258.685	1518.69
258.918	1537.69
259.151	1569.69
259.383	1694.69
259.616	1665.69
259.849	1717.69
260.081	1889.69
260.314	2032.69
260.547	1955.69
260.779	1803.69
261.012	1721.69
261.244	1666.69
261.477	1640.69
261.71	1624.69
261.942	1691.69
262.175	1780.69
262.407	1703.69
262.64	1606.69
262.872	1600.69
263.105	1574.69
263.337	1581.69
263.57	1655.69
263.802	1639.69
264.035	1613.69
264.267	1636.69
264.499	1665.69
264.732	1653.69
264.964	1645.69
265.197	1683.69
265.429	1693.69
265.661	1703.69
265.894	1672.69
266.126	1742.69
266.358	1729.69
266.591	1739.69
266.823	1829.69
267.055	1862.69
267.287	1831.69
267.52	1783.69
267.752	1813.69
267.984	1836.69
268.216	1853.69
268.448	1901.69
268.681	1974.69
268.913	2103.69
269.145	2277.69
269.377	2349.69
269.609	2237.69
269.841	2205.69
270.073	2357.69
270.306	2638.69
270.538	2759.69
270.77	2591.69
271.002	2459.69
271.234	2406.69
271.466	2599.69
271.698	2720.69
271.93	2685.69
272.162	2705.69
272.394	2599.69
272.626	2418.69
272.858	2330.69
273.09	2241.69
273.322	2173.69
273.553	2189.69
273.785	2187.69
274.017	2183.69
274.249	2175.69
274.481	2238.69
274.713	2249.69
274.945	2266.69
275.176	2247.69
275.408	2266.69
275.64	2229.69
275.872	2196.69
276.104	2275.69
276.335	2313.69
276.567	2375.69
276.799	2527.69
277.031	2830.69
277.262	2846.69
277.494	2714.69
277.726	2532.69
277.957	2431.69
278.189	2369.69
278.421	2316.69
278.652	2315.69
278.884	2350.69
279.115	2342.69
279.347	2354.69
279.579	2311.69
279.81	2322.69
280.042	2381.69
280.273	2355.69
280.505	2364.69
280.736	2381.69
280.968	2381.69
281.199	2371.69
281.431	2430.69
281.662	2402.69
281.894	2416.69
282.125	2501.69
282.356	2673.69
282.588	2819.69
282.819	2652.69
283.051	2513.69
283.282	2477.69
283.513	2530.69
283.745	2573.69
283.976	2569.69
284.207	2623.69
284.439	2607.69
284.67	2586.69
284.901	2626.69
285.132	2604.69
285.364	2585.69
285.595	2611.69
285.826	2597.69
286.057	2667.69
286.288	2646.69
286.52	2669.69
286.751	2643.69
286.982	2679.69
287.213	2701.69
287.444	2778.69
287.675	2725.69
287.906	2825.69
288.138	2911.69
288.369	2843.69
288.6	2873.69
288.831	2843.69
289.062	2763.69
289.293	2783.69
289.524	2815.69
289.755	2793.69
289.986	2813.69
290.217	2762.69
290.448	2785.69
290.679	2790.69
290.91	2790.69
291.141	2773.69
291.371	2808.69
291.602	2789.69
291.833	2825.69
292.064	2825.69
292.295	2805.69
292.526	2832.69
292.757	2792.69
292.987	2829.69
293.218	2833.69
293.449	2842.69
293.68	2868.69
293.91	2822.69
294.141	2805.69
294.372	2877.69
294.603	2841.69
294.833	2834.69
295.064	2849.69
295.295	2874.69
295.525	2858.69
295.756	2933.69
295.987	3000.69
296.217	3207.69
296.448	3107.69
296.679	2970.69
296.909	2938.69
297.14	2937.69
297.37	3011.69
297.601	3041.69
297.831	2996.69
298.062	2993.69
298.292	3058.69
298.523	3104.69
298.753	3109.69
298.984	3073.69
299.214	3034.69
299.445	3057.69
299.675	3085.69
299.905	3143.69
300.136	3101.69
300.366	3129.69
300.597	3141.69
300.827	3233.69
301.057	3279.69
301.288	3391.69
301.518	3351.69
301.748	3325.69
301.979	3382.69
302.209	3413.69
302.439	3317.69
302.669	3307.69
302.9	3290.69
303.13	3286.69
303.36	3315.69
303.59	3361.69
303.82	3381.69
304.051	3380.69
304.281	3298.69
304.511	3241.69
304.741	3282.69
304.971	3312.69
305.201	3239.69
305.431	3231.69
305.661	3238.69
305.891	3263.69
306.121	3283.69
306.352	3309.69
306.582	3311.69
306.812	3221.69
307.042	3287.69
307.272	3321.69
307.502	3345.69
307.731	3275.69
307.961	3257.69
308.191	3282.69
308.421	3256.69
308.651	3308.69
308.881	3281.69
309.111	3333.69
309.341	3372.69
309.571	3392.69
309.8	3498.69
310.03	3583.69
310.26	3519.69
310.49	3594.69
310.72	3698.69
310.949	3766.69
311.179	3764.69
311.409	3611.69
311.639	3658.69
311.868	3598.69
312.098	3652.69
312.328	3733.69
312.557	3898.69
312.787	4014.69
313.017	3834.69
313.246	3760.69
313.476	3739.69
313.706	3771.69
313.935	3870.69
314.165	3977.69
314.394	3995.69
314.624	3902.69
314.853	3817.69
315.083	3782.69
315.312	3762.69
315.542	3713.69
315.771	3691.69
316.001	3637.69
316.23	3667.69
316.46	3683.69
316.689	3692.69
316.919	3723.69
317.148	3795.69
317.377	3733.69
317.607	3729.69
317.836	3722.69
318.065	3694.69
318.295	3697.69
318.524	3633.69
318.753	3635.69
318.983	3666.69
319.212	3710.69
319.441	3728.69
319.67	3777.69
319.9	3712.69
320.129	3746.69
320.358	3750.69
320.587	3695.69
320.816	3794.69
321.046	3797.69
321.275	3877.69
321.504	3865.69
321.733	3877.69
321.962	3892.69
322.191	4015.69
322.42	4115.69
322.649	4192.69
322.878	4243.69
323.108	4310.69
323.337	4534.69
323.566	4775.69
323.795	5055.69
324.024	5637.69
324.253	7433.69
324.482	11190.69
324.71	15351.69
324.939	15611.69
325.168	13141.69
325.397	6660.69
325.626	5316.69
325.855	4857.69
326.084	4779.69
326.313	4802.69
326.542	4989.69
326.77	5622.69
326.999	7128.69
327.228	10461.69
327.457	14439.69
327.686	13669.69
327.914	7462.69
328.143	5918.69
328.372	5537.69
328.6	5253.69
328.829	5179.69
329.058	5457.69
329.287	5398.69
329.515	5037.69
329.744	4823.69
329.972	4946.69
330.201	5065.69
330.43	5377.69
330.658	5585.69
330.887	5801.69
331.115	5461.69
331.344	4952.69
331.572	4929.69
331.801	5110.69
332.03	5036.69
332.258	4959.69
332.486	4948.69
332.715	5073.69
332.943	5258.69
333.172	5377.69
333.4	5579.69
333.629	5603.69
333.857	5747.69
334.085	5711.69
334.314	5783.69
334.542	5832.69
334.771	5691.69
334.999	5366.69
335.227	5256.69
335.455	5239.69
335.684	5135.69
335.912	5063.69
336.14	5018.69
336.369	4991.69
336.597	5048.69
336.825	4915.69
337.053	4874.69
337.281	4782.69
337.51	4743.69
337.738	4735.69
337.966	4668.69
338.194	4700.69
338.422	4663.69
338.65	4586.69
338.878	4581.69
339.106	4545.69
339.334	4512.69
339.562	4440.69
339.79	4373.69
340.018	4473.69
340.246	4378.69
340.474	4469.69
340.702	4449.69
340.93	4363.69
341.158	4410.69
341.386	4461.69
341.614	4497.69
341.842	4426.69
342.07	4338.69
342.298	4359.69
342.526	4287.69
342.754	4303.69
342.981	4300.69
343.209	4387.69
343.437	4633.69
343.665	4980.69
343.893	5184.69
344.12	5261.69
344.348	4917.69
344.576	4803.69
344.804	4695.69
345.031	4622.69
345.259	4675.69
345.487	4464.69
345.714	4330.69
345.942	4308.69
346.17	4191.69
346.397	4273.69
346.625	4206.69
346.853	4174.69
347.08	4219.69
347.308	4255.69
347.535	4375.69
347.763	4396.69
347.99	4302.69
348.218	4322.69
348.445	4337.69
348.673	4258.69
348.9	4214.69
349.128	4161.69
349.355	4124.69
349.583	4128.69
349.81	4041.69
350.037	4081.69
350.265	4053.69
350.492	4087.69
350.72	4114.69
350.947	4113.69
351.174	4178.69
351.402	4208.69
351.629	4192.69
351.856	4199.69
352.083	4243.69
352.311	4291.69
352.538	4277.69
352.765	4221.69
352.992	4180.69
353.22	4135.69
353.447	4115.69
353.674	4053.69
353.901	3965.69
354.128	3970.69
354.355	3918.69
354.583	3958.69
354.81	3949.69
355.037	3898.69
355.264	3998.69
355.491	3999.69
355.718	3982.69
355.945	4006.69
356.172	3976.69
356.399	4006.69
356.626	3984.69
356.853	3961.69
357.08	3969.69
357.307	3957.69
357.534	3967.69
357.761	4036.69
357.988	4022.69
358.215	3936.69
358.441	3986.69
358.668	3999.69
358.895	4062.69
359.122	4065.69
359.349	4144.69
359.576	4295.69
359.802	4411.69
360.029	4669.69
360.256	4666.69
360.483	4422.69
360.709	4231.69
360.936	4154.69
361.163	4248.69
361.39	4291.69
361.616	4270.69
361.843	4142.69
362.07	4220.69
362.296	4291.69
362.523	4186.69
362.749	4241.69
362.976	4168.69
363.203	4131.69
363.429	4029.69
363.656	4119.69
363.882	4069.69
364.109	4012.69
364.335	4006.69
364.562	4051.69
364.788	4035.69
365.015	4104.69
365.241	4026.69
365.468	4133.69
365.694	4114.69
365.92	4112.69
366.147	4081.69
366.373	4018.69
366.599	4035.69
366.826	4058.69
367.052	4014.69
367.278	4061.69
367.505	4054.69
367.731	4062.69
367.957	4096.69
368.184	4143.69
368.41	4181.69
368.636	4294.69
368.862	4257.69
369.089	4183.69
369.315	4146.69
369.541	4099.69
369.767	4157.69
369.993	4181.69
370.219	4183.69
370.445	4180.69
370.672	4234.69
370.898	4289.69
371.124	4244.69
371.35	4344.69
371.576	4317.69
371.802	4301.69
372.028	4333.69
372.254	4269.69
372.48	4369.69
372.706	4456.69
372.932	4487.69
373.158	4379.69
373.384	4338.69
373.61	4332.69
373.835	4338.69
374.061	4416.69
374.287	4448.69
374.513	4493.69
374.739	4610.69
374.965	4684.69
375.191	4727.69
375.416	4657.69
375.642	4517.69
375.868	4568.69
376.094	4457.69
376.319	4409.69
376.545	4390.69
376.771	4349.69
376.997	4333.69
377.222	4321.69
377.448	4326.69
377.674	4319.69
377.899	4296.69
378.125	4249.69
378.35	4273.69
378.576	4278.69
378.802	4230.69
379.027	4264.69
379.253	4324.69
379.478	4245.69
379.704	4276.69
379.929	4297.69
380.155	4313.69
380.38	4354.69
380.606	4413.69
380.831	4295.69
381.057	4359.69
381.282	4323.69
381.507	4349.69
381.733	4400.69
381.958	4414.69
382.184	4457.69
382.409	4521.69
382.634	4523.69
382.86	4591.69
383.085	4611.69
383.31	4710.69
383.535	4773.69
383.761	4829.69
383.986	4888.69
384.211	4949.69
384.436	5084.69
384.662	5106.69
384.887	5263.69
385.112	5210.69
385.337	5263.69
385.562	5346.69
385.787	5274.69
386.013	5337.69
386.238	5354.69
386.463	5384.69
386.688	5364.69
386.913	5267.69
387.138	5161.69
387.363	5233.69
387.588	5080.69
387.813	5162.69
388.038	5153.69
388.263	5253.69
388.488	5257.69
388.713	5206.69
388.938	5151.69
389.163	5130.69
389.387	5161.69
389.612	5097.69
389.837	5058.69
390.062	5078.69
390.287	5138.69
390.512	5110.69
390.736	5195.69
390.961	5285.69
391.186	5352.69
391.411	5553.69
391.636	5673.69
391.86	5814.69
392.085	5846.69
392.31	5765.69
392.534	5649.69
392.759	5526.69
392.984	5421.69
393.208	5448.69
393.433	5455.69
393.658	5413.69
393.882	5372.69
394.107	5411.69
394.331	5397.69
394.556	5461.69
394.78	5529.69
395.005	5529.69
395.229	5604.69
395.454	5723.69
395.678	5834.69
395.903	5795.69
396.127	5867.69
396.352	5661.69
396.576	5544.69
396.801	5470.69
397.025	5565.69
397.249	5697.69
397.474	5877.69
397.698	5878.69
397.922	5994.69
398.147	6083.69
398.371	6163.69
398.595	6295.69
398.82	6619.69
399.044	7149.69
399.268	7953.69
399.492	9021.69
399.717	9723.69
399.941	9381.69
400.165	8753.69
400.389	8076.69
400.613	7293.69
400.837	6857.69
401.062	6719.69
401.286	6617.69
401.51	6479.69
401.734	6442.69
401.958	6701.69
402.182	6815.69
402.406	6887.69
402.63	6935.69
402.854	7094.69
403.078	7173.69
403.302	7276.69
403.526	7331.69
403.75	7409.69
403.974	7497.69
404.198	7401.69
404.422	7663.69
404.645	7521.69
404.869	7481.69
405.093	7585.69
405.317	7811.69
405.541	7882.69
405.765	7423.69
405.988	7240.69
406.212	7507.69
406.436	7692.69
406.66	7783.69
406.883	7751.69
407.107	8452.69
407.331	8881.69
407.555	9494.69
407.778	9018.69
408.002	8263.69
408.226	7988.69
408.449	7862.69
408.673	7620.69
408.896	7855.69
409.12	7979.69
409.344	7566.69
409.567	7198.69
409.791	7156.69
410.014	7104.69
410.238	6949.69
410.461	7031.69
410.685	7072.69
410.908	7203.69
411.132	7430.69
411.355	7368.69
411.578	7053.69
411.802	6762.69
412.025	6749.69
412.249	7024.69
412.472	7027.69
412.695	7186.69
412.919	6810.69
413.142	6535.69
413.365	6548.69
413.589	6601.69
413.812	6431.69
414.035	6293.69
414.258	6417.69
414.482	6431.69
414.705	6492.69
414.928	6446.69
415.151	6475.69
415.374	6377.69
415.597	6410.69
415.821	6339.69
416.044	6344.69
416.267	6219.69
416.49	6257.69
416.713	6213.69
416.936	6432.69
417.159	6362.69
417.382	6391.69
417.605	6385.69
417.828	6555.69
418.051	6690.69
418.274	6605.69
418.497	6437.69
418.72	6617.69
418.943	6578.69
419.166	6935.69
419.389	7263.69
419.611	7152.69
419.834	6970.69
420.057	6847.69
420.28	6683.69
420.503	6597.69
420.726	6540.69
420.948	6732.69
421.171	7111.69
421.394	7016.69
421.617	6605.69
421.839	6612.69
422.062	6667.69
422.285	6771.69
422.507	7525.69
422.73	7999.69
422.953	7407.69
423.175	7039.69
423.398	7071.69
423.621	7014.69
423.843	7317.69
424.066	7294.69
424.288	7224.69
424.511	7386.69
424.733	7832.69
424.956	8235.69
425.178	7819.69
425.401	7929.69
425.623	7836.69
425.846	6897.69
426.068	6643.69
426.291	6543.69
426.513	6571.69
426.735	6683.69
426.958	7192.69
427.18	7913.69
427.402	9021.69
427.625	9190.69
427.847	7787.69
428.069	6964.69
428.292	6503.69
428.514	6100.69
428.736	5952.69
428.958	6038.69
429.181	5766.69
429.403	5877.69
429.625	6085.69
429.847	6331.69
430.069	6934.69
430.292	6406.69
430.514	5910.69
430.736	5836.69
430.958	5802.69
431.18	5743.69
431.402	5673.69
431.624	5726.69
431.846	5774.69
432.068	5794.69
432.29	5916.69
432.512	5763.69
432.734	5886.69
432.956	5759.69
433.178	5898.69
433.4	5880.69
433.622	5749.69
433.844	5784.69
434.066	5825.69
434.287	5939.69
434.509	6083.69
434.731	6363.69
434.953	6552.69
435.175	6635.69
435.397	6721.69
435.618	6729.69
435.84	7072.69
436.062	7799.69
436.284	7792.69
436.505	6556.69
436.727	6218.69
436.949	6019.69
437.17	5846.69
437.392	5841.69
437.614	6038.69
437.835	6455.69
438.057	7361.69
438.278	7997.69
438.5	7939.69
438.721	8727.69
438.943	7608.69
439.165	6386.69
439.386	6286.69
439.608	6300.69
439.829	6434.69
440.05	6724.69
440.272	7168.69
440.493	6472.69
440.715	6217.69
440.936	6195.69
441.158	6140.69
441.379	6270.69
441.6	6651.69
441.822	6852.69
442.043	7341.69
442.264	8173.69
442.486	7797.69
442.707	6985.69
442.928	6791.69
443.149	7059.69
443.371	7277.69
443.592	7751.69
443.813	8737.69
444.034	8675.69
444.255	7555.69
444.476	7415.69
444.698	7621.69
444.919	7681.69
445.14	7484.69
445.361	7287.69
445.582	7495.69
445.803	8120.69
446.024	8714.69
446.245	8282.69
446.466	7424.69
446.687	6485.69
446.908	6135.69
447.129	5857.69
447.35	5722.69
447.571	5676.69
447.792	5600.69
448.013	5734.69
448.234	5873.69
448.455	6591.69
448.675	7773.69
448.896	8172.69
449.117	6810.69
449.338	7056.69
449.559	8281.69
449.779	8489.69
450	6527.69
450.221	5787.69
450.442	5519.69
450.662	5495.69
450.883	5589.69
451.104	5719.69
451.324	5486.69
451.545	5425.69
451.766	5265.69
451.986	5166.69
452.207	5141.69
452.428	5064.69
452.648	5108.69
452.869	5176.69
453.089	5227.69
453.31	5305.69
453.53	5071.69
453.751	5067.69
453.971	5112.69
454.192	5210.69
454.412	4995.69
454.633	4930.69
454.853	4967.69
455.073	4984.69
455.294	5375.69
455.514	5959.69
455.734	5311.69
455.955	4835.69
456.175	4834.69
456.395	4740.69
456.616	4674.69
456.836	4692.69
457.056	4717.69
457.276	4627.69
457.497	4776.69
457.717	4792.69
457.937	4781.69
458.157	4893.69
458.377	5011.69
458.598	5326.69
458.818	6104.69
459.038	6851.69
459.258	6676.69
459.478	6013.69
459.698	5859.69
459.918	5929.69
460.138	6136.69
460.358	6322.69
460.578	6367.69
460.798	6416.69
461.018	6357.69
461.238	6268.69
461.458	6282.69
461.678	6294.69
461.898	6486.69
462.118	6525.69
462.338	6783.69
462.558	6847.69
462.777	7299.69
462.997	7730.69
463.217	8143.69
463.437	7939.69
463.657	7377.69
463.876	7204.69
464.096	7197.69
464.316	7330.69
464.536	7365.69
464.755	7129.69
464.975	6958.69
465.195	7211.69
465.414	7166.69
465.634	6333.69
465.854	5922.69
466.073	5769.69
466.293	5560.69
466.512	5336.69
466.732	5279.69
466.951	5302.69
467.171	5229.69
467.391	5394.69
467.61	5373.69
467.829	5372.69
468.049	5313.69
468.268	5183.69
468.488	5044.69
468.707	5006.69
468.927	5055.69
469.146	5032.69
469.365	5098.69
469.585	5117.69
469.804	5329.69
470.023	5509.69
470.243	5464.69
470.462	5600.69
470.681	5652.69
470.901	5603.69
471.12	5463.69
471.339	5341.69
471.558	5305.69
471.777	5255.69
471.997	5192.69
472.216	5207.69
472.435	5293.69
472.654	5118.69
472.873	4995.69
473.092	5017.69
473.311	5047.69
473.53	5029.69
473.749	5265.69
473.968	5727.69
474.187	6675.69
474.406	6274.69
474.625	5378.69
474.844	5092.69
475.063	5053.69
475.282	5063.69
475.501	5109.69
475.72	5130.69
475.939	5223.69
476.158	5211.69
476.377	5203.69
476.596	5284.69
476.814	5312.69
477.033	5410.69
477.252	5455.69
477.471	5647.69
477.69	5737.69
477.908	5852.69
478.127	5941.69
478.346	5973.69
478.564	6181.69
478.783	6253.69
479.002	6355.69
479.22	6297.69
479.439	6497.69
479.658	6556.69
479.876	6677.69
480.095	6875.69
480.313	7215.69
480.532	7190.69
480.751	6982.69
480.969	7034.69
481.188	7056.69
481.406	6890.69
481.624	6573.69
481.843	6242.69
482.061	6107.69
482.28	6014.69
482.498	6040.69
482.717	5907.69
482.935	5959.69
483.153	5885.69
483.372	5894.69
483.59	5917.69
483.808	5912.69
484.027	5945.69
484.245	5979.69
484.463	6031.69
484.681	6127.69
484.9	6151.69
485.118	6258.69
485.336	6224.69
485.554	6275.69
485.772	6400.69
485.99	6342.69
486.209	6363.69
486.427	6336.69
486.645	6363.69
486.863	6530.69
487.081	6489.69
487.299	6477.69
487.517	6448.69
487.735	6405.69
487.953	6354.69
