Data from Circ_2003_H10_HRD10591_00022.txt Node
Date: Wed Jan 03 10:37:07 EST 2024
User: Yrep
Spectrometer: HR+D1059
Trigger mode: 1
Integration Time (sec): 1.000000E-1
Scans to average: 1
Electric dark correction enabled: true
Nonlinearity correction enabled: false
Boxcar width: 0
XAxis mode: Wavelengths
Number of Pixels in Spectrum: 2048
>>>>>Begin Spectral Data<<<<<
223.165	-10.5
223.4	-10.5
223.635	-10.5
223.869	-22.5
224.104	-24.5
224.338	-11.5
224.573	-20.5
224.808	5.5
225.042	-16.5
225.277	-6.5
225.511	6.5
225.746	-5.5
225.98	-5.5
226.215	14.5
226.449	26.5
226.683	11.5
226.918	26.5
227.152	32.5
227.387	37.5
227.621	36.5
227.856	65.5
228.09	46.5
228.324	56.5
228.559	72.5
228.793	74.5
229.027	66.5
229.262	82.5
229.496	63.5
229.73	82.5
229.964	74.5
230.199	64.5
230.433	81.5
230.667	73.5
230.901	82.5
231.136	80.5
231.37	95.5
231.604	75.5
231.838	71.5
232.072	74.5
232.306	85.5
232.541	76.5
232.775	62.5
233.009	80.5
233.243	78.5
233.477	96.5
233.711	83.5
233.945	67.5
234.179	86.5
234.413	74.5
234.647	70.5
234.881	68.5
235.115	88.5
235.349	74.5
235.583	83.5
235.817	75.5
236.051	80.5
236.285	58.5
236.519	80.5
236.753	70.5
236.987	88.5
237.221	86.5
237.455	90.5
237.689	81.5
237.922	81.5
238.156	73.5
238.39	86.5
238.624	73.5
238.858	82.5
239.091	89.5
239.325	73.5
239.559	73.5
239.793	62.5
240.027	91.5
240.26	74.5
240.494	93.5
240.728	70.5
240.961	81.5
241.195	82.5
241.429	72.5
241.662	87.5
241.896	73.5
242.13	75.5
242.363	81.5
242.597	86.5
242.83	91.5
243.064	89.5
243.298	70.5
243.531	83.5
243.765	78.5
243.998	65.5
244.232	87.5
244.465	91.5
244.699	94.5
244.932	85.5
245.166	83.5
245.399	67.5
245.633	88.5
245.866	77.5
246.099	76.5
246.333	81.5
246.566	73.5
246.8	80.5
247.033	70.5
247.266	76.5
247.5	74.5
247.733	84.5
247.966	88.5
248.2	77.5
248.433	78.5
248.666	82.5
248.899	79.5
249.133	83.5
249.366	88.5
249.599	96.5
249.832	89.5
250.066	80.5
250.299	82.5
250.532	90.5
250.765	66.5
250.998	76.5
251.231	86.5
251.465	71.5
251.698	89.5
251.931	75.5
252.164	63.5
252.397	57.5
252.63	73.5
252.863	86.5
253.096	90.5
253.329	71.5
253.562	88.5
253.795	85.5
254.028	76.5
254.261	79.5
254.494	84.5
254.727	89.5
254.96	72.5
255.193	91.5
255.426	82.5
255.659	88.5
255.892	71.5
256.124	78.5
256.357	89.5
256.59	71.5
256.823	73.5
257.056	75.5
257.289	87.5
257.521	89.5
257.754	93.5
257.987	80.5
258.22	77.5
258.452	76.5
258.685	86.5
258.918	78.5
259.151	90.5
259.383	86.5
259.616	74.5
259.849	69.5
260.081	87.5
260.314	88.5
260.547	79.5
260.779	75.5
261.012	86.5
261.244	74.5
261.477	90.5
261.71	89.5
261.942	102.5
262.175	109.5
262.407	89.5
262.64	102.5
262.872	87.5
263.105	94.5
263.337	90.5
263.57	86.5
263.802	92.5
264.035	78.5
264.267	80.5
264.499	85.5
264.732	86.5
264.964	80.5
265.197	90.5
265.429	66.5
265.661	80.5
265.894	86.5
266.126	94.5
266.358	96.5
266.591	77.5
266.823	89.5
267.055	89.5
267.287	82.5
267.52	87.5
267.752	74.5
267.984	79.5
268.216	91.5
268.448	88.5
268.681	91.5
268.913	84.5
269.145	94.5
269.377	87.5
269.609	74.5
269.841	98.5
270.073	87.5
270.306	78.5
270.538	87.5
270.77	79.5
271.002	82.5
271.234	84.5
271.466	88.5
271.698	80.5
271.93	84.5
272.162	86.5
272.394	70.5
272.626	90.5
272.858	89.5
273.09	95.5
273.322	91.5
273.553	97.5
273.785	98.5
274.017	85.5
274.249	92.5
274.481	81.5
274.713	89.5
274.945	82.5
275.176	97.5
275.408	85.5
275.64	87.5
275.872	81.5
276.104	81.5
276.335	89.5
276.567	89.5
276.799	92.5
277.031	100.5
277.262	93.5
277.494	91.5
277.726	87.5
277.957	88.5
278.189	81.5
278.421	92.5
278.652	89.5
278.884	91.5
279.115	88.5
279.347	67.5
279.579	84.5
279.81	85.5
280.042	83.5
280.273	96.5
280.505	91.5
280.736	110.5
280.968	83.5
281.199	88.5
281.431	87.5
281.662	81.5
281.894	89.5
282.125	106.5
282.356	110.5
282.588	116.5
282.819	104.5
283.051	97.5
283.282	96.5
283.513	80.5
283.745	93.5
283.976	93.5
284.207	86.5
284.439	91.5
284.67	84.5
284.901	87.5
285.132	91.5
285.364	90.5
285.595	86.5
285.826	78.5
286.057	85.5
286.288	86.5
286.52	79.5
286.751	78.5
286.982	89.5
287.213	84.5
287.444	72.5
287.675	94.5
287.906	109.5
288.138	96.5
288.369	91.5
288.6	88.5
288.831	83.5
289.062	80.5
289.293	91.5
289.524	79.5
289.755	98.5
289.986	82.5
290.217	93.5
290.448	92.5
290.679	94.5
290.91	110.5
291.141	86.5
291.371	83.5
291.602	78.5
291.833	97.5
292.064	88.5
292.295	91.5
292.526	84.5
292.757	104.5
292.987	83.5
293.218	83.5
293.449	70.5
293.68	87.5
293.91	92.5
294.141	83.5
294.372	88.5
294.603	79.5
294.833	101.5
295.064	95.5
295.295	98.5
295.525	80.5
295.756	101.5
295.987	106.5
296.217	129.5
296.448	131.5
296.679	94.5
296.909	89.5
297.14	94.5
297.37	86.5
297.601	85.5
297.831	91.5
298.062	93.5
298.292	79.5
298.523	84.5
298.753	81.5
298.984	90.5
299.214	100.5
299.445	97.5
299.675	99.5
299.905	97.5
300.136	83.5
300.366	72.5
300.597	95.5
300.827	102.5
301.057	102.5
301.288	113.5
301.518	91.5
301.748	109.5
301.979	105.5
302.209	99.5
302.439	81.5
302.669	83.5
302.9	86.5
303.13	100.5
303.36	93.5
303.59	88.5
303.82	90.5
304.051	95.5
304.281	89.5
304.511	83.5
304.741	84.5
304.971	96.5
305.201	85.5
305.431	86.5
305.661	82.5
305.891	93.5
306.121	96.5
306.352	87.5
306.582	90.5
306.812	92.5
307.042	88.5
307.272	91.5
307.502	93.5
307.731	84.5
307.961	83.5
308.191	98.5
308.421	78.5
308.651	95.5
308.881	88.5
309.111	83.5
309.341	107.5
309.571	109.5
309.8	100.5
310.03	86.5
310.26	83.5
310.49	107.5
310.72	101.5
310.949	98.5
311.179	90.5
311.409	99.5
311.639	75.5
311.868	96.5
312.098	91.5
312.328	97.5
312.557	105.5
312.787	110.5
313.017	103.5
313.246	97.5
313.476	94.5
313.706	100.5
313.935	92.5
314.165	99.5
314.394	102.5
314.624	92.5
314.853	103.5
315.083	92.5
315.312	100.5
315.542	95.5
315.771	104.5
316.001	104.5
316.23	89.5
316.46	88.5
316.689	78.5
316.919	98.5
317.148	87.5
317.377	100.5
317.607	96.5
317.836	91.5
318.065	92.5
318.295	90.5
318.524	85.5
318.753	102.5
318.983	83.5
319.212	92.5
319.441	97.5
319.67	99.5
319.9	96.5
320.129	75.5
320.358	84.5
320.587	90.5
320.816	97.5
321.046	92.5
321.275	98.5
321.504	90.5
321.733	86.5
321.962	108.5
322.191	98.5
322.42	103.5
322.649	110.5
322.878	116.5
323.108	110.5
323.337	113.5
323.566	127.5
323.795	152.5
324.024	207.5
324.253	403.5
324.482	832.5
324.71	1719.5
324.939	2259.5
325.168	816.5
325.397	223.5
325.626	132.5
325.855	128.5
326.084	131.5
326.313	143.5
326.542	142.5
326.77	210.5
326.999	440.5
327.228	966.5
327.457	1758.5
327.686	1376.5
327.914	370.5
328.143	192.5
328.372	152.5
328.6	125.5
328.829	141.5
329.058	116.5
329.287	123.5
329.515	100.5
329.744	101.5
329.972	95.5
330.201	93.5
330.43	106.5
330.658	110.5
330.887	130.5
331.115	108.5
331.344	102.5
331.572	110.5
331.801	104.5
332.03	109.5
332.258	92.5
332.486	98.5
332.715	92.5
332.943	99.5
333.172	107.5
333.4	91.5
333.629	102.5
333.857	106.5
334.085	109.5
334.314	81.5
334.542	104.5
334.771	88.5
334.999	93.5
335.227	87.5
335.455	103.5
335.684	100.5
335.912	97.5
336.14	90.5
336.369	88.5
336.597	106.5
336.825	96.5
337.053	86.5
337.281	81.5
337.51	81.5
337.738	100.5
337.966	103.5
338.194	94.5
338.422	90.5
338.65	87.5
338.878	107.5
339.106	98.5
339.334	111.5
339.562	87.5
339.79	91.5
340.018	94.5
340.246	92.5
340.474	93.5
340.702	93.5
340.93	93.5
341.158	98.5
341.386	83.5
341.614	89.5
341.842	94.5
342.07	93.5
342.298	90.5
342.526	85.5
342.754	82.5
342.981	92.5
343.209	94.5
343.437	105.5
343.665	86.5
343.893	92.5
344.12	80.5
344.348	98.5
344.576	99.5
344.804	87.5
345.031	91.5
345.259	102.5
345.487	90.5
345.714	91.5
345.942	98.5
346.17	90.5
346.397	88.5
346.625	98.5
346.853	87.5
347.08	97.5
347.308	112.5
347.535	111.5
347.763	97.5
347.99	100.5
348.218	83.5
348.445	110.5
348.673	97.5
348.9	109.5
349.128	99.5
349.355	84.5
349.583	84.5
349.81	98.5
350.037	97.5
350.265	98.5
350.492	98.5
350.72	103.5
350.947	92.5
351.174	91.5
351.402	110.5
351.629	96.5
351.856	112.5
352.083	96.5
352.311	106.5
352.538	104.5
352.765	110.5
352.992	128.5
353.22	118.5
353.447	110.5
353.674	97.5
353.901	92.5
354.128	92.5
354.355	92.5
354.583	96.5
354.81	104.5
355.037	91.5
355.264	98.5
355.491	93.5
355.718	106.5
355.945	98.5
356.172	106.5
356.399	90.5
356.626	93.5
356.853	90.5
357.08	87.5
357.307	102.5
357.534	88.5
357.761	94.5
357.988	103.5
358.215	104.5
358.441	105.5
358.668	100.5
358.895	88.5
359.122	99.5
359.349	72.5
359.576	95.5
359.802	86.5
360.029	98.5
360.256	100.5
360.483	90.5
360.709	104.5
360.936	89.5
361.163	100.5
361.39	106.5
361.616	104.5
361.843	79.5
362.07	102.5
362.296	101.5
362.523	83.5
362.749	89.5
362.976	89.5
363.203	99.5
363.429	75.5
363.656	82.5
363.882	75.5
364.109	94.5
364.335	91.5
364.562	93.5
364.788	87.5
365.015	97.5
365.241	96.5
365.468	96.5
365.694	96.5
365.92	106.5
366.147	97.5
366.373	99.5
366.599	97.5
366.826	85.5
367.052	85.5
367.278	103.5
367.505	82.5
367.731	83.5
367.957	81.5
368.184	87.5
368.41	101.5
368.636	115.5
368.862	99.5
369.089	102.5
369.315	86.5
369.541	97.5
369.767	94.5
369.993	81.5
370.219	90.5
370.445	89.5
370.672	86.5
370.898	91.5
371.124	82.5
371.35	81.5
371.576	89.5
371.802	87.5
372.028	86.5
372.254	100.5
372.48	88.5
372.706	85.5
372.932	96.5
373.158	79.5
373.384	90.5
373.61	67.5
373.835	82.5
374.061	83.5
374.287	106.5
374.513	95.5
374.739	93.5
374.965	95.5
375.191	80.5
375.416	90.5
375.642	89.5
375.868	91.5
376.094	97.5
376.319	99.5
376.545	100.5
376.771	102.5
376.997	96.5
377.222	77.5
377.448	73.5
377.674	71.5
377.899	88.5
378.125	90.5
378.35	98.5
378.576	96.5
378.802	97.5
379.027	82.5
379.253	89.5
379.478	92.5
379.704	92.5
379.929	91.5
380.155	93.5
380.38	111.5
380.606	106.5
380.831	94.5
381.057	89.5
381.282	113.5
381.507	111.5
381.733	100.5
381.958	96.5
382.184	95.5
382.409	102.5
382.634	102.5
382.86	99.5
383.085	96.5
383.31	98.5
383.535	110.5
383.761	93.5
383.986	104.5
384.211	104.5
384.436	100.5
384.662	115.5
384.887	118.5
385.112	127.5
385.337	126.5
385.562	118.5
385.787	103.5
386.013	119.5
386.238	138.5
386.463	125.5
386.688	132.5
386.913	122.5
387.138	122.5
387.363	120.5
387.588	120.5
387.813	114.5
388.038	115.5
388.263	129.5
388.488	126.5
388.713	96.5
388.938	94.5
389.163	99.5
389.387	100.5
389.612	87.5
389.837	98.5
390.062	92.5
390.287	98.5
390.512	105.5
390.736	86.5
390.961	90.5
391.186	80.5
391.411	102.5
391.636	82.5
391.86	92.5
392.085	98.5
392.31	90.5
392.534	82.5
392.759	88.5
392.984	85.5
393.208	102.5
393.433	98.5
393.658	87.5
393.882	93.5
394.107	77.5
394.331	85.5
394.556	81.5
394.78	84.5
395.005	88.5
395.229	87.5
395.454	86.5
395.678	89.5
395.903	92.5
396.127	87.5
396.352	113.5
396.576	76.5
396.801	76.5
397.025	96.5
397.249	84.5
397.474	95.5
397.698	92.5
397.922	96.5
398.147	93.5
398.371	90.5
398.595	89.5
398.82	75.5
399.044	88.5
399.268	98.5
399.492	100.5
399.717	98.5
399.941	99.5
400.165	96.5
400.389	91.5
400.613	87.5
400.837	75.5
401.062	96.5
401.286	78.5
401.51	89.5
401.734	82.5
401.958	112.5
402.182	116.5
402.406	145.5
402.63	109.5
402.854	84.5
403.078	95.5
403.302	78.5
403.526	85.5
403.75	90.5
403.974	91.5
404.198	88.5
404.422	85.5
404.645	98.5
404.869	98.5
405.093	102.5
405.317	92.5
405.541	102.5
405.765	97.5
405.988	100.5
406.212	146.5
406.436	212.5
406.66	138.5
406.883	100.5
407.107	98.5
407.331	103.5
407.555	99.5
407.778	96.5
408.002	95.5
408.226	103.5
408.449	90.5
408.673	80.5
408.896	88.5
409.12	86.5
409.344	103.5
409.567	85.5
409.791	107.5
410.014	98.5
410.238	87.5
410.461	94.5
410.685	96.5
410.908	93.5
411.132	115.5
411.355	94.5
411.578	83.5
411.802	94.5
412.025	96.5
412.249	104.5
412.472	94.5
412.695	100.5
412.919	87.5
413.142	85.5
413.365	95.5
413.589	79.5
413.812	95.5
414.035	102.5
414.258	91.5
414.482	76.5
414.705	92.5
414.928	97.5
415.151	95.5
415.374	112.5
415.597	90.5
415.821	82.5
416.044	84.5
416.267	117.5
416.49	102.5
416.713	82.5
416.936	91.5
417.159	81.5
417.382	93.5
417.605	76.5
417.828	90.5
418.051	96.5
418.274	96.5
418.497	85.5
418.72	79.5
418.943	91.5
419.166	92.5
419.389	101.5
419.611	102.5
419.834	91.5
420.057	75.5
420.28	90.5
420.503	89.5
420.726	99.5
420.948	95.5
421.171	95.5
421.394	92.5
421.617	92.5
421.839	92.5
422.062	88.5
422.285	92.5
422.507	96.5
422.73	97.5
422.953	92.5
423.175	92.5
423.398	103.5
423.621	82.5
423.843	100.5
424.066	78.5
424.288	84.5
424.511	76.5
424.733	91.5
424.956	105.5
425.178	106.5
425.401	100.5
425.623	92.5
425.846	91.5
426.068	98.5
426.291	80.5
426.513	85.5
426.735	73.5
426.958	91.5
427.18	87.5
427.402	130.5
427.625	166.5
427.847	127.5
428.069	86.5
428.292	74.5
428.514	80.5
428.736	94.5
428.958	83.5
429.181	89.5
429.403	83.5
429.625	90.5
429.847	68.5
430.069	103.5
430.292	90.5
430.514	94.5
430.736	91.5
430.958	92.5
431.18	92.5
431.402	93.5
431.624	75.5
431.846	85.5
432.068	91.5
432.29	86.5
432.512	102.5
432.734	88.5
432.956	109.5
433.178	107.5
433.4	100.5
433.622	90.5
433.844	87.5
434.066	87.5
434.287	89.5
434.509	87.5
434.731	91.5
434.953	94.5
435.175	95.5
435.397	93.5
435.618	91.5
435.84	97.5
436.062	121.5
436.284	106.5
436.505	110.5
436.727	101.5
436.949	84.5
437.17	89.5
437.392	93.5
437.614	84.5
437.835	90.5
438.057	100.5
438.278	115.5
438.5	107.5
438.721	130.5
438.943	109.5
439.165	89.5
439.386	89.5
439.608	107.5
439.829	108.5
440.05	119.5
440.272	123.5
440.493	90.5
440.715	89.5
440.936	77.5
441.158	91.5
441.379	82.5
441.6	88.5
441.822	86.5
442.043	91.5
442.264	102.5
442.486	105.5
442.707	105.5
442.928	115.5
443.149	117.5
443.371	116.5
443.592	108.5
443.813	108.5
444.034	100.5
444.255	88.5
444.476	99.5
444.698	89.5
444.919	96.5
445.14	128.5
445.361	117.5
445.582	114.5
445.803	136.5
446.024	122.5
446.245	132.5
446.466	108.5
446.687	88.5
446.908	91.5
447.129	93.5
447.35	94.5
447.571	103.5
447.792	99.5
448.013	104.5
448.234	110.5
448.455	115.5
448.675	117.5
448.896	118.5
449.117	82.5
449.338	104.5
449.559	121.5
449.779	133.5
450	102.5
450.221	94.5
450.442	99.5
450.662	105.5
450.883	102.5
451.104	108.5
451.324	90.5
451.545	88.5
451.766	94.5
451.986	78.5
452.207	97.5
452.428	101.5
452.648	94.5
452.869	123.5
453.089	106.5
453.31	103.5
453.53	94.5
453.751	91.5
453.971	103.5
454.192	101.5
454.412	86.5
454.633	86.5
454.853	84.5
455.073	84.5
455.294	90.5
455.514	92.5
455.734	91.5
455.955	90.5
456.175	76.5
456.395	86.5
456.616	84.5
456.836	75.5
457.056	72.5
457.276	102.5
457.497	73.5
457.717	83.5
457.937	92.5
458.157	87.5
458.377	78.5
458.598	114.5
458.818	131.5
459.038	133.5
459.258	110.5
459.478	98.5
459.698	84.5
459.918	83.5
460.138	80.5
460.358	88.5
460.578	89.5
460.798	81.5
461.018	83.5
461.238	90.5
461.458	83.5
461.678	80.5
461.898	85.5
462.118	87.5
462.338	104.5
462.558	67.5
462.777	82.5
462.997	79.5
463.217	86.5
463.437	79.5
463.657	69.5
463.876	94.5
464.096	99.5
464.316	88.5
464.536	89.5
464.755	89.5
464.975	101.5
465.195	165.5
465.414	161.5
465.634	104.5
465.854	87.5
466.073	80.5
466.293	89.5
466.512	81.5
466.732	82.5
466.951	87.5
467.171	95.5
467.391	102.5
467.61	107.5
467.829	112.5
468.049	102.5
468.268	82.5
468.488	96.5
468.707	93.5
468.927	94.5
469.146	100.5
469.365	89.5
469.585	73.5
469.804	93.5
470.023	83.5
470.243	101.5
470.462	96.5
470.681	118.5
470.901	94.5
471.12	86.5
471.339	87.5
471.558	91.5
471.777	89.5
471.997	98.5
472.216	101.5
472.435	92.5
472.654	76.5
472.873	79.5
473.092	92.5
473.311	91.5
473.53	87.5
473.749	72.5
473.968	104.5
474.187	106.5
474.406	94.5
474.625	87.5
474.844	113.5
475.063	111.5
475.282	86.5
475.501	82.5
475.72	93.5
475.939	92.5
476.158	94.5
476.377	93.5
476.596	86.5
476.814	99.5
477.033	86.5
477.252	90.5
477.471	92.5
477.69	99.5
477.908	89.5
478.127	96.5
478.346	91.5
478.564	101.5
478.783	99.5
479.002	92.5
479.22	95.5
479.439	112.5
479.658	103.5
479.876	87.5
480.095	91.5
480.313	91.5
480.532	88.5
480.751	101.5
480.969	96.5
481.188	114.5
481.406	92.5
481.624	100.5
481.843	70.5
482.061	92.5
482.28	97.5
482.498	83.5
482.717	83.5
482.935	90.5
483.153	84.5
483.372	77.5
483.59	87.5
483.808	94.5
484.027	94.5
484.245	98.5
484.463	103.5
484.681	97.5
484.9	112.5
485.118	87.5
485.336	99.5
485.554	102.5
485.772	107.5
485.99	111.5
486.209	104.5
486.427	111.5
486.645	119.5
486.863	123.5
487.081	121.5
487.299	92.5
487.517	89.5
487.735	96.5
487.953	102.5
488.171	94.5
488.389	95.5
488.607	107.5
488.825	97.5
489.043	80.5
489.261	82.5
489.479	95.5
489.696	87.5
489.914	95.5
490.132	89.5
490.35	92.5
490.568	97.5
490.786	94.5
491.003	84.5
491.221	107.5
491.439	95.5
491.657	102.5
491.874	92.5
492.092	97.5
492.31	100.5
492.527	91.5
492.745	88.5
492.963	96.5
493.18	92.5
493.398	88.5
493.615	107.5
493.833	91.5
494.05	91.5
494.268	70.5
494.485	98.5
494.703	98.5
494.92	80.5
495.138	93.5
495.355	97.5
495.573	79.5
495.79	96.5
496.008	108.5
496.225	94.5
496.442	82.5
496.66	84.5
496.877	83.5
497.094	90.5
497.312	94.5
497.529	91.5
497.746	89.5
497.963	79.5
498.181	91.5
498.398	101.5
498.615	117.5
498.832	111.5
499.049	97.5
499.267	84.5
499.484	81.5
499.701	92.5
499.918	89.5
500.135	89.5
500.352	97.5
500.569	100.5
500.786	94.5
501.003	92.5
501.22	103.5
501.437	104.5
501.654	94.5
501.871	108.5
502.088	86.5
502.305	89.5
502.522	106.5
502.739	95.5
502.956	91.5
503.172	94.5
503.389	110.5
503.606	107.5
503.823	106.5
504.04	89.5
504.256	73.5
504.473	100.5
504.69	94.5
504.907	112.5
505.123	99.5
505.34	99.5
505.557	103.5
505.773	96.5
505.99	79.5
506.207	95.5
506.423	95.5
506.64	96.5
506.856	100.5
507.073	99.5
507.289	82.5
507.506	98.5
507.722	103.5
507.939	115.5
508.155	86.5
508.372	96.5
508.588	103.5
508.805	84.5
509.021	98.5
509.238	98.5
509.454	89.5
509.67	100.5
509.887	105.5
510.103	129.5
510.319	214.5
510.536	761.5
510.752	2406.5
510.968	684.5
511.184	171.5
511.401	109.5
511.617	105.5
511.833	100.5
512.049	99.5
512.265	87.5
512.481	89.5
512.698	84.5
512.914	106.5
513.13	91.5
513.346	95.5
513.562	99.5
513.778	99.5
513.994	89.5
514.21	108.5
514.426	115.5
514.642	117.5
514.858	130.5
515.074	155.5
515.29	420.5
515.506	1394.5
515.721	517.5
515.937	152.5
516.153	118.5
516.369	104.5
516.585	93.5
516.801	98.5
517.016	101.5
517.232	94.5
517.448	102.5
517.664	99.5
517.879	91.5
518.095	89.5
518.311	92.5
518.527	102.5
518.742	91.5
518.958	103.5
519.173	98.5
519.389	85.5
519.605	92.5
519.82	102.5
520.036	108.5
520.251	127.5
520.467	98.5
520.682	95.5
520.898	103.5
521.113	120.5
521.329	128.5
521.544	185.5
521.76	530.5
521.975	2302.5
522.19	1381.5
522.406	284.5
522.621	139.5
522.836	112.5
523.052	99.5
523.267	99.5
523.482	89.5
523.698	102.5
523.913	105.5
524.128	92.5
524.343	80.5
524.559	95.5
524.774	95.5
524.989	103.5
525.204	105.5
525.419	99.5
525.634	92.5
525.849	78.5
526.064	89.5
526.28	99.5
526.495	99.5
526.71	101.5
526.925	86.5
527.14	87.5
527.355	83.5
527.57	87.5
527.785	86.5
527.999	88.5
528.214	92.5
528.429	85.5
528.644	107.5
528.859	93.5
529.074	92.5
529.289	126.5
529.503	175.5
529.718	91.5
529.933	75.5
530.148	91.5
530.363	93.5
530.577	95.5
530.792	86.5
531.007	95.5
531.221	94.5
531.436	106.5
531.651	71.5
531.865	91.5
532.08	103.5
532.295	100.5
532.509	86.5
532.724	101.5
532.938	94.5
533.153	104.5
533.367	88.5
533.582	90.5
533.796	70.5
534.011	93.5
534.225	80.5
534.44	91.5
534.654	93.5
534.868	82.5
