Data from Circ_2003_H10_HRD10591_00028.txt Node
Date: Wed Jan 03 10:37:08 EST 2024
User: Yrep
Spectrometer: HR+D1059
Trigger mode: 1
Integration Time (sec): 1.000000E-1
Scans to average: 1
Electric dark correction enabled: true
Nonlinearity correction enabled: false
Boxcar width: 0
XAxis mode: Wavelengths
Number of Pixels in Spectrum: 2048
>>>>>Begin Spectral Data<<<<<
223.165	-21.19
223.4	-21.19
223.635	-21.19
223.869	-8.19
224.104	-15.19
224.338	-14.19
224.573	-23.19
224.808	-13.19
225.042	-7.19
225.277	-17.19
225.511	4.81
225.746	4.81
225.98	21.81
226.215	-1.19
226.449	24.81
226.683	15.81
226.918	24.81
227.152	23.81
227.387	43.81
227.621	38.81
227.856	34.81
228.09	36.81
228.324	47.81
228.559	66.81
228.793	43.81
229.027	59.81
229.262	54.81
229.496	70.81
229.73	78.81
229.964	84.81
230.199	63.81
230.433	83.81
230.667	80.81
230.901	65.81
231.136	83.81
231.37	75.81
231.604	86.81
231.838	85.81
232.072	85.81
232.306	75.81
232.541	87.81
232.775	83.81
233.009	73.81
233.243	77.81
233.477	88.81
233.711	80.81
233.945	70.81
234.179	78.81
234.413	74.81
234.647	79.81
234.881	96.81
235.115	85.81
235.349	61.81
235.583	70.81
235.817	81.81
236.051	78.81
236.285	84.81
236.519	81.81
236.753	71.81
236.987	85.81
237.221	81.81
237.455	78.81
237.689	89.81
237.922	83.81
238.156	70.81
238.39	77.81
238.624	82.81
238.858	73.81
239.091	76.81
239.325	89.81
239.559	82.81
239.793	80.81
240.027	80.81
240.26	80.81
240.494	89.81
240.728	80.81
240.961	82.81
241.195	62.81
241.429	65.81
241.662	82.81
241.896	65.81
242.13	77.81
242.363	80.81
242.597	60.81
242.83	88.81
243.064	70.81
243.298	68.81
243.531	78.81
243.765	83.81
243.998	90.81
244.232	80.81
244.465	83.81
244.699	90.81
244.932	85.81
245.166	70.81
245.399	78.81
245.633	75.81
245.866	91.81
246.099	68.81
246.333	82.81
246.566	66.81
246.8	69.81
247.033	74.81
247.266	76.81
247.5	90.81
247.733	86.81
247.966	65.81
248.2	74.81
248.433	82.81
248.666	78.81
248.899	74.81
249.133	69.81
249.366	79.81
249.599	85.81
249.832	86.81
250.066	81.81
250.299	68.81
250.532	72.81
250.765	76.81
250.998	75.81
251.231	71.81
251.465	75.81
251.698	68.81
251.931	62.81
252.164	82.81
252.397	90.81
252.63	73.81
252.863	68.81
253.096	84.81
253.329	81.81
253.562	86.81
253.795	88.81
254.028	78.81
254.261	85.81
254.494	91.81
254.727	83.81
254.96	96.81
255.193	79.81
255.426	76.81
255.659	85.81
255.892	71.81
256.124	77.81
256.357	82.81
256.59	76.81
256.823	70.81
257.056	96.81
257.289	83.81
257.521	86.81
257.754	85.81
257.987	75.81
258.22	83.81
258.452	75.81
258.685	74.81
258.918	74.81
259.151	68.81
259.383	78.81
259.616	80.81
259.849	82.81
260.081	70.81
260.314	73.81
260.547	66.81
260.779	85.81
261.012	72.81
261.244	71.81
261.477	90.81
261.71	85.81
261.942	113.81
262.175	102.81
262.407	79.81
262.64	86.81
262.872	86.81
263.105	72.81
263.337	74.81
263.57	78.81
263.802	82.81
264.035	76.81
264.267	81.81
264.499	88.81
264.732	72.81
264.964	68.81
265.197	74.81
265.429	76.81
265.661	86.81
265.894	71.81
266.126	87.81
266.358	85.81
266.591	82.81
266.823	95.81
267.055	78.81
267.287	73.81
267.52	78.81
267.752	86.81
267.984	80.81
268.216	82.81
268.448	76.81
268.681	81.81
268.913	86.81
269.145	79.81
269.377	83.81
269.609	69.81
269.841	88.81
270.073	79.81
270.306	94.81
270.538	85.81
270.77	79.81
271.002	72.81
271.234	84.81
271.466	81.81
271.698	86.81
271.93	92.81
272.162	80.81
272.394	94.81
272.626	80.81
272.858	80.81
273.09	92.81
273.322	84.81
273.553	71.81
273.785	90.81
274.017	89.81
274.249	85.81
274.481	85.81
274.713	92.81
274.945	97.81
275.176	86.81
275.408	74.81
275.64	85.81
275.872	83.81
276.104	95.81
276.335	89.81
276.567	103.81
276.799	109.81
277.031	97.81
277.262	94.81
277.494	105.81
277.726	79.81
277.957	80.81
278.189	85.81
278.421	85.81
278.652	77.81
278.884	80.81
279.115	69.81
279.347	80.81
279.579	78.81
279.81	88.81
280.042	90.81
280.273	85.81
280.505	77.81
280.736	82.81
280.968	74.81
281.199	76.81
281.431	88.81
281.662	87.81
281.894	81.81
282.125	99.81
282.356	101.81
282.588	151.81
282.819	107.81
283.051	86.81
283.282	80.81
283.513	82.81
283.745	73.81
283.976	86.81
284.207	101.81
284.439	69.81
284.67	89.81
284.901	94.81
285.132	79.81
285.364	73.81
285.595	99.81
285.826	86.81
286.057	93.81
286.288	97.81
286.52	90.81
286.751	76.81
286.982	90.81
287.213	77.81
287.444	81.81
287.675	85.81
287.906	91.81
288.138	93.81
288.369	92.81
288.6	96.81
288.831	83.81
289.062	77.81
289.293	84.81
289.524	74.81
289.755	82.81
289.986	63.81
290.217	97.81
290.448	87.81
290.679	99.81
290.91	70.81
291.141	75.81
291.371	88.81
291.602	95.81
291.833	91.81
292.064	89.81
292.295	88.81
292.526	92.81
292.757	83.81
292.987	81.81
293.218	71.81
293.449	89.81
293.68	94.81
293.91	80.81
294.141	90.81
294.372	90.81
294.603	95.81
294.833	70.81
295.064	77.81
295.295	77.81
295.525	86.81
295.756	92.81
295.987	122.81
296.217	155.81
296.448	124.81
296.679	77.81
296.909	81.81
297.14	93.81
297.37	91.81
297.601	84.81
297.831	98.81
298.062	104.81
298.292	95.81
298.523	80.81
298.753	90.81
298.984	88.81
299.214	93.81
299.445	96.81
299.675	97.81
299.905	101.81
300.136	96.81
300.366	92.81
300.597	89.81
300.827	99.81
301.057	94.81
301.288	108.81
301.518	86.81
301.748	91.81
301.979	98.81
302.209	90.81
302.439	84.81
302.669	98.81
302.9	78.81
303.13	101.81
303.36	88.81
303.59	93.81
303.82	105.81
304.051	87.81
304.281	100.81
304.511	89.81
304.741	78.81
304.971	86.81
305.201	88.81
305.431	102.81
305.661	93.81
305.891	93.81
306.121	94.81
306.352	97.81
306.582	100.81
306.812	109.81
307.042	96.81
307.272	105.81
307.502	114.81
307.731	99.81
307.961	89.81
308.191	80.81
308.421	101.81
308.651	98.81
308.881	85.81
309.111	75.81
309.341	84.81
309.571	88.81
309.8	87.81
310.03	105.81
310.26	90.81
310.49	90.81
310.72	101.81
310.949	105.81
311.179	90.81
311.409	92.81
311.639	95.81
311.868	106.81
312.098	98.81
312.328	105.81
312.557	106.81
312.787	98.81
313.017	106.81
313.246	95.81
313.476	96.81
313.706	96.81
313.935	93.81
314.165	99.81
314.394	86.81
314.624	102.81
314.853	95.81
315.083	103.81
315.312	81.81
315.542	95.81
315.771	87.81
316.001	98.81
316.23	87.81
316.46	92.81
316.689	87.81
316.919	86.81
317.148	111.81
317.377	96.81
317.607	86.81
317.836	92.81
318.065	96.81
318.295	90.81
318.524	82.81
318.753	86.81
318.983	80.81
319.212	98.81
319.441	98.81
319.67	100.81
319.9	99.81
320.129	78.81
320.358	90.81
320.587	90.81
320.816	101.81
321.046	94.81
321.275	85.81
321.504	87.81
321.733	82.81
321.962	82.81
322.191	113.81
322.42	128.81
322.649	105.81
322.878	106.81
323.108	121.81
323.337	129.81
323.566	120.81
323.795	166.81
324.024	216.81
324.253	445.81
324.482	940.81
324.71	1922.81
324.939	2537.81
325.168	918.81
325.397	247.81
325.626	165.81
325.855	144.81
326.084	140.81
326.313	142.81
326.542	150.81
326.77	244.81
326.999	516.81
327.228	1108.81
327.457	1968.81
327.686	1570.81
327.914	419.81
328.143	206.81
328.372	158.81
328.6	124.81
328.829	118.81
329.058	133.81
329.287	116.81
329.515	104.81
329.744	81.81
329.972	97.81
330.201	87.81
330.43	107.81
330.658	113.81
330.887	117.81
331.115	117.81
331.344	102.81
331.572	99.81
331.801	91.81
332.03	101.81
332.258	92.81
332.486	100.81
332.715	110.81
332.943	90.81
333.172	90.81
333.4	97.81
333.629	105.81
333.857	99.81
334.085	125.81
334.314	88.81
334.542	95.81
334.771	85.81
334.999	102.81
335.227	95.81
335.455	93.81
335.684	93.81
335.912	87.81
336.14	107.81
336.369	110.81
336.597	83.81
336.825	104.81
337.053	76.81
337.281	89.81
337.51	98.81
337.738	78.81
337.966	91.81
338.194	99.81
338.422	94.81
338.65	87.81
338.878	96.81
339.106	100.81
339.334	93.81
339.562	75.81
339.79	80.81
340.018	90.81
340.246	85.81
340.474	95.81
340.702	92.81
340.93	89.81
341.158	84.81
341.386	92.81
341.614	111.81
341.842	107.81
342.07	80.81
342.298	97.81
342.526	95.81
342.754	89.81
342.981	98.81
343.209	78.81
343.437	88.81
343.665	94.81
343.893	83.81
344.12	87.81
344.348	85.81
344.576	89.81
344.804	82.81
345.031	92.81
345.259	94.81
345.487	92.81
345.714	96.81
345.942	95.81
346.17	94.81
346.397	85.81
346.625	91.81
346.853	83.81
347.08	68.81
347.308	92.81
347.535	98.81
347.763	93.81
347.99	93.81
348.218	102.81
348.445	100.81
348.673	97.81
348.9	95.81
349.128	89.81
349.355	88.81
349.583	82.81
349.81	85.81
350.037	94.81
350.265	107.81
350.492	86.81
350.72	89.81
350.947	80.81
351.174	101.81
351.402	98.81
351.629	109.81
351.856	97.81
352.083	97.81
352.311	109.81
352.538	101.81
352.765	100.81
352.992	98.81
353.22	110.81
353.447	100.81
353.674	98.81
353.901	101.81
354.128	92.81
354.355	88.81
354.583	104.81
354.81	91.81
355.037	99.81
355.264	100.81
355.491	94.81
355.718	86.81
355.945	81.81
356.172	81.81
356.399	101.81
356.626	84.81
356.853	89.81
357.08	100.81
357.307	85.81
357.534	95.81
357.761	84.81
357.988	103.81
358.215	99.81
358.441	91.81
358.668	82.81
358.895	92.81
359.122	98.81
359.349	80.81
359.576	88.81
359.802	107.81
360.029	100.81
360.256	111.81
360.483	102.81
360.709	90.81
360.936	87.81
361.163	103.81
361.39	93.81
361.616	81.81
361.843	96.81
362.07	98.81
362.296	79.81
362.523	90.81
362.749	89.81
362.976	97.81
363.203	94.81
363.429	84.81
363.656	97.81
363.882	85.81
364.109	79.81
364.335	85.81
364.562	90.81
364.788	91.81
365.015	104.81
365.241	100.81
365.468	99.81
365.694	132.81
365.92	90.81
366.147	106.81
366.373	95.81
366.599	79.81
366.826	81.81
367.052	84.81
367.278	87.81
367.505	96.81
367.731	100.81
367.957	97.81
368.184	100.81
368.41	100.81
368.636	101.81
368.862	102.81
369.089	95.81
369.315	98.81
369.541	96.81
369.767	89.81
369.993	87.81
370.219	96.81
370.445	86.81
370.672	68.81
370.898	94.81
371.124	87.81
371.35	89.81
371.576	99.81
371.802	88.81
372.028	100.81
372.254	80.81
372.48	89.81
372.706	83.81
372.932	78.81
373.158	78.81
373.384	92.81
373.61	95.81
373.835	94.81
374.061	85.81
374.287	87.81
374.513	86.81
374.739	82.81
374.965	87.81
375.191	85.81
375.416	92.81
375.642	90.81
375.868	95.81
376.094	94.81
376.319	90.81
376.545	93.81
376.771	83.81
376.997	92.81
377.222	90.81
377.448	80.81
377.674	86.81
377.899	96.81
378.125	87.81
378.35	88.81
378.576	90.81
378.802	80.81
379.027	80.81
379.253	90.81
379.478	97.81
379.704	93.81
379.929	93.81
380.155	88.81
380.38	94.81
380.606	94.81
380.831	94.81
381.057	109.81
381.282	111.81
381.507	94.81
381.733	88.81
381.958	101.81
382.184	88.81
382.409	89.81
382.634	104.81
382.86	113.81
383.085	105.81
383.31	92.81
383.535	92.81
383.761	94.81
383.986	94.81
384.211	88.81
384.436	102.81
384.662	99.81
384.887	123.81
385.112	113.81
385.337	109.81
385.562	97.81
385.787	119.81
386.013	110.81
386.238	110.81
386.463	110.81
386.688	126.81
386.913	103.81
387.138	108.81
387.363	125.81
387.588	106.81
387.813	126.81
388.038	133.81
388.263	126.81
388.488	114.81
388.713	98.81
388.938	92.81
389.163	103.81
389.387	93.81
389.612	85.81
389.837	90.81
390.062	100.81
390.287	90.81
390.512	89.81
390.736	84.81
390.961	83.81
391.186	93.81
391.411	95.81
391.636	116.81
391.86	92.81
392.085	101.81
392.31	87.81
392.534	85.81
392.759	79.81
392.984	100.81
393.208	102.81
393.433	104.81
393.658	96.81
393.882	78.81
394.107	81.81
394.331	87.81
394.556	106.81
394.78	96.81
395.005	70.81
395.229	73.81
395.454	90.81
395.678	83.81
395.903	79.81
396.127	71.81
396.352	87.81
396.576	72.81
396.801	101.81
397.025	101.81
397.249	79.81
397.474	80.81
397.698	85.81
397.922	81.81
398.147	79.81
398.371	77.81
398.595	83.81
398.82	86.81
399.044	85.81
399.268	96.81
399.492	78.81
399.717	80.81
399.941	76.81
400.165	81.81
400.389	81.81
400.613	80.81
400.837	94.81
401.062	80.81
401.286	84.81
401.51	88.81
401.734	99.81
401.958	99.81
402.182	134.81
402.406	153.81
402.63	114.81
402.854	88.81
403.078	81.81
403.302	85.81
403.526	74.81
403.75	79.81
403.974	82.81
404.198	89.81
404.422	85.81
404.645	92.81
404.869	99.81
405.093	87.81
405.317	85.81
405.541	100.81
405.765	95.81
405.988	113.81
406.212	159.81
406.436	212.81
406.66	141.81
406.883	110.81
407.107	85.81
407.331	75.81
407.555	102.81
407.778	93.81
408.002	96.81
408.226	84.81
408.449	84.81
408.673	102.81
408.896	93.81
409.12	91.81
409.344	98.81
409.567	87.81
409.791	95.81
410.014	103.81
410.238	81.81
410.461	90.81
410.685	93.81
410.908	105.81
411.132	102.81
411.355	99.81
411.578	103.81
411.802	89.81
412.025	84.81
412.249	89.81
412.472	93.81
412.695	85.81
412.919	88.81
413.142	96.81
413.365	100.81
413.589	86.81
413.812	82.81
414.035	81.81
414.258	85.81
414.482	90.81
414.705	99.81
414.928	96.81
415.151	78.81
415.374	85.81
415.597	91.81
415.821	82.81
416.044	76.81
416.267	83.81
416.49	94.81
416.713	84.81
416.936	93.81
417.159	96.81
417.382	89.81
417.605	95.81
417.828	90.81
418.051	77.81
418.274	104.81
418.497	89.81
418.72	94.81
418.943	99.81
419.166	94.81
419.389	78.81
419.611	83.81
419.834	89.81
420.057	98.81
420.28	89.81
420.503	74.81
420.726	88.81
420.948	99.81
421.171	85.81
421.394	93.81
421.617	84.81
421.839	94.81
422.062	96.81
422.285	99.81
422.507	100.81
422.73	94.81
422.953	94.81
423.175	74.81
423.398	86.81
423.621	79.81
423.843	78.81
424.066	69.81
424.288	80.81
424.511	100.81
424.733	98.81
424.956	109.81
425.178	88.81
425.401	94.81
425.623	84.81
425.846	88.81
426.068	76.81
426.291	92.81
426.513	84.81
426.735	78.81
426.958	97.81
427.18	108.81
427.402	140.81
427.625	165.81
427.847	120.81
428.069	115.81
428.292	94.81
428.514	86.81
428.736	73.81
428.958	96.81
429.181	88.81
429.403	93.81
429.625	71.81
429.847	92.81
430.069	97.81
430.292	88.81
430.514	85.81
430.736	73.81
430.958	89.81
431.18	66.81
431.402	68.81
431.624	84.81
431.846	89.81
432.068	96.81
432.29	81.81
432.512	89.81
432.734	86.81
432.956	87.81
433.178	95.81
433.4	87.81
433.622	84.81
433.844	94.81
434.066	98.81
434.287	90.81
434.509	101.81
434.731	95.81
434.953	91.81
435.175	92.81
435.397	93.81
435.618	87.81
435.84	89.81
436.062	120.81
436.284	114.81
436.505	104.81
436.727	106.81
436.949	98.81
437.17	77.81
437.392	84.81
437.614	88.81
437.835	105.81
438.057	128.81
438.278	113.81
438.5	99.81
438.721	110.81
438.943	94.81
439.165	87.81
439.386	91.81
439.608	86.81
439.829	100.81
440.05	115.81
440.272	137.81
440.493	94.81
440.715	78.81
440.936	80.81
441.158	99.81
441.379	78.81
441.6	70.81
441.822	93.81
442.043	82.81
442.264	98.81
442.486	118.81
442.707	101.81
442.928	105.81
443.149	122.81
443.371	144.81
443.592	111.81
443.813	98.81
444.034	100.81
444.255	80.81
444.476	86.81
444.698	97.81
444.919	86.81
445.14	116.81
445.361	133.81
445.582	116.81
445.803	134.81
446.024	128.81
446.245	137.81
446.466	113.81
446.687	79.81
446.908	82.81
447.129	78.81
447.35	86.81
447.571	97.81
447.792	93.81
448.013	105.81
448.234	118.81
448.455	96.81
448.675	117.81
448.896	127.81
449.117	93.81
449.338	104.81
449.559	146.81
449.779	116.81
450	90.81
450.221	77.81
450.442	95.81
450.662	81.81
450.883	109.81
451.104	112.81
451.324	103.81
451.545	100.81
451.766	92.81
451.986	81.81
452.207	76.81
452.428	92.81
452.648	87.81
452.869	111.81
453.089	114.81
453.31	108.81
453.53	97.81
453.751	93.81
453.971	116.81
454.192	91.81
454.412	95.81
454.633	80.81
454.853	70.81
455.073	88.81
455.294	84.81
455.514	83.81
455.734	84.81
455.955	85.81
456.175	83.81
456.395	93.81
456.616	81.81
456.836	84.81
457.056	85.81
457.276	84.81
457.497	89.81
457.717	77.81
457.937	77.81
458.157	96.81
458.377	79.81
458.598	100.81
458.818	165.81
459.038	151.81
459.258	126.81
459.478	92.81
459.698	83.81
459.918	85.81
460.138	79.81
460.358	73.81
460.578	87.81
460.798	70.81
461.018	78.81
461.238	85.81
461.458	95.81
461.678	88.81
461.898	88.81
462.118	86.81
462.338	96.81
462.558	79.81
462.777	68.81
462.997	81.81
463.217	79.81
463.437	85.81
463.657	73.81
463.876	81.81
464.096	75.81
464.316	88.81
464.536	93.81
464.755	91.81
464.975	108.81
465.195	160.81
465.414	167.81
465.634	99.81
465.854	89.81
466.073	97.81
466.293	95.81
466.512	77.81
466.732	65.81
466.951	103.81
467.171	97.81
467.391	103.81
467.61	103.81
467.829	97.81
468.049	92.81
468.268	95.81
468.488	78.81
468.707	88.81
468.927	86.81
469.146	85.81
469.365	76.81
469.585	85.81
469.804	85.81
470.023	96.81
470.243	96.81
470.462	97.81
470.681	106.81
470.901	91.81
471.12	86.81
471.339	83.81
471.558	92.81
471.777	85.81
471.997	91.81
472.216	87.81
472.435	114.81
472.654	65.81
472.873	81.81
473.092	84.81
473.311	83.81
473.53	83.81
473.749	90.81
473.968	99.81
474.187	99.81
474.406	85.81
474.625	96.81
474.844	79.81
475.063	92.81
475.282	76.81
475.501	74.81
475.72	74.81
475.939	73.81
476.158	77.81
476.377	72.81
476.596	85.81
476.814	71.81
477.033	90.81
477.252	84.81
477.471	87.81
477.69	93.81
477.908	83.81
478.127	80.81
478.346	88.81
478.564	81.81
478.783	89.81
479.002	99.81
479.22	96.81
479.439	99.81
479.658	105.81
479.876	92.81
480.095	92.81
480.313	101.81
480.532	102.81
480.751	110.81
480.969	94.81
481.188	139.81
481.406	99.81
481.624	85.81
481.843	82.81
482.061	92.81
482.28	89.81
482.498	82.81
482.717	81.81
482.935	89.81
483.153	81.81
483.372	83.81
483.59	106.81
483.808	84.81
484.027	99.81
484.245	88.81
484.463	86.81
484.681	98.81
484.9	95.81
485.118	89.81
485.336	88.81
485.554	94.81
485.772	103.81
485.99	102.81
486.209	100.81
486.427	108.81
486.645	120.81
486.863	110.81
487.081	107.81
487.299	86.81
487.517	85.81
487.735	96.81
487.953	97.81
488.171	93.81
488.389	98.81
488.607	90.81
488.825	81.81
489.043	92.81
489.261	99.81
489.479	84.81
489.696	90.81
489.914	80.81
490.132	78.81
490.35	74.81
490.568	85.81
490.786	103.81
491.003	94.81
491.221	92.81
491.439	86.81
491.657	96.81
491.874	81.81
492.092	85.81
492.31	83.81
492.527	90.81
492.745	78.81
492.963	99.81
493.18	88.81
493.398	88.81
493.615	110.81
493.833	91.81
494.05	86.81
494.268	93.81
494.485	97.81
494.703	100.81
494.92	80.81
495.138	77.81
495.355	78.81
495.573	72.81
495.79	72.81
496.008	99.81
496.225	95.81
496.442	94.81
496.66	85.81
496.877	79.81
497.094	72.81
497.312	77.81
497.529	93.81
497.746	92.81
497.963	87.81
498.181	84.81
498.398	93.81
498.615	109.81
498.832	101.81
499.049	79.81
499.267	89.81
499.484	89.81
499.701	88.81
499.918	91.81
500.135	93.81
500.352	90.81
500.569	94.81
500.786	90.81
501.003	85.81
501.22	89.81
501.437	81.81
501.654	106.81
501.871	94.81
502.088	98.81
502.305	112.81
502.522	94.81
502.739	84.81
502.956	102.81
503.172	82.81
503.389	90.81
503.606	112.81
503.823	90.81
504.04	86.81
504.256	88.81
504.473	94.81
504.69	78.81
504.907	96.81
505.123	100.81
505.34	88.81
505.557	89.81
505.773	75.81
505.99	80.81
506.207	85.81
506.423	88.81
506.64	82.81
506.856	84.81
507.073	79.81
507.289	91.81
507.506	104.81
507.722	104.81
507.939	116.81
508.155	87.81
508.372	99.81
508.588	90.81
508.805	94.81
509.021	81.81
509.238	92.81
509.454	98.81
509.67	100.81
509.887	111.81
510.103	129.81
510.319	221.81
510.536	816.81
510.752	2632.81
510.968	752.81
511.184	162.81
511.401	114.81
511.617	104.81
511.833	93.81
512.049	81.81
512.265	95.81
512.481	80.81
512.698	93.81
512.914	96.81
513.13	86.81
513.346	91.81
513.562	101.81
513.778	89.81
513.994	90.81
514.21	90.81
514.426	103.81
514.642	120.81
514.858	119.81
515.074	165.81
515.29	468.81
515.506	1569.81
515.721	565.81
515.937	158.81
516.153	109.81
