Data from Circ_2003_H10_HRD10591_00060.txt Node
Date: Wed Jan 03 10:37:14 EST 2024
User: Yrep
Spectrometer: HR+D1059
Trigger mode: 1
Integration Time (sec): 1.000000E-1
Scans to average: 1
Electric dark correction enabled: true
Nonlinearity correction enabled: false
Boxcar width: 0
XAxis mode: Wavelengths
Number of Pixels in Spectrum: 2048
>>>>>Begin Spectral Data<<<<<
223.165	-13.62
223.4	-13.62
223.635	-13.62
223.869	-21.62
224.104	-29.62
224.338	-3.62
224.573	-14.62
224.808	-6.62
225.042	-17.62
225.277	8.38
225.511	0.38
225.746	17.38
225.98	-4.62
226.215	6.38
226.449	11.38
226.683	18.38
226.918	15.38
227.152	34.38
227.387	41.38
227.621	41.38
227.856	40.38
228.09	54.38
228.324	41.38
228.559	61.38
228.793	58.38
229.027	61.38
229.262	77.38
229.496	82.38
229.73	81.38
229.964	77.38
230.199	79.38
230.433	82.38
230.667	66.38
230.901	76.38
231.136	61.38
231.37	85.38
231.604	87.38
231.838	77.38
232.072	78.38
232.306	75.38
232.541	90.38
232.775	86.38
233.009	80.38
233.243	82.38
233.477	82.38
233.711	78.38
233.945	90.38
234.179	86.38
234.413	84.38
234.647	77.38
234.881	73.38
235.115	89.38
235.349	93.38
235.583	82.38
235.817	79.38
236.051	92.38
236.285	91.38
236.519	74.38
236.753	80.38
236.987	74.38
237.221	77.38
237.455	77.38
237.689	77.38
237.922	63.38
238.156	73.38
238.39	79.38
238.624	74.38
238.858	71.38
239.091	69.38
239.325	70.38
239.559	93.38
239.793	88.38
240.027	75.38
240.26	73.38
240.494	72.38
240.728	78.38
240.961	74.38
241.195	78.38
241.429	89.38
241.662	88.38
241.896	82.38
242.13	69.38
242.363	80.38
242.597	77.38
242.83	85.38
243.064	76.38
243.298	87.38
243.531	84.38
243.765	77.38
243.998	71.38
244.232	88.38
244.465	80.38
244.699	77.38
244.932	72.38
245.166	88.38
245.399	68.38
245.633	81.38
245.866	67.38
246.099	80.38
246.333	78.38
246.566	77.38
246.8	77.38
247.033	83.38
247.266	77.38
247.5	76.38
247.733	75.38
247.966	71.38
248.2	83.38
248.433	90.38
248.666	61.38
248.899	90.38
249.133	81.38
249.366	92.38
249.599	93.38
249.832	77.38
250.066	90.38
250.299	71.38
250.532	69.38
250.765	81.38
250.998	80.38
251.231	71.38
251.465	68.38
251.698	81.38
251.931	83.38
252.164	69.38
252.397	86.38
252.63	71.38
252.863	58.38
253.096	72.38
253.329	84.38
253.562	81.38
253.795	81.38
254.028	78.38
254.261	81.38
254.494	80.38
254.727	78.38
254.96	72.38
255.193	70.38
255.426	85.38
255.659	82.38
255.892	80.38
256.124	90.38
256.357	72.38
256.59	80.38
256.823	78.38
257.056	80.38
257.289	80.38
257.521	90.38
257.754	78.38
257.987	79.38
258.22	95.38
258.452	81.38
258.685	89.38
258.918	74.38
259.151	86.38
259.383	87.38
259.616	73.38
259.849	56.38
260.081	94.38
260.314	71.38
260.547	73.38
260.779	97.38
261.012	82.38
261.244	85.38
261.477	80.38
261.71	96.38
261.942	99.38
262.175	105.38
262.407	91.38
262.64	95.38
262.872	74.38
263.105	87.38
263.337	84.38
263.57	86.38
263.802	82.38
264.035	79.38
264.267	73.38
264.499	77.38
264.732	86.38
264.964	74.38
265.197	82.38
265.429	75.38
265.661	100.38
265.894	93.38
266.126	80.38
266.358	85.38
266.591	92.38
266.823	73.38
267.055	84.38
267.287	103.38
267.52	78.38
267.752	90.38
267.984	80.38
268.216	90.38
268.448	90.38
268.681	80.38
268.913	78.38
269.145	87.38
269.377	80.38
269.609	74.38
269.841	88.38
270.073	81.38
270.306	83.38
270.538	87.38
270.77	63.38
271.002	95.38
271.234	81.38
271.466	97.38
271.698	92.38
271.93	82.38
272.162	90.38
272.394	85.38
272.626	82.38
272.858	74.38
273.09	93.38
273.322	68.38
273.553	97.38
273.785	79.38
274.017	79.38
274.249	90.38
274.481	83.38
274.713	84.38
274.945	88.38
275.176	74.38
275.408	90.38
275.64	91.38
275.872	90.38
276.104	101.38
276.335	84.38
276.567	82.38
276.799	111.38
277.031	99.38
277.262	95.38
277.494	81.38
277.726	91.38
277.957	83.38
278.189	90.38
278.421	92.38
278.652	91.38
278.884	82.38
279.115	74.38
279.347	78.38
279.579	83.38
279.81	82.38
280.042	99.38
280.273	96.38
280.505	90.38
280.736	90.38
280.968	81.38
281.199	74.38
281.431	82.38
281.662	95.38
281.894	81.38
282.125	95.38
282.356	101.38
282.588	128.38
282.819	106.38
283.051	96.38
283.282	87.38
283.513	74.38
283.745	79.38
283.976	77.38
284.207	91.38
284.439	90.38
284.67	80.38
284.901	91.38
285.132	99.38
285.364	82.38
285.595	83.38
285.826	89.38
286.057	93.38
286.288	82.38
286.52	86.38
286.751	78.38
286.982	80.38
287.213	91.38
287.444	93.38
287.675	85.38
287.906	90.38
288.138	80.38
288.369	95.38
288.6	89.38
288.831	97.38
289.062	87.38
289.293	70.38
289.524	85.38
289.755	95.38
289.986	92.38
290.217	76.38
290.448	90.38
290.679	94.38
290.91	94.38
291.141	84.38
291.371	104.38
291.602	94.38
291.833	91.38
292.064	86.38
292.295	98.38
292.526	81.38
292.757	101.38
292.987	84.38
293.218	71.38
293.449	89.38
293.68	87.38
293.91	81.38
294.141	90.38
294.372	95.38
294.603	95.38
294.833	99.38
295.064	103.38
295.295	96.38
295.525	91.38
295.756	110.38
295.987	107.38
296.217	146.38
296.448	113.38
296.679	105.38
296.909	94.38
297.14	87.38
297.37	109.38
297.601	83.38
297.831	80.38
298.062	94.38
298.292	98.38
298.523	90.38
298.753	90.38
298.984	94.38
299.214	83.38
299.445	95.38
299.675	81.38
299.905	102.38
300.136	103.38
300.366	81.38
300.597	93.38
300.827	100.38
301.057	96.38
301.288	113.38
301.518	101.38
301.748	87.38
301.979	100.38
302.209	84.38
302.439	85.38
302.669	89.38
302.9	97.38
303.13	96.38
303.36	96.38
303.59	110.38
303.82	113.38
304.051	90.38
304.281	87.38
304.511	82.38
304.741	93.38
304.971	85.38
305.201	98.38
305.431	93.38
305.661	77.38
305.891	99.38
306.121	94.38
306.352	104.38
306.582	93.38
306.812	97.38
307.042	101.38
307.272	86.38
307.502	88.38
307.731	102.38
307.961	79.38
308.191	84.38
308.421	94.38
308.651	87.38
308.881	87.38
309.111	87.38
309.341	96.38
309.571	95.38
309.8	78.38
310.03	99.38
310.26	80.38
310.49	102.38
310.72	83.38
310.949	103.38
311.179	88.38
311.409	90.38
311.639	94.38
311.868	94.38
312.098	95.38
312.328	104.38
312.557	97.38
312.787	90.38
313.017	80.38
313.246	110.38
313.476	89.38
313.706	79.38
313.935	103.38
314.165	105.38
314.394	100.38
314.624	86.38
314.853	85.38
315.083	108.38
315.312	94.38
315.542	102.38
315.771	99.38
316.001	99.38
316.23	88.38
316.46	86.38
316.689	88.38
316.919	93.38
317.148	79.38
317.377	88.38
317.607	93.38
317.836	94.38
318.065	93.38
318.295	106.38
318.524	93.38
318.753	85.38
318.983	91.38
319.212	111.38
319.441	88.38
319.67	91.38
319.9	88.38
320.129	70.38
320.358	91.38
320.587	95.38
320.816	104.38
321.046	86.38
321.275	85.38
321.504	88.38
321.733	107.38
321.962	87.38
322.191	89.38
322.42	101.38
322.649	111.38
322.878	108.38
323.108	115.38
323.337	120.38
323.566	135.38
323.795	145.38
324.024	202.38
324.253	401.38
324.482	810.38
324.71	1669.38
324.939	2137.38
325.168	792.38
325.397	256.38
325.626	158.38
325.855	143.38
326.084	129.38
326.313	138.38
326.542	161.38
326.77	216.38
326.999	464.38
327.228	932.38
327.457	1707.38
327.686	1347.38
327.914	373.38
328.143	193.38
328.372	145.38
328.6	125.38
328.829	115.38
329.058	95.38
329.287	116.38
329.515	109.38
329.744	109.38
329.972	117.38
330.201	121.38
330.43	133.38
330.658	122.38
330.887	118.38
331.115	117.38
331.344	94.38
331.572	98.38
331.801	107.38
332.03	95.38
332.258	95.38
332.486	84.38
332.715	79.38
332.943	99.38
333.172	88.38
333.4	98.38
333.629	105.38
333.857	104.38
334.085	117.38
334.314	127.38
334.542	141.38
334.771	160.38
334.999	103.38
335.227	94.38
335.455	100.38
335.684	100.38
335.912	99.38
336.14	86.38
336.369	100.38
336.597	89.38
336.825	96.38
337.053	101.38
337.281	91.38
337.51	77.38
337.738	92.38
337.966	91.38
338.194	89.38
338.422	102.38
338.65	103.38
338.878	102.38
339.106	90.38
339.334	90.38
339.562	90.38
339.79	91.38
340.018	99.38
340.246	87.38
340.474	97.38
340.702	84.38
340.93	78.38
341.158	81.38
341.386	87.38
341.614	101.38
341.842	98.38
342.07	93.38
342.298	82.38
342.526	93.38
342.754	78.38
342.981	94.38
343.209	93.38
343.437	106.38
343.665	98.38
343.893	73.38
344.12	97.38
344.348	95.38
344.576	86.38
344.804	90.38
345.031	103.38
345.259	89.38
345.487	94.38
345.714	96.38
345.942	85.38
346.17	87.38
346.397	87.38
346.625	96.38
346.853	88.38
347.08	77.38
347.308	81.38
347.535	98.38
347.763	93.38
347.99	93.38
348.218	100.38
348.445	95.38
348.673	94.38
348.9	82.38
349.128	96.38
349.355	83.38
349.583	103.38
349.81	91.38
350.037	123.38
350.265	100.38
350.492	94.38
350.72	96.38
350.947	114.38
351.174	98.38
351.402	105.38
351.629	99.38
351.856	95.38
352.083	94.38
352.311	98.38
352.538	99.38
352.765	101.38
352.992	107.38
353.22	106.38
353.447	88.38
353.674	97.38
353.901	107.38
354.128	106.38
354.355	93.38
354.583	93.38
354.81	95.38
355.037	94.38
355.264	104.38
355.491	91.38
355.718	100.38
355.945	101.38
356.172	89.38
356.399	95.38
356.626	102.38
356.853	87.38
357.08	74.38
357.307	94.38
357.534	85.38
357.761	98.38
357.988	95.38
358.215	95.38
358.441	110.38
358.668	75.38
358.895	76.38
359.122	89.38
359.349	90.38
359.576	86.38
359.802	108.38
360.029	106.38
360.256	99.38
360.483	85.38
360.709	100.38
360.936	92.38
361.163	82.38
361.39	87.38
361.616	87.38
361.843	93.38
362.07	88.38
362.296	99.38
362.523	92.38
362.749	95.38
362.976	81.38
363.203	91.38
363.429	93.38
363.656	87.38
363.882	87.38
364.109	89.38
364.335	95.38
364.562	82.38
364.788	86.38
365.015	94.38
365.241	104.38
365.468	98.38
365.694	107.38
365.92	94.38
366.147	98.38
366.373	67.38
366.599	81.38
366.826	90.38
367.052	91.38
367.278	93.38
367.505	79.38
367.731	91.38
367.957	96.38
368.184	95.38
368.41	97.38
368.636	112.38
368.862	118.38
369.089	98.38
369.315	102.38
369.541	86.38
369.767	94.38
369.993	77.38
370.219	88.38
370.445	97.38
370.672	96.38
370.898	89.38
371.124	88.38
371.35	93.38
371.576	84.38
371.802	86.38
372.028	79.38
372.254	97.38
372.48	88.38
372.706	82.38
372.932	84.38
373.158	88.38
373.384	91.38
373.61	98.38
373.835	93.38
374.061	81.38
374.287	99.38
374.513	87.38
374.739	93.38
374.965	90.38
375.191	97.38
375.416	106.38
375.642	88.38
375.868	91.38
376.094	75.38
376.319	83.38
376.545	89.38
376.771	87.38
376.997	89.38
377.222	85.38
377.448	79.38
377.674	85.38
377.899	97.38
378.125	89.38
378.35	82.38
378.576	74.38
378.802	72.38
379.027	74.38
379.253	92.38
379.478	101.38
379.704	101.38
379.929	89.38
380.155	88.38
380.38	89.38
380.606	90.38
380.831	107.38
381.057	103.38
381.282	104.38
381.507	87.38
381.733	105.38
381.958	96.38
382.184	94.38
382.409	109.38
382.634	94.38
382.86	102.38
383.085	114.38
383.31	100.38
383.535	92.38
383.761	96.38
383.986	99.38
384.211	100.38
384.436	97.38
384.662	108.38
384.887	107.38
385.112	115.38
385.337	113.38
385.562	95.38
385.787	101.38
386.013	101.38
386.238	113.38
386.463	102.38
386.688	107.38
386.913	111.38
387.138	98.38
387.363	108.38
387.588	100.38
387.813	107.38
388.038	101.38
388.263	111.38
388.488	118.38
388.713	87.38
388.938	92.38
389.163	95.38
389.387	97.38
389.612	99.38
389.837	81.38
390.062	78.38
390.287	106.38
390.512	88.38
390.736	91.38
390.961	81.38
391.186	81.38
391.411	96.38
391.636	85.38
391.86	91.38
392.085	85.38
392.31	85.38
392.534	77.38
392.759	91.38
392.984	99.38
393.208	96.38
393.433	93.38
393.658	75.38
393.882	96.38
394.107	85.38
394.331	80.38
394.556	82.38
394.78	91.38
395.005	81.38
395.229	87.38
395.454	91.38
395.678	78.38
395.903	89.38
396.127	99.38
396.352	100.38
396.576	93.38
396.801	86.38
397.025	87.38
397.249	98.38
397.474	94.38
397.698	78.38
397.922	80.38
398.147	83.38
398.371	75.38
398.595	76.38
398.82	89.38
399.044	88.38
399.268	83.38
399.492	102.38
399.717	82.38
399.941	86.38
400.165	97.38
400.389	99.38
400.613	78.38
400.837	103.38
401.062	100.38
401.286	98.38
401.51	84.38
401.734	64.38
401.958	90.38
402.182	125.38
402.406	147.38
402.63	96.38
402.854	95.38
403.078	94.38
403.302	96.38
403.526	76.38
403.75	81.38
403.974	71.38
404.198	91.38
404.422	74.38
404.645	85.38
404.869	93.38
405.093	110.38
405.317	96.38
405.541	97.38
405.765	100.38
405.988	116.38
406.212	134.38
406.436	197.38
406.66	140.38
406.883	101.38
407.107	78.38
407.331	81.38
407.555	103.38
407.778	83.38
408.002	78.38
408.226	73.38
408.449	78.38
408.673	73.38
408.896	98.38
409.12	94.38
409.344	94.38
409.567	82.38
409.791	105.38
410.014	100.38
410.238	95.38
410.461	106.38
410.685	88.38
410.908	97.38
411.132	106.38
411.355	95.38
411.578	91.38
411.802	86.38
412.025	79.38
412.249	89.38
412.472	81.38
412.695	98.38
412.919	82.38
413.142	93.38
413.365	91.38
413.589	91.38
413.812	82.38
414.035	84.38
414.258	96.38
414.482	98.38
414.705	96.38
414.928	87.38
415.151	81.38
415.374	93.38
415.597	83.38
415.821	87.38
416.044	74.38
416.267	73.38
416.49	88.38
416.713	91.38
416.936	75.38
417.159	91.38
417.382	88.38
417.605	84.38
417.828	94.38
418.051	101.38
418.274	85.38
418.497	89.38
418.72	78.38
418.943	81.38
419.166	88.38
419.389	94.38
419.611	86.38
419.834	96.38
420.057	98.38
420.28	87.38
420.503	86.38
420.726	65.38
420.948	73.38
421.171	89.38
421.394	88.38
421.617	88.38
421.839	83.38
422.062	89.38
422.285	89.38
422.507	97.38
422.73	100.38
422.953	87.38
423.175	84.38
423.398	94.38
423.621	90.38
423.843	85.38
424.066	78.38
424.288	98.38
424.511	90.38
424.733	99.38
424.956	108.38
425.178	91.38
425.401	103.38
425.623	90.38
425.846	77.38
426.068	99.38
426.291	82.38
426.513	98.38
426.735	91.38
426.958	78.38
427.18	98.38
427.402	116.38
427.625	162.38
427.847	114.38
428.069	101.38
428.292	90.38
428.514	83.38
428.736	86.38
428.958	69.38
429.181	73.38
429.403	81.38
429.625	81.38
429.847	95.38
430.069	89.38
430.292	93.38
430.514	79.38
430.736	85.38
430.958	79.38
431.18	83.38
431.402	80.38
431.624	97.38
431.846	82.38
432.068	94.38
432.29	76.38
432.512	98.38
432.734	98.38
432.956	93.38
433.178	89.38
433.4	98.38
433.622	95.38
433.844	94.38
434.066	90.38
434.287	90.38
434.509	82.38
434.731	85.38
434.953	63.38
435.175	84.38
435.397	100.38
435.618	93.38
435.84	94.38
436.062	125.38
436.284	102.38
436.505	99.38
436.727	104.38
436.949	96.38
437.17	81.38
437.392	96.38
437.614	104.38
437.835	107.38
438.057	118.38
438.278	106.38
438.5	77.38
438.721	97.38
438.943	84.38
439.165	79.38
439.386	85.38
439.608	85.38
439.829	104.38
440.05	117.38
440.272	125.38
440.493	91.38
440.715	98.38
440.936	81.38
441.158	86.38
441.379	82.38
441.6	86.38
441.822	99.38
442.043	94.38
442.264	89.38
442.486	89.38
442.707	83.38
442.928	87.38
443.149	123.38
443.371	127.38
443.592	99.38
443.813	101.38
444.034	90.38
444.255	76.38
444.476	86.38
444.698	86.38
444.919	87.38
445.14	123.38
445.361	125.38
445.582	115.38
445.803	128.38
446.024	119.38
446.245	122.38
446.466	105.38
446.687	100.38
446.908	93.38
447.129	82.38
447.35	84.38
447.571	94.38
447.792	87.38
448.013	83.38
448.234	112.38
448.455	95.38
448.675	96.38
448.896	104.38
449.117	108.38
449.338	106.38
449.559	117.38
449.779	110.38
450	95.38
450.221	96.38
450.442	89.38
450.662	98.38
450.883	107.38
451.104	105.38
451.324	102.38
451.545	73.38
451.766	79.38
451.986	89.38
452.207	93.38
452.428	83.38
452.648	90.38
452.869	113.38
453.089	113.38
453.31	109.38
453.53	95.38
453.751	89.38
453.971	92.38
454.192	114.38
454.412	82.38
454.633	77.38
454.853	81.38
455.073	82.38
455.294	92.38
455.514	98.38
455.734	88.38
455.955	73.38
456.175	94.38
456.395	96.38
456.616	101.38
456.836	95.38
457.056	69.38
457.276	86.38
457.497	83.38
457.717	91.38
457.937	89.38
458.157	102.38
458.377	80.38
458.598	97.38
458.818	114.38
459.038	136.38
459.258	105.38
459.478	94.38
459.698	86.38
459.918	88.38
460.138	81.38
460.358	90.38
460.578	87.38
460.798	95.38
461.018	77.38
461.238	69.38
461.458	72.38
461.678	85.38
461.898	88.38
462.118	83.38
462.338	74.38
462.558	88.38
462.777	95.38
462.997	87.38
463.217	83.38
463.437	75.38
463.657	82.38
463.876	80.38
464.096	73.38
464.316	82.38
464.536	91.38
464.755	100.38
464.975	96.38
465.195	154.38
465.414	155.38
465.634	100.38
465.854	89.38
466.073	89.38
466.293	83.38
466.512	99.38
466.732	92.38
466.951	85.38
467.171	88.38
467.391	95.38
467.61	110.38
467.829	120.38
468.049	100.38
468.268	98.38
468.488	75.38
468.707	87.38
468.927	94.38
469.146	74.38
469.365	95.38
469.585	85.38
469.804	85.38
470.023	86.38
470.243	77.38
470.462	95.38
470.681	99.38
470.901	99.38
471.12	96.38
471.339	86.38
471.558	81.38
471.777	97.38
471.997	90.38
472.216	117.38
472.435	176.38
472.654	113.38
472.873	81.38
473.092	79.38
473.311	94.38
473.53	95.38
473.749	95.38
473.968	85.38
474.187	102.38
474.406	91.38
474.625	90.38
474.844	79.38
475.063	81.38
475.282	100.38
475.501	85.38
475.72	91.38
475.939	85.38
476.158	90.38
476.377	92.38
476.596	104.38
476.814	77.38
477.033	86.38
477.252	80.38
477.471	85.38
477.69	86.38
477.908	92.38
478.127	81.38
478.346	87.38
478.564	105.38
478.783	92.38
479.002	87.38
479.22	75.38
479.439	104.38
479.658	97.38
479.876	100.38
480.095	86.38
480.313	79.38
480.532	91.38
480.751	89.38
480.969	131.38
481.188	275.38
481.406	191.38
481.624	103.38
481.843	85.38
482.061	85.38
482.28	93.38
482.498	96.38
482.717	88.38
482.935	84.38
483.153	76.38
483.372	86.38
483.59	90.38
483.808	91.38
484.027	98.38
484.245	77.38
484.463	92.38
484.681	100.38
484.9	70.38
485.118	90.38
485.336	97.38
485.554	104.38
485.772	99.38
485.99	98.38
486.209	111.38
486.427	101.38
486.645	105.38
486.863	111.38
487.081	99.38
487.299	96.38
487.517	107.38
487.735	87.38
487.953	97.38
488.171	89.38
488.389	85.38
488.607	90.38
488.825	86.38
489.043	78.38
489.261	85.38
489.479	89.38
489.696	94.38
489.914	91.38
490.132	89.38
490.35	76.38
490.568	90.38
490.786	85.38
491.003	94.38
491.221	83.38
491.439	93.38
491.657	88.38
491.874	84.38
492.092	91.38
492.31	90.38
492.527	75.38
492.745	82.38
492.963	88.38
493.18	73.38
493.398	85.38
493.615	94.38
493.833	89.38
494.05	89.38
494.268	99.38
494.485	100.38
494.703	95.38
494.92	89.38
495.138	92.38
495.355	83.38
495.573	90.38
495.79	84.38
496.008	91.38
496.225	101.38
496.442	90.38
496.66	100.38
496.877	97.38
497.094	98.38
497.312	94.38
497.529	88.38
497.746	99.38
497.963	97.38
498.181	95.38
498.398	91.38
498.615	99.38
498.832	96.38
499.049	81.38
499.267	105.38
499.484	79.38
499.701	86.38
499.918	85.38
500.135	77.38
500.352	97.38
500.569	77.38
500.786	81.38
501.003	102.38
501.22	94.38
501.437	95.38
501.654	87.38
501.871	97.38
502.088	88.38
502.305	98.38
502.522	86.38
502.739	89.38
502.956	79.38
503.172	90.38
503.389	101.38
503.606	91.38
503.823	94.38
504.04	93.38
504.256	100.38
504.473	81.38
504.69	83.38
504.907	95.38
505.123	100.38
505.34	90.38
505.557	77.38
505.773	90.38
505.99	98.38
506.207	98.38
506.423	81.38
506.64	94.38
506.856	71.38
507.073	75.38
507.289	90.38
507.506	90.38
507.722	110.38
507.939	90.38
508.155	85.38
508.372	84.38
508.588	93.38
508.805	77.38
509.021	97.38
509.238	96.38
509.454	86.38
509.67	91.38
509.887	120.38
510.103	131.38
510.319	215.38
510.536	722.38
510.752	2254.38
510.968	621.38
511.184	145.38
511.401	109.38
511.617	104.38
511.833	103.38
512.049	97.38
512.265	76.38
512.481	101.38
512.698	85.38
512.914	89.38
513.13	98.38
513.346	96.38
513.562	85.38
513.778	101.38
513.994	95.38
514.21	105.38
514.426	117.38
514.642	128.38
514.858	118.38
515.074	165.38
515.29	400.38
515.506	1297.38
515.721	485.38
515.937	138.38
516.153	113.38
