Data from Circ_2003_H10_HRD10591_00063.txt Node
Date: Wed Jan 03 10:37:15 EST 2024
User: Yrep
Spectrometer: HR+D1059
Trigger mode: 1
Integration Time (sec): 1.000000E-1
Scans to average: 1
Electric dark correction enabled: true
Nonlinearity correction enabled: false
Boxcar width: 0
XAxis mode: Wavelengths
Number of Pixels in Spectrum: 2048
>>>>>Begin Spectral Data<<<<<
223.165	-4.44
223.4	-4.44
223.635	-4.44
223.869	-19.44
224.104	-12.44
224.338	-21.44
224.573	-19.44
224.808	-19.44
225.042	-11.44
225.277	-2.44
225.511	-3.44
225.746	10.56
225.98	-5.44
226.215	9.56
226.449	20.56
226.683	20.56
226.918	23.56
227.152	34.56
227.387	32.56
227.621	29.56
227.856	43.56
228.09	44.56
228.324	56.56
228.559	43.56
228.793	47.56
229.027	66.56
229.262	58.56
229.496	71.56
229.73	72.56
229.964	79.56
230.199	73.56
230.433	86.56
230.667	74.56
230.901	71.56
231.136	72.56
231.37	67.56
231.604	73.56
231.838	77.56
232.072	71.56
232.306	98.56
232.541	79.56
232.775	82.56
233.009	89.56
233.243	97.56
233.477	81.56
233.711	76.56
233.945	79.56
234.179	68.56
234.413	68.56
234.647	78.56
234.881	71.56
235.115	78.56
235.349	79.56
235.583	76.56
235.817	72.56
236.051	68.56
236.285	74.56
236.519	74.56
236.753	83.56
236.987	78.56
237.221	76.56
237.455	73.56
237.689	68.56
237.922	81.56
238.156	73.56
238.39	76.56
238.624	75.56
238.858	79.56
239.091	68.56
239.325	72.56
239.559	65.56
239.793	86.56
240.027	81.56
240.26	69.56
240.494	70.56
240.728	77.56
240.961	69.56
241.195	79.56
241.429	80.56
241.662	68.56
241.896	78.56
242.13	83.56
242.363	87.56
242.597	75.56
242.83	83.56
243.064	65.56
243.298	66.56
243.531	72.56
243.765	78.56
243.998	82.56
244.232	81.56
244.465	71.56
244.699	88.56
244.932	70.56
245.166	77.56
245.399	84.56
245.633	87.56
245.866	76.56
246.099	78.56
246.333	77.56
246.566	65.56
246.8	88.56
247.033	72.56
247.266	74.56
247.5	67.56
247.733	77.56
247.966	72.56
248.2	80.56
248.433	81.56
248.666	71.56
248.899	74.56
249.133	78.56
249.366	97.56
249.599	94.56
249.832	84.56
250.066	77.56
250.299	77.56
250.532	80.56
250.765	72.56
250.998	78.56
251.231	72.56
251.465	72.56
251.698	79.56
251.931	83.56
252.164	86.56
252.397	73.56
252.63	73.56
252.863	75.56
253.096	77.56
253.329	89.56
253.562	85.56
253.795	73.56
254.028	87.56
254.261	82.56
254.494	83.56
254.727	90.56
254.96	71.56
255.193	75.56
255.426	68.56
255.659	65.56
255.892	80.56
256.124	89.56
256.357	74.56
256.59	82.56
256.823	85.56
257.056	67.56
257.289	70.56
257.521	81.56
257.754	63.56
257.987	84.56
258.22	93.56
258.452	82.56
258.685	79.56
258.918	76.56
259.151	85.56
259.383	75.56
259.616	90.56
259.849	71.56
260.081	77.56
260.314	90.56
260.547	78.56
260.779	84.56
261.012	84.56
261.244	95.56
261.477	84.56
261.71	92.56
261.942	116.56
262.175	117.56
262.407	91.56
262.64	74.56
262.872	94.56
263.105	87.56
263.337	85.56
263.57	66.56
263.802	85.56
264.035	86.56
264.267	79.56
264.499	74.56
264.732	89.56
264.964	85.56
265.197	80.56
265.429	85.56
265.661	82.56
265.894	76.56
266.126	93.56
266.358	92.56
266.591	89.56
266.823	84.56
267.055	83.56
267.287	76.56
267.52	81.56
267.752	81.56
267.984	81.56
268.216	77.56
268.448	83.56
268.681	80.56
268.913	77.56
269.145	71.56
269.377	87.56
269.609	97.56
269.841	87.56
270.073	87.56
270.306	71.56
270.538	93.56
270.77	83.56
271.002	89.56
271.234	81.56
271.466	79.56
271.698	73.56
271.93	96.56
272.162	87.56
272.394	90.56
272.626	89.56
272.858	89.56
273.09	78.56
273.322	81.56
273.553	81.56
273.785	78.56
274.017	85.56
274.249	82.56
274.481	69.56
274.713	95.56
274.945	93.56
275.176	80.56
275.408	80.56
275.64	80.56
275.872	88.56
276.104	81.56
276.335	90.56
276.567	97.56
276.799	107.56
277.031	93.56
277.262	92.56
277.494	87.56
277.726	77.56
277.957	87.56
278.189	83.56
278.421	80.56
278.652	79.56
278.884	87.56
279.115	77.56
279.347	81.56
279.579	90.56
279.81	80.56
280.042	84.56
280.273	93.56
280.505	85.56
280.736	94.56
280.968	76.56
281.199	94.56
281.431	83.56
281.662	80.56
281.894	70.56
282.125	81.56
282.356	113.56
282.588	128.56
282.819	96.56
283.051	94.56
283.282	98.56
283.513	88.56
283.745	82.56
283.976	84.56
284.207	93.56
284.439	89.56
284.67	92.56
284.901	89.56
285.132	93.56
285.364	85.56
285.595	89.56
285.826	86.56
286.057	94.56
286.288	87.56
286.52	89.56
286.751	83.56
286.982	82.56
287.213	58.56
287.444	84.56
287.675	79.56
287.906	87.56
288.138	91.56
288.369	82.56
288.6	94.56
288.831	86.56
289.062	85.56
289.293	85.56
289.524	94.56
289.755	80.56
289.986	82.56
290.217	89.56
290.448	86.56
290.679	81.56
290.91	89.56
291.141	80.56
291.371	78.56
291.602	85.56
291.833	73.56
292.064	74.56
292.295	88.56
292.526	96.56
292.757	98.56
292.987	96.56
293.218	91.56
293.449	79.56
293.68	82.56
293.91	70.56
294.141	88.56
294.372	89.56
294.603	88.56
294.833	88.56
295.064	85.56
295.295	95.56
295.525	83.56
295.756	95.56
295.987	110.56
296.217	129.56
296.448	108.56
296.679	90.56
296.909	80.56
297.14	81.56
297.37	82.56
297.601	82.56
297.831	85.56
298.062	92.56
298.292	84.56
298.523	85.56
298.753	101.56
298.984	86.56
299.214	80.56
299.445	83.56
299.675	101.56
299.905	88.56
300.136	84.56
300.366	87.56
300.597	93.56
300.827	92.56
301.057	83.56
301.288	88.56
301.518	105.56
301.748	86.56
301.979	105.56
302.209	106.56
302.439	90.56
302.669	79.56
302.9	87.56
303.13	92.56
303.36	105.56
303.59	92.56
303.82	101.56
304.051	104.56
304.281	104.56
304.511	90.56
304.741	87.56
304.971	99.56
305.201	90.56
305.431	96.56
305.661	83.56
305.891	82.56
306.121	89.56
306.352	99.56
306.582	103.56
306.812	105.56
307.042	88.56
307.272	101.56
307.502	93.56
307.731	96.56
307.961	107.56
308.191	85.56
308.421	87.56
308.651	81.56
308.881	95.56
309.111	85.56
309.341	83.56
309.571	92.56
309.8	93.56
310.03	99.56
310.26	93.56
310.49	103.56
310.72	95.56
310.949	92.56
311.179	101.56
311.409	77.56
311.639	90.56
311.868	109.56
312.098	101.56
312.328	91.56
312.557	80.56
312.787	86.56
313.017	102.56
313.246	89.56
313.476	92.56
313.706	101.56
313.935	93.56
314.165	88.56
314.394	96.56
314.624	89.56
314.853	95.56
315.083	98.56
315.312	82.56
315.542	91.56
315.771	78.56
316.001	98.56
316.23	87.56
316.46	87.56
316.689	90.56
316.919	97.56
317.148	100.56
317.377	84.56
317.607	103.56
317.836	87.56
318.065	92.56
318.295	97.56
318.524	85.56
318.753	96.56
318.983	96.56
319.212	97.56
319.441	99.56
319.67	104.56
319.9	90.56
320.129	90.56
320.358	105.56
320.587	101.56
320.816	96.56
321.046	91.56
321.275	84.56
321.504	93.56
321.733	101.56
321.962	100.56
322.191	91.56
322.42	113.56
322.649	106.56
322.878	96.56
323.108	108.56
323.337	119.56
323.566	136.56
323.795	145.56
324.024	201.56
324.253	385.56
324.482	829.56
324.71	1611.56
324.939	2117.56
325.168	780.56
325.397	241.56
325.626	160.56
325.855	129.56
326.084	121.56
326.313	135.56
326.542	148.56
326.77	218.56
326.999	442.56
327.228	913.56
327.457	1682.56
327.686	1318.56
327.914	351.56
328.143	188.56
328.372	147.56
328.6	118.56
328.829	117.56
329.058	106.56
329.287	99.56
329.515	124.56
329.744	107.56
329.972	110.56
330.201	143.56
330.43	137.56
330.658	126.56
330.887	131.56
331.115	126.56
331.344	105.56
331.572	101.56
331.801	104.56
332.03	95.56
332.258	101.56
332.486	87.56
332.715	96.56
332.943	73.56
333.172	106.56
333.4	98.56
333.629	118.56
333.857	105.56
334.085	121.56
334.314	134.56
334.542	150.56
334.771	144.56
334.999	112.56
335.227	95.56
335.455	86.56
335.684	108.56
335.912	101.56
336.14	88.56
336.369	90.56
336.597	94.56
336.825	113.56
337.053	86.56
337.281	85.56
337.51	95.56
337.738	90.56
337.966	94.56
338.194	96.56
338.422	84.56
338.65	91.56
338.878	93.56
339.106	97.56
339.334	72.56
339.562	86.56
339.79	82.56
340.018	95.56
340.246	88.56
340.474	83.56
340.702	88.56
340.93	88.56
341.158	98.56
341.386	87.56
341.614	110.56
341.842	104.56
342.07	91.56
342.298	78.56
342.526	91.56
342.754	94.56
342.981	85.56
343.209	72.56
343.437	104.56
343.665	90.56
343.893	94.56
344.12	91.56
344.348	101.56
344.576	78.56
344.804	88.56
345.031	96.56
345.259	94.56
345.487	90.56
345.714	89.56
345.942	97.56
346.17	82.56
346.397	96.56
346.625	113.56
346.853	89.56
347.08	92.56
347.308	88.56
347.535	84.56
347.763	96.56
347.99	95.56
348.218	102.56
348.445	113.56
348.673	90.56
348.9	98.56
349.128	85.56
349.355	79.56
349.583	94.56
349.81	87.56
350.037	78.56
350.265	108.56
350.492	99.56
350.72	87.56
350.947	96.56
351.174	96.56
351.402	99.56
351.629	93.56
351.856	102.56
352.083	98.56
352.311	93.56
352.538	87.56
352.765	96.56
352.992	86.56
353.22	116.56
353.447	101.56
353.674	100.56
353.901	90.56
354.128	81.56
354.355	98.56
354.583	108.56
354.81	106.56
355.037	96.56
355.264	93.56
355.491	93.56
355.718	99.56
355.945	98.56
356.172	95.56
356.399	95.56
356.626	90.56
356.853	93.56
357.08	87.56
357.307	101.56
357.534	90.56
357.761	96.56
357.988	94.56
358.215	95.56
358.441	90.56
358.668	75.56
358.895	97.56
359.122	97.56
359.349	85.56
359.576	95.56
359.802	96.56
360.029	94.56
360.256	109.56
360.483	100.56
360.709	80.56
360.936	95.56
361.163	94.56
361.39	90.56
361.616	78.56
361.843	102.56
362.07	92.56
362.296	92.56
362.523	90.56
362.749	93.56
362.976	100.56
363.203	87.56
363.429	90.56
363.656	79.56
363.882	92.56
364.109	98.56
364.335	80.56
364.562	82.56
364.788	81.56
365.015	91.56
365.241	77.56
365.468	116.56
365.694	90.56
365.92	111.56
366.147	98.56
366.373	82.56
366.599	100.56
366.826	88.56
367.052	98.56
367.278	95.56
367.505	78.56
367.731	100.56
367.957	89.56
368.184	87.56
368.41	84.56
368.636	92.56
368.862	116.56
369.089	91.56
369.315	96.56
369.541	85.56
369.767	91.56
369.993	83.56
370.219	85.56
370.445	88.56
370.672	90.56
370.898	75.56
371.124	78.56
371.35	79.56
371.576	74.56
371.802	105.56
372.028	93.56
372.254	94.56
372.48	92.56
372.706	76.56
372.932	82.56
373.158	93.56
373.384	98.56
373.61	100.56
373.835	76.56
374.061	84.56
374.287	90.56
374.513	81.56
374.739	93.56
374.965	79.56
375.191	89.56
375.416	90.56
375.642	89.56
375.868	96.56
376.094	89.56
376.319	85.56
376.545	95.56
376.771	79.56
376.997	69.56
377.222	90.56
377.448	85.56
377.674	96.56
377.899	74.56
378.125	84.56
378.35	83.56
378.576	86.56
378.802	79.56
379.027	81.56
379.253	98.56
379.478	78.56
379.704	87.56
379.929	100.56
380.155	83.56
380.38	108.56
380.606	93.56
380.831	104.56
381.057	108.56
381.282	93.56
381.507	100.56
381.733	98.56
381.958	91.56
382.184	98.56
382.409	102.56
382.634	117.56
382.86	110.56
383.085	81.56
383.31	95.56
383.535	109.56
383.761	106.56
383.986	96.56
384.211	97.56
384.436	99.56
384.662	89.56
384.887	99.56
385.112	95.56
385.337	111.56
385.562	97.56
385.787	101.56
386.013	108.56
386.238	107.56
386.463	116.56
386.688	109.56
386.913	109.56
387.138	100.56
387.363	95.56
387.588	89.56
387.813	105.56
388.038	105.56
388.263	101.56
388.488	119.56
388.713	90.56
388.938	96.56
389.163	94.56
389.387	93.56
389.612	102.56
389.837	104.56
390.062	90.56
390.287	84.56
390.512	99.56
390.736	87.56
390.961	101.56
391.186	86.56
391.411	92.56
391.636	70.56
391.86	80.56
392.085	93.56
392.31	79.56
392.534	84.56
392.759	90.56
392.984	78.56
393.208	98.56
393.433	88.56
393.658	95.56
393.882	86.56
394.107	82.56
394.331	74.56
394.556	73.56
394.78	101.56
395.005	98.56
395.229	82.56
395.454	84.56
395.678	86.56
395.903	94.56
396.127	95.56
396.352	79.56
396.576	81.56
396.801	84.56
397.025	81.56
397.249	83.56
397.474	100.56
397.698	87.56
397.922	72.56
398.147	89.56
398.371	90.56
398.595	90.56
398.82	77.56
399.044	78.56
399.268	85.56
399.492	97.56
399.717	94.56
399.941	68.56
400.165	101.56
400.389	98.56
400.613	93.56
400.837	99.56
401.062	79.56
401.286	80.56
401.51	86.56
401.734	91.56
401.958	95.56
402.182	118.56
402.406	133.56
402.63	111.56
402.854	82.56
403.078	79.56
403.302	94.56
403.526	87.56
403.75	83.56
403.974	86.56
404.198	95.56
404.422	78.56
404.645	85.56
404.869	99.56
405.093	94.56
405.317	91.56
405.541	99.56
405.765	102.56
405.988	103.56
406.212	156.56
406.436	202.56
406.66	131.56
406.883	91.56
407.107	96.56
407.331	92.56
407.555	87.56
407.778	90.56
408.002	92.56
408.226	96.56
408.449	97.56
408.673	87.56
408.896	93.56
409.12	86.56
409.344	88.56
409.567	69.56
409.791	92.56
410.014	99.56
410.238	88.56
410.461	85.56
410.685	90.56
410.908	99.56
411.132	98.56
411.355	101.56
411.578	94.56
411.802	84.56
412.025	96.56
412.249	90.56
412.472	94.56
412.695	90.56
412.919	90.56
413.142	88.56
413.365	97.56
413.589	78.56
413.812	88.56
414.035	92.56
414.258	112.56
414.482	94.56
414.705	99.56
414.928	88.56
415.151	100.56
415.374	86.56
415.597	84.56
415.821	95.56
416.044	99.56
416.267	88.56
416.49	99.56
416.713	77.56
416.936	86.56
417.159	84.56
417.382	72.56
417.605	74.56
417.828	77.56
418.051	75.56
418.274	89.56
418.497	81.56
418.72	85.56
418.943	91.56
419.166	82.56
419.389	98.56
419.611	78.56
419.834	95.56
420.057	83.56
420.28	86.56
420.503	90.56
420.726	94.56
420.948	93.56
421.171	99.56
421.394	79.56
421.617	83.56
421.839	92.56
422.062	95.56
422.285	95.56
422.507	89.56
422.73	96.56
422.953	104.56
423.175	63.56
423.398	76.56
423.621	81.56
423.843	99.56
424.066	85.56
424.288	88.56
424.511	90.56
424.733	95.56
424.956	102.56
425.178	97.56
425.401	96.56
425.623	100.56
425.846	79.56
426.068	109.56
426.291	88.56
426.513	90.56
426.735	86.56
426.958	107.56
427.18	99.56
427.402	114.56
427.625	142.56
427.847	130.56
428.069	112.56
428.292	106.56
428.514	86.56
428.736	81.56
428.958	79.56
429.181	85.56
429.403	90.56
429.625	78.56
429.847	92.56
430.069	97.56
430.292	104.56
430.514	102.56
430.736	88.56
430.958	76.56
431.18	77.56
431.402	86.56
431.624	80.56
431.846	95.56
432.068	80.56
432.29	81.56
432.512	104.56
432.734	88.56
432.956	96.56
433.178	88.56
433.4	84.56
433.622	97.56
433.844	87.56
434.066	86.56
434.287	86.56
434.509	104.56
434.731	96.56
434.953	90.56
435.175	92.56
435.397	81.56
435.618	98.56
435.84	100.56
436.062	109.56
436.284	107.56
436.505	86.56
436.727	96.56
436.949	94.56
437.17	77.56
437.392	62.56
437.614	87.56
437.835	90.56
438.057	88.56
438.278	93.56
438.5	100.56
438.721	105.56
438.943	106.56
439.165	80.56
439.386	86.56
439.608	87.56
439.829	79.56
440.05	94.56
440.272	130.56
440.493	86.56
440.715	72.56
440.936	76.56
441.158	97.56
441.379	83.56
441.6	88.56
441.822	86.56
442.043	85.56
442.264	91.56
442.486	87.56
442.707	79.56
442.928	89.56
443.149	129.56
443.371	111.56
443.592	89.56
443.813	108.56
444.034	111.56
444.255	88.56
444.476	68.56
444.698	93.56
444.919	80.56
445.14	139.56
445.361	110.56
445.582	102.56
445.803	121.56
446.024	106.56
446.245	121.56
446.466	102.56
446.687	91.56
446.908	83.56
447.129	96.56
447.35	89.56
447.571	77.56
447.792	85.56
448.013	88.56
448.234	92.56
448.455	89.56
448.675	115.56
448.896	126.56
449.117	109.56
449.338	94.56
449.559	111.56
449.779	120.56
450	97.56
450.221	84.56
450.442	87.56
450.662	87.56
450.883	103.56
451.104	113.56
451.324	90.56
451.545	95.56
451.766	80.56
451.986	88.56
452.207	92.56
452.428	90.56
452.648	99.56
452.869	110.56
453.089	115.56
453.31	106.56
453.53	107.56
453.751	74.56
453.971	105.56
454.192	100.56
454.412	84.56
454.633	87.56
454.853	92.56
455.073	88.56
455.294	79.56
455.514	91.56
455.734	89.56
455.955	92.56
456.175	79.56
456.395	81.56
456.616	80.56
456.836	85.56
457.056	79.56
457.276	67.56
457.497	82.56
457.717	92.56
457.937	90.56
458.157	79.56
458.377	89.56
458.598	86.56
458.818	135.56
459.038	140.56
459.258	107.56
459.478	75.56
459.698	84.56
459.918	71.56
460.138	76.56
460.358	87.56
460.578	83.56
460.798	90.56
461.018	88.56
461.238	82.56
461.458	83.56
461.678	83.56
461.898	74.56
462.118	94.56
462.338	77.56
462.558	84.56
462.777	86.56
462.997	93.56
463.217	89.56
463.437	68.56
463.657	79.56
463.876	93.56
464.096	92.56
464.316	97.56
464.536	91.56
464.755	101.56
464.975	96.56
465.195	141.56
465.414	142.56
465.634	104.56
465.854	80.56
466.073	89.56
466.293	84.56
466.512	83.56
466.732	94.56
466.951	92.56
467.171	87.56
467.391	108.56
467.61	114.56
467.829	114.56
468.049	105.56
468.268	116.56
468.488	93.56
468.707	84.56
468.927	76.56
469.146	85.56
469.365	87.56
469.585	78.56
469.804	89.56
470.023	100.56
470.243	95.56
470.462	111.56
470.681	110.56
470.901	89.56
471.12	86.56
471.339	86.56
471.558	80.56
471.777	75.56
471.997	87.56
472.216	119.56
472.435	178.56
472.654	109.56
472.873	100.56
473.092	84.56
473.311	89.56
473.53	95.56
473.749	87.56
473.968	97.56
474.187	105.56
474.406	89.56
474.625	81.56
474.844	88.56
475.063	85.56
475.282	94.56
475.501	64.56
475.72	82.56
475.939	75.56
476.158	90.56
476.377	81.56
476.596	83.56
476.814	94.56
477.033	84.56
477.252	90.56
477.471	84.56
477.69	89.56
477.908	80.56
478.127	84.56
478.346	95.56
478.564	79.56
478.783	85.56
479.002	96.56
479.22	95.56
479.439	94.56
479.658	101.56
479.876	105.56
480.095	90.56
480.313	95.56
480.532	98.56
480.751	98.56
480.969	145.56
481.188	279.56
481.406	202.56
481.624	115.56
481.843	95.56
482.061	84.56
482.28	86.56
482.498	85.56
482.717	93.56
482.935	89.56
483.153	88.56
483.372	78.56
483.59	93.56
483.808	97.56
484.027	81.56
484.245	85.56
484.463	86.56
484.681	89.56
484.9	105.56
485.118	96.56
485.336	99.56
485.554	89.56
485.772	94.56
485.99	104.56
486.209	108.56
486.427	101.56
486.645	96.56
486.863	102.56
487.081	102.56
487.299	102.56
487.517	88.56
487.735	90.56
487.953	77.56
488.171	95.56
488.389	105.56
488.607	105.56
488.825	95.56
489.043	79.56
489.261	89.56
489.479	85.56
489.696	98.56
489.914	90.56
490.132	94.56
490.35	86.56
490.568	86.56
490.786	86.56
491.003	74.56
491.221	89.56
491.439	82.56
491.657	78.56
491.874	84.56
492.092	76.56
492.31	78.56
492.527	87.56
492.745	84.56
492.963	104.56
493.18	87.56
493.398	89.56
493.615	89.56
493.833	100.56
494.05	85.56
494.268	93.56
494.485	86.56
494.703	103.56
494.92	89.56
495.138	84.56
495.355	87.56
495.573	93.56
495.79	83.56
496.008	84.56
496.225	101.56
496.442	89.56
496.66	97.56
496.877	93.56
497.094	84.56
497.312	98.56
497.529	96.56
497.746	92.56
497.963	97.56
498.181	90.56
498.398	94.56
498.615	118.56
498.832	98.56
499.049	100.56
499.267	78.56
499.484	84.56
499.701	84.56
499.918	82.56
500.135	83.56
500.352	82.56
500.569	93.56
500.786	96.56
501.003	102.56
501.22	93.56
501.437	97.56
501.654	98.56
501.871	81.56
502.088	87.56
502.305	89.56
502.522	79.56
502.739	88.56
502.956	93.56
503.172	93.56
503.389	97.56
503.606	98.56
503.823	93.56
504.04	95.56
504.256	88.56
504.473	105.56
504.69	87.56
504.907	88.56
505.123	90.56
505.34	82.56
505.557	102.56
505.773	88.56
505.99	90.56
506.207	99.56
506.423	106.56
506.64	79.56
506.856	104.56
507.073	84.56
507.289	83.56
507.506	100.56
507.722	102.56
507.939	108.56
508.155	99.56
508.372	99.56
508.588	102.56
508.805	88.56
509.021	64.56
509.238	113.56
509.454	100.56
509.67	97.56
509.887	103.56
510.103	126.56
510.319	207.56
510.536	737.56
510.752	2328.56
510.968	660.56
511.184	154.56
511.401	104.56
511.617	96.56
511.833	78.56
512.049	82.56
512.265	77.56
512.481	82.56
512.698	99.56
512.914	86.56
513.13	95.56
513.346	81.56
513.562	97.56
513.778	111.56
513.994	94.56
514.21	95.56
514.426	99.56
514.642	121.56
514.858	121.56
515.074	159.56
515.29	402.56
515.506	1319.56
515.721	491.56
515.937	151.56
516.153	111.56
516.369	87.56
