Data from Circ_2003_H10_HRD10591_00070.txt Node
Date: Wed Jan 03 10:37:16 EST 2024
User: Yrep
Spectrometer: HR+D1059
Trigger mode: 1
Integration Time (sec): 1.000000E-1
Scans to average: 1
Electric dark correction enabled: true
Nonlinearity correction enabled: false
Boxcar width: 0
XAxis mode: Wavelengths
Number of Pixels in Spectrum: 2048
>>>>>Begin Spectral Data<<<<<
223.165	-19.38
223.4	-19.38
223.635	-19.38
223.869	-15.38
224.104	-9.38
224.338	-15.38
224.573	-19.38
224.808	-15.38
225.042	-5.38
225.277	2.62
225.511	-12.38
225.746	-9.38
225.98	12.62
226.215	6.62
226.449	14.62
226.683	29.62
226.918	20.62
227.152	34.62
227.387	37.62
227.621	37.62
227.856	38.62
228.09	49.62
228.324	51.62
228.559	56.62
228.793	64.62
229.027	71.62
229.262	59.62
229.496	66.62
229.73	80.62
229.964	79.62
230.199	73.62
230.433	80.62
230.667	83.62
230.901	73.62
231.136	76.62
231.37	70.62
231.604	78.62
231.838	82.62
232.072	77.62
232.306	81.62
232.541	85.62
232.775	65.62
233.009	74.62
233.243	78.62
233.477	85.62
233.711	72.62
233.945	64.62
234.179	68.62
234.413	79.62
234.647	73.62
234.881	67.62
235.115	78.62
235.349	80.62
235.583	90.62
235.817	75.62
236.051	88.62
236.285	58.62
236.519	72.62
236.753	59.62
236.987	79.62
237.221	87.62
237.455	91.62
237.689	88.62
237.922	90.62
238.156	74.62
238.39	78.62
238.624	80.62
238.858	75.62
239.091	93.62
239.325	73.62
239.559	86.62
239.793	79.62
240.027	80.62
240.26	58.62
240.494	67.62
240.728	75.62
240.961	65.62
241.195	84.62
241.429	74.62
241.662	72.62
241.896	78.62
242.13	92.62
242.363	77.62
242.597	71.62
242.83	71.62
243.064	85.62
243.298	87.62
243.531	88.62
243.765	85.62
243.998	85.62
244.232	79.62
244.465	84.62
244.699	89.62
244.932	74.62
245.166	91.62
245.399	87.62
245.633	79.62
245.866	75.62
246.099	68.62
246.333	67.62
246.566	59.62
246.8	88.62
247.033	73.62
247.266	71.62
247.5	79.62
247.733	74.62
247.966	90.62
248.2	87.62
248.433	68.62
248.666	75.62
248.899	71.62
249.133	91.62
249.366	88.62
249.599	89.62
249.832	95.62
250.066	84.62
250.299	84.62
250.532	75.62
250.765	88.62
250.998	68.62
251.231	79.62
251.465	70.62
251.698	82.62
251.931	84.62
252.164	88.62
252.397	84.62
252.63	67.62
252.863	84.62
253.096	87.62
253.329	80.62
253.562	87.62
253.795	72.62
254.028	78.62
254.261	76.62
254.494	79.62
254.727	73.62
254.96	64.62
255.193	84.62
255.426	90.62
255.659	73.62
255.892	81.62
256.124	82.62
256.357	80.62
256.59	85.62
256.823	79.62
257.056	68.62
257.289	87.62
257.521	70.62
257.754	87.62
257.987	80.62
258.22	71.62
258.452	91.62
258.685	90.62
258.918	75.62
259.151	85.62
259.383	76.62
259.616	77.62
259.849	97.62
260.081	97.62
260.314	78.62
260.547	69.62
260.779	73.62
261.012	86.62
261.244	80.62
261.477	95.62
261.71	81.62
261.942	106.62
262.175	112.62
262.407	88.62
262.64	65.62
262.872	93.62
263.105	83.62
263.337	70.62
263.57	87.62
263.802	84.62
264.035	98.62
264.267	85.62
264.499	85.62
264.732	91.62
264.964	90.62
265.197	83.62
265.429	71.62
265.661	85.62
265.894	83.62
266.126	92.62
266.358	86.62
266.591	80.62
266.823	83.62
267.055	80.62
267.287	89.62
267.52	83.62
267.752	91.62
267.984	74.62
268.216	79.62
268.448	69.62
268.681	87.62
268.913	79.62
269.145	74.62
269.377	91.62
269.609	85.62
269.841	82.62
270.073	88.62
270.306	91.62
270.538	75.62
270.77	68.62
271.002	80.62
271.234	69.62
271.466	82.62
271.698	67.62
271.93	87.62
272.162	85.62
272.394	90.62
272.626	72.62
272.858	98.62
273.09	83.62
273.322	77.62
273.553	71.62
273.785	80.62
274.017	98.62
274.249	88.62
274.481	88.62
274.713	91.62
274.945	89.62
275.176	79.62
275.408	96.62
275.64	92.62
275.872	89.62
276.104	97.62
276.335	82.62
276.567	88.62
276.799	95.62
277.031	98.62
277.262	101.62
277.494	96.62
277.726	82.62
277.957	82.62
278.189	92.62
278.421	84.62
278.652	90.62
278.884	90.62
279.115	77.62
279.347	70.62
279.579	88.62
279.81	103.62
280.042	84.62
280.273	107.62
280.505	102.62
280.736	78.62
280.968	78.62
281.199	78.62
281.431	86.62
281.662	80.62
281.894	93.62
282.125	98.62
282.356	122.62
282.588	120.62
282.819	116.62
283.051	95.62
283.282	86.62
283.513	76.62
283.745	92.62
283.976	85.62
284.207	81.62
284.439	96.62
284.67	106.62
284.901	85.62
285.132	97.62
285.364	70.62
285.595	91.62
285.826	96.62
286.057	71.62
286.288	86.62
286.52	88.62
286.751	74.62
286.982	89.62
287.213	73.62
287.444	83.62
287.675	95.62
287.906	93.62
288.138	90.62
288.369	103.62
288.6	92.62
288.831	88.62
289.062	90.62
289.293	83.62
289.524	81.62
289.755	77.62
289.986	85.62
290.217	90.62
290.448	84.62
290.679	80.62
290.91	73.62
291.141	74.62
291.371	96.62
291.602	95.62
291.833	86.62
292.064	92.62
292.295	77.62
292.526	102.62
292.757	87.62
292.987	92.62
293.218	95.62
293.449	95.62
293.68	108.62
293.91	82.62
294.141	103.62
294.372	85.62
294.603	93.62
294.833	81.62
295.064	87.62
295.295	91.62
295.525	97.62
295.756	95.62
295.987	115.62
296.217	137.62
296.448	114.62
296.679	96.62
296.909	99.62
297.14	97.62
297.37	86.62
297.601	78.62
297.831	79.62
298.062	95.62
298.292	90.62
298.523	86.62
298.753	80.62
298.984	81.62
299.214	90.62
299.445	81.62
299.675	99.62
299.905	89.62
300.136	75.62
300.366	82.62
300.597	80.62
300.827	91.62
301.057	80.62
301.288	98.62
301.518	96.62
301.748	85.62
301.979	98.62
302.209	87.62
302.439	90.62
302.669	95.62
302.9	85.62
303.13	96.62
303.36	95.62
303.59	96.62
303.82	106.62
304.051	84.62
304.281	86.62
304.511	102.62
304.741	105.62
304.971	82.62
305.201	89.62
305.431	91.62
305.661	100.62
305.891	109.62
306.121	98.62
306.352	105.62
306.582	81.62
306.812	86.62
307.042	93.62
307.272	74.62
307.502	105.62
307.731	108.62
307.961	107.62
308.191	84.62
308.421	92.62
308.651	87.62
308.881	85.62
309.111	99.62
309.341	89.62
309.571	106.62
309.8	101.62
310.03	94.62
310.26	95.62
310.49	106.62
310.72	105.62
310.949	104.62
311.179	99.62
311.409	90.62
311.639	88.62
311.868	101.62
312.098	95.62
312.328	105.62
312.557	95.62
312.787	100.62
313.017	103.62
313.246	88.62
313.476	83.62
313.706	94.62
313.935	89.62
314.165	92.62
314.394	84.62
314.624	88.62
314.853	96.62
315.083	92.62
315.312	79.62
315.542	103.62
315.771	91.62
316.001	86.62
316.23	91.62
316.46	95.62
316.689	92.62
316.919	84.62
317.148	80.62
317.377	89.62
317.607	86.62
317.836	85.62
318.065	93.62
318.295	98.62
318.524	92.62
318.753	92.62
318.983	91.62
319.212	95.62
319.441	93.62
319.67	105.62
319.9	99.62
320.129	96.62
320.358	89.62
320.587	94.62
320.816	111.62
321.046	107.62
321.275	97.62
321.504	107.62
321.733	100.62
321.962	102.62
322.191	108.62
322.42	92.62
322.649	108.62
322.878	82.62
323.108	121.62
323.337	131.62
323.566	118.62
323.795	148.62
324.024	182.62
324.253	346.62
324.482	728.62
324.71	1440.62
324.939	1946.62
325.168	714.62
325.397	224.62
325.626	138.62
325.855	122.62
326.084	132.62
326.313	134.62
326.542	158.62
326.77	221.62
326.999	414.62
327.228	838.62
327.457	1536.62
327.686	1202.62
327.914	346.62
328.143	199.62
328.372	150.62
328.6	122.62
328.829	119.62
329.058	101.62
329.287	109.62
329.515	110.62
329.744	113.62
329.972	112.62
330.201	139.62
330.43	160.62
330.658	131.62
330.887	115.62
331.115	121.62
331.344	93.62
331.572	115.62
331.801	120.62
332.03	110.62
332.258	92.62
332.486	98.62
332.715	99.62
332.943	93.62
333.172	98.62
333.4	102.62
333.629	99.62
333.857	114.62
334.085	120.62
334.314	127.62
334.542	178.62
334.771	190.62
334.999	117.62
335.227	114.62
335.455	94.62
335.684	100.62
335.912	108.62
336.14	108.62
336.369	94.62
336.597	103.62
336.825	100.62
337.053	99.62
337.281	104.62
337.51	98.62
337.738	110.62
337.966	98.62
338.194	95.62
338.422	96.62
338.65	111.62
338.878	96.62
339.106	108.62
339.334	98.62
339.562	94.62
339.79	83.62
340.018	71.62
340.246	101.62
340.474	94.62
340.702	88.62
340.93	92.62
341.158	97.62
341.386	91.62
341.614	85.62
341.842	102.62
342.07	92.62
342.298	81.62
342.526	86.62
342.754	97.62
342.981	91.62
343.209	86.62
343.437	105.62
343.665	85.62
343.893	86.62
344.12	105.62
344.348	91.62
344.576	97.62
344.804	90.62
345.031	94.62
345.259	114.62
345.487	97.62
345.714	97.62
345.942	77.62
346.17	88.62
346.397	90.62
346.625	83.62
346.853	98.62
347.08	93.62
347.308	109.62
347.535	92.62
347.763	92.62
347.99	96.62
348.218	103.62
348.445	104.62
348.673	106.62
348.9	96.62
349.128	99.62
349.355	101.62
349.583	104.62
349.81	116.62
350.037	104.62
350.265	104.62
350.492	105.62
350.72	96.62
350.947	105.62
351.174	107.62
351.402	111.62
351.629	112.62
351.856	99.62
352.083	108.62
352.311	77.62
352.538	91.62
352.765	103.62
352.992	118.62
353.22	101.62
353.447	95.62
353.674	101.62
353.901	91.62
354.128	91.62
354.355	92.62
354.583	100.62
354.81	102.62
355.037	81.62
355.264	94.62
355.491	99.62
355.718	91.62
355.945	96.62
356.172	92.62
356.399	92.62
356.626	88.62
356.853	106.62
357.08	102.62
357.307	106.62
357.534	92.62
357.761	95.62
357.988	102.62
358.215	98.62
358.441	81.62
358.668	104.62
358.895	94.62
359.122	99.62
359.349	80.62
359.576	89.62
359.802	97.62
360.029	99.62
360.256	110.62
360.483	87.62
360.709	97.62
360.936	93.62
361.163	96.62
361.39	90.62
361.616	84.62
361.843	85.62
362.07	82.62
362.296	95.62
362.523	82.62
362.749	80.62
362.976	95.62
363.203	91.62
363.429	80.62
363.656	87.62
363.882	92.62
364.109	93.62
364.335	96.62
364.562	112.62
364.788	98.62
365.015	94.62
365.241	99.62
365.468	108.62
365.694	115.62
365.92	86.62
366.147	79.62
366.373	99.62
366.599	83.62
366.826	75.62
367.052	94.62
367.278	87.62
367.505	101.62
367.731	110.62
367.957	87.62
368.184	91.62
368.41	94.62
368.636	108.62
368.862	114.62
369.089	100.62
369.315	83.62
369.541	85.62
369.767	75.62
369.993	82.62
370.219	101.62
370.445	77.62
370.672	95.62
370.898	93.62
371.124	89.62
371.35	97.62
371.576	95.62
371.802	94.62
372.028	88.62
372.254	87.62
372.48	99.62
372.706	91.62
372.932	73.62
373.158	102.62
373.384	95.62
373.61	96.62
373.835	96.62
374.061	78.62
374.287	92.62
374.513	91.62
374.739	94.62
374.965	80.62
375.191	101.62
375.416	100.62
375.642	89.62
375.868	103.62
376.094	100.62
376.319	96.62
376.545	96.62
376.771	92.62
376.997	87.62
377.222	85.62
377.448	94.62
377.674	88.62
377.899	92.62
378.125	86.62
378.35	100.62
378.576	87.62
378.802	78.62
379.027	100.62
379.253	72.62
379.478	99.62
379.704	90.62
379.929	89.62
380.155	86.62
380.38	81.62
380.606	83.62
380.831	97.62
381.057	95.62
381.282	94.62
381.507	99.62
381.733	95.62
381.958	90.62
382.184	111.62
382.409	114.62
382.634	105.62
382.86	102.62
383.085	94.62
383.31	103.62
383.535	104.62
383.761	105.62
383.986	94.62
384.211	96.62
384.436	111.62
384.662	101.62
384.887	112.62
385.112	104.62
385.337	93.62
385.562	110.62
385.787	99.62
386.013	95.62
386.238	107.62
386.463	97.62
386.688	105.62
386.913	98.62
387.138	92.62
387.363	103.62
387.588	103.62
387.813	124.62
388.038	100.62
388.263	115.62
388.488	107.62
388.713	105.62
388.938	95.62
389.163	83.62
389.387	78.62
389.612	89.62
389.837	88.62
390.062	91.62
390.287	106.62
390.512	99.62
390.736	100.62
390.961	90.62
391.186	88.62
391.411	90.62
391.636	97.62
391.86	90.62
392.085	76.62
392.31	73.62
392.534	82.62
392.759	98.62
392.984	90.62
393.208	75.62
393.433	92.62
393.658	74.62
393.882	96.62
394.107	74.62
394.331	92.62
394.556	72.62
394.78	82.62
395.005	87.62
395.229	81.62
395.454	91.62
395.678	95.62
395.903	85.62
396.127	91.62
396.352	88.62
396.576	92.62
396.801	93.62
397.025	91.62
397.249	81.62
397.474	96.62
397.698	77.62
397.922	81.62
398.147	94.62
398.371	81.62
398.595	94.62
398.82	87.62
399.044	91.62
399.268	84.62
399.492	79.62
399.717	74.62
399.941	86.62
400.165	96.62
400.389	76.62
400.613	87.62
400.837	73.62
401.062	95.62
401.286	83.62
401.51	87.62
401.734	94.62
401.958	95.62
402.182	116.62
402.406	131.62
402.63	98.62
402.854	94.62
403.078	91.62
403.302	82.62
403.526	90.62
403.75	76.62
403.974	86.62
404.198	72.62
404.422	64.62
404.645	94.62
404.869	89.62
405.093	94.62
405.317	101.62
405.541	106.62
405.765	100.62
405.988	106.62
406.212	154.62
406.436	190.62
406.66	137.62
406.883	93.62
407.107	92.62
407.331	86.62
407.555	92.62
407.778	98.62
408.002	80.62
408.226	97.62
408.449	98.62
408.673	93.62
408.896	88.62
409.12	92.62
409.344	86.62
409.567	94.62
409.791	94.62
410.014	95.62
410.238	96.62
410.461	91.62
410.685	93.62
410.908	98.62
411.132	91.62
411.355	92.62
411.578	99.62
411.802	80.62
412.025	78.62
412.249	91.62
412.472	102.62
412.695	89.62
412.919	97.62
413.142	91.62
413.365	75.62
413.589	98.62
413.812	92.62
414.035	94.62
414.258	87.62
414.482	99.62
414.705	84.62
414.928	89.62
415.151	92.62
415.374	71.62
415.597	87.62
415.821	97.62
416.044	102.62
416.267	94.62
416.49	89.62
416.713	97.62
416.936	88.62
417.159	81.62
417.382	78.62
417.605	77.62
417.828	94.62
418.051	78.62
418.274	82.62
418.497	84.62
418.72	91.62
418.943	87.62
419.166	95.62
419.389	89.62
419.611	86.62
419.834	90.62
420.057	102.62
420.28	91.62
420.503	86.62
420.726	95.62
420.948	82.62
421.171	94.62
421.394	91.62
421.617	86.62
421.839	89.62
422.062	72.62
422.285	95.62
422.507	89.62
422.73	95.62
422.953	95.62
423.175	78.62
423.398	94.62
423.621	82.62
423.843	74.62
424.066	91.62
424.288	84.62
424.511	82.62
424.733	85.62
424.956	98.62
425.178	88.62
425.401	90.62
425.623	100.62
425.846	96.62
426.068	83.62
426.291	81.62
426.513	82.62
426.735	96.62
426.958	101.62
427.18	94.62
427.402	111.62
427.625	135.62
427.847	122.62
428.069	104.62
428.292	91.62
428.514	89.62
428.736	72.62
428.958	65.62
429.181	88.62
429.403	98.62
429.625	87.62
429.847	99.62
430.069	111.62
430.292	81.62
430.514	79.62
430.736	80.62
430.958	96.62
431.18	77.62
431.402	86.62
431.624	89.62
431.846	81.62
432.068	90.62
432.29	90.62
432.512	81.62
432.734	88.62
432.956	89.62
433.178	93.62
433.4	95.62
433.622	81.62
433.844	95.62
434.066	80.62
434.287	88.62
434.509	83.62
434.731	96.62
434.953	89.62
435.175	94.62
435.397	91.62
435.618	98.62
435.84	92.62
436.062	97.62
436.284	120.62
436.505	83.62
436.727	81.62
436.949	84.62
437.17	99.62
437.392	102.62
437.614	81.62
437.835	98.62
438.057	106.62
438.278	105.62
438.5	114.62
438.721	111.62
438.943	97.62
439.165	97.62
439.386	88.62
439.608	103.62
439.829	91.62
440.05	98.62
440.272	120.62
440.493	95.62
440.715	83.62
440.936	104.62
441.158	86.62
441.379	76.62
441.6	93.62
441.822	99.62
442.043	87.62
442.264	103.62
442.486	97.62
442.707	96.62
442.928	91.62
443.149	118.62
443.371	120.62
443.592	94.62
443.813	114.62
444.034	88.62
444.255	88.62
444.476	75.62
444.698	91.62
444.919	100.62
445.14	123.62
445.361	100.62
445.582	103.62
445.803	123.62
446.024	106.62
446.245	108.62
446.466	101.62
446.687	82.62
446.908	78.62
447.129	95.62
447.35	104.62
447.571	87.62
447.792	90.62
448.013	106.62
448.234	93.62
448.455	86.62
448.675	104.62
448.896	103.62
449.117	101.62
449.338	113.62
449.559	122.62
449.779	115.62
450	104.62
450.221	98.62
450.442	102.62
450.662	97.62
450.883	98.62
451.104	118.62
451.324	87.62
451.545	80.62
451.766	101.62
451.986	93.62
452.207	86.62
452.428	91.62
452.648	94.62
452.869	114.62
453.089	102.62
453.31	98.62
453.53	103.62
453.751	103.62
453.971	86.62
454.192	107.62
454.412	93.62
454.633	82.62
454.853	84.62
455.073	94.62
455.294	97.62
455.514	92.62
455.734	97.62
455.955	82.62
456.175	84.62
456.395	81.62
456.616	90.62
456.836	89.62
457.056	91.62
457.276	92.62
457.497	86.62
457.717	96.62
457.937	76.62
458.157	93.62
458.377	106.62
458.598	103.62
458.818	128.62
459.038	140.62
459.258	111.62
459.478	89.62
459.698	87.62
459.918	100.62
460.138	91.62
460.358	75.62
460.578	90.62
460.798	83.62
461.018	97.62
461.238	78.62
461.458	89.62
461.678	80.62
461.898	77.62
462.118	82.62
462.338	98.62
462.558	83.62
462.777	88.62
462.997	99.62
463.217	90.62
463.437	86.62
463.657	72.62
463.876	78.62
464.096	98.62
464.316	92.62
464.536	89.62
464.755	89.62
464.975	100.62
465.195	135.62
465.414	143.62
465.634	89.62
465.854	74.62
466.073	91.62
466.293	86.62
466.512	80.62
466.732	84.62
466.951	85.62
467.171	66.62
467.391	81.62
467.61	95.62
467.829	108.62
468.049	117.62
468.268	107.62
468.488	89.62
468.707	76.62
468.927	95.62
469.146	81.62
469.365	90.62
469.585	87.62
469.804	106.62
470.023	88.62
470.243	95.62
470.462	102.62
470.681	101.62
470.901	86.62
471.12	92.62
471.339	98.62
471.558	72.62
471.777	89.62
471.997	88.62
472.216	139.62
472.435	185.62
472.654	105.62
472.873	104.62
473.092	97.62
473.311	98.62
473.53	79.62
473.749	95.62
473.968	108.62
474.187	92.62
474.406	95.62
474.625	87.62
474.844	77.62
475.063	84.62
475.282	96.62
475.501	91.62
475.72	102.62
475.939	85.62
476.158	83.62
476.377	76.62
476.596	80.62
476.814	90.62
477.033	90.62
477.252	88.62
477.471	79.62
477.69	90.62
477.908	84.62
478.127	101.62
478.346	80.62
478.564	93.62
478.783	92.62
479.002	90.62
479.22	86.62
479.439	91.62
479.658	102.62
479.876	99.62
480.095	82.62
480.313	82.62
480.532	86.62
480.751	97.62
480.969	139.62
481.188	309.62
481.406	219.62
481.624	108.62
481.843	100.62
482.061	87.62
482.28	95.62
482.498	94.62
482.717	87.62
482.935	87.62
483.153	90.62
483.372	93.62
483.59	79.62
483.808	88.62
484.027	82.62
484.245	91.62
484.463	89.62
484.681	95.62
484.9	81.62
485.118	92.62
485.336	90.62
485.554	109.62
485.772	99.62
485.99	83.62
486.209	110.62
486.427	97.62
486.645	96.62
486.863	96.62
487.081	99.62
487.299	97.62
487.517	95.62
487.735	91.62
487.953	79.62
488.171	90.62
488.389	91.62
488.607	109.62
488.825	89.62
489.043	88.62
489.261	92.62
489.479	94.62
489.696	86.62
489.914	83.62
490.132	76.62
490.35	87.62
490.568	86.62
490.786	76.62
491.003	90.62
491.221	90.62
491.439	86.62
491.657	98.62
491.874	100.62
492.092	95.62
492.31	96.62
492.527	91.62
492.745	97.62
492.963	97.62
493.18	90.62
493.398	99.62
493.615	94.62
493.833	92.62
494.05	87.62
494.268	106.62
494.485	101.62
494.703	84.62
494.92	86.62
495.138	100.62
495.355	103.62
495.573	91.62
495.79	87.62
496.008	97.62
496.225	76.62
496.442	73.62
496.66	89.62
496.877	89.62
497.094	98.62
497.312	84.62
497.529	90.62
497.746	94.62
497.963	82.62
498.181	88.62
498.398	106.62
498.615	103.62
498.832	106.62
499.049	91.62
499.267	83.62
499.484	88.62
499.701	89.62
499.918	84.62
500.135	89.62
500.352	82.62
500.569	91.62
500.786	91.62
501.003	80.62
501.22	91.62
501.437	99.62
501.654	95.62
501.871	98.62
502.088	96.62
502.305	94.62
502.522	91.62
502.739	88.62
502.956	76.62
503.172	74.62
503.389	88.62
503.606	92.62
503.823	107.62
504.04	81.62
504.256	87.62
504.473	74.62
504.69	90.62
504.907	97.62
505.123	93.62
505.34	94.62
505.557	99.62
505.773	101.62
505.99	86.62
506.207	86.62
506.423	92.62
506.64	86.62
506.856	90.62
507.073	84.62
507.289	89.62
507.506	103.62
507.722	108.62
507.939	91.62
508.155	101.62
508.372	92.62
508.588	91.62
508.805	89.62
509.021	84.62
509.238	90.62
509.454	99.62
509.67	100.62
509.887	101.62
510.103	120.62
510.319	204.62
510.536	690.62
510.752	2185.62
510.968	623.62
511.184	162.62
511.401	110.62
511.617	91.62
511.833	89.62
512.049	96.62
512.265	99.62
512.481	100.62
512.698	92.62
512.914	97.62
513.13	76.62
513.346	85.62
513.562	91.62
513.778	89.62
513.994	88.62
514.21	91.62
514.426	111.62
514.642	117.62
514.858	104.62
515.074	146.62
515.29	370.62
515.506	1220.62
515.721	467.62
515.937	142.62
