Data from Circ_2003_H10_HRD10591_00091.txt Node
Date: Wed Jan 03 10:37:20 EST 2024
User: Yrep
Spectrometer: HR+D1059
Trigger mode: 1
Integration Time (sec): 1.000000E-1
Scans to average: 1
Electric dark correction enabled: true
Nonlinearity correction enabled: false
Boxcar width: 0
XAxis mode: Wavelengths
Number of Pixels in Spectrum: 2048
>>>>>Begin Spectral Data<<<<<
223.165	-25.12
223.4	-25.12
223.635	-25.12
223.869	-27.12
224.104	-18.12
224.338	-23.12
224.573	-18.12
224.808	-14.12
225.042	-14.12
225.277	5.88
225.511	-0.12
225.746	-9.12
225.98	22.88
226.215	19.88
226.449	1.88
226.683	26.88
226.918	25.88
227.152	45.88
227.387	38.88
227.621	42.88
227.856	27.88
228.09	42.88
228.324	43.88
228.559	64.88
228.793	61.88
229.027	60.88
229.262	62.88
229.496	76.88
229.73	75.88
229.964	62.88
230.199	61.88
230.433	69.88
230.667	81.88
230.901	71.88
231.136	70.88
231.37	89.88
231.604	65.88
231.838	80.88
232.072	77.88
232.306	88.88
232.541	89.88
232.775	64.88
233.009	77.88
233.243	74.88
233.477	78.88
233.711	85.88
233.945	71.88
234.179	74.88
234.413	89.88
234.647	76.88
234.881	87.88
235.115	80.88
235.349	87.88
235.583	90.88
235.817	77.88
236.051	85.88
236.285	63.88
236.519	65.88
236.753	74.88
236.987	77.88
237.221	81.88
237.455	75.88
237.689	74.88
237.922	76.88
238.156	73.88
238.39	72.88
238.624	83.88
238.858	81.88
239.091	79.88
239.325	82.88
239.559	82.88
239.793	64.88
240.027	65.88
240.26	88.88
240.494	85.88
240.728	69.88
240.961	62.88
241.195	80.88
241.429	83.88
241.662	66.88
241.896	96.88
242.13	72.88
242.363	64.88
242.597	80.88
242.83	77.88
243.064	80.88
243.298	80.88
243.531	73.88
243.765	82.88
243.998	69.88
244.232	78.88
244.465	87.88
244.699	81.88
244.932	85.88
245.166	64.88
245.399	83.88
245.633	92.88
245.866	96.88
246.099	82.88
246.333	81.88
246.566	70.88
246.8	81.88
247.033	87.88
247.266	75.88
247.5	67.88
247.733	65.88
247.966	84.88
248.2	73.88
248.433	72.88
248.666	77.88
248.899	77.88
249.133	79.88
249.366	88.88
249.599	78.88
249.832	89.88
250.066	70.88
250.299	85.88
250.532	75.88
250.765	70.88
250.998	77.88
251.231	80.88
251.465	86.88
251.698	73.88
251.931	87.88
252.164	83.88
252.397	83.88
252.63	77.88
252.863	80.88
253.096	76.88
253.329	77.88
253.562	83.88
253.795	84.88
254.028	76.88
254.261	80.88
254.494	81.88
254.727	85.88
254.96	74.88
255.193	81.88
255.426	79.88
255.659	76.88
255.892	93.88
256.124	83.88
256.357	80.88
256.59	74.88
256.823	73.88
257.056	102.88
257.289	85.88
257.521	84.88
257.754	81.88
257.987	77.88
258.22	83.88
258.452	74.88
258.685	74.88
258.918	80.88
259.151	89.88
259.383	89.88
259.616	78.88
259.849	89.88
260.081	82.88
260.314	92.88
260.547	65.88
260.779	73.88
261.012	74.88
261.244	84.88
261.477	88.88
261.71	94.88
261.942	95.88
262.175	98.88
262.407	82.88
262.64	76.88
262.872	69.88
263.105	73.88
263.337	89.88
263.57	82.88
263.802	77.88
264.035	73.88
264.267	76.88
264.499	85.88
264.732	80.88
264.964	79.88
265.197	78.88
265.429	83.88
265.661	86.88
265.894	88.88
266.126	71.88
266.358	73.88
266.591	86.88
266.823	78.88
267.055	79.88
267.287	92.88
267.52	74.88
267.752	89.88
267.984	84.88
268.216	88.88
268.448	89.88
268.681	92.88
268.913	81.88
269.145	81.88
269.377	94.88
269.609	74.88
269.841	77.88
270.073	93.88
270.306	89.88
270.538	73.88
270.77	74.88
271.002	81.88
271.234	93.88
271.466	85.88
271.698	91.88
271.93	84.88
272.162	86.88
272.394	82.88
272.626	77.88
272.858	84.88
273.09	81.88
273.322	82.88
273.553	88.88
273.785	86.88
274.017	68.88
274.249	90.88
274.481	92.88
274.713	72.88
274.945	76.88
275.176	99.88
275.408	90.88
275.64	84.88
275.872	94.88
276.104	76.88
276.335	79.88
276.567	91.88
276.799	92.88
277.031	97.88
277.262	110.88
277.494	97.88
277.726	76.88
277.957	81.88
278.189	97.88
278.421	94.88
278.652	93.88
278.884	82.88
279.115	75.88
279.347	88.88
279.579	82.88
279.81	77.88
280.042	87.88
280.273	100.88
280.505	74.88
280.736	74.88
280.968	77.88
281.199	90.88
281.431	86.88
281.662	89.88
281.894	90.88
282.125	82.88
282.356	115.88
282.588	141.88
282.819	129.88
283.051	94.88
283.282	85.88
283.513	96.88
283.745	81.88
283.976	101.88
284.207	100.88
284.439	94.88
284.67	80.88
284.901	77.88
285.132	68.88
285.364	79.88
285.595	90.88
285.826	84.88
286.057	77.88
286.288	71.88
286.52	93.88
286.751	76.88
286.982	86.88
287.213	84.88
287.444	97.88
287.675	87.88
287.906	94.88
288.138	77.88
288.369	85.88
288.6	88.88
288.831	82.88
289.062	77.88
289.293	89.88
289.524	76.88
289.755	86.88
289.986	77.88
290.217	67.88
290.448	79.88
290.679	90.88
290.91	82.88
291.141	82.88
291.371	73.88
291.602	79.88
291.833	80.88
292.064	85.88
292.295	73.88
292.526	71.88
292.757	87.88
292.987	83.88
293.218	82.88
293.449	90.88
293.68	97.88
293.91	92.88
294.141	86.88
294.372	86.88
294.603	79.88
294.833	84.88
295.064	85.88
295.295	97.88
295.525	94.88
295.756	104.88
295.987	99.88
296.217	145.88
296.448	115.88
296.679	96.88
296.909	99.88
297.14	99.88
297.37	92.88
297.601	83.88
297.831	84.88
298.062	106.88
298.292	94.88
298.523	88.88
298.753	82.88
298.984	97.88
299.214	96.88
299.445	86.88
299.675	94.88
299.905	93.88
300.136	79.88
300.366	86.88
300.597	85.88
300.827	85.88
301.057	89.88
301.288	104.88
301.518	81.88
301.748	78.88
301.979	107.88
302.209	98.88
302.439	90.88
302.669	80.88
302.9	95.88
303.13	79.88
303.36	90.88
303.59	104.88
303.82	105.88
304.051	82.88
304.281	87.88
304.511	95.88
304.741	96.88
304.971	96.88
305.201	80.88
305.431	77.88
305.661	77.88
305.891	78.88
306.121	106.88
306.352	98.88
306.582	89.88
306.812	96.88
307.042	90.88
307.272	89.88
307.502	109.88
307.731	104.88
307.961	92.88
308.191	94.88
308.421	89.88
308.651	72.88
308.881	91.88
309.111	85.88
309.341	90.88
309.571	99.88
309.8	116.88
310.03	102.88
310.26	88.88
310.49	94.88
310.72	97.88
310.949	86.88
311.179	96.88
311.409	92.88
311.639	95.88
311.868	87.88
312.098	105.88
312.328	89.88
312.557	100.88
312.787	93.88
313.017	78.88
313.246	90.88
313.476	96.88
313.706	88.88
313.935	101.88
314.165	100.88
314.394	93.88
314.624	85.88
314.853	98.88
315.083	86.88
315.312	84.88
315.542	90.88
315.771	92.88
316.001	98.88
316.23	90.88
316.46	88.88
316.689	89.88
316.919	90.88
317.148	97.88
317.377	90.88
317.607	96.88
317.836	92.88
318.065	90.88
318.295	92.88
318.524	101.88
318.753	89.88
318.983	93.88
319.212	92.88
319.441	101.88
319.67	103.88
319.9	83.88
320.129	96.88
320.358	95.88
320.587	88.88
320.816	94.88
321.046	104.88
321.275	87.88
321.504	80.88
321.733	87.88
321.962	86.88
322.191	89.88
322.42	108.88
322.649	93.88
322.878	119.88
323.108	120.88
323.337	132.88
323.566	144.88
323.795	154.88
324.024	188.88
324.253	364.88
324.482	820.88
324.71	1662.88
324.939	2150.88
325.168	787.88
325.397	242.88
325.626	152.88
325.855	128.88
326.084	127.88
326.313	118.88
326.542	143.88
326.77	231.88
326.999	439.88
327.228	900.88
327.457	1682.88
327.686	1358.88
327.914	362.88
328.143	203.88
328.372	182.88
328.6	146.88
328.829	110.88
329.058	130.88
329.287	109.88
329.515	103.88
329.744	110.88
329.972	111.88
330.201	150.88
330.43	196.88
330.658	145.88
330.887	146.88
331.115	113.88
331.344	116.88
331.572	95.88
331.801	91.88
332.03	96.88
332.258	95.88
332.486	82.88
332.715	89.88
332.943	96.88
333.172	109.88
333.4	103.88
333.629	112.88
333.857	116.88
334.085	138.88
334.314	165.88
334.542	213.88
334.771	196.88
334.999	116.88
335.227	97.88
335.455	94.88
335.684	80.88
335.912	87.88
336.14	98.88
336.369	109.88
336.597	86.88
336.825	105.88
337.053	90.88
337.281	80.88
337.51	92.88
337.738	87.88
337.966	96.88
338.194	87.88
338.422	88.88
338.65	112.88
338.878	98.88
339.106	94.88
339.334	89.88
339.562	84.88
339.79	98.88
340.018	88.88
340.246	83.88
340.474	89.88
340.702	93.88
340.93	87.88
341.158	95.88
341.386	96.88
341.614	105.88
341.842	94.88
342.07	101.88
342.298	86.88
342.526	89.88
342.754	84.88
342.981	81.88
343.209	89.88
343.437	95.88
343.665	93.88
343.893	87.88
344.12	89.88
344.348	76.88
344.576	82.88
344.804	103.88
345.031	94.88
345.259	98.88
345.487	96.88
345.714	84.88
345.942	82.88
346.17	88.88
346.397	82.88
346.625	86.88
346.853	89.88
347.08	86.88
347.308	110.88
347.535	92.88
347.763	89.88
347.99	80.88
348.218	105.88
348.445	115.88
348.673	105.88
348.9	86.88
349.128	106.88
349.355	95.88
349.583	105.88
349.81	84.88
350.037	90.88
350.265	89.88
350.492	95.88
350.72	91.88
350.947	91.88
351.174	102.88
351.402	120.88
351.629	102.88
351.856	98.88
352.083	88.88
352.311	94.88
352.538	87.88
352.765	106.88
352.992	109.88
353.22	88.88
353.447	111.88
353.674	103.88
353.901	106.88
354.128	85.88
354.355	98.88
354.583	100.88
354.81	88.88
355.037	100.88
355.264	85.88
355.491	89.88
355.718	99.88
355.945	88.88
356.172	98.88
356.399	82.88
356.626	91.88
356.853	98.88
357.08	92.88
357.307	93.88
357.534	89.88
357.761	89.88
357.988	93.88
358.215	98.88
358.441	91.88
358.668	89.88
358.895	76.88
359.122	84.88
359.349	91.88
359.576	89.88
359.802	95.88
360.029	122.88
360.256	115.88
360.483	97.88
360.709	101.88
360.936	100.88
361.163	109.88
361.39	94.88
361.616	97.88
361.843	78.88
362.07	80.88
362.296	98.88
362.523	96.88
362.749	87.88
362.976	109.88
363.203	92.88
363.429	105.88
363.656	89.88
363.882	86.88
364.109	80.88
364.335	82.88
364.562	89.88
364.788	81.88
365.015	88.88
365.241	92.88
365.468	110.88
365.694	112.88
365.92	98.88
366.147	83.88
366.373	82.88
366.599	97.88
366.826	99.88
367.052	86.88
367.278	86.88
367.505	97.88
367.731	95.88
367.957	82.88
368.184	103.88
368.41	108.88
368.636	90.88
368.862	113.88
369.089	91.88
369.315	103.88
369.541	82.88
369.767	89.88
369.993	83.88
370.219	85.88
370.445	87.88
370.672	80.88
370.898	86.88
371.124	81.88
371.35	82.88
371.576	88.88
371.802	71.88
372.028	88.88
372.254	85.88
372.48	93.88
372.706	87.88
372.932	90.88
373.158	101.88
373.384	94.88
373.61	106.88
373.835	84.88
374.061	96.88
374.287	95.88
374.513	81.88
374.739	85.88
374.965	90.88
375.191	74.88
375.416	94.88
375.642	78.88
375.868	94.88
376.094	81.88
376.319	82.88
376.545	91.88
376.771	80.88
376.997	97.88
377.222	85.88
377.448	86.88
377.674	86.88
377.899	78.88
378.125	78.88
378.35	100.88
378.576	110.88
378.802	97.88
379.027	96.88
379.253	93.88
379.478	84.88
379.704	82.88
379.929	96.88
380.155	87.88
380.38	87.88
380.606	87.88
380.831	90.88
381.057	82.88
381.282	79.88
381.507	86.88
381.733	96.88
381.958	92.88
382.184	102.88
382.409	99.88
382.634	108.88
382.86	95.88
383.085	96.88
383.31	91.88
383.535	97.88
383.761	79.88
383.986	106.88
384.211	87.88
384.436	105.88
384.662	101.88
384.887	110.88
385.112	108.88
385.337	109.88
385.562	100.88
385.787	99.88
386.013	104.88
386.238	114.88
386.463	93.88
386.688	88.88
386.913	96.88
387.138	99.88
387.363	99.88
387.588	109.88
387.813	114.88
388.038	120.88
388.263	101.88
388.488	96.88
388.713	95.88
388.938	88.88
389.163	84.88
389.387	66.88
389.612	94.88
389.837	101.88
390.062	96.88
390.287	77.88
390.512	84.88
390.736	89.88
390.961	82.88
391.186	89.88
391.411	95.88
391.636	93.88
391.86	87.88
392.085	76.88
392.31	85.88
392.534	92.88
392.759	82.88
392.984	88.88
393.208	101.88
393.433	97.88
393.658	91.88
393.882	89.88
394.107	78.88
394.331	96.88
394.556	87.88
394.78	79.88
395.005	94.88
395.229	95.88
395.454	64.88
395.678	78.88
395.903	64.88
396.127	78.88
396.352	94.88
396.576	87.88
396.801	104.88
397.025	85.88
397.249	86.88
397.474	76.88
397.698	84.88
397.922	93.88
398.147	84.88
398.371	83.88
398.595	88.88
398.82	97.88
399.044	103.88
399.268	87.88
399.492	78.88
399.717	83.88
399.941	80.88
400.165	91.88
400.389	77.88
400.613	86.88
400.837	76.88
401.062	86.88
401.286	84.88
401.51	90.88
401.734	90.88
401.958	77.88
402.182	109.88
402.406	146.88
402.63	103.88
402.854	98.88
403.078	69.88
403.302	88.88
403.526	83.88
403.75	83.88
403.974	87.88
404.198	94.88
404.422	81.88
404.645	82.88
404.869	94.88
405.093	96.88
405.317	97.88
405.541	89.88
405.765	97.88
405.988	119.88
406.212	156.88
406.436	188.88
406.66	138.88
406.883	97.88
407.107	88.88
407.331	93.88
407.555	90.88
407.778	94.88
408.002	79.88
408.226	87.88
408.449	87.88
408.673	94.88
408.896	88.88
409.12	91.88
409.344	91.88
409.567	88.88
409.791	94.88
410.014	99.88
410.238	87.88
410.461	98.88
410.685	89.88
410.908	94.88
411.132	102.88
411.355	97.88
411.578	81.88
411.802	94.88
412.025	100.88
412.249	106.88
412.472	87.88
412.695	103.88
412.919	88.88
413.142	97.88
413.365	90.88
413.589	95.88
413.812	86.88
414.035	92.88
414.258	87.88
414.482	76.88
414.705	78.88
414.928	82.88
415.151	70.88
415.374	94.88
415.597	96.88
415.821	87.88
416.044	86.88
416.267	79.88
416.49	71.88
416.713	76.88
416.936	61.88
417.159	78.88
417.382	78.88
417.605	81.88
417.828	105.88
418.051	73.88
418.274	85.88
418.497	84.88
418.72	94.88
418.943	92.88
419.166	88.88
419.389	79.88
419.611	99.88
419.834	72.88
420.057	94.88
420.28	64.88
420.503	80.88
420.726	91.88
420.948	78.88
421.171	88.88
421.394	92.88
421.617	80.88
421.839	83.88
422.062	87.88
422.285	87.88
422.507	94.88
422.73	99.88
422.953	96.88
423.175	87.88
423.398	97.88
423.621	90.88
423.843	83.88
424.066	81.88
424.288	85.88
424.511	90.88
424.733	89.88
424.956	98.88
425.178	99.88
425.401	97.88
425.623	87.88
425.846	90.88
426.068	95.88
426.291	69.88
426.513	104.88
426.735	83.88
426.958	109.88
427.18	90.88
427.402	123.88
427.625	140.88
427.847	115.88
428.069	114.88
428.292	81.88
428.514	78.88
428.736	89.88
428.958	77.88
429.181	90.88
429.403	79.88
429.625	88.88
429.847	89.88
430.069	94.88
430.292	85.88
430.514	75.88
430.736	75.88
430.958	83.88
431.18	74.88
431.402	74.88
431.624	82.88
431.846	100.88
432.068	87.88
432.29	79.88
432.512	80.88
432.734	89.88
432.956	85.88
433.178	84.88
433.4	101.88
433.622	76.88
433.844	67.88
434.066	95.88
434.287	88.88
434.509	77.88
434.731	86.88
434.953	82.88
435.175	81.88
435.397	89.88
435.618	87.88
435.84	89.88
436.062	108.88
436.284	85.88
436.505	97.88
436.727	86.88
436.949	94.88
437.17	84.88
437.392	88.88
437.614	95.88
437.835	102.88
438.057	111.88
438.278	124.88
438.5	95.88
438.721	105.88
438.943	102.88
439.165	87.88
439.386	103.88
439.608	87.88
439.829	93.88
440.05	98.88
440.272	115.88
440.493	102.88
440.715	85.88
440.936	74.88
441.158	82.88
441.379	83.88
441.6	88.88
441.822	93.88
442.043	91.88
442.264	83.88
442.486	105.88
442.707	82.88
442.928	96.88
443.149	114.88
443.371	118.88
443.592	96.88
443.813	111.88
444.034	104.88
444.255	83.88
444.476	91.88
444.698	81.88
444.919	73.88
445.14	150.88
445.361	116.88
445.582	113.88
445.803	127.88
446.024	113.88
446.245	110.88
446.466	111.88
446.687	84.88
446.908	90.88
447.129	101.88
447.35	95.88
447.571	81.88
447.792	79.88
448.013	99.88
448.234	101.88
448.455	105.88
448.675	109.88
448.896	110.88
449.117	93.88
449.338	99.88
449.559	114.88
449.779	116.88
450	70.88
450.221	78.88
450.442	87.88
450.662	92.88
450.883	102.88
451.104	100.88
451.324	96.88
451.545	74.88
451.766	80.88
451.986	63.88
452.207	94.88
452.428	87.88
452.648	103.88
452.869	98.88
453.089	105.88
453.31	116.88
453.53	88.88
453.751	85.88
453.971	86.88
454.192	103.88
454.412	82.88
454.633	70.88
454.853	77.88
455.073	79.88
455.294	92.88
455.514	90.88
455.734	94.88
455.955	88.88
456.175	78.88
456.395	81.88
456.616	95.88
456.836	73.88
457.056	81.88
457.276	80.88
457.497	87.88
457.717	87.88
457.937	87.88
458.157	83.88
458.377	80.88
458.598	104.88
458.818	112.88
459.038	149.88
459.258	101.88
459.478	95.88
459.698	81.88
459.918	86.88
460.138	69.88
460.358	85.88
460.578	78.88
460.798	87.88
461.018	93.88
461.238	81.88
461.458	85.88
461.678	79.88
461.898	104.88
462.118	83.88
462.338	94.88
462.558	100.88
462.777	95.88
462.997	94.88
463.217	69.88
463.437	79.88
463.657	84.88
463.876	77.88
464.096	77.88
464.316	82.88
464.536	95.88
464.755	107.88
464.975	102.88
465.195	160.88
465.414	150.88
465.634	101.88
465.854	82.88
466.073	79.88
466.293	86.88
466.512	82.88
466.732	84.88
466.951	92.88
467.171	98.88
467.391	89.88
467.61	102.88
467.829	103.88
468.049	101.88
468.268	150.88
468.488	97.88
468.707	82.88
468.927	82.88
469.146	87.88
469.365	86.88
469.585	99.88
469.804	80.88
470.023	92.88
470.243	100.88
470.462	96.88
470.681	88.88
470.901	84.88
471.12	81.88
471.339	92.88
471.558	90.88
471.777	87.88
471.997	103.88
472.216	174.88
472.435	264.88
472.654	116.88
472.873	92.88
473.092	100.88
473.311	82.88
473.53	80.88
473.749	91.88
473.968	82.88
474.187	92.88
474.406	90.88
474.625	93.88
474.844	90.88
475.063	80.88
475.282	98.88
475.501	91.88
475.72	100.88
475.939	92.88
476.158	87.88
476.377	90.88
476.596	85.88
476.814	89.88
477.033	83.88
477.252	90.88
477.471	96.88
477.69	93.88
477.908	89.88
478.127	90.88
478.346	95.88
478.564	84.88
478.783	90.88
479.002	97.88
479.22	81.88
479.439	72.88
479.658	79.88
479.876	97.88
480.095	78.88
480.313	80.88
480.532	102.88
480.751	105.88
480.969	165.88
481.188	424.88
481.406	287.88
481.624	113.88
481.843	101.88
482.061	92.88
482.28	94.88
482.498	86.88
482.717	85.88
482.935	103.88
483.153	82.88
483.372	86.88
483.59	84.88
483.808	88.88
484.027	89.88
484.245	96.88
484.463	86.88
484.681	108.88
484.9	93.88
485.118	90.88
485.336	102.88
485.554	93.88
485.772	99.88
485.99	95.88
486.209	89.88
486.427	96.88
486.645	101.88
486.863	105.88
487.081	103.88
487.299	101.88
487.517	87.88
487.735	77.88
487.953	69.88
488.171	96.88
488.389	99.88
488.607	96.88
488.825	93.88
489.043	92.88
489.261	83.88
489.479	81.88
489.696	96.88
489.914	84.88
490.132	99.88
490.35	76.88
490.568	77.88
490.786	82.88
491.003	88.88
491.221	87.88
491.439	85.88
491.657	92.88
491.874	111.88
492.092	103.88
492.31	97.88
492.527	97.88
492.745	88.88
492.963	86.88
493.18	90.88
493.398	71.88
493.615	83.88
493.833	102.88
494.05	84.88
494.268	94.88
494.485	81.88
494.703	89.88
494.92	88.88
495.138	92.88
495.355	103.88
495.573	94.88
495.79	98.88
496.008	89.88
496.225	94.88
496.442	87.88
496.66	89.88
496.877	96.88
497.094	87.88
497.312	88.88
497.529	98.88
497.746	87.88
497.963	88.88
498.181	98.88
498.398	92.88
498.615	112.88
498.832	98.88
499.049	81.88
499.267	95.88
499.484	77.88
499.701	90.88
499.918	72.88
500.135	92.88
500.352	97.88
500.569	83.88
500.786	100.88
501.003	79.88
501.22	94.88
501.437	66.88
501.654	88.88
501.871	105.88
502.088	92.88
502.305	93.88
502.522	88.88
502.739	68.88
502.956	92.88
503.172	90.88
503.389	94.88
503.606	100.88
503.823	105.88
504.04	83.88
504.256	89.88
504.473	78.88
504.69	94.88
504.907	97.88
505.123	97.88
505.34	93.88
505.557	89.88
505.773	90.88
505.99	95.88
506.207	81.88
506.423	85.88
506.64	84.88
506.856	84.88
507.073	84.88
507.289	83.88
507.506	95.88
507.722	111.88
507.939	111.88
508.155	91.88
508.372	87.88
508.588	75.88
508.805	79.88
509.021	102.88
509.238	102.88
509.454	97.88
509.67	101.88
509.887	118.88
510.103	118.88
510.319	212.88
510.536	737.88
510.752	2399.88
510.968	700.88
511.184	148.88
511.401	108.88
511.617	95.88
511.833	94.88
512.049	89.88
512.265	84.88
512.481	78.88
512.698	88.88
512.914	98.88
513.13	89.88
513.346	78.88
513.562	94.88
513.778	90.88
513.994	101.88
514.21	86.88
514.426	118.88
514.642	116.88
514.858	110.88
515.074	154.88
515.29	413.88
515.506	1340.88
515.721	512.88
515.937	125.88
516.153	112.88
516.369	92.88
