Data from Circ_2003_H10_HRD10591_00047.txt Node
Date: Wed Jan 03 10:37:12 EST 2024
User: Yrep
Spectrometer: HR+D1059
Trigger mode: 1
Integration Time (sec): 1.000000E-1
Scans to average: 1
Electric dark correction enabled: true
Nonlinearity correction enabled: false
Boxcar width: 0
XAxis mode: Wavelengths
Number of Pixels in Spectrum: 2048
>>>>>Begin Spectral Data<<<<<
223.165	-11.69
223.4	-11.69
223.635	-11.69
223.869	-32.69
224.104	-13.69
224.338	-23.69
224.573	-23.69
224.808	-7.69
225.042	-2.69
225.277	-5.69
225.511	9.31
225.746	6.31
225.98	1.31
226.215	1.31
226.449	26.31
226.683	26.31
226.918	20.31
227.152	30.31
227.387	37.31
227.621	45.31
227.856	46.31
228.09	46.31
228.324	51.31
228.559	55.31
228.793	43.31
229.027	54.31
229.262	77.31
229.496	74.31
229.73	71.31
229.964	88.31
230.199	82.31
230.433	74.31
230.667	66.31
230.901	82.31
231.136	77.31
231.37	83.31
231.604	80.31
231.838	83.31
232.072	92.31
232.306	75.31
232.541	97.31
232.775	85.31
233.009	75.31
233.243	77.31
233.477	86.31
233.711	74.31
233.945	88.31
234.179	79.31
234.413	82.31
234.647	81.31
234.881	77.31
235.115	62.31
235.349	79.31
235.583	65.31
235.817	72.31
236.051	67.31
236.285	82.31
236.519	69.31
236.753	87.31
236.987	74.31
237.221	81.31
237.455	90.31
237.689	88.31
237.922	75.31
238.156	83.31
238.39	78.31
238.624	78.31
238.858	63.31
239.091	69.31
239.325	75.31
239.559	79.31
239.793	79.31
240.027	81.31
240.26	78.31
240.494	79.31
240.728	85.31
240.961	78.31
241.195	75.31
241.429	86.31
241.662	87.31
241.896	88.31
242.13	76.31
242.363	78.31
242.597	84.31
242.83	79.31
243.064	75.31
243.298	84.31
243.531	70.31
243.765	67.31
243.998	87.31
244.232	74.31
244.465	69.31
244.699	79.31
244.932	80.31
245.166	70.31
245.399	90.31
245.633	81.31
245.866	90.31
246.099	82.31
246.333	78.31
246.566	73.31
246.8	71.31
247.033	82.31
247.266	78.31
247.5	66.31
247.733	71.31
247.966	70.31
248.2	78.31
248.433	88.31
248.666	86.31
248.899	87.31
249.133	89.31
249.366	99.31
249.599	93.31
249.832	84.31
250.066	85.31
250.299	83.31
250.532	82.31
250.765	81.31
250.998	73.31
251.231	77.31
251.465	75.31
251.698	78.31
251.931	55.31
252.164	81.31
252.397	73.31
252.63	90.31
252.863	79.31
253.096	84.31
253.329	93.31
253.562	67.31
253.795	82.31
254.028	91.31
254.261	83.31
254.494	82.31
254.727	91.31
254.96	83.31
255.193	66.31
255.426	73.31
255.659	74.31
255.892	81.31
256.124	81.31
256.357	78.31
256.59	75.31
256.823	69.31
257.056	79.31
257.289	60.31
257.521	81.31
257.754	81.31
257.987	87.31
258.22	87.31
258.452	77.31
258.685	80.31
258.918	75.31
259.151	81.31
259.383	73.31
259.616	86.31
259.849	93.31
260.081	84.31
260.314	73.31
260.547	80.31
260.779	77.31
261.012	85.31
261.244	74.31
261.477	78.31
261.71	94.31
261.942	111.31
262.175	118.31
262.407	86.31
262.64	101.31
262.872	77.31
263.105	88.31
263.337	83.31
263.57	85.31
263.802	98.31
264.035	75.31
264.267	88.31
264.499	81.31
264.732	79.31
264.964	81.31
265.197	54.31
265.429	85.31
265.661	74.31
265.894	80.31
266.126	75.31
266.358	89.31
266.591	70.31
266.823	75.31
267.055	68.31
267.287	99.31
267.52	81.31
267.752	85.31
267.984	94.31
268.216	89.31
268.448	82.31
268.681	78.31
268.913	85.31
269.145	85.31
269.377	86.31
269.609	77.31
269.841	81.31
270.073	86.31
270.306	89.31
270.538	88.31
270.77	90.31
271.002	95.31
271.234	92.31
271.466	86.31
271.698	95.31
271.93	83.31
272.162	97.31
272.394	89.31
272.626	92.31
272.858	79.31
273.09	75.31
273.322	85.31
273.553	90.31
273.785	89.31
274.017	81.31
274.249	86.31
274.481	95.31
274.713	86.31
274.945	87.31
275.176	79.31
275.408	82.31
275.64	91.31
275.872	97.31
276.104	90.31
276.335	95.31
276.567	101.31
276.799	96.31
277.031	90.31
277.262	86.31
277.494	79.31
277.726	80.31
277.957	76.31
278.189	82.31
278.421	85.31
278.652	97.31
278.884	86.31
279.115	87.31
279.347	82.31
279.579	94.31
279.81	85.31
280.042	84.31
280.273	87.31
280.505	95.31
280.736	79.31
280.968	97.31
281.199	91.31
281.431	86.31
281.662	95.31
281.894	92.31
282.125	114.31
282.356	118.31
282.588	141.31
282.819	129.31
283.051	92.31
283.282	87.31
283.513	85.31
283.745	99.31
283.976	90.31
284.207	88.31
284.439	97.31
284.67	94.31
284.901	79.31
285.132	96.31
285.364	104.31
285.595	81.31
285.826	94.31
286.057	107.31
286.288	93.31
286.52	74.31
286.751	87.31
286.982	86.31
287.213	99.31
287.444	95.31
287.675	86.31
287.906	96.31
288.138	97.31
288.369	94.31
288.6	97.31
288.831	71.31
289.062	71.31
289.293	90.31
289.524	76.31
289.755	87.31
289.986	79.31
290.217	85.31
290.448	87.31
290.679	83.31
290.91	84.31
291.141	92.31
291.371	81.31
291.602	92.31
291.833	85.31
292.064	69.31
292.295	89.31
292.526	77.31
292.757	101.31
292.987	85.31
293.218	84.31
293.449	98.31
293.68	82.31
293.91	86.31
294.141	80.31
294.372	74.31
294.603	86.31
294.833	101.31
295.064	106.31
295.295	91.31
295.525	91.31
295.756	106.31
295.987	106.31
296.217	147.31
296.448	127.31
296.679	113.31
296.909	88.31
297.14	83.31
297.37	94.31
297.601	95.31
297.831	90.31
298.062	100.31
298.292	81.31
298.523	104.31
298.753	85.31
298.984	88.31
299.214	88.31
299.445	81.31
299.675	81.31
299.905	98.31
300.136	79.31
300.366	90.31
300.597	82.31
300.827	88.31
301.057	101.31
301.288	98.31
301.518	99.31
301.748	92.31
301.979	97.31
302.209	96.31
302.439	92.31
302.669	96.31
302.9	87.31
303.13	96.31
303.36	74.31
303.59	90.31
303.82	108.31
304.051	91.31
304.281	97.31
304.511	95.31
304.741	79.31
304.971	90.31
305.201	85.31
305.431	87.31
305.661	81.31
305.891	94.31
306.121	86.31
306.352	99.31
306.582	103.31
306.812	94.31
307.042	92.31
307.272	100.31
307.502	93.31
307.731	90.31
307.961	82.31
308.191	79.31
308.421	91.31
308.651	97.31
308.881	91.31
309.111	95.31
309.341	81.31
309.571	101.31
309.8	98.31
310.03	98.31
310.26	91.31
310.49	94.31
310.72	83.31
310.949	105.31
311.179	83.31
311.409	110.31
311.639	86.31
311.868	97.31
312.098	103.31
312.328	92.31
312.557	88.31
312.787	96.31
313.017	95.31
313.246	89.31
313.476	98.31
313.706	87.31
313.935	103.31
314.165	100.31
314.394	107.31
314.624	90.31
314.853	94.31
315.083	95.31
315.312	87.31
315.542	96.31
315.771	84.31
316.001	91.31
316.23	81.31
316.46	95.31
316.689	98.31
316.919	102.31
317.148	108.31
317.377	100.31
317.607	91.31
317.836	83.31
318.065	80.31
318.295	86.31
318.524	80.31
318.753	83.31
318.983	82.31
319.212	100.31
319.441	113.31
319.67	112.31
319.9	112.31
320.129	98.31
320.358	88.31
320.587	103.31
320.816	102.31
321.046	92.31
321.275	101.31
321.504	97.31
321.733	96.31
321.962	103.31
322.191	101.31
322.42	106.31
322.649	113.31
322.878	109.31
323.108	124.31
323.337	121.31
323.566	131.31
323.795	163.31
324.024	215.31
324.253	417.31
324.482	844.31
324.71	1829.31
324.939	2332.31
325.168	841.31
325.397	250.31
325.626	149.31
325.855	125.31
326.084	129.31
326.313	134.31
326.542	155.31
326.77	258.31
326.999	483.31
327.228	964.31
327.457	1835.31
327.686	1440.31
327.914	383.31
328.143	190.31
328.372	151.31
328.6	125.31
328.829	101.31
329.058	116.31
329.287	122.31
329.515	96.31
329.744	97.31
329.972	102.31
330.201	120.31
330.43	143.31
330.658	146.31
330.887	144.31
331.115	128.31
331.344	101.31
331.572	93.31
331.801	108.31
332.03	105.31
332.258	91.31
332.486	87.31
332.715	91.31
332.943	106.31
333.172	90.31
333.4	95.31
333.629	120.31
333.857	110.31
334.085	118.31
334.314	105.31
334.542	141.31
334.771	145.31
334.999	104.31
335.227	96.31
335.455	102.31
335.684	79.31
335.912	109.31
336.14	116.31
336.369	103.31
336.597	98.31
336.825	97.31
337.053	86.31
337.281	104.31
337.51	90.31
337.738	99.31
337.966	95.31
338.194	105.31
338.422	95.31
338.65	83.31
338.878	91.31
339.106	79.31
339.334	83.31
339.562	84.31
339.79	86.31
340.018	85.31
340.246	101.31
340.474	98.31
340.702	90.31
340.93	89.31
341.158	79.31
341.386	87.31
341.614	92.31
341.842	99.31
342.07	100.31
342.298	101.31
342.526	89.31
342.754	75.31
342.981	87.31
343.209	78.31
343.437	88.31
343.665	97.31
343.893	81.31
344.12	77.31
344.348	89.31
344.576	88.31
344.804	99.31
345.031	97.31
345.259	89.31
345.487	81.31
345.714	86.31
345.942	91.31
346.17	99.31
346.397	80.31
346.625	83.31
346.853	102.31
347.08	86.31
347.308	75.31
347.535	91.31
347.763	91.31
347.99	93.31
348.218	93.31
348.445	119.31
348.673	90.31
348.9	91.31
349.128	80.31
349.355	89.31
349.583	94.31
349.81	87.31
350.037	97.31
350.265	111.31
350.492	108.31
350.72	88.31
350.947	92.31
351.174	101.31
351.402	97.31
351.629	104.31
351.856	95.31
352.083	93.31
352.311	108.31
352.538	112.31
352.765	116.31
352.992	111.31
353.22	99.31
353.447	83.31
353.674	103.31
353.901	97.31
354.128	89.31
354.355	83.31
354.583	104.31
354.81	95.31
355.037	86.31
355.264	87.31
355.491	95.31
355.718	100.31
355.945	98.31
356.172	91.31
356.399	100.31
356.626	91.31
356.853	93.31
357.08	106.31
357.307	97.31
357.534	79.31
357.761	86.31
357.988	90.31
358.215	113.31
358.441	97.31
358.668	106.31
358.895	86.31
359.122	94.31
359.349	94.31
359.576	91.31
359.802	102.31
360.029	109.31
360.256	101.31
360.483	96.31
360.709	93.31
360.936	99.31
361.163	92.31
361.39	95.31
361.616	99.31
361.843	104.31
362.07	85.31
362.296	82.31
362.523	87.31
362.749	89.31
362.976	97.31
363.203	98.31
363.429	86.31
363.656	79.31
363.882	97.31
364.109	101.31
364.335	100.31
364.562	91.31
364.788	87.31
365.015	92.31
365.241	103.31
365.468	109.31
365.694	112.31
365.92	102.31
366.147	98.31
366.373	83.31
366.599	97.31
366.826	66.31
367.052	82.31
367.278	86.31
367.505	86.31
367.731	95.31
367.957	83.31
368.184	86.31
368.41	100.31
368.636	106.31
368.862	107.31
369.089	102.31
369.315	85.31
369.541	94.31
369.767	81.31
369.993	96.31
370.219	87.31
370.445	89.31
370.672	95.31
370.898	84.31
371.124	70.31
371.35	73.31
371.576	88.31
371.802	81.31
372.028	88.31
372.254	88.31
372.48	79.31
372.706	76.31
372.932	90.31
373.158	87.31
373.384	105.31
373.61	112.31
373.835	86.31
374.061	100.31
374.287	88.31
374.513	108.31
374.739	98.31
374.965	77.31
375.191	87.31
375.416	97.31
375.642	99.31
375.868	90.31
376.094	87.31
376.319	89.31
376.545	84.31
376.771	95.31
376.997	95.31
377.222	74.31
377.448	78.31
377.674	88.31
377.899	83.31
378.125	90.31
378.35	98.31
378.576	99.31
378.802	95.31
379.027	97.31
379.253	101.31
379.478	98.31
379.704	85.31
379.929	105.31
380.155	94.31
380.38	90.31
380.606	97.31
380.831	101.31
381.057	89.31
381.282	100.31
381.507	98.31
381.733	100.31
381.958	96.31
382.184	90.31
382.409	108.31
382.634	101.31
382.86	100.31
383.085	105.31
383.31	104.31
383.535	94.31
383.761	102.31
383.986	103.31
384.211	100.31
384.436	106.31
384.662	97.31
384.887	102.31
385.112	114.31
385.337	106.31
385.562	102.31
385.787	122.31
386.013	111.31
386.238	130.31
386.463	101.31
386.688	122.31
386.913	101.31
387.138	105.31
387.363	98.31
387.588	114.31
387.813	92.31
388.038	118.31
388.263	104.31
388.488	106.31
388.713	89.31
388.938	86.31
389.163	94.31
389.387	107.31
389.612	90.31
389.837	97.31
390.062	87.31
390.287	80.31
390.512	98.31
390.736	81.31
390.961	97.31
391.186	83.31
391.411	85.31
391.636	82.31
391.86	80.31
392.085	90.31
392.31	92.31
392.534	91.31
392.759	75.31
392.984	91.31
393.208	86.31
393.433	99.31
393.658	95.31
393.882	87.31
394.107	86.31
394.331	81.31
394.556	92.31
394.78	84.31
395.005	96.31
395.229	89.31
395.454	77.31
395.678	99.31
395.903	76.31
396.127	98.31
396.352	83.31
396.576	85.31
396.801	104.31
397.025	95.31
397.249	99.31
397.474	76.31
397.698	83.31
397.922	79.31
398.147	97.31
398.371	91.31
398.595	85.31
398.82	90.31
399.044	91.31
399.268	79.31
399.492	93.31
399.717	93.31
399.941	77.31
400.165	97.31
400.389	81.31
400.613	91.31
400.837	95.31
401.062	84.31
401.286	75.31
401.51	78.31
401.734	87.31
401.958	99.31
402.182	122.31
402.406	152.31
402.63	117.31
402.854	86.31
403.078	83.31
403.302	89.31
403.526	81.31
403.75	89.31
403.974	97.31
404.198	86.31
404.422	82.31
404.645	91.31
404.869	82.31
405.093	111.31
405.317	96.31
405.541	98.31
405.765	109.31
405.988	110.31
406.212	174.31
406.436	230.31
406.66	150.31
406.883	90.31
407.107	103.31
407.331	93.31
407.555	102.31
407.778	95.31
408.002	88.31
408.226	93.31
408.449	92.31
408.673	84.31
408.896	93.31
409.12	104.31
409.344	84.31
409.567	90.31
409.791	102.31
410.014	92.31
410.238	82.31
410.461	81.31
410.685	105.31
410.908	99.31
411.132	106.31
411.355	106.31
411.578	69.31
411.802	73.31
412.025	86.31
412.249	97.31
412.472	82.31
412.695	107.31
412.919	76.31
413.142	89.31
413.365	83.31
413.589	84.31
413.812	95.31
414.035	90.31
414.258	85.31
414.482	87.31
414.705	86.31
414.928	90.31
415.151	98.31
415.374	97.31
415.597	93.31
415.821	89.31
416.044	85.31
416.267	86.31
416.49	85.31
416.713	88.31
416.936	91.31
417.159	88.31
417.382	103.31
417.605	93.31
417.828	89.31
418.051	82.31
418.274	94.31
418.497	89.31
418.72	83.31
418.943	81.31
419.166	89.31
419.389	80.31
419.611	89.31
419.834	103.31
420.057	96.31
420.28	77.31
420.503	91.31
420.726	99.31
420.948	81.31
421.171	90.31
421.394	86.31
421.617	102.31
421.839	91.31
422.062	75.31
422.285	90.31
422.507	102.31
422.73	102.31
422.953	89.31
423.175	86.31
423.398	80.31
423.621	85.31
423.843	76.31
424.066	71.31
424.288	83.31
424.511	96.31
424.733	104.31
424.956	114.31
425.178	91.31
425.401	105.31
425.623	93.31
425.846	88.31
426.068	96.31
426.291	97.31
426.513	90.31
426.735	86.31
426.958	89.31
427.18	104.31
427.402	131.31
427.625	166.31
427.847	121.31
428.069	104.31
428.292	93.31
428.514	100.31
428.736	92.31
428.958	92.31
429.181	89.31
429.403	75.31
429.625	88.31
429.847	82.31
430.069	92.31
430.292	94.31
430.514	91.31
430.736	75.31
430.958	87.31
431.18	73.31
431.402	97.31
431.624	96.31
431.846	77.31
432.068	72.31
432.29	81.31
432.512	95.31
432.734	107.31
432.956	99.31
433.178	96.31
433.4	93.31
433.622	83.31
433.844	83.31
434.066	86.31
434.287	84.31
434.509	93.31
434.731	73.31
434.953	94.31
435.175	88.31
435.397	82.31
435.618	103.31
435.84	117.31
436.062	125.31
436.284	108.31
436.505	102.31
436.727	98.31
436.949	101.31
437.17	83.31
437.392	90.31
437.614	92.31
437.835	109.31
438.057	117.31
438.278	99.31
438.5	106.31
438.721	104.31
438.943	107.31
439.165	94.31
439.386	88.31
439.608	83.31
439.829	110.31
440.05	113.31
440.272	151.31
440.493	109.31
440.715	78.31
440.936	86.31
441.158	85.31
441.379	75.31
441.6	100.31
441.822	93.31
442.043	93.31
442.264	110.31
442.486	91.31
442.707	90.31
442.928	109.31
443.149	133.31
443.371	136.31
443.592	111.31
443.813	100.31
444.034	120.31
444.255	83.31
444.476	84.31
444.698	84.31
444.919	86.31
445.14	122.31
445.361	127.31
445.582	123.31
445.803	139.31
446.024	135.31
446.245	124.31
446.466	110.31
446.687	67.31
446.908	89.31
447.129	95.31
447.35	83.31
447.571	84.31
447.792	93.31
448.013	95.31
448.234	94.31
448.455	95.31
448.675	98.31
448.896	98.31
449.117	113.31
449.338	101.31
449.559	111.31
449.779	125.31
450	93.31
450.221	86.31
450.442	91.31
450.662	89.31
450.883	99.31
451.104	109.31
451.324	102.31
451.545	86.31
451.766	65.31
451.986	90.31
452.207	82.31
452.428	87.31
452.648	102.31
452.869	105.31
453.089	102.31
453.31	117.31
453.53	98.31
453.751	94.31
453.971	121.31
454.192	105.31
454.412	93.31
454.633	97.31
454.853	104.31
455.073	94.31
455.294	106.31
455.514	90.31
455.734	91.31
455.955	81.31
456.175	80.31
456.395	74.31
456.616	92.31
456.836	85.31
457.056	87.31
457.276	77.31
457.497	93.31
457.717	74.31
457.937	77.31
458.157	89.31
458.377	99.31
458.598	98.31
458.818	171.31
459.038	158.31
459.258	112.31
459.478	90.31
459.698	89.31
459.918	98.31
460.138	74.31
460.358	110.31
460.578	92.31
460.798	99.31
461.018	94.31
461.238	74.31
461.458	73.31
461.678	88.31
461.898	81.31
462.118	73.31
462.338	79.31
462.558	97.31
462.777	94.31
462.997	76.31
463.217	82.31
463.437	90.31
463.657	86.31
463.876	91.31
464.096	106.31
464.316	83.31
464.536	92.31
464.755	85.31
464.975	101.31
465.195	146.31
465.414	149.31
465.634	94.31
465.854	88.31
466.073	78.31
466.293	101.31
466.512	85.31
466.732	79.31
466.951	91.31
467.171	74.31
467.391	102.31
467.61	100.31
467.829	88.31
468.049	108.31
468.268	103.31
468.488	89.31
468.707	88.31
468.927	96.31
469.146	78.31
469.365	95.31
469.585	91.31
469.804	91.31
470.023	95.31
470.243	96.31
470.462	104.31
470.681	101.31
470.901	86.31
471.12	85.31
471.339	94.31
471.558	93.31
471.777	105.31
471.997	99.31
472.216	114.31
472.435	144.31
472.654	97.31
472.873	88.31
473.092	75.31
473.311	81.31
473.53	79.31
473.749	88.31
473.968	77.31
474.187	95.31
474.406	102.31
474.625	95.31
474.844	80.31
475.063	94.31
475.282	87.31
475.501	98.31
475.72	91.31
475.939	84.31
476.158	95.31
476.377	97.31
476.596	93.31
476.814	90.31
477.033	87.31
477.252	89.31
477.471	97.31
477.69	89.31
477.908	81.31
478.127	77.31
478.346	97.31
478.564	104.31
478.783	100.31
479.002	95.31
479.22	89.31
479.439	102.31
479.658	107.31
479.876	89.31
480.095	92.31
480.313	79.31
480.532	95.31
480.751	97.31
480.969	111.31
481.188	230.31
481.406	161.31
481.624	107.31
481.843	82.31
482.061	81.31
482.28	90.31
482.498	79.31
482.717	95.31
482.935	97.31
483.153	78.31
483.372	87.31
483.59	71.31
483.808	89.31
484.027	88.31
484.245	97.31
484.463	98.31
484.681	98.31
484.9	102.31
485.118	96.31
485.336	93.31
485.554	99.31
485.772	97.31
485.99	101.31
486.209	83.31
486.427	106.31
486.645	123.31
486.863	104.31
487.081	114.31
487.299	104.31
487.517	88.31
487.735	93.31
487.953	87.31
488.171	82.31
488.389	93.31
488.607	102.31
488.825	81.31
489.043	94.31
489.261	98.31
489.479	105.31
489.696	90.31
489.914	90.31
490.132	101.31
490.35	97.31
490.568	88.31
490.786	85.31
491.003	86.31
491.221	89.31
491.439	98.31
491.657	88.31
491.874	66.31
492.092	94.31
492.31	78.31
492.527	91.31
492.745	99.31
492.963	82.31
493.18	81.31
493.398	96.31
493.615	110.31
493.833	102.31
494.05	88.31
494.268	82.31
494.485	91.31
494.703	88.31
494.92	85.31
495.138	85.31
495.355	83.31
495.573	93.31
495.79	74.31
496.008	96.31
496.225	97.31
496.442	94.31
496.66	95.31
496.877	101.31
497.094	100.31
497.312	92.31
497.529	89.31
497.746	78.31
497.963	82.31
498.181	73.31
498.398	89.31
498.615	109.31
498.832	99.31
499.049	75.31
499.267	75.31
499.484	82.31
499.701	103.31
499.918	90.31
500.135	109.31
500.352	91.31
500.569	90.31
500.786	101.31
501.003	89.31
501.22	88.31
501.437	106.31
501.654	82.31
501.871	98.31
502.088	97.31
502.305	92.31
502.522	83.31
502.739	96.31
502.956	76.31
503.172	98.31
503.389	88.31
503.606	90.31
503.823	97.31
504.04	111.31
504.256	103.31
504.473	91.31
504.69	76.31
504.907	75.31
505.123	102.31
505.34	84.31
505.557	75.31
505.773	102.31
505.99	84.31
506.207	83.31
506.423	80.31
506.64	91.31
506.856	99.31
507.073	81.31
507.289	91.31
507.506	105.31
507.722	109.31
507.939	113.31
508.155	98.31
508.372	101.31
508.588	91.31
508.805	109.31
509.021	88.31
509.238	110.31
509.454	104.31
509.67	101.31
509.887	104.31
510.103	146.31
510.319	232.31
510.536	848.31
510.752	2727.31
510.968	746.31
511.184	170.31
511.401	115.31
511.617	99.31
511.833	99.31
512.049	108.31
512.265	96.31
512.481	99.31
512.698	96.31
512.914	84.31
513.13	91.31
513.346	97.31
513.562	82.31
513.778	102.31
513.994	84.31
514.21	95.31
514.426	118.31
514.642	140.31
514.858	126.31
515.074	177.31
515.29	480.31
515.506	1622.31
