Data from Circ_2003_H10_HRD10591_00050.txt Node
Date: Wed Jan 03 10:37:12 EST 2024
User: Yrep
Spectrometer: HR+D1059
Trigger mode: 1
Integration Time (sec): 1.000000E-1
Scans to average: 1
Electric dark correction enabled: true
Nonlinearity correction enabled: false
Boxcar width: 0
XAxis mode: Wavelengths
Number of Pixels in Spectrum: 2048
>>>>>Begin Spectral Data<<<<<
223.165	-12.12
223.4	-12.12
223.635	-12.12
223.869	-23.12
224.104	-16.12
224.338	-21.12
224.573	-13.12
224.808	-6.12
225.042	-6.12
225.277	-8.12
225.511	-5.12
225.746	9.88
225.98	-11.12
226.215	11.88
226.449	23.88
226.683	18.88
226.918	22.88
227.152	34.88
227.387	48.88
227.621	45.88
227.856	42.88
228.09	42.88
228.324	53.88
228.559	65.88
228.793	162.88
229.027	429.88
229.262	521.88
229.496	597.88
229.73	769.88
229.964	799.88
230.199	545.88
230.433	474.88
230.667	461.88
230.901	445.88
231.136	432.88
231.37	463.88
231.604	440.88
231.838	443.88
232.072	438.88
232.306	436.88
232.541	449.88
232.775	454.88
233.009	459.88
233.243	472.88
233.477	485.88
233.711	467.88
233.945	485.88
234.179	477.88
234.413	495.88
234.647	489.88
234.881	506.88
235.115	506.88
235.349	497.88
235.583	541.88
235.817	579.88
236.051	618.88
236.285	606.88
236.519	589.88
236.753	687.88
236.987	884.88
237.221	1332.88
237.455	1458.88
237.689	848.88
237.922	712.88
238.156	703.88
238.39	643.88
238.624	632.88
238.858	641.88
239.091	634.88
239.325	626.88
239.559	644.88
239.793	690.88
240.027	736.88
240.26	907.88
240.494	939.88
240.728	937.88
240.961	873.88
241.195	800.88
241.429	765.88
241.662	741.88
241.896	779.88
242.13	741.88
242.363	759.88
242.597	789.88
242.83	773.88
243.064	799.88
243.298	776.88
243.531	824.88
243.765	814.88
243.998	814.88
244.232	819.88
244.465	848.88
244.699	875.88
244.932	863.88
245.166	851.88
245.399	884.88
245.633	889.88
245.866	875.88
246.099	917.88
246.333	909.88
246.566	913.88
246.8	950.88
247.033	979.88
247.266	1017.88
247.5	1071.88
247.733	1116.88
247.966	1111.88
248.2	1105.88
248.433	1124.88
248.666	1204.88
248.899	1268.88
249.133	1365.88
249.366	1386.88
249.599	1290.88
249.832	1193.88
250.066	1210.88
250.299	1255.88
250.532	1415.88
250.765	1586.88
250.998	1681.88
251.231	1605.88
251.465	1441.88
251.698	1382.88
251.931	1351.88
252.164	1346.88
252.397	1376.88
252.63	1440.88
252.863	1516.88
253.096	1615.88
253.329	1660.88
253.562	1569.88
253.795	1509.88
254.028	1521.88
254.261	1576.88
254.494	1793.88
254.727	2054.88
254.96	2150.88
255.193	1893.88
255.426	1731.88
255.659	1666.88
255.892	1700.88
256.124	1786.88
256.357	1709.88
256.59	1615.88
256.823	1527.88
257.056	1478.88
257.289	1506.88
257.521	1548.88
257.754	1530.88
257.987	1489.88
258.22	1454.88
258.452	1473.88
258.685	1535.88
258.918	1517.88
259.151	1586.88
259.383	1664.88
259.616	1642.88
259.849	1742.88
260.081	1890.88
260.314	2027.88
260.547	1979.88
260.779	1800.88
261.012	1698.88
261.244	1650.88
261.477	1604.88
261.71	1702.88
261.942	1726.88
262.175	1772.88
262.407	1684.88
262.64	1604.88
262.872	1645.88
263.105	1618.88
263.337	1622.88
263.57	1609.88
263.802	1618.88
264.035	1644.88
264.267	1643.88
264.499	1635.88
264.732	1663.88
264.964	1654.88
265.197	1687.88
265.429	1667.88
265.661	1673.88
265.894	1701.88
266.126	1700.88
266.358	1720.88
266.591	1760.88
266.823	1823.88
267.055	1827.88
267.287	1839.88
267.52	1783.88
267.752	1788.88
267.984	1812.88
268.216	1883.88
268.448	1889.88
268.681	1974.88
268.913	2128.88
269.145	2259.88
269.377	2289.88
269.609	2247.88
269.841	2197.88
270.073	2317.88
270.306	2609.88
270.538	2722.88
270.77	2579.88
271.002	2426.88
271.234	2416.88
271.466	2552.88
271.698	2730.88
271.93	2659.88
272.162	2689.88
272.394	2602.88
272.626	2474.88
272.858	2333.88
273.09	2211.88
273.322	2209.88
273.553	2151.88
273.785	2211.88
274.017	2213.88
274.249	2209.88
274.481	2174.88
274.713	2249.88
274.945	2262.88
275.176	2188.88
275.408	2250.88
275.64	2199.88
275.872	2220.88
276.104	2253.88
276.335	2294.88
276.567	2398.88
276.799	2530.88
277.031	2775.88
277.262	2880.88
277.494	2757.88
277.726	2537.88
277.957	2488.88
278.189	2393.88
278.421	2339.88
278.652	2311.88
278.884	2311.88
279.115	2343.88
279.347	2345.88
279.579	2373.88
279.81	2343.88
280.042	2374.88
280.273	2434.88
280.505	2439.88
280.736	2358.88
280.968	2366.88
281.199	2406.88
281.431	2423.88
281.662	2453.88
281.894	2422.88
282.125	2542.88
282.356	2685.88
282.588	2827.88
282.819	2677.88
283.051	2527.88
283.282	2449.88
283.513	2532.88
283.745	2604.88
283.976	2634.88
284.207	2593.88
284.439	2619.88
284.67	2603.88
284.901	2600.88
285.132	2564.88
285.364	2581.88
285.595	2574.88
285.826	2599.88
286.057	2651.88
286.288	2586.88
286.52	2634.88
286.751	2688.88
286.982	2660.88
287.213	2696.88
287.444	2675.88
287.675	2749.88
287.906	2873.88
288.138	2911.88
288.369	2824.88
288.6	2838.88
288.831	2803.88
289.062	2739.88
289.293	2832.88
289.524	2754.88
289.755	2749.88
289.986	2742.88
290.217	2803.88
290.448	2838.88
290.679	2769.88
290.91	2793.88
291.141	2802.88
291.371	2807.88
291.602	2777.88
291.833	2746.88
292.064	2766.88
292.295	2761.88
292.526	2829.88
292.757	2785.88
292.987	2778.88
293.218	2808.88
293.449	2816.88
293.68	2795.88
293.91	2860.88
294.141	2849.88
294.372	2789.88
294.603	2813.88
294.833	2827.88
295.064	2867.88
295.295	2852.88
295.525	2860.88
295.756	2916.88
295.987	3035.88
296.217	3184.88
296.448	3124.88
296.679	2948.88
296.909	2879.88
297.14	2962.88
297.37	3032.88
297.601	3029.88
297.831	2984.88
298.062	3043.88
298.292	3046.88
298.523	3061.88
298.753	3063.88
298.984	2991.88
299.214	3089.88
299.445	3121.88
299.675	3089.88
299.905	3120.88
300.136	3154.88
300.366	3122.88
300.597	3135.88
300.827	3291.88
301.057	3265.88
301.288	3334.88
301.518	3306.88
301.748	3306.88
301.979	3346.88
302.209	3370.88
302.439	3368.88
302.669	3292.88
302.9	3258.88
303.13	3234.88
303.36	3330.88
303.59	3334.88
303.82	3331.88
304.051	3339.88
304.281	3314.88
304.511	3223.88
304.741	3224.88
304.971	3307.88
305.201	3230.88
305.431	3285.88
305.661	3226.88
305.891	3269.88
306.121	3247.88
306.352	3330.88
306.582	3341.88
306.812	3179.88
307.042	3233.88
307.272	3298.88
307.502	3263.88
307.731	3294.88
307.961	3226.88
308.191	3277.88
308.421	3280.88
308.651	3280.88
308.881	3279.88
309.111	3326.88
309.341	3346.88
309.571	3443.88
309.8	3530.88
310.03	3603.88
310.26	3626.88
310.49	3590.88
310.72	3714.88
310.949	3810.88
311.179	3765.88
311.409	3657.88
311.639	3597.88
311.868	3674.88
312.098	3667.88
312.328	3833.88
312.557	3901.88
312.787	4025.88
313.017	3895.88
313.246	3794.88
313.476	3728.88
313.706	3754.88
313.935	3873.88
314.165	3945.88
314.394	3993.88
314.624	3881.88
314.853	3815.88
315.083	3784.88
315.312	3794.88
315.542	3715.88
315.771	3658.88
316.001	3672.88
316.23	3687.88
316.46	3671.88
316.689	3710.88
316.919	3722.88
317.148	3766.88
317.377	3808.88
317.607	3739.88
317.836	3683.88
318.065	3711.88
318.295	3675.88
318.524	3696.88
318.753	3670.88
318.983	3643.88
319.212	3624.88
319.441	3728.88
319.67	3720.88
319.9	3687.88
320.129	3735.88
320.358	3722.88
320.587	3757.88
320.816	3794.88
321.046	3810.88
321.275	3865.88
321.504	3806.88
321.733	3851.88
321.962	3906.88
322.191	4018.88
322.42	4147.88
322.649	4226.88
322.878	4271.88
323.108	4342.88
323.337	4610.88
323.566	4786.88
323.795	5100.88
324.024	5715.88
324.253	7609.88
324.482	11719.88
324.71	15611.88
324.939	15611.88
325.168	13393.88
325.397	6728.88
325.626	5339.88
325.855	4891.88
326.084	4811.88
326.313	4873.88
326.542	5033.88
326.77	5713.88
326.999	7384.88
327.228	10872.88
327.457	14824.88
327.686	13962.88
327.914	7552.88
328.143	6080.88
328.372	5778.88
328.6	5423.88
328.829	5378.88
329.058	5550.88
329.287	5481.88
329.515	5099.88
329.744	4962.88
329.972	5092.88
330.201	5374.88
330.43	5733.88
330.658	5885.88
330.887	6017.88
331.115	5492.88
331.344	5061.88
331.572	4981.88
331.801	5076.88
332.03	5098.88
332.258	4980.88
332.486	5025.88
332.715	5089.88
332.943	5333.88
333.172	5417.88
333.4	5648.88
333.629	5786.88
333.857	5855.88
334.085	5888.88
334.314	6133.88
334.542	6376.88
334.771	6214.88
334.999	5595.88
335.227	5386.88
335.455	5266.88
335.684	5072.88
335.912	5017.88
336.14	4968.88
336.369	5022.88
336.597	5019.88
336.825	4948.88
337.053	4857.88
337.281	4777.88
337.51	4775.88
337.738	4651.88
337.966	4706.88
338.194	4688.88
338.422	4614.88
338.65	4576.88
338.878	4554.88
339.106	4527.88
339.334	4485.88
339.562	4407.88
339.79	4389.88
340.018	4452.88
340.246	4394.88
340.474	4422.88
340.702	4472.88
340.93	4394.88
341.158	4396.88
341.386	4377.88
341.614	4412.88
341.842	4379.88
342.07	4321.88
342.298	4354.88
342.526	4287.88
342.754	4289.88
342.981	4312.88
343.209	4482.88
343.437	4685.88
343.665	4916.88
343.893	5141.88
344.12	5251.88
344.348	4905.88
344.576	4806.88
344.804	4719.88
345.031	4651.88
345.259	4604.88
345.487	4499.88
345.714	4404.88
345.942	4289.88
346.17	4216.88
346.397	4201.88
346.625	4125.88
346.853	4184.88
347.08	4187.88
347.308	4288.88
347.535	4350.88
347.763	4387.88
347.99	4271.88
348.218	4365.88
348.445	4343.88
348.673	4268.88
348.9	4250.88
349.128	4143.88
349.355	4088.88
349.583	4120.88
349.81	4068.88
350.037	4083.88
350.265	4031.88
350.492	4023.88
350.72	4029.88
350.947	4165.88
351.174	4241.88
351.402	4254.88
351.629	4187.88
351.856	4178.88
352.083	4256.88
352.311	4250.88
352.538	4274.88
352.765	4259.88
352.992	4140.88
353.22	4165.88
353.447	4087.88
353.674	4034.88
353.901	3949.88
354.128	3990.88
354.355	3990.88
354.583	4027.88
354.81	3962.88
355.037	3945.88
355.264	3970.88
355.491	3894.88
355.718	3957.88
355.945	3938.88
356.172	3935.88
356.399	4006.88
356.626	4001.88
356.853	3946.88
357.08	3920.88
357.307	3999.88
357.534	3960.88
357.761	3931.88
357.988	4023.88
358.215	3998.88
358.441	3992.88
358.668	3970.88
358.895	4060.88
359.122	4029.88
359.349	4173.88
359.576	4291.88
359.802	4511.88
360.029	4705.88
360.256	4715.88
360.483	4465.88
360.709	4271.88
360.936	4287.88
361.163	4270.88
361.39	4267.88
361.616	4278.88
361.843	4179.88
362.07	4264.88
362.296	4259.88
362.523	4118.88
362.749	4212.88
362.976	4176.88
363.203	4126.88
363.429	4040.88
363.656	4064.88
363.882	4072.88
364.109	4054.88
364.335	4035.88
364.562	4119.88
364.788	4025.88
365.015	4072.88
365.241	4056.88
365.468	4104.88
365.694	4127.88
365.92	4160.88
366.147	4043.88
366.373	4046.88
366.599	4101.88
366.826	4029.88
367.052	3966.88
367.278	4053.88
367.505	4096.88
367.731	4104.88
367.957	4057.88
368.184	4095.88
368.41	4184.88
368.636	4237.88
368.862	4290.88
369.089	4141.88
369.315	4143.88
369.541	4111.88
369.767	4177.88
369.993	4172.88
370.219	4174.88
370.445	4175.88
370.672	4249.88
370.898	4276.88
371.124	4271.88
371.35	4283.88
371.576	4301.88
371.802	4227.88
372.028	4268.88
372.254	4317.88
372.48	4351.88
372.706	4456.88
372.932	4422.88
373.158	4440.88
373.384	4392.88
373.61	4313.88
373.835	4342.88
374.061	4361.88
374.287	4359.88
374.513	4524.88
374.739	4663.88
374.965	4708.88
375.191	4801.88
375.416	4719.88
375.642	4452.88
375.868	4465.88
376.094	4439.88
376.319	4405.88
376.545	4350.88
376.771	4385.88
376.997	4349.88
377.222	4348.88
377.448	4282.88
377.674	4311.88
377.899	4287.88
378.125	4317.88
378.35	4281.88
378.576	4266.88
378.802	4209.88
379.027	4340.88
379.253	4319.88
379.478	4205.88
379.704	4337.88
379.929	4290.88
380.155	4296.88
380.38	4326.88
380.606	4354.88
380.831	4333.88
381.057	4431.88
381.282	4339.88
381.507	4331.88
381.733	4414.88
381.958	4393.88
382.184	4496.88
382.409	4505.88
382.634	4534.88
382.86	4564.88
383.085	4645.88
383.31	4646.88
383.535	4749.88
383.761	4831.88
383.986	4879.88
384.211	4922.88
384.436	5053.88
384.662	5145.88
384.887	5216.88
385.112	5153.88
385.337	5228.88
385.562	5205.88
385.787	5319.88
386.013	5290.88
386.238	5360.88
386.463	5302.88
386.688	5304.88
386.913	5183.88
387.138	5208.88
387.363	5109.88
387.588	5168.88
387.813	5249.88
388.038	5172.88
388.263	5117.88
388.488	5197.88
388.713	5161.88
388.938	5151.88
389.163	5093.88
389.387	5216.88
389.612	5048.88
389.837	5135.88
390.062	5041.88
390.287	5103.88
390.512	5062.88
390.736	5138.88
390.961	5199.88
391.186	5266.88
391.411	5466.88
391.636	5625.88
391.86	5829.88
392.085	5871.88
392.31	5729.88
392.534	5560.88
392.759	5518.88
392.984	5333.88
393.208	5354.88
393.433	5357.88
393.658	5349.88
393.882	5353.88
394.107	5424.88
394.331	5459.88
394.556	5474.88
394.78	5552.88
395.005	5505.88
395.229	5522.88
395.454	5805.88
395.678	5812.88
395.903	5749.88
396.127	5856.88
396.352	5608.88
396.576	5539.88
396.801	5443.88
397.025	5562.88
397.249	5662.88
397.474	5795.88
397.698	5861.88
397.922	6049.88
398.147	6084.88
398.371	6105.88
398.595	6286.88
398.82	6598.88
399.044	7191.88
399.268	7985.88
399.492	9039.88
399.717	9637.88
399.941	9436.88
400.165	8790.88
400.389	8067.88
400.613	7260.88
400.837	6849.88
401.062	6670.88
401.286	6593.88
401.51	6522.88
401.734	6463.88
401.958	6636.88
402.182	6742.88
402.406	6906.88
402.63	6928.88
402.854	7024.88
403.078	7113.88
403.302	7246.88
403.526	7346.88
403.75	7352.88
403.974	7529.88
404.198	7491.88
404.422	7569.88
404.645	7530.88
404.869	7521.88
405.093	7770.88
405.317	8038.88
405.541	8022.88
405.765	7488.88
405.988	7324.88
406.212	7599.88
406.436	7626.88
406.66	7753.88
406.883	7748.88
407.107	8362.88
407.331	8827.88
407.555	9379.88
407.778	8999.88
408.002	8277.88
408.226	7874.88
408.449	7771.88
408.673	7699.88
408.896	7846.88
409.12	7974.88
409.344	7587.88
409.567	7217.88
409.791	7111.88
410.014	7130.88
410.238	6962.88
410.461	7019.88
410.685	7018.88
410.908	7192.88
411.132	7350.88
411.355	7458.88
411.578	6949.88
411.802	6854.88
412.025	6802.88
412.249	7040.88
412.472	7246.88
412.695	7357.88
412.919	6987.88
413.142	6602.88
413.365	6520.88
413.589	6523.88
413.812	6407.88
414.035	6319.88
414.258	6453.88
414.482	6442.88
414.705	6521.88
414.928	6413.88
415.151	6386.88
415.374	6442.88
415.597	6350.88
415.821	6263.88
416.044	6318.88
416.267	6236.88
416.49	6243.88
416.713	6151.88
416.936	6305.88
417.159	6307.88
417.382	6450.88
417.605	6447.88
417.828	6515.88
418.051	6681.88
418.274	6537.88
418.497	6453.88
418.72	6581.88
418.943	6498.88
419.166	6906.88
419.389	7289.88
419.611	7159.88
419.834	6965.88
420.057	6895.88
420.28	6719.88
420.503	6608.88
420.726	6561.88
420.948	6715.88
421.171	7042.88
421.394	7025.88
421.617	6606.88
421.839	6591.88
422.062	6671.88
422.285	6848.88
422.507	7483.88
422.73	7985.88
422.953	7327.88
423.175	7086.88
423.398	7048.88
423.621	7048.88
423.843	7298.88
424.066	7113.88
424.288	7055.88
424.511	7333.88
424.733	7797.88
424.956	8223.88
425.178	7706.88
425.401	7923.88
425.623	7744.88
425.846	6803.88
426.068	6636.88
426.291	6661.88
426.513	6569.88
426.735	6663.88
426.958	7226.88
427.18	7943.88
427.402	9107.88
427.625	9145.88
427.847	7853.88
428.069	7167.88
428.292	6421.88
428.514	6077.88
428.736	5932.88
428.958	5958.88
429.181	5752.88
429.403	5791.88
429.625	5999.88
429.847	6381.88
430.069	6800.88
430.292	6422.88
430.514	5814.88
430.736	5861.88
430.958	5782.88
431.18	5691.88
431.402	5713.88
431.624	5645.88
431.846	5684.88
432.068	5741.88
432.29	5843.88
432.512	5789.88
432.734	5866.88
432.956	5712.88
433.178	5908.88
433.4	5837.88
433.622	5710.88
433.844	5776.88
434.066	5815.88
434.287	5885.88
434.509	6128.88
434.731	6299.88
434.953	6491.88
435.175	6591.88
435.397	6691.88
435.618	6601.88
435.84	7009.88
436.062	7845.88
436.284	7772.88
436.505	6603.88
436.727	6209.88
436.949	6101.88
437.17	5829.88
437.392	5757.88
437.614	5986.88
437.835	6412.88
438.057	7415.88
438.278	7989.88
438.5	7873.88
438.721	8649.88
438.943	7587.88
439.165	6392.88
439.386	6201.88
439.608	6247.88
439.829	6415.88
440.05	6799.88
440.272	7119.88
440.493	6489.88
440.715	6199.88
440.936	6098.88
441.158	6104.88
441.379	6323.88
441.6	6625.88
441.822	6897.88
442.043	7292.88
442.264	7987.88
442.486	7747.88
442.707	6895.88
442.928	6767.88
443.149	7005.88
443.371	7181.88
443.592	7765.88
443.813	8692.88
444.034	8647.88
444.255	7402.88
444.476	7429.88
444.698	7583.88
444.919	7591.88
445.14	7492.88
445.361	7292.88
445.582	7444.88
445.803	8029.88
446.024	8688.88
446.245	8281.88
446.466	7394.88
446.687	6415.88
446.908	6134.88
447.129	5774.88
447.35	5654.88
447.571	5766.88
447.792	5591.88
448.013	5654.88
448.234	5878.88
448.455	6518.88
448.675	7734.88
448.896	8220.88
449.117	6680.88
449.338	6931.88
449.559	8225.88
449.779	8393.88
450	6488.88
450.221	5777.88
450.442	5534.88
450.662	5477.88
450.883	5577.88
451.104	5732.88
451.324	5528.88
451.545	5366.88
451.766	5230.88
451.986	5117.88
452.207	5067.88
452.428	5112.88
452.648	5142.88
452.869	5107.88
453.089	5190.88
453.31	5288.88
453.53	5115.88
453.751	5103.88
453.971	5104.88
454.192	5269.88
454.412	5023.88
454.633	4951.88
454.853	4918.88
455.073	4927.88
455.294	5388.88
455.514	5856.88
455.734	5383.88
455.955	4853.88
456.175	4724.88
456.395	4695.88
456.616	4605.88
456.836	4700.88
457.056	4613.88
457.276	4563.88
457.497	4783.88
457.717	4741.88
457.937	4824.88
458.157	4919.88
458.377	4984.88
458.598	5309.88
458.818	6079.88
459.038	6837.88
459.258	6689.88
459.478	5960.88
459.698	5832.88
459.918	5856.88
460.138	6043.88
460.358	6272.88
460.578	6294.88
460.798	6415.88
461.018	6383.88
461.238	6298.88
461.458	6274.88
461.678	6300.88
461.898	6397.88
462.118	6409.88
462.338	6694.88
462.558	6918.88
462.777	7109.88
462.997	7784.88
463.217	8111.88
463.437	7957.88
463.657	7365.88
463.876	7087.88
464.096	7183.88
464.316	7280.88
464.536	7315.88
464.755	7025.88
464.975	6907.88
465.195	7208.88
465.414	7223.88
465.634	6301.88
465.854	5905.88
466.073	5704.88
466.293	5557.88
466.512	5313.88
466.732	5223.88
466.951	5237.88
467.171	5301.88
467.391	5275.88
467.61	5349.88
467.829	5362.88
468.049	5307.88
468.268	5194.88
468.488	5073.88
468.707	4960.88
468.927	5004.88
469.146	5050.88
469.365	5065.88
469.585	5076.88
469.804	5377.88
470.023	5417.88
470.243	5501.88
470.462	5627.88
470.681	5653.88
470.901	5649.88
471.12	5391.88
471.339	5399.88
471.558	5284.88
471.777	5250.88
471.997	5153.88
472.216	5326.88
472.435	5575.88
472.654	5283.88
472.873	5022.88
473.092	5086.88
473.311	5030.88
473.53	5101.88
473.749	5157.88
473.968	5745.88
474.187	6719.88
474.406	6189.88
474.625	5393.88
474.844	5108.88
475.063	5090.88
475.282	5111.88
475.501	5098.88
475.72	5122.88
475.939	5167.88
476.158	5191.88
476.377	5261.88
476.596	5257.88
476.814	5377.88
477.033	5433.88
477.252	5459.88
477.471	5609.88
477.69	5679.88
477.908	5786.88
478.127	6017.88
478.346	5980.88
478.564	6111.88
478.783	6159.88
479.002	6319.88
479.22	6307.88
479.439	6485.88
479.658	6573.88
479.876	6583.88
480.095	6841.88
480.313	7271.88
480.532	7140.88
480.751	7010.88
480.969	7130.88
481.188	7639.88
481.406	7395.88
481.624	6622.88
481.843	6326.88
482.061	6164.88
482.28	6046.88
482.498	6003.88
482.717	5976.88
482.935	5977.88
483.153	5911.88
483.372	5880.88
483.59	5937.88
483.808	6016.88
484.027	5936.88
484.245	6013.88
484.463	6109.88
484.681	6078.88
484.9	6109.88
485.118	6210.88
485.336	6270.88
485.554	6235.88
485.772	6282.88
485.99	6318.88
486.209	6322.88
486.427	6417.88
486.645	6466.88
486.863	6546.88
487.081	6479.88
487.299	6385.88
487.517	6415.88
487.735	6368.88
487.953	6351.88
