Data from Circ_2003_H10_HRD10591_00082.txt Node
Date: Wed Jan 03 10:37:19 EST 2024
User: Yrep
Spectrometer: HR+D1059
Trigger mode: 1
Integration Time (sec): 1.000000E-1
Scans to average: 1
Electric dark correction enabled: true
Nonlinearity correction enabled: false
Boxcar width: 0
XAxis mode: Wavelengths
Number of Pixels in Spectrum: 2048
>>>>>Begin Spectral Data<<<<<
223.165	-24.62
223.4	-24.62
223.635	-24.62
223.869	-29.62
224.104	-13.62
224.338	-1.62
224.573	-9.62
224.808	-7.62
225.042	-0.62
225.277	-10.62
225.511	0.38
225.746	-2.62
225.98	6.38
226.215	11.38
226.449	4.38
226.683	28.38
226.918	27.38
227.152	22.38
227.387	43.38
227.621	29.38
227.856	48.38
228.09	50.38
228.324	44.38
228.559	67.38
228.793	53.38
229.027	73.38
229.262	71.38
229.496	68.38
229.73	74.38
229.964	88.38
230.199	89.38
230.433	76.38
230.667	85.38
230.901	82.38
231.136	58.38
231.37	70.38
231.604	87.38
231.838	76.38
232.072	78.38
232.306	79.38
232.541	92.38
232.775	69.38
233.009	78.38
233.243	63.38
233.477	82.38
233.711	87.38
233.945	73.38
234.179	76.38
234.413	76.38
234.647	91.38
234.881	81.38
235.115	68.38
235.349	57.38
235.583	70.38
235.817	78.38
236.051	78.38
236.285	73.38
236.519	61.38
236.753	74.38
236.987	77.38
237.221	78.38
237.455	79.38
237.689	80.38
237.922	86.38
238.156	81.38
238.39	72.38
238.624	82.38
238.858	78.38
239.091	69.38
239.325	68.38
239.559	72.38
239.793	65.38
240.027	95.38
240.26	68.38
240.494	80.38
240.728	77.38
240.961	83.38
241.195	79.38
241.429	82.38
241.662	71.38
241.896	79.38
242.13	74.38
242.363	82.38
242.597	81.38
242.83	69.38
243.064	77.38
243.298	74.38
243.531	73.38
243.765	74.38
243.998	80.38
244.232	83.38
244.465	79.38
244.699	76.38
244.932	80.38
245.166	83.38
245.399	83.38
245.633	95.38
245.866	71.38
246.099	82.38
246.333	78.38
246.566	81.38
246.8	77.38
247.033	89.38
247.266	81.38
247.5	87.38
247.733	94.38
247.966	71.38
248.2	79.38
248.433	88.38
248.666	72.38
248.899	90.38
249.133	87.38
249.366	90.38
249.599	100.38
249.832	81.38
250.066	69.38
250.299	80.38
250.532	81.38
250.765	79.38
250.998	77.38
251.231	85.38
251.465	77.38
251.698	81.38
251.931	72.38
252.164	66.38
252.397	79.38
252.63	97.38
252.863	87.38
253.096	69.38
253.329	79.38
253.562	69.38
253.795	83.38
254.028	83.38
254.261	89.38
254.494	76.38
254.727	87.38
254.96	83.38
255.193	77.38
255.426	77.38
255.659	74.38
255.892	74.38
256.124	93.38
256.357	83.38
256.59	94.38
256.823	78.38
257.056	100.38
257.289	66.38
257.521	78.38
257.754	85.38
257.987	82.38
258.22	87.38
258.452	90.38
258.685	87.38
258.918	77.38
259.151	82.38
259.383	81.38
259.616	88.38
259.849	75.38
260.081	86.38
260.314	76.38
260.547	67.38
260.779	88.38
261.012	88.38
261.244	83.38
261.477	81.38
261.71	63.38
261.942	87.38
262.175	110.38
262.407	82.38
262.64	80.38
262.872	78.38
263.105	71.38
263.337	104.38
263.57	90.38
263.802	90.38
264.035	79.38
264.267	66.38
264.499	91.38
264.732	69.38
264.964	64.38
265.197	83.38
265.429	87.38
265.661	82.38
265.894	84.38
266.126	85.38
266.358	86.38
266.591	89.38
266.823	72.38
267.055	90.38
267.287	84.38
267.52	83.38
267.752	71.38
267.984	74.38
268.216	90.38
268.448	78.38
268.681	79.38
268.913	85.38
269.145	79.38
269.377	78.38
269.609	74.38
269.841	68.38
270.073	85.38
270.306	79.38
270.538	93.38
270.77	86.38
271.002	87.38
271.234	83.38
271.466	78.38
271.698	83.38
271.93	83.38
272.162	93.38
272.394	95.38
272.626	90.38
272.858	78.38
273.09	72.38
273.322	76.38
273.553	67.38
273.785	77.38
274.017	87.38
274.249	82.38
274.481	73.38
274.713	79.38
274.945	93.38
275.176	80.38
275.408	85.38
275.64	91.38
275.872	87.38
276.104	88.38
276.335	90.38
276.567	96.38
276.799	86.38
277.031	90.38
277.262	97.38
277.494	80.38
277.726	82.38
277.957	86.38
278.189	84.38
278.421	87.38
278.652	78.38
278.884	73.38
279.115	85.38
279.347	90.38
279.579	82.38
279.81	95.38
280.042	89.38
280.273	85.38
280.505	92.38
280.736	78.38
280.968	78.38
281.199	87.38
281.431	88.38
281.662	78.38
281.894	95.38
282.125	83.38
282.356	112.38
282.588	123.38
282.819	102.38
283.051	100.38
283.282	92.38
283.513	72.38
283.745	87.38
283.976	72.38
284.207	99.38
284.439	84.38
284.67	81.38
284.901	90.38
285.132	102.38
285.364	76.38
285.595	94.38
285.826	87.38
286.057	87.38
286.288	80.38
286.52	86.38
286.751	85.38
286.982	87.38
287.213	85.38
287.444	82.38
287.675	86.38
287.906	81.38
288.138	84.38
288.369	85.38
288.6	100.38
288.831	77.38
289.062	85.38
289.293	88.38
289.524	92.38
289.755	85.38
289.986	82.38
290.217	95.38
290.448	85.38
290.679	88.38
290.91	97.38
291.141	90.38
291.371	81.38
291.602	90.38
291.833	73.38
292.064	72.38
292.295	92.38
292.526	60.38
292.757	81.38
292.987	92.38
293.218	78.38
293.449	87.38
293.68	89.38
293.91	79.38
294.141	83.38
294.372	84.38
294.603	85.38
294.833	70.38
295.064	93.38
295.295	92.38
295.525	84.38
295.756	96.38
295.987	105.38
296.217	125.38
296.448	124.38
296.679	87.38
296.909	87.38
297.14	95.38
297.37	84.38
297.601	83.38
297.831	90.38
298.062	88.38
298.292	83.38
298.523	88.38
298.753	89.38
298.984	81.38
299.214	80.38
299.445	91.38
299.675	88.38
299.905	93.38
300.136	80.38
300.366	84.38
300.597	91.38
300.827	85.38
301.057	107.38
301.288	92.38
301.518	96.38
301.748	84.38
301.979	101.38
302.209	84.38
302.439	94.38
302.669	100.38
302.9	82.38
303.13	96.38
303.36	90.38
303.59	107.38
303.82	99.38
304.051	88.38
304.281	98.38
304.511	87.38
304.741	86.38
304.971	95.38
305.201	96.38
305.431	83.38
305.661	86.38
305.891	94.38
306.121	89.38
306.352	104.38
306.582	116.38
306.812	81.38
307.042	98.38
307.272	90.38
307.502	105.38
307.731	105.38
307.961	90.38
308.191	88.38
308.421	77.38
308.651	82.38
308.881	90.38
309.111	98.38
309.341	101.38
309.571	102.38
309.8	101.38
310.03	91.38
310.26	96.38
310.49	104.38
310.72	92.38
310.949	98.38
311.179	96.38
311.409	86.38
311.639	97.38
311.868	79.38
312.098	89.38
312.328	99.38
312.557	104.38
312.787	99.38
313.017	95.38
313.246	98.38
313.476	78.38
313.706	81.38
313.935	97.38
314.165	97.38
314.394	111.38
314.624	95.38
314.853	95.38
315.083	98.38
315.312	93.38
315.542	95.38
315.771	89.38
316.001	92.38
316.23	90.38
316.46	97.38
316.689	86.38
316.919	93.38
317.148	89.38
317.377	91.38
317.607	93.38
317.836	87.38
318.065	92.38
318.295	94.38
318.524	81.38
318.753	85.38
318.983	96.38
319.212	85.38
319.441	99.38
319.67	99.38
319.9	93.38
320.129	88.38
320.358	104.38
320.587	88.38
320.816	82.38
321.046	88.38
321.275	88.38
321.504	95.38
321.733	90.38
321.962	93.38
322.191	103.38
322.42	101.38
322.649	106.38
322.878	91.38
323.108	116.38
323.337	117.38
323.566	135.38
323.795	138.38
324.024	192.38
324.253	357.38
324.482	764.38
324.71	1556.38
324.939	2043.38
325.168	740.38
325.397	227.38
325.626	134.38
325.855	137.38
326.084	128.38
326.313	120.38
326.542	153.38
326.77	216.38
326.999	429.38
327.228	871.38
327.457	1558.38
327.686	1252.38
327.914	352.38
328.143	180.38
328.372	151.38
328.6	117.38
328.829	117.38
329.058	115.38
329.287	114.38
329.515	117.38
329.744	110.38
329.972	127.38
330.201	146.38
330.43	168.38
330.658	135.38
330.887	124.38
331.115	107.38
331.344	99.38
331.572	98.38
331.801	106.38
332.03	87.38
332.258	109.38
332.486	90.38
332.715	97.38
332.943	98.38
333.172	91.38
333.4	105.38
333.629	102.38
333.857	115.38
334.085	118.38
334.314	137.38
334.542	204.38
334.771	183.38
334.999	107.38
335.227	91.38
335.455	82.38
335.684	90.38
335.912	94.38
336.14	103.38
336.369	104.38
336.597	80.38
336.825	100.38
337.053	86.38
337.281	80.38
337.51	83.38
337.738	97.38
337.966	87.38
338.194	89.38
338.422	101.38
338.65	92.38
338.878	95.38
339.106	95.38
339.334	91.38
339.562	90.38
339.79	95.38
340.018	84.38
340.246	92.38
340.474	76.38
340.702	86.38
340.93	85.38
341.158	87.38
341.386	102.38
341.614	85.38
341.842	103.38
342.07	83.38
342.298	83.38
342.526	93.38
342.754	105.38
342.981	97.38
343.209	81.38
343.437	91.38
343.665	91.38
343.893	97.38
344.12	96.38
344.348	85.38
344.576	91.38
344.804	89.38
345.031	108.38
345.259	94.38
345.487	106.38
345.714	90.38
345.942	75.38
346.17	95.38
346.397	104.38
346.625	86.38
346.853	82.38
347.08	90.38
347.308	97.38
347.535	88.38
347.763	108.38
347.99	96.38
348.218	94.38
348.445	102.38
348.673	95.38
348.9	91.38
349.128	97.38
349.355	99.38
349.583	94.38
349.81	95.38
350.037	91.38
350.265	103.38
350.492	91.38
350.72	94.38
350.947	100.38
351.174	92.38
351.402	105.38
351.629	115.38
351.856	102.38
352.083	99.38
352.311	99.38
352.538	111.38
352.765	99.38
352.992	97.38
353.22	97.38
353.447	103.38
353.674	94.38
353.901	81.38
354.128	97.38
354.355	97.38
354.583	110.38
354.81	96.38
355.037	89.38
355.264	89.38
355.491	93.38
355.718	92.38
355.945	110.38
356.172	90.38
356.399	87.38
356.626	95.38
356.853	82.38
357.08	94.38
357.307	92.38
357.534	97.38
357.761	90.38
357.988	94.38
358.215	101.38
358.441	98.38
358.668	84.38
358.895	94.38
359.122	71.38
359.349	90.38
359.576	87.38
359.802	79.38
360.029	89.38
360.256	105.38
360.483	103.38
360.709	90.38
360.936	91.38
361.163	89.38
361.39	90.38
361.616	93.38
361.843	68.38
362.07	84.38
362.296	82.38
362.523	97.38
362.749	76.38
362.976	79.38
363.203	97.38
363.429	87.38
363.656	82.38
363.882	101.38
364.109	86.38
364.335	83.38
364.562	101.38
364.788	72.38
365.015	89.38
365.241	96.38
365.468	106.38
365.694	93.38
365.92	93.38
366.147	107.38
366.373	96.38
366.599	93.38
366.826	81.38
367.052	97.38
367.278	102.38
367.505	85.38
367.731	100.38
367.957	84.38
368.184	93.38
368.41	107.38
368.636	89.38
368.862	110.38
369.089	92.38
369.315	78.38
369.541	77.38
369.767	78.38
369.993	79.38
370.219	94.38
370.445	80.38
370.672	80.38
370.898	89.38
371.124	90.38
371.35	90.38
371.576	89.38
371.802	82.38
372.028	102.38
372.254	85.38
372.48	74.38
372.706	77.38
372.932	68.38
373.158	84.38
373.384	85.38
373.61	89.38
373.835	86.38
374.061	93.38
374.287	79.38
374.513	100.38
374.739	72.38
374.965	81.38
375.191	92.38
375.416	87.38
375.642	84.38
375.868	80.38
376.094	80.38
376.319	92.38
376.545	78.38
376.771	84.38
376.997	85.38
377.222	82.38
377.448	79.38
377.674	89.38
377.899	94.38
378.125	94.38
378.35	94.38
378.576	82.38
378.802	73.38
379.027	90.38
379.253	102.38
379.478	80.38
379.704	88.38
379.929	98.38
380.155	103.38
380.38	83.38
380.606	105.38
380.831	97.38
381.057	85.38
381.282	96.38
381.507	90.38
381.733	87.38
381.958	95.38
382.184	101.38
382.409	105.38
382.634	97.38
382.86	99.38
383.085	100.38
383.31	87.38
383.535	99.38
383.761	99.38
383.986	97.38
384.211	97.38
384.436	102.38
384.662	80.38
384.887	86.38
385.112	113.38
385.337	86.38
385.562	100.38
385.787	106.38
386.013	100.38
386.238	114.38
386.463	102.38
386.688	104.38
386.913	101.38
387.138	109.38
387.363	102.38
387.588	100.38
387.813	90.38
388.038	99.38
388.263	95.38
388.488	112.38
388.713	98.38
388.938	103.38
389.163	98.38
389.387	91.38
389.612	93.38
389.837	96.38
390.062	99.38
390.287	90.38
390.512	100.38
390.736	92.38
390.961	81.38
391.186	87.38
391.411	105.38
391.636	97.38
391.86	87.38
392.085	94.38
392.31	87.38
392.534	87.38
392.759	86.38
392.984	73.38
393.208	94.38
393.433	90.38
393.658	90.38
393.882	84.38
394.107	88.38
394.331	95.38
394.556	98.38
394.78	76.38
395.005	87.38
395.229	93.38
395.454	100.38
395.678	80.38
395.903	96.38
396.127	77.38
396.352	76.38
396.576	93.38
396.801	82.38
397.025	88.38
397.249	91.38
397.474	85.38
397.698	71.38
397.922	89.38
398.147	76.38
398.371	76.38
398.595	78.38
398.82	86.38
399.044	82.38
399.268	80.38
399.492	87.38
399.717	89.38
399.941	90.38
400.165	96.38
400.389	84.38
400.613	53.38
400.837	89.38
401.062	90.38
401.286	78.38
401.51	81.38
401.734	88.38
401.958	99.38
402.182	102.38
402.406	153.38
402.63	102.38
402.854	84.38
403.078	82.38
403.302	96.38
403.526	68.38
403.75	90.38
403.974	84.38
404.198	97.38
404.422	94.38
404.645	92.38
404.869	85.38
405.093	96.38
405.317	95.38
405.541	88.38
405.765	94.38
405.988	101.38
406.212	141.38
406.436	202.38
406.66	148.38
406.883	100.38
407.107	78.38
407.331	90.38
407.555	103.38
407.778	79.38
408.002	87.38
408.226	88.38
408.449	78.38
408.673	82.38
408.896	91.38
409.12	79.38
409.344	89.38
409.567	95.38
409.791	96.38
410.014	90.38
410.238	92.38
410.461	75.38
410.685	97.38
410.908	96.38
411.132	118.38
411.355	93.38
411.578	95.38
411.802	90.38
412.025	88.38
412.249	85.38
412.472	100.38
412.695	92.38
412.919	98.38
413.142	88.38
413.365	96.38
413.589	88.38
413.812	87.38
414.035	82.38
414.258	80.38
414.482	82.38
414.705	85.38
414.928	80.38
415.151	95.38
415.374	89.38
415.597	80.38
415.821	93.38
416.044	93.38
416.267	101.38
416.49	88.38
416.713	94.38
416.936	85.38
417.159	84.38
417.382	76.38
417.605	78.38
417.828	99.38
418.051	91.38
418.274	83.38
418.497	82.38
418.72	74.38
418.943	91.38
419.166	87.38
419.389	100.38
419.611	80.38
419.834	80.38
420.057	86.38
420.28	93.38
420.503	87.38
420.726	78.38
420.948	86.38
421.171	89.38
421.394	86.38
421.617	77.38
421.839	87.38
422.062	86.38
422.285	95.38
422.507	90.38
422.73	100.38
422.953	87.38
423.175	88.38
423.398	100.38
423.621	85.38
423.843	83.38
424.066	75.38
424.288	82.38
424.511	96.38
424.733	99.38
424.956	94.38
425.178	93.38
425.401	88.38
425.623	103.38
425.846	97.38
426.068	99.38
426.291	92.38
426.513	94.38
426.735	85.38
426.958	96.38
427.18	101.38
427.402	121.38
427.625	144.38
427.847	136.38
428.069	119.38
428.292	86.38
428.514	78.38
428.736	86.38
428.958	79.38
429.181	86.38
429.403	95.38
429.625	82.38
429.847	93.38
430.069	89.38
430.292	97.38
430.514	73.38
430.736	84.38
430.958	88.38
431.18	84.38
431.402	96.38
431.624	84.38
431.846	73.38
432.068	72.38
432.29	77.38
432.512	88.38
432.734	89.38
432.956	78.38
433.178	90.38
433.4	94.38
433.622	89.38
433.844	82.38
434.066	91.38
434.287	89.38
434.509	78.38
434.731	89.38
434.953	76.38
435.175	87.38
435.397	101.38
435.618	83.38
435.84	92.38
436.062	97.38
436.284	101.38
436.505	99.38
436.727	107.38
436.949	87.38
437.17	90.38
437.392	76.38
437.614	94.38
437.835	95.38
438.057	89.38
438.278	113.38
438.5	100.38
438.721	108.38
438.943	103.38
439.165	90.38
439.386	94.38
439.608	86.38
439.829	91.38
440.05	108.38
440.272	143.38
440.493	88.38
440.715	71.38
440.936	76.38
441.158	77.38
441.379	69.38
441.6	92.38
441.822	89.38
442.043	85.38
442.264	89.38
442.486	95.38
442.707	80.38
442.928	98.38
443.149	129.38
443.371	114.38
443.592	94.38
443.813	105.38
444.034	101.38
444.255	89.38
444.476	75.38
444.698	80.38
444.919	87.38
445.14	120.38
445.361	114.38
445.582	89.38
445.803	108.38
446.024	118.38
446.245	105.38
446.466	96.38
446.687	86.38
446.908	90.38
447.129	85.38
447.35	76.38
447.571	92.38
447.792	83.38
448.013	87.38
448.234	81.38
448.455	97.38
448.675	95.38
448.896	112.38
449.117	93.38
449.338	95.38
449.559	108.38
449.779	121.38
450	103.38
450.221	87.38
450.442	99.38
450.662	99.38
450.883	87.38
451.104	107.38
451.324	85.38
451.545	73.38
451.766	81.38
451.986	110.38
452.207	88.38
452.428	82.38
452.648	88.38
452.869	99.38
453.089	112.38
453.31	95.38
453.53	88.38
453.751	77.38
453.971	85.38
454.192	93.38
454.412	87.38
454.633	87.38
454.853	70.38
455.073	76.38
455.294	86.38
455.514	91.38
455.734	76.38
455.955	87.38
456.175	85.38
456.395	84.38
456.616	87.38
456.836	85.38
457.056	83.38
457.276	84.38
457.497	80.38
457.717	88.38
457.937	76.38
458.157	86.38
458.377	84.38
458.598	101.38
458.818	124.38
459.038	124.38
459.258	106.38
459.478	89.38
459.698	74.38
459.918	95.38
460.138	86.38
460.358	83.38
460.578	79.38
460.798	87.38
461.018	89.38
461.238	78.38
461.458	81.38
461.678	94.38
461.898	73.38
462.118	82.38
462.338	65.38
462.558	102.38
462.777	78.38
462.997	72.38
463.217	85.38
463.437	86.38
463.657	84.38
463.876	88.38
464.096	81.38
464.316	95.38
464.536	106.38
464.755	102.38
464.975	107.38
465.195	136.38
465.414	149.38
465.634	94.38
465.854	87.38
466.073	89.38
466.293	81.38
466.512	84.38
466.732	95.38
466.951	74.38
467.171	88.38
467.391	88.38
467.61	99.38
467.829	99.38
468.049	106.38
468.268	128.38
468.488	89.38
468.707	92.38
468.927	71.38
469.146	87.38
469.365	94.38
469.585	85.38
469.804	87.38
470.023	98.38
470.243	80.38
470.462	101.38
470.681	116.38
470.901	94.38
471.12	96.38
471.339	84.38
471.558	84.38
471.777	89.38
471.997	89.38
472.216	141.38
472.435	242.38
472.654	130.38
472.873	91.38
473.092	76.38
473.311	94.38
473.53	85.38
473.749	83.38
473.968	104.38
474.187	91.38
474.406	92.38
474.625	91.38
474.844	90.38
475.063	94.38
475.282	88.38
475.501	86.38
475.72	90.38
475.939	89.38
476.158	86.38
476.377	89.38
476.596	90.38
476.814	101.38
477.033	95.38
477.252	86.38
477.471	82.38
477.69	77.38
477.908	98.38
478.127	89.38
478.346	85.38
478.564	92.38
478.783	89.38
479.002	70.38
479.22	82.38
479.439	80.38
479.658	95.38
479.876	90.38
480.095	82.38
480.313	74.38
480.532	100.38
480.751	106.38
480.969	138.38
481.188	360.38
481.406	229.38
481.624	105.38
481.843	89.38
482.061	77.38
482.28	84.38
482.498	94.38
482.717	85.38
482.935	94.38
483.153	76.38
483.372	96.38
483.59	86.38
483.808	92.38
484.027	92.38
484.245	85.38
484.463	90.38
484.681	98.38
484.9	97.38
485.118	82.38
485.336	96.38
485.554	107.38
485.772	111.38
485.99	94.38
486.209	104.38
486.427	95.38
486.645	105.38
486.863	112.38
487.081	105.38
487.299	85.38
487.517	99.38
487.735	85.38
487.953	89.38
488.171	101.38
488.389	88.38
488.607	97.38
488.825	87.38
489.043	94.38
489.261	95.38
489.479	89.38
489.696	86.38
489.914	86.38
490.132	89.38
490.35	90.38
490.568	84.38
490.786	90.38
491.003	93.38
491.221	92.38
491.439	81.38
491.657	83.38
491.874	98.38
492.092	76.38
492.31	90.38
492.527	93.38
492.745	86.38
492.963	78.38
493.18	103.38
493.398	95.38
493.615	91.38
493.833	84.38
494.05	93.38
494.268	89.38
494.485	89.38
494.703	87.38
494.92	97.38
495.138	88.38
495.355	90.38
495.573	89.38
495.79	84.38
496.008	90.38
496.225	82.38
496.442	82.38
496.66	93.38
496.877	84.38
497.094	88.38
497.312	105.38
497.529	87.38
497.746	80.38
497.963	91.38
498.181	81.38
498.398	102.38
498.615	109.38
498.832	93.38
499.049	87.38
499.267	82.38
499.484	88.38
499.701	77.38
499.918	88.38
500.135	83.38
500.352	92.38
500.569	90.38
500.786	99.38
501.003	97.38
501.22	89.38
501.437	89.38
501.654	88.38
501.871	84.38
502.088	93.38
502.305	94.38
502.522	79.38
502.739	90.38
502.956	94.38
503.172	85.38
503.389	102.38
503.606	88.38
503.823	88.38
504.04	94.38
504.256	96.38
504.473	96.38
504.69	89.38
504.907	91.38
505.123	84.38
505.34	74.38
505.557	93.38
505.773	87.38
505.99	86.38
506.207	90.38
506.423	82.38
506.64	96.38
506.856	96.38
507.073	76.38
507.289	84.38
507.506	91.38
507.722	112.38
507.939	102.38
508.155	89.38
508.372	94.38
508.588	93.38
508.805	85.38
509.021	90.38
509.238	93.38
509.454	100.38
509.67	105.38
509.887	103.38
510.103	126.38
510.319	190.38
510.536	697.38
510.752	2156.38
510.968	616.38
511.184	144.38
511.401	92.38
511.617	89.38
511.833	96.38
512.049	93.38
512.265	97.38
512.481	106.38
512.698	89.38
512.914	85.38
513.13	96.38
513.346	98.38
513.562	87.38
513.778	90.38
513.994	89.38
514.21	109.38
514.426	104.38
514.642	121.38
514.858	99.38
515.074	134.38
515.29	384.38
515.506	1194.38
515.721	477.38
515.937	146.38
516.153	112.38
516.369	96.38
516.585	103.38
516.801	80.38
