Data from Circ_2003_H10_HRD10591_00046.txt Node
Date: Wed Jan 03 10:37:11 EST 2024
User: Yrep
Spectrometer: HR+D1059
Trigger mode: 1
Integration Time (sec): 1.000000E-1
Scans to average: 1
Electric dark correction enabled: true
Nonlinearity correction enabled: false
Boxcar width: 0
XAxis mode: Wavelengths
Number of Pixels in Spectrum: 2048
>>>>>Begin Spectral Data<<<<<
223.165	-8.31
223.4	-8.31
223.635	-8.31
223.869	-22.31
224.104	-21.31
224.338	1.69
224.573	-20.31
224.808	-10.31
225.042	-8.31
225.277	-12.31
225.511	1.69
225.746	13.69
225.98	10.69
226.215	11.69
226.449	10.69
226.683	15.69
226.918	9.69
227.152	27.69
227.387	31.69
227.621	33.69
227.856	38.69
228.09	49.69
228.324	57.69
228.559	66.69
228.793	47.69
229.027	69.69
229.262	59.69
229.496	67.69
229.73	71.69
229.964	79.69
230.199	76.69
230.433	67.69
230.667	59.69
230.901	71.69
231.136	84.69
231.37	85.69
231.604	86.69
231.838	69.69
232.072	70.69
232.306	82.69
232.541	87.69
232.775	88.69
233.009	83.69
233.243	75.69
233.477	81.69
233.711	73.69
233.945	86.69
234.179	77.69
234.413	75.69
234.647	81.69
234.881	85.69
235.115	57.69
235.349	79.69
235.583	65.69
235.817	76.69
236.051	77.69
236.285	73.69
236.519	61.69
236.753	75.69
236.987	70.69
237.221	67.69
237.455	84.69
237.689	71.69
237.922	72.69
238.156	69.69
238.39	60.69
238.624	71.69
238.858	75.69
239.091	67.69
239.325	70.69
239.559	69.69
239.793	76.69
240.027	84.69
240.26	83.69
240.494	75.69
240.728	67.69
240.961	80.69
241.195	74.69
241.429	79.69
241.662	70.69
241.896	74.69
242.13	55.69
242.363	49.69
242.597	78.69
242.83	82.69
243.064	72.69
243.298	83.69
243.531	68.69
243.765	77.69
243.998	67.69
244.232	86.69
244.465	86.69
244.699	60.69
244.932	72.69
245.166	84.69
245.399	67.69
245.633	74.69
245.866	67.69
246.099	69.69
246.333	57.69
246.566	69.69
246.8	66.69
247.033	84.69
247.266	71.69
247.5	64.69
247.733	81.69
247.966	63.69
248.2	92.69
248.433	86.69
248.666	76.69
248.899	82.69
249.133	80.69
249.366	86.69
249.599	103.69
249.832	82.69
250.066	74.69
250.299	74.69
250.532	82.69
250.765	77.69
250.998	69.69
251.231	82.69
251.465	78.69
251.698	71.69
251.931	77.69
252.164	71.69
252.397	79.69
252.63	75.69
252.863	82.69
253.096	77.69
253.329	80.69
253.562	73.69
253.795	75.69
254.028	81.69
254.261	79.69
254.494	76.69
254.727	82.69
254.96	71.69
255.193	72.69
255.426	75.69
255.659	65.69
255.892	84.69
256.124	84.69
256.357	83.69
256.59	96.69
256.823	79.69
257.056	78.69
257.289	67.69
257.521	94.69
257.754	79.69
257.987	80.69
258.22	76.69
258.452	79.69
258.685	77.69
258.918	95.69
259.151	79.69
259.383	71.69
259.616	73.69
259.849	76.69
260.081	79.69
260.314	79.69
260.547	75.69
260.779	69.69
261.012	73.69
261.244	89.69
261.477	87.69
261.71	80.69
261.942	85.69
262.175	108.69
262.407	80.69
262.64	86.69
262.872	67.69
263.105	78.69
263.337	83.69
263.57	65.69
263.802	72.69
264.035	85.69
264.267	88.69
264.499	88.69
264.732	88.69
264.964	81.69
265.197	83.69
265.429	67.69
265.661	83.69
265.894	63.69
266.126	85.69
266.358	83.69
266.591	92.69
266.823	81.69
267.055	77.69
267.287	79.69
267.52	68.69
267.752	74.69
267.984	79.69
268.216	84.69
268.448	80.69
268.681	87.69
268.913	92.69
269.145	69.69
269.377	80.69
269.609	91.69
269.841	83.69
270.073	80.69
270.306	85.69
270.538	90.69
270.77	79.69
271.002	75.69
271.234	82.69
271.466	88.69
271.698	84.69
271.93	73.69
272.162	77.69
272.394	80.69
272.626	79.69
272.858	79.69
273.09	81.69
273.322	76.69
273.553	85.69
273.785	76.69
274.017	73.69
274.249	83.69
274.481	87.69
274.713	81.69
274.945	75.69
275.176	87.69
275.408	86.69
275.64	77.69
275.872	85.69
276.104	95.69
276.335	92.69
276.567	105.69
276.799	94.69
277.031	98.69
277.262	95.69
277.494	75.69
277.726	77.69
277.957	67.69
278.189	72.69
278.421	82.69
278.652	88.69
278.884	83.69
279.115	80.69
279.347	91.69
279.579	88.69
279.81	91.69
280.042	91.69
280.273	75.69
280.505	89.69
280.736	70.69
280.968	86.69
281.199	88.69
281.431	99.69
281.662	89.69
281.894	85.69
282.125	77.69
282.356	108.69
282.588	133.69
282.819	112.69
283.051	82.69
283.282	93.69
283.513	83.69
283.745	85.69
283.976	76.69
284.207	70.69
284.439	86.69
284.67	103.69
284.901	95.69
285.132	79.69
285.364	86.69
285.595	80.69
285.826	97.69
286.057	97.69
286.288	101.69
286.52	77.69
286.751	86.69
286.982	90.69
287.213	87.69
287.444	95.69
287.675	84.69
287.906	94.69
288.138	75.69
288.369	95.69
288.6	97.69
288.831	88.69
289.062	84.69
289.293	88.69
289.524	89.69
289.755	76.69
289.986	82.69
290.217	87.69
290.448	69.69
290.679	86.69
290.91	82.69
291.141	80.69
291.371	90.69
291.602	70.69
291.833	72.69
292.064	88.69
292.295	95.69
292.526	95.69
292.757	82.69
292.987	93.69
293.218	73.69
293.449	89.69
293.68	97.69
293.91	86.69
294.141	83.69
294.372	82.69
294.603	78.69
294.833	71.69
295.064	80.69
295.295	81.69
295.525	77.69
295.756	88.69
295.987	104.69
296.217	136.69
296.448	129.69
296.679	96.69
296.909	86.69
297.14	96.69
297.37	91.69
297.601	82.69
297.831	80.69
298.062	95.69
298.292	92.69
298.523	83.69
298.753	83.69
298.984	75.69
299.214	82.69
299.445	89.69
299.675	72.69
299.905	86.69
300.136	81.69
300.366	98.69
300.597	89.69
300.827	80.69
301.057	95.69
301.288	99.69
301.518	87.69
301.748	78.69
301.979	83.69
302.209	91.69
302.439	92.69
302.669	84.69
302.9	82.69
303.13	88.69
303.36	86.69
303.59	100.69
303.82	94.69
304.051	86.69
304.281	87.69
304.511	87.69
304.741	87.69
304.971	84.69
305.201	79.69
305.431	80.69
305.661	87.69
305.891	83.69
306.121	98.69
306.352	103.69
306.582	97.69
306.812	81.69
307.042	92.69
307.272	90.69
307.502	79.69
307.731	73.69
307.961	85.69
308.191	90.69
308.421	93.69
308.651	89.69
308.881	94.69
309.111	95.69
309.341	107.69
309.571	107.69
309.8	90.69
310.03	93.69
310.26	86.69
310.49	98.69
310.72	87.69
310.949	97.69
311.179	108.69
311.409	95.69
311.639	87.69
311.868	86.69
312.098	98.69
312.328	90.69
312.557	85.69
312.787	89.69
313.017	97.69
313.246	88.69
313.476	86.69
313.706	83.69
313.935	87.69
314.165	96.69
314.394	94.69
314.624	100.69
314.853	92.69
315.083	97.69
315.312	84.69
315.542	92.69
315.771	85.69
316.001	89.69
316.23	72.69
316.46	90.69
316.689	104.69
316.919	90.69
317.148	87.69
317.377	90.69
317.607	83.69
317.836	73.69
318.065	80.69
318.295	88.69
318.524	78.69
318.753	83.69
318.983	95.69
319.212	92.69
319.441	99.69
319.67	87.69
319.9	97.69
320.129	96.69
320.358	81.69
320.587	89.69
320.816	89.69
321.046	108.69
321.275	104.69
321.504	101.69
321.733	101.69
321.962	105.69
322.191	94.69
322.42	98.69
322.649	112.69
322.878	101.69
323.108	131.69
323.337	108.69
323.566	112.69
323.795	144.69
324.024	202.69
324.253	407.69
324.482	836.69
324.71	1744.69
324.939	2265.69
325.168	803.69
325.397	254.69
325.626	148.69
325.855	130.69
326.084	140.69
326.313	129.69
326.542	129.69
326.77	237.69
326.999	464.69
327.228	974.69
327.457	1764.69
327.686	1382.69
327.914	387.69
328.143	196.69
328.372	152.69
328.6	110.69
328.829	102.69
329.058	118.69
329.287	131.69
329.515	111.69
329.744	99.69
329.972	86.69
330.201	109.69
330.43	132.69
330.658	135.69
330.887	141.69
331.115	106.69
331.344	78.69
331.572	95.69
331.801	91.69
332.03	93.69
332.258	92.69
332.486	80.69
332.715	76.69
332.943	95.69
333.172	111.69
333.4	85.69
333.629	109.69
333.857	115.69
334.085	98.69
334.314	111.69
334.542	116.69
334.771	126.69
334.999	104.69
335.227	88.69
335.455	100.69
335.684	110.69
335.912	90.69
336.14	89.69
336.369	97.69
336.597	103.69
336.825	88.69
337.053	93.69
337.281	81.69
337.51	76.69
337.738	96.69
337.966	90.69
338.194	88.69
338.422	88.69
338.65	85.69
338.878	90.69
339.106	101.69
339.334	100.69
339.562	82.69
339.79	77.69
340.018	99.69
340.246	97.69
340.474	93.69
340.702	83.69
340.93	99.69
341.158	89.69
341.386	76.69
341.614	87.69
341.842	93.69
342.07	91.69
342.298	95.69
342.526	84.69
342.754	85.69
342.981	91.69
343.209	85.69
343.437	101.69
343.665	93.69
343.893	84.69
344.12	99.69
344.348	86.69
344.576	95.69
344.804	80.69
345.031	87.69
345.259	86.69
345.487	87.69
345.714	80.69
345.942	84.69
346.17	83.69
346.397	74.69
346.625	98.69
346.853	93.69
347.08	86.69
347.308	91.69
347.535	95.69
347.763	102.69
347.99	84.69
348.218	92.69
348.445	104.69
348.673	91.69
348.9	82.69
349.128	108.69
349.355	93.69
349.583	96.69
349.81	95.69
350.037	103.69
350.265	87.69
350.492	89.69
350.72	95.69
350.947	93.69
351.174	99.69
351.402	105.69
351.629	97.69
351.856	95.69
352.083	79.69
352.311	102.69
352.538	102.69
352.765	104.69
352.992	92.69
353.22	112.69
353.447	98.69
353.674	97.69
353.901	99.69
354.128	101.69
354.355	82.69
354.583	90.69
354.81	88.69
355.037	93.69
355.264	96.69
355.491	99.69
355.718	93.69
355.945	92.69
356.172	84.69
356.399	85.69
356.626	88.69
356.853	92.69
357.08	85.69
357.307	93.69
357.534	82.69
357.761	87.69
357.988	85.69
358.215	94.69
358.441	90.69
358.668	86.69
358.895	85.69
359.122	88.69
359.349	79.69
359.576	84.69
359.802	97.69
360.029	99.69
360.256	110.69
360.483	101.69
360.709	95.69
360.936	100.69
361.163	89.69
361.39	92.69
361.616	85.69
361.843	91.69
362.07	86.69
362.296	93.69
362.523	93.69
362.749	87.69
362.976	81.69
363.203	93.69
363.429	81.69
363.656	92.69
363.882	88.69
364.109	87.69
364.335	96.69
364.562	79.69
364.788	93.69
365.015	91.69
365.241	96.69
365.468	110.69
365.694	92.69
365.92	95.69
366.147	100.69
366.373	75.69
366.599	83.69
366.826	87.69
367.052	91.69
367.278	97.69
367.505	87.69
367.731	99.69
367.957	88.69
368.184	100.69
368.41	92.69
368.636	115.69
368.862	114.69
369.089	106.69
369.315	84.69
369.541	81.69
369.767	83.69
369.993	86.69
370.219	88.69
370.445	93.69
370.672	86.69
370.898	76.69
371.124	79.69
371.35	100.69
371.576	82.69
371.802	80.69
372.028	80.69
372.254	85.69
372.48	99.69
372.706	100.69
372.932	90.69
373.158	84.69
373.384	84.69
373.61	92.69
373.835	81.69
374.061	85.69
374.287	84.69
374.513	83.69
374.739	91.69
374.965	84.69
375.191	93.69
375.416	106.69
375.642	102.69
375.868	103.69
376.094	96.69
376.319	86.69
376.545	87.69
376.771	80.69
376.997	78.69
377.222	85.69
377.448	93.69
377.674	92.69
377.899	87.69
378.125	87.69
378.35	88.69
378.576	100.69
378.802	92.69
379.027	78.69
379.253	97.69
379.478	100.69
379.704	81.69
379.929	102.69
380.155	90.69
380.38	91.69
380.606	80.69
380.831	84.69
381.057	100.69
381.282	77.69
381.507	104.69
381.733	94.69
381.958	89.69
382.184	100.69
382.409	99.69
382.634	86.69
382.86	93.69
383.085	104.69
383.31	97.69
383.535	100.69
383.761	104.69
383.986	95.69
384.211	92.69
384.436	115.69
384.662	107.69
384.887	102.69
385.112	117.69
385.337	108.69
385.562	102.69
385.787	97.69
386.013	118.69
386.238	126.69
386.463	113.69
386.688	117.69
386.913	105.69
387.138	96.69
387.363	95.69
387.588	92.69
387.813	98.69
388.038	107.69
388.263	107.69
388.488	114.69
388.713	96.69
388.938	105.69
389.163	102.69
389.387	77.69
389.612	89.69
389.837	90.69
390.062	102.69
390.287	97.69
390.512	96.69
390.736	93.69
390.961	95.69
391.186	84.69
391.411	98.69
391.636	94.69
391.86	88.69
392.085	72.69
392.31	94.69
392.534	88.69
392.759	85.69
392.984	80.69
393.208	92.69
393.433	93.69
393.658	92.69
393.882	87.69
394.107	78.69
394.331	77.69
394.556	83.69
394.78	88.69
395.005	87.69
395.229	77.69
395.454	83.69
395.678	84.69
395.903	74.69
396.127	84.69
396.352	99.69
396.576	83.69
396.801	74.69
397.025	86.69
397.249	79.69
397.474	93.69
397.698	84.69
397.922	90.69
398.147	97.69
398.371	83.69
398.595	83.69
398.82	95.69
399.044	92.69
399.268	91.69
399.492	80.69
399.717	87.69
399.941	87.69
400.165	94.69
400.389	74.69
400.613	88.69
400.837	90.69
401.062	82.69
401.286	84.69
401.51	89.69
401.734	98.69
401.958	106.69
402.182	116.69
402.406	150.69
402.63	121.69
402.854	101.69
403.078	96.69
403.302	79.69
403.526	103.69
403.75	86.69
403.974	79.69
404.198	72.69
404.422	99.69
404.645	93.69
404.869	86.69
405.093	106.69
405.317	98.69
405.541	90.69
405.765	92.69
405.988	125.69
406.212	165.69
406.436	229.69
406.66	133.69
406.883	90.69
407.107	89.69
407.331	97.69
407.555	97.69
407.778	92.69
408.002	85.69
408.226	95.69
408.449	73.69
408.673	93.69
408.896	86.69
409.12	103.69
409.344	110.69
409.567	82.69
409.791	80.69
410.014	92.69
410.238	91.69
410.461	70.69
410.685	100.69
410.908	108.69
411.132	102.69
411.355	101.69
411.578	81.69
411.802	78.69
412.025	76.69
412.249	92.69
412.472	88.69
412.695	102.69
412.919	93.69
413.142	86.69
413.365	81.69
413.589	86.69
413.812	74.69
414.035	90.69
414.258	86.69
414.482	88.69
414.705	104.69
414.928	84.69
415.151	92.69
415.374	82.69
415.597	84.69
415.821	94.69
416.044	86.69
416.267	69.69
416.49	89.69
416.713	81.69
416.936	74.69
417.159	70.69
417.382	75.69
417.605	79.69
417.828	95.69
418.051	90.69
418.274	89.69
418.497	84.69
418.72	78.69
418.943	87.69
419.166	89.69
419.389	73.69
419.611	89.69
419.834	99.69
420.057	83.69
420.28	84.69
420.503	86.69
420.726	90.69
420.948	86.69
421.171	78.69
421.394	85.69
421.617	90.69
421.839	85.69
422.062	89.69
422.285	85.69
422.507	100.69
422.73	97.69
422.953	94.69
423.175	87.69
423.398	86.69
423.621	87.69
423.843	94.69
424.066	91.69
424.288	92.69
424.511	79.69
424.733	91.69
424.956	94.69
425.178	83.69
425.401	99.69
425.623	94.69
425.846	96.69
426.068	80.69
426.291	103.69
426.513	82.69
426.735	88.69
426.958	88.69
427.18	94.69
427.402	136.69
427.625	162.69
427.847	125.69
428.069	124.69
428.292	94.69
428.514	88.69
428.736	88.69
428.958	68.69
429.181	89.69
429.403	94.69
429.625	80.69
429.847	100.69
430.069	89.69
430.292	92.69
430.514	81.69
430.736	90.69
430.958	90.69
431.18	79.69
431.402	85.69
431.624	87.69
431.846	81.69
432.068	101.69
432.29	92.69
432.512	86.69
432.734	92.69
432.956	94.69
433.178	98.69
433.4	93.69
433.622	89.69
433.844	91.69
434.066	101.69
434.287	88.69
434.509	81.69
434.731	88.69
434.953	94.69
435.175	77.69
435.397	75.69
435.618	85.69
435.84	107.69
436.062	102.69
436.284	104.69
436.505	95.69
436.727	96.69
436.949	89.69
437.17	99.69
437.392	80.69
437.614	79.69
437.835	99.69
438.057	97.69
438.278	107.69
438.5	97.69
438.721	112.69
438.943	89.69
439.165	80.69
439.386	98.69
439.608	85.69
439.829	93.69
440.05	105.69
440.272	135.69
440.493	98.69
440.715	87.69
440.936	73.69
441.158	83.69
441.379	97.69
441.6	90.69
441.822	93.69
442.043	68.69
442.264	105.69
442.486	93.69
442.707	100.69
442.928	90.69
443.149	118.69
443.371	127.69
443.592	92.69
443.813	107.69
444.034	112.69
444.255	89.69
444.476	86.69
444.698	80.69
444.919	83.69
445.14	141.69
445.361	117.69
445.582	120.69
445.803	131.69
446.024	117.69
446.245	127.69
446.466	98.69
446.687	78.69
446.908	88.69
447.129	105.69
447.35	75.69
447.571	77.69
447.792	100.69
448.013	85.69
448.234	104.69
448.455	93.69
448.675	111.69
448.896	128.69
449.117	96.69
449.338	108.69
449.559	129.69
449.779	132.69
450	95.69
450.221	89.69
450.442	75.69
450.662	88.69
450.883	82.69
451.104	95.69
451.324	81.69
451.545	97.69
451.766	97.69
451.986	84.69
452.207	89.69
452.428	75.69
452.648	84.69
452.869	99.69
453.089	92.69
453.31	106.69
453.53	71.69
453.751	90.69
453.971	107.69
454.192	88.69
454.412	85.69
454.633	83.69
454.853	91.69
455.073	91.69
455.294	85.69
455.514	106.69
455.734	87.69
455.955	81.69
456.175	72.69
456.395	65.69
456.616	84.69
456.836	79.69
457.056	71.69
457.276	86.69
457.497	103.69
457.717	72.69
457.937	78.69
458.157	82.69
458.377	95.69
458.598	103.69
458.818	136.69
459.038	157.69
459.258	103.69
459.478	93.69
459.698	96.69
459.918	81.69
460.138	76.69
460.358	77.69
460.578	81.69
460.798	89.69
461.018	95.69
461.238	87.69
461.458	83.69
461.678	70.69
461.898	94.69
462.118	79.69
462.338	81.69
462.558	87.69
462.777	84.69
462.997	85.69
463.217	91.69
463.437	68.69
463.657	100.69
463.876	76.69
464.096	86.69
464.316	72.69
464.536	86.69
464.755	89.69
464.975	102.69
465.195	153.69
465.414	139.69
465.634	102.69
465.854	83.69
466.073	69.69
466.293	84.69
466.512	81.69
466.732	81.69
466.951	101.69
467.171	93.69
467.391	71.69
467.61	106.69
467.829	91.69
468.049	103.69
468.268	89.69
468.488	88.69
468.707	78.69
468.927	72.69
469.146	75.69
469.365	94.69
469.585	75.69
469.804	101.69
470.023	100.69
470.243	88.69
470.462	94.69
470.681	98.69
470.901	90.69
471.12	76.69
471.339	98.69
471.558	87.69
471.777	77.69
471.997	97.69
472.216	110.69
472.435	139.69
472.654	97.69
472.873	87.69
473.092	81.69
473.311	85.69
473.53	67.69
473.749	83.69
473.968	89.69
474.187	100.69
474.406	88.69
474.625	89.69
474.844	94.69
475.063	75.69
475.282	83.69
475.501	93.69
475.72	87.69
475.939	84.69
476.158	75.69
476.377	77.69
476.596	79.69
476.814	76.69
477.033	96.69
477.252	92.69
477.471	81.69
477.69	88.69
477.908	95.69
478.127	77.69
478.346	85.69
478.564	91.69
478.783	89.69
479.002	86.69
479.22	93.69
479.439	96.69
479.658	82.69
479.876	85.69
480.095	82.69
480.313	93.69
480.532	90.69
480.751	88.69
480.969	103.69
481.188	188.69
481.406	144.69
481.624	78.69
481.843	86.69
482.061	91.69
482.28	93.69
482.498	86.69
482.717	92.69
482.935	69.69
483.153	82.69
483.372	84.69
483.59	87.69
483.808	90.69
484.027	91.69
484.245	95.69
484.463	96.69
484.681	81.69
484.9	87.69
485.118	93.69
485.336	95.69
485.554	89.69
485.772	93.69
485.99	104.69
486.209	96.69
486.427	91.69
486.645	97.69
486.863	105.69
487.081	103.69
487.299	89.69
487.517	88.69
487.735	84.69
487.953	85.69
488.171	82.69
488.389	93.69
488.607	86.69
488.825	81.69
489.043	91.69
489.261	85.69
489.479	77.69
489.696	95.69
489.914	98.69
490.132	91.69
490.35	78.69
490.568	87.69
490.786	81.69
491.003	98.69
491.221	94.69
491.439	102.69
491.657	102.69
491.874	88.69
492.092	84.69
492.31	81.69
492.527	96.69
492.745	90.69
492.963	86.69
493.18	99.69
493.398	87.69
493.615	84.69
493.833	90.69
494.05	87.69
494.268	79.69
494.485	86.69
494.703	88.69
494.92	83.69
495.138	85.69
495.355	80.69
495.573	81.69
495.79	90.69
496.008	88.69
496.225	83.69
496.442	86.69
496.66	84.69
496.877	88.69
497.094	95.69
497.312	88.69
497.529	87.69
497.746	95.69
497.963	68.69
498.181	82.69
498.398	89.69
498.615	115.69
498.832	94.69
499.049	81.69
499.267	84.69
499.484	86.69
499.701	87.69
499.918	97.69
500.135	84.69
500.352	85.69
500.569	91.69
500.786	77.69
501.003	91.69
501.22	99.69
501.437	87.69
501.654	81.69
501.871	107.69
502.088	95.69
502.305	80.69
502.522	92.69
502.739	79.69
502.956	87.69
503.172	81.69
503.389	85.69
503.606	100.69
503.823	97.69
504.04	90.69
504.256	92.69
504.473	86.69
504.69	89.69
504.907	91.69
505.123	84.69
505.34	65.69
505.557	75.69
505.773	80.69
505.99	89.69
506.207	96.69
506.423	84.69
506.64	80.69
506.856	75.69
507.073	82.69
507.289	87.69
507.506	91.69
507.722	112.69
507.939	103.69
508.155	92.69
508.372	83.69
508.588	94.69
508.805	90.69
509.021	99.69
509.238	85.69
509.454	93.69
509.67	80.69
509.887	114.69
510.103	152.69
510.319	215.69
510.536	769.69
510.752	2538.69
510.968	709.69
511.184	164.69
511.401	113.69
511.617	101.69
511.833	81.69
512.049	104.69
512.265	79.69
512.481	103.69
512.698	87.69
512.914	94.69
513.13	91.69
513.346	86.69
513.562	88.69
513.778	80.69
513.994	80.69
514.21	102.69
514.426	104.69
514.642	118.69
514.858	123.69
515.074	155.69
515.29	414.69
515.506	1436.69
515.721	550.69
515.937	157.69
516.153	90.69
516.369	93.69
516.585	98.69
516.801	91.69
