Data from Circ_2003_H10_HRD10591_00057.txt Node
Date: Wed Jan 03 10:37:14 EST 2024
User: Yrep
Spectrometer: HR+D1059
Trigger mode: 1
Integration Time (sec): 1.000000E-1
Scans to average: 1
Electric dark correction enabled: true
Nonlinearity correction enabled: false
Boxcar width: 0
XAxis mode: Wavelengths
Number of Pixels in Spectrum: 2048
>>>>>Begin Spectral Data<<<<<
223.165	-12.38
223.4	-12.38
223.635	-12.38
223.869	-21.38
224.104	-11.38
224.338	-8.38
224.573	-23.38
224.808	-13.38
225.042	-10.38
225.277	-1.38
225.511	-12.38
225.746	-12.38
225.98	6.62
226.215	11.62
226.449	24.62
226.683	16.62
226.918	22.62
227.152	44.62
227.387	36.62
227.621	32.62
227.856	40.62
228.09	43.62
228.324	53.62
228.559	60.62
228.793	58.62
229.027	55.62
229.262	72.62
229.496	81.62
229.73	85.62
229.964	96.62
230.199	54.62
230.433	81.62
230.667	74.62
230.901	89.62
231.136	75.62
231.37	57.62
231.604	96.62
231.838	79.62
232.072	68.62
232.306	80.62
232.541	84.62
232.775	92.62
233.009	78.62
233.243	90.62
233.477	79.62
233.711	77.62
233.945	93.62
234.179	84.62
234.413	83.62
234.647	80.62
234.881	74.62
235.115	71.62
235.349	72.62
235.583	77.62
235.817	63.62
236.051	88.62
236.285	79.62
236.519	73.62
236.753	79.62
236.987	82.62
237.221	72.62
237.455	73.62
237.689	81.62
237.922	70.62
238.156	62.62
238.39	80.62
238.624	87.62
238.858	81.62
239.091	62.62
239.325	89.62
239.559	81.62
239.793	75.62
240.027	73.62
240.26	83.62
240.494	84.62
240.728	72.62
240.961	89.62
241.195	82.62
241.429	82.62
241.662	84.62
241.896	72.62
242.13	81.62
242.363	79.62
242.597	72.62
242.83	57.62
243.064	72.62
243.298	67.62
243.531	79.62
243.765	72.62
243.998	76.62
244.232	89.62
244.465	68.62
244.699	75.62
244.932	70.62
245.166	72.62
245.399	85.62
245.633	68.62
245.866	75.62
246.099	65.62
246.333	83.62
246.566	71.62
246.8	81.62
247.033	83.62
247.266	68.62
247.5	79.62
247.733	74.62
247.966	76.62
248.2	64.62
248.433	82.62
248.666	86.62
248.899	92.62
249.133	82.62
249.366	94.62
249.599	101.62
249.832	66.62
250.066	80.62
250.299	80.62
250.532	84.62
250.765	79.62
250.998	77.62
251.231	84.62
251.465	88.62
251.698	95.62
251.931	86.62
252.164	80.62
252.397	85.62
252.63	82.62
252.863	85.62
253.096	78.62
253.329	86.62
253.562	79.62
253.795	88.62
254.028	80.62
254.261	78.62
254.494	89.62
254.727	83.62
254.96	70.62
255.193	93.62
255.426	79.62
255.659	68.62
255.892	82.62
256.124	77.62
256.357	71.62
256.59	84.62
256.823	71.62
257.056	70.62
257.289	84.62
257.521	90.62
257.754	70.62
257.987	72.62
258.22	67.62
258.452	81.62
258.685	77.62
258.918	79.62
259.151	84.62
259.383	71.62
259.616	87.62
259.849	80.62
260.081	89.62
260.314	90.62
260.547	79.62
260.779	73.62
261.012	82.62
261.244	79.62
261.477	87.62
261.71	98.62
261.942	106.62
262.175	93.62
262.407	84.62
262.64	85.62
262.872	72.62
263.105	81.62
263.337	83.62
263.57	81.62
263.802	95.62
264.035	80.62
264.267	84.62
264.499	76.62
264.732	77.62
264.964	89.62
265.197	74.62
265.429	78.62
265.661	89.62
265.894	77.62
266.126	83.62
266.358	85.62
266.591	77.62
266.823	75.62
267.055	79.62
267.287	86.62
267.52	93.62
267.752	91.62
267.984	101.62
268.216	101.62
268.448	86.62
268.681	94.62
268.913	99.62
269.145	74.62
269.377	82.62
269.609	91.62
269.841	80.62
270.073	79.62
270.306	90.62
270.538	79.62
270.77	76.62
271.002	81.62
271.234	69.62
271.466	84.62
271.698	80.62
271.93	67.62
272.162	95.62
272.394	88.62
272.626	89.62
272.858	90.62
273.09	87.62
273.322	95.62
273.553	87.62
273.785	81.62
274.017	82.62
274.249	83.62
274.481	74.62
274.713	72.62
274.945	95.62
275.176	85.62
275.408	83.62
275.64	87.62
275.872	103.62
276.104	93.62
276.335	86.62
276.567	87.62
276.799	105.62
277.031	89.62
277.262	89.62
277.494	83.62
277.726	83.62
277.957	94.62
278.189	93.62
278.421	82.62
278.652	89.62
278.884	84.62
279.115	78.62
279.347	86.62
279.579	73.62
279.81	64.62
280.042	83.62
280.273	90.62
280.505	88.62
280.736	81.62
280.968	74.62
281.199	90.62
281.431	88.62
281.662	93.62
281.894	92.62
282.125	96.62
282.356	111.62
282.588	140.62
282.819	100.62
283.051	87.62
283.282	73.62
283.513	89.62
283.745	104.62
283.976	89.62
284.207	96.62
284.439	77.62
284.67	69.62
284.901	90.62
285.132	93.62
285.364	94.62
285.595	92.62
285.826	89.62
286.057	88.62
286.288	78.62
286.52	90.62
286.751	73.62
286.982	79.62
287.213	80.62
287.444	96.62
287.675	94.62
287.906	86.62
288.138	85.62
288.369	73.62
288.6	98.62
288.831	78.62
289.062	96.62
289.293	87.62
289.524	85.62
289.755	88.62
289.986	88.62
290.217	95.62
290.448	94.62
290.679	96.62
290.91	80.62
291.141	94.62
291.371	92.62
291.602	86.62
291.833	76.62
292.064	80.62
292.295	71.62
292.526	80.62
292.757	95.62
292.987	96.62
293.218	83.62
293.449	85.62
293.68	81.62
293.91	85.62
294.141	79.62
294.372	95.62
294.603	80.62
294.833	90.62
295.064	86.62
295.295	83.62
295.525	84.62
295.756	113.62
295.987	124.62
296.217	130.62
296.448	117.62
296.679	92.62
296.909	98.62
297.14	90.62
297.37	83.62
297.601	74.62
297.831	87.62
298.062	94.62
298.292	82.62
298.523	87.62
298.753	81.62
298.984	93.62
299.214	93.62
299.445	95.62
299.675	92.62
299.905	96.62
300.136	78.62
300.366	89.62
300.597	75.62
300.827	94.62
301.057	99.62
301.288	96.62
301.518	79.62
301.748	84.62
301.979	117.62
302.209	70.62
302.439	91.62
302.669	90.62
302.9	88.62
303.13	72.62
303.36	101.62
303.59	90.62
303.82	95.62
304.051	92.62
304.281	98.62
304.511	83.62
304.741	92.62
304.971	78.62
305.201	97.62
305.431	84.62
305.661	96.62
305.891	87.62
306.121	105.62
306.352	92.62
306.582	98.62
306.812	93.62
307.042	82.62
307.272	89.62
307.502	89.62
307.731	98.62
307.961	95.62
308.191	87.62
308.421	94.62
308.651	100.62
308.881	79.62
309.111	95.62
309.341	98.62
309.571	108.62
309.8	84.62
310.03	80.62
310.26	108.62
310.49	96.62
310.72	97.62
310.949	100.62
311.179	101.62
311.409	81.62
311.639	91.62
311.868	105.62
312.098	93.62
312.328	85.62
312.557	100.62
312.787	90.62
313.017	104.62
313.246	95.62
313.476	83.62
313.706	88.62
313.935	98.62
314.165	92.62
314.394	87.62
314.624	101.62
314.853	103.62
315.083	91.62
315.312	97.62
315.542	84.62
315.771	94.62
316.001	97.62
316.23	93.62
316.46	101.62
316.689	83.62
316.919	96.62
317.148	94.62
317.377	100.62
317.607	82.62
317.836	86.62
318.065	99.62
318.295	89.62
318.524	75.62
318.753	87.62
318.983	87.62
319.212	92.62
319.441	113.62
319.67	106.62
319.9	73.62
320.129	80.62
320.358	82.62
320.587	86.62
320.816	85.62
321.046	94.62
321.275	95.62
321.504	80.62
321.733	84.62
321.962	96.62
322.191	90.62
322.42	122.62
322.649	96.62
322.878	95.62
323.108	114.62
323.337	108.62
323.566	113.62
323.795	140.62
324.024	183.62
324.253	375.62
324.482	766.62
324.71	1548.62
324.939	2001.62
325.168	745.62
325.397	224.62
325.626	156.62
325.855	110.62
326.084	122.62
326.313	140.62
326.542	136.62
326.77	202.62
326.999	431.62
327.228	860.62
327.457	1527.62
327.686	1238.62
327.914	346.62
328.143	181.62
328.372	142.62
328.6	128.62
328.829	119.62
329.058	113.62
329.287	122.62
329.515	105.62
329.744	97.62
329.972	112.62
330.201	113.62
330.43	141.62
330.658	126.62
330.887	144.62
331.115	113.62
331.344	99.62
331.572	94.62
331.801	92.62
332.03	91.62
332.258	94.62
332.486	86.62
332.715	77.62
332.943	85.62
333.172	95.62
333.4	113.62
333.629	94.62
333.857	102.62
334.085	111.62
334.314	134.62
334.542	166.62
334.771	139.62
334.999	103.62
335.227	100.62
335.455	94.62
335.684	92.62
335.912	98.62
336.14	97.62
336.369	95.62
336.597	101.62
336.825	96.62
337.053	98.62
337.281	88.62
337.51	92.62
337.738	87.62
337.966	106.62
338.194	80.62
338.422	97.62
338.65	84.62
338.878	85.62
339.106	85.62
339.334	90.62
339.562	88.62
339.79	98.62
340.018	90.62
340.246	96.62
340.474	87.62
340.702	75.62
340.93	82.62
341.158	93.62
341.386	88.62
341.614	99.62
341.842	98.62
342.07	89.62
342.298	79.62
342.526	84.62
342.754	72.62
342.981	81.62
343.209	84.62
343.437	97.62
343.665	89.62
343.893	101.62
344.12	78.62
344.348	89.62
344.576	87.62
344.804	96.62
345.031	87.62
345.259	79.62
345.487	83.62
345.714	83.62
345.942	101.62
346.17	76.62
346.397	80.62
346.625	86.62
346.853	84.62
347.08	91.62
347.308	91.62
347.535	108.62
347.763	95.62
347.99	93.62
348.218	92.62
348.445	109.62
348.673	94.62
348.9	95.62
349.128	101.62
349.355	90.62
349.583	90.62
349.81	84.62
350.037	90.62
350.265	103.62
350.492	102.62
350.72	78.62
350.947	99.62
351.174	108.62
351.402	95.62
351.629	98.62
351.856	99.62
352.083	90.62
352.311	101.62
352.538	108.62
352.765	110.62
352.992	98.62
353.22	117.62
353.447	102.62
353.674	101.62
353.901	97.62
354.128	103.62
354.355	101.62
354.583	100.62
354.81	77.62
355.037	98.62
355.264	91.62
355.491	99.62
355.718	89.62
355.945	108.62
356.172	81.62
356.399	97.62
356.626	84.62
356.853	93.62
357.08	87.62
357.307	88.62
357.534	86.62
357.761	99.62
357.988	109.62
358.215	113.62
358.441	96.62
358.668	86.62
358.895	95.62
359.122	92.62
359.349	94.62
359.576	93.62
359.802	116.62
360.029	96.62
360.256	109.62
360.483	100.62
360.709	84.62
360.936	85.62
361.163	93.62
361.39	92.62
361.616	90.62
361.843	93.62
362.07	85.62
362.296	86.62
362.523	86.62
362.749	81.62
362.976	92.62
363.203	95.62
363.429	102.62
363.656	86.62
363.882	91.62
364.109	96.62
364.335	79.62
364.562	97.62
364.788	95.62
365.015	100.62
365.241	82.62
365.468	101.62
365.694	96.62
365.92	80.62
366.147	92.62
366.373	99.62
366.599	77.62
366.826	86.62
367.052	76.62
367.278	85.62
367.505	94.62
367.731	101.62
367.957	90.62
368.184	95.62
368.41	96.62
368.636	109.62
368.862	115.62
369.089	104.62
369.315	91.62
369.541	84.62
369.767	87.62
369.993	94.62
370.219	89.62
370.445	84.62
370.672	93.62
370.898	86.62
371.124	97.62
371.35	80.62
371.576	85.62
371.802	93.62
372.028	102.62
372.254	96.62
372.48	79.62
372.706	90.62
372.932	88.62
373.158	84.62
373.384	89.62
373.61	94.62
373.835	90.62
374.061	87.62
374.287	80.62
374.513	95.62
374.739	104.62
374.965	96.62
375.191	96.62
375.416	94.62
375.642	88.62
375.868	87.62
376.094	84.62
376.319	82.62
376.545	95.62
376.771	92.62
376.997	96.62
377.222	94.62
377.448	89.62
377.674	96.62
377.899	80.62
378.125	87.62
378.35	93.62
378.576	94.62
378.802	94.62
379.027	92.62
379.253	106.62
379.478	87.62
379.704	76.62
379.929	94.62
380.155	102.62
380.38	84.62
380.606	101.62
380.831	94.62
381.057	92.62
381.282	96.62
381.507	78.62
381.733	101.62
381.958	100.62
382.184	101.62
382.409	107.62
382.634	92.62
382.86	106.62
383.085	91.62
383.31	91.62
383.535	95.62
383.761	94.62
383.986	99.62
384.211	91.62
384.436	94.62
384.662	102.62
384.887	98.62
385.112	95.62
385.337	113.62
385.562	96.62
385.787	97.62
386.013	100.62
386.238	125.62
386.463	113.62
386.688	112.62
386.913	100.62
387.138	98.62
387.363	92.62
387.588	96.62
387.813	99.62
388.038	102.62
388.263	107.62
388.488	103.62
388.713	90.62
388.938	85.62
389.163	88.62
389.387	88.62
389.612	89.62
389.837	74.62
390.062	88.62
390.287	92.62
390.512	92.62
390.736	88.62
390.961	111.62
391.186	94.62
391.411	86.62
391.636	94.62
391.86	101.62
392.085	83.62
392.31	68.62
392.534	85.62
392.759	98.62
392.984	84.62
393.208	99.62
393.433	88.62
393.658	76.62
393.882	81.62
394.107	92.62
394.331	102.62
394.556	77.62
394.78	82.62
395.005	97.62
395.229	76.62
395.454	77.62
395.678	70.62
395.903	86.62
396.127	83.62
396.352	80.62
396.576	93.62
396.801	85.62
397.025	81.62
397.249	96.62
397.474	89.62
397.698	77.62
397.922	89.62
398.147	93.62
398.371	81.62
398.595	88.62
398.82	73.62
399.044	85.62
399.268	86.62
399.492	84.62
399.717	76.62
399.941	76.62
400.165	89.62
400.389	77.62
400.613	82.62
400.837	100.62
401.062	88.62
401.286	94.62
401.51	87.62
401.734	91.62
401.958	100.62
402.182	112.62
402.406	165.62
402.63	115.62
402.854	79.62
403.078	68.62
403.302	77.62
403.526	83.62
403.75	87.62
403.974	83.62
404.198	83.62
404.422	84.62
404.645	82.62
404.869	76.62
405.093	72.62
405.317	98.62
405.541	103.62
405.765	86.62
405.988	102.62
406.212	166.62
406.436	194.62
406.66	138.62
406.883	86.62
407.107	101.62
407.331	93.62
407.555	101.62
407.778	105.62
408.002	84.62
408.226	87.62
408.449	94.62
408.673	79.62
408.896	89.62
409.12	96.62
409.344	87.62
409.567	90.62
409.791	83.62
410.014	92.62
410.238	97.62
410.461	93.62
410.685	84.62
410.908	96.62
411.132	102.62
411.355	102.62
411.578	81.62
411.802	106.62
412.025	94.62
412.249	96.62
412.472	97.62
412.695	90.62
412.919	78.62
413.142	83.62
413.365	74.62
413.589	97.62
413.812	90.62
414.035	75.62
414.258	96.62
414.482	94.62
414.705	83.62
414.928	92.62
415.151	102.62
415.374	81.62
415.597	102.62
415.821	80.62
416.044	80.62
416.267	91.62
416.49	88.62
416.713	84.62
416.936	108.62
417.159	89.62
417.382	87.62
417.605	94.62
417.828	105.62
418.051	87.62
418.274	94.62
418.497	86.62
418.72	85.62
418.943	82.62
419.166	80.62
419.389	90.62
419.611	79.62
419.834	87.62
420.057	79.62
420.28	89.62
420.503	83.62
420.726	83.62
420.948	82.62
421.171	77.62
421.394	86.62
421.617	84.62
421.839	88.62
422.062	80.62
422.285	92.62
422.507	94.62
422.73	101.62
422.953	97.62
423.175	98.62
423.398	80.62
423.621	93.62
423.843	89.62
424.066	85.62
424.288	76.62
424.511	82.62
424.733	91.62
424.956	99.62
425.178	95.62
425.401	103.62
425.623	97.62
425.846	93.62
426.068	82.62
426.291	87.62
426.513	86.62
426.735	81.62
426.958	101.62
427.18	104.62
427.402	127.62
427.625	154.62
427.847	144.62
428.069	103.62
428.292	99.62
428.514	80.62
428.736	85.62
428.958	81.62
429.181	82.62
429.403	94.62
429.625	72.62
429.847	79.62
430.069	94.62
430.292	91.62
430.514	85.62
430.736	90.62
430.958	87.62
431.18	98.62
431.402	81.62
431.624	73.62
431.846	81.62
432.068	89.62
432.29	86.62
432.512	86.62
432.734	94.62
432.956	77.62
433.178	94.62
433.4	88.62
433.622	88.62
433.844	83.62
434.066	78.62
434.287	93.62
434.509	84.62
434.731	73.62
434.953	92.62
435.175	95.62
435.397	91.62
435.618	85.62
435.84	95.62
436.062	107.62
436.284	100.62
436.505	107.62
436.727	102.62
436.949	90.62
437.17	99.62
437.392	91.62
437.614	86.62
437.835	112.62
438.057	106.62
438.278	93.62
438.5	93.62
438.721	117.62
438.943	107.62
439.165	107.62
439.386	89.62
439.608	89.62
439.829	92.62
440.05	96.62
440.272	113.62
440.493	93.62
440.715	99.62
440.936	88.62
441.158	84.62
441.379	84.62
441.6	82.62
441.822	89.62
442.043	99.62
442.264	89.62
442.486	85.62
442.707	89.62
442.928	93.62
443.149	138.62
443.371	119.62
443.592	100.62
443.813	100.62
444.034	83.62
444.255	88.62
444.476	72.62
444.698	99.62
444.919	91.62
445.14	140.62
445.361	105.62
445.582	100.62
445.803	119.62
446.024	124.62
446.245	114.62
446.466	106.62
446.687	88.62
446.908	85.62
447.129	94.62
447.35	84.62
447.571	89.62
447.792	85.62
448.013	90.62
448.234	116.62
448.455	99.62
448.675	116.62
448.896	113.62
449.117	103.62
449.338	96.62
449.559	106.62
449.779	129.62
450	80.62
450.221	86.62
450.442	96.62
450.662	81.62
450.883	105.62
451.104	101.62
451.324	78.62
451.545	80.62
451.766	84.62
451.986	87.62
452.207	84.62
452.428	79.62
452.648	89.62
452.869	108.62
453.089	100.62
453.31	109.62
453.53	92.62
453.751	104.62
453.971	100.62
454.192	120.62
454.412	80.62
454.633	87.62
454.853	78.62
455.073	83.62
455.294	88.62
455.514	96.62
455.734	79.62
455.955	92.62
456.175	82.62
456.395	93.62
456.616	78.62
456.836	84.62
457.056	86.62
457.276	87.62
457.497	75.62
457.717	85.62
457.937	71.62
458.157	94.62
458.377	80.62
458.598	105.62
458.818	127.62
459.038	156.62
459.258	113.62
459.478	89.62
459.698	78.62
459.918	73.62
460.138	82.62
460.358	87.62
460.578	100.62
460.798	78.62
461.018	101.62
461.238	73.62
461.458	82.62
461.678	94.62
461.898	87.62
462.118	90.62
462.338	89.62
462.558	88.62
462.777	80.62
462.997	78.62
463.217	90.62
463.437	81.62
463.657	102.62
463.876	89.62
464.096	68.62
464.316	93.62
464.536	81.62
464.755	83.62
464.975	105.62
465.195	158.62
465.414	152.62
465.634	93.62
465.854	96.62
466.073	89.62
466.293	89.62
466.512	78.62
466.732	74.62
466.951	93.62
467.171	97.62
467.391	100.62
467.61	99.62
467.829	80.62
468.049	94.62
468.268	108.62
468.488	85.62
468.707	86.62
468.927	80.62
469.146	70.62
469.365	80.62
469.585	84.62
469.804	96.62
470.023	78.62
470.243	83.62
470.462	98.62
470.681	96.62
470.901	79.62
471.12	94.62
471.339	83.62
471.558	96.62
471.777	100.62
471.997	99.62
472.216	128.62
472.435	177.62
472.654	95.62
472.873	84.62
473.092	88.62
473.311	76.62
473.53	68.62
473.749	84.62
473.968	93.62
474.187	94.62
474.406	86.62
474.625	78.62
474.844	85.62
475.063	95.62
475.282	89.62
475.501	78.62
475.72	78.62
475.939	70.62
476.158	85.62
476.377	86.62
476.596	74.62
476.814	94.62
477.033	83.62
477.252	96.62
477.471	83.62
477.69	87.62
477.908	87.62
478.127	103.62
478.346	93.62
478.564	95.62
478.783	101.62
479.002	100.62
479.22	88.62
479.439	108.62
479.658	111.62
479.876	84.62
480.095	89.62
480.313	73.62
480.532	80.62
480.751	109.62
480.969	120.62
481.188	256.62
481.406	188.62
481.624	96.62
481.843	72.62
482.061	90.62
482.28	94.62
482.498	92.62
482.717	85.62
482.935	80.62
483.153	87.62
483.372	94.62
483.59	90.62
483.808	87.62
484.027	95.62
484.245	94.62
484.463	96.62
484.681	90.62
484.9	88.62
485.118	107.62
485.336	65.62
485.554	99.62
485.772	90.62
485.99	84.62
486.209	112.62
486.427	100.62
486.645	113.62
486.863	96.62
487.081	85.62
487.299	92.62
487.517	101.62
487.735	86.62
487.953	79.62
488.171	96.62
488.389	78.62
488.607	84.62
488.825	96.62
489.043	80.62
489.261	90.62
489.479	76.62
489.696	101.62
489.914	73.62
490.132	99.62
490.35	103.62
490.568	80.62
490.786	84.62
491.003	75.62
491.221	105.62
491.439	96.62
491.657	82.62
491.874	114.62
492.092	93.62
492.31	83.62
492.527	81.62
492.745	86.62
492.963	88.62
493.18	79.62
493.398	83.62
493.615	88.62
493.833	94.62
494.05	82.62
494.268	88.62
494.485	95.62
494.703	80.62
494.92	97.62
495.138	99.62
495.355	84.62
495.573	97.62
495.79	94.62
496.008	88.62
496.225	77.62
496.442	90.62
496.66	101.62
496.877	99.62
497.094	98.62
497.312	99.62
497.529	87.62
497.746	99.62
497.963	86.62
498.181	89.62
498.398	85.62
498.615	91.62
498.832	98.62
499.049	87.62
499.267	93.62
499.484	96.62
499.701	80.62
499.918	93.62
500.135	83.62
500.352	98.62
500.569	80.62
500.786	97.62
501.003	80.62
501.22	94.62
501.437	85.62
501.654	85.62
501.871	107.62
502.088	87.62
502.305	89.62
502.522	83.62
502.739	84.62
502.956	78.62
503.172	97.62
503.389	89.62
503.606	93.62
503.823	97.62
504.04	79.62
504.256	96.62
504.473	96.62
504.69	83.62
504.907	91.62
505.123	89.62
505.34	102.62
505.557	94.62
505.773	88.62
505.99	88.62
506.207	91.62
506.423	76.62
506.64	85.62
506.856	89.62
507.073	98.62
507.289	94.62
507.506	102.62
507.722	104.62
507.939	110.62
508.155	99.62
508.372	95.62
508.588	117.62
508.805	83.62
509.021	81.62
509.238	83.62
509.454	106.62
509.67	104.62
509.887	107.62
510.103	129.62
510.319	217.62
510.536	753.62
510.752	2411.62
510.968	684.62
511.184	141.62
511.401	98.62
511.617	106.62
511.833	97.62
512.049	89.62
512.265	89.62
512.481	94.62
512.698	97.62
512.914	97.62
513.13	89.62
513.346	83.62
513.562	93.62
513.778	85.62
513.994	95.62
514.21	96.62
514.426	109.62
514.642	132.62
514.858	117.62
515.074	152.62
515.29	406.62
515.506	1330.62
515.721	510.62
515.937	152.62
516.153	105.62
516.369	108.62
