Data from Circ_2003_H10_HRD10591_00008.txt Node
Date: Wed Jan 03 10:37:04 EST 2024
User: Yrep
Spectrometer: HR+D1059
Trigger mode: 1
Integration Time (sec): 1.000000E-1
Scans to average: 1
Electric dark correction enabled: true
Nonlinearity correction enabled: false
Boxcar width: 0
XAxis mode: Wavelengths
Number of Pixels in Spectrum: 2048
>>>>>Begin Spectral Data<<<<<
223.165	-30.25
223.4	-30.25
223.635	-30.25
223.869	-14.25
224.104	-9.25
224.338	-12.25
224.573	-9.25
224.808	-17.25
225.042	2.75
225.277	3.75
225.511	-4.25
225.746	-8.25
225.98	5.75
226.215	9.75
226.449	5.75
226.683	24.75
226.918	30.75
227.152	21.75
227.387	22.75
227.621	33.75
227.856	45.75
228.09	47.75
228.324	55.75
228.559	59.75
228.793	63.75
229.027	52.75
229.262	61.75
229.496	55.75
229.73	79.75
229.964	77.75
230.199	66.75
230.433	77.75
230.667	86.75
230.901	92.75
231.136	79.75
231.37	69.75
231.604	95.75
231.838	77.75
232.072	79.75
232.306	82.75
232.541	83.75
232.775	77.75
233.009	75.75
233.243	69.75
233.477	86.75
233.711	75.75
233.945	80.75
234.179	75.75
234.413	69.75
234.647	78.75
234.881	83.75
235.115	78.75
235.349	78.75
235.583	91.75
235.817	62.75
236.051	87.75
236.285	75.75
236.519	88.75
236.753	77.75
236.987	79.75
237.221	84.75
237.455	77.75
237.689	76.75
237.922	80.75
238.156	83.75
238.39	60.75
238.624	65.75
238.858	66.75
239.091	83.75
239.325	77.75
239.559	71.75
239.793	81.75
240.027	67.75
240.26	79.75
240.494	85.75
240.728	80.75
240.961	75.75
241.195	82.75
241.429	88.75
241.662	82.75
241.896	65.75
242.13	75.75
242.363	89.75
242.597	76.75
242.83	74.75
243.064	69.75
243.298	66.75
243.531	71.75
243.765	85.75
243.998	87.75
244.232	67.75
244.465	79.75
244.699	66.75
244.932	82.75
245.166	68.75
245.399	81.75
245.633	83.75
245.866	77.75
246.099	78.75
246.333	88.75
246.566	69.75
246.8	77.75
247.033	64.75
247.266	63.75
247.5	78.75
247.733	84.75
247.966	76.75
248.2	84.75
248.433	85.75
248.666	83.75
248.899	68.75
249.133	63.75
249.366	75.75
249.599	81.75
249.832	83.75
250.066	77.75
250.299	88.75
250.532	76.75
250.765	81.75
250.998	87.75
251.231	82.75
251.465	73.75
251.698	72.75
251.931	74.75
252.164	78.75
252.397	65.75
252.63	69.75
252.863	83.75
253.096	84.75
253.329	78.75
253.562	85.75
253.795	85.75
254.028	67.75
254.261	71.75
254.494	70.75
254.727	80.75
254.96	75.75
255.193	69.75
255.426	86.75
255.659	71.75
255.892	86.75
256.124	82.75
256.357	78.75
256.59	86.75
256.823	85.75
257.056	87.75
257.289	80.75
257.521	83.75
257.754	84.75
257.987	79.75
258.22	78.75
258.452	72.75
258.685	78.75
258.918	85.75
259.151	79.75
259.383	80.75
259.616	83.75
259.849	87.75
260.081	69.75
260.314	79.75
260.547	84.75
260.779	82.75
261.012	75.75
261.244	57.75
261.477	89.75
261.71	92.75
261.942	96.75
262.175	114.75
262.407	84.75
262.64	90.75
262.872	80.75
263.105	81.75
263.337	93.75
263.57	80.75
263.802	79.75
264.035	93.75
264.267	72.75
264.499	74.75
264.732	86.75
264.964	87.75
265.197	68.75
265.429	80.75
265.661	81.75
265.894	75.75
266.126	92.75
266.358	76.75
266.591	68.75
266.823	70.75
267.055	74.75
267.287	63.75
267.52	82.75
267.752	74.75
267.984	85.75
268.216	84.75
268.448	73.75
268.681	82.75
268.913	81.75
269.145	68.75
269.377	68.75
269.609	80.75
269.841	70.75
270.073	78.75
270.306	70.75
270.538	72.75
270.77	81.75
271.002	84.75
271.234	76.75
271.466	71.75
271.698	81.75
271.93	81.75
272.162	84.75
272.394	67.75
272.626	73.75
272.858	78.75
273.09	86.75
273.322	84.75
273.553	74.75
273.785	83.75
274.017	90.75
274.249	81.75
274.481	88.75
274.713	84.75
274.945	88.75
275.176	91.75
275.408	88.75
275.64	80.75
275.872	92.75
276.104	85.75
276.335	82.75
276.567	94.75
276.799	99.75
277.031	86.75
277.262	81.75
277.494	92.75
277.726	86.75
277.957	83.75
278.189	89.75
278.421	80.75
278.652	80.75
278.884	84.75
279.115	88.75
279.347	80.75
279.579	87.75
279.81	89.75
280.042	93.75
280.273	88.75
280.505	94.75
280.736	80.75
280.968	74.75
281.199	85.75
281.431	77.75
281.662	76.75
281.894	88.75
282.125	81.75
282.356	117.75
282.588	120.75
282.819	81.75
283.051	83.75
283.282	68.75
283.513	87.75
283.745	85.75
283.976	93.75
284.207	92.75
284.439	90.75
284.67	85.75
284.901	93.75
285.132	77.75
285.364	84.75
285.595	81.75
285.826	88.75
286.057	87.75
286.288	73.75
286.52	93.75
286.751	90.75
286.982	76.75
287.213	81.75
287.444	81.75
287.675	81.75
287.906	100.75
288.138	95.75
288.369	83.75
288.6	100.75
288.831	80.75
289.062	79.75
289.293	83.75
289.524	80.75
289.755	78.75
289.986	86.75
290.217	94.75
290.448	93.75
290.679	92.75
290.91	105.75
291.141	85.75
291.371	76.75
291.602	84.75
291.833	90.75
292.064	95.75
292.295	95.75
292.526	72.75
292.757	79.75
292.987	69.75
293.218	78.75
293.449	88.75
293.68	90.75
293.91	74.75
294.141	94.75
294.372	88.75
294.603	84.75
294.833	66.75
295.064	78.75
295.295	74.75
295.525	84.75
295.756	98.75
295.987	97.75
296.217	125.75
296.448	111.75
296.679	83.75
296.909	89.75
297.14	91.75
297.37	85.75
297.601	78.75
297.831	83.75
298.062	77.75
298.292	78.75
298.523	96.75
298.753	79.75
298.984	86.75
299.214	72.75
299.445	78.75
299.675	84.75
299.905	93.75
300.136	92.75
300.366	79.75
300.597	75.75
300.827	71.75
301.057	82.75
301.288	103.75
301.518	85.75
301.748	79.75
301.979	107.75
302.209	82.75
302.439	78.75
302.669	79.75
302.9	88.75
303.13	82.75
303.36	89.75
303.59	86.75
303.82	88.75
304.051	86.75
304.281	91.75
304.511	88.75
304.741	78.75
304.971	85.75
305.201	96.75
305.431	90.75
305.661	78.75
305.891	81.75
306.121	93.75
306.352	95.75
306.582	101.75
306.812	92.75
307.042	98.75
307.272	95.75
307.502	97.75
307.731	92.75
307.961	66.75
308.191	83.75
308.421	82.75
308.651	103.75
308.881	78.75
309.111	94.75
309.341	83.75
309.571	100.75
309.8	87.75
310.03	85.75
310.26	84.75
310.49	97.75
310.72	77.75
310.949	93.75
311.179	94.75
311.409	81.75
311.639	99.75
311.868	94.75
312.098	84.75
312.328	92.75
312.557	85.75
312.787	96.75
313.017	94.75
313.246	84.75
313.476	81.75
313.706	89.75
313.935	96.75
314.165	91.75
314.394	92.75
314.624	102.75
314.853	94.75
315.083	86.75
315.312	93.75
315.542	78.75
315.771	89.75
316.001	101.75
316.23	84.75
316.46	93.75
316.689	80.75
316.919	75.75
317.148	91.75
317.377	100.75
317.607	89.75
317.836	101.75
318.065	87.75
318.295	68.75
318.524	96.75
318.753	102.75
318.983	93.75
319.212	93.75
319.441	100.75
319.67	101.75
319.9	104.75
320.129	99.75
320.358	89.75
320.587	91.75
320.816	101.75
321.046	103.75
321.275	104.75
321.504	89.75
321.733	88.75
321.962	96.75
322.191	88.75
322.42	101.75
322.649	98.75
322.878	106.75
323.108	111.75
323.337	101.75
323.566	120.75
323.795	134.75
324.024	171.75
324.253	335.75
324.482	705.75
324.71	1360.75
324.939	1813.75
325.168	659.75
325.397	208.75
325.626	141.75
325.855	140.75
326.084	112.75
326.313	123.75
326.542	128.75
326.77	202.75
326.999	416.75
327.228	781.75
327.457	1434.75
327.686	1132.75
327.914	337.75
328.143	168.75
328.372	129.75
328.6	119.75
328.829	100.75
329.058	96.75
329.287	123.75
329.515	99.75
329.744	101.75
329.972	84.75
330.201	101.75
330.43	93.75
330.658	99.75
330.887	112.75
331.115	117.75
331.344	101.75
331.572	100.75
331.801	79.75
332.03	89.75
332.258	94.75
332.486	96.75
332.715	94.75
332.943	108.75
333.172	84.75
333.4	91.75
333.629	93.75
333.857	110.75
334.085	103.75
334.314	114.75
334.542	91.75
334.771	88.75
334.999	84.75
335.227	84.75
335.455	83.75
335.684	89.75
335.912	96.75
336.14	108.75
336.369	85.75
336.597	94.75
336.825	83.75
337.053	87.75
337.281	94.75
337.51	82.75
337.738	86.75
337.966	97.75
338.194	89.75
338.422	88.75
338.65	87.75
338.878	84.75
339.106	99.75
339.334	81.75
339.562	74.75
339.79	87.75
340.018	99.75
340.246	93.75
340.474	90.75
340.702	95.75
340.93	78.75
341.158	83.75
341.386	92.75
341.614	91.75
341.842	97.75
342.07	82.75
342.298	91.75
342.526	81.75
342.754	84.75
342.981	82.75
343.209	74.75
343.437	89.75
343.665	87.75
343.893	102.75
344.12	103.75
344.348	89.75
344.576	82.75
344.804	82.75
345.031	92.75
345.259	105.75
345.487	92.75
345.714	82.75
345.942	84.75
346.17	89.75
346.397	97.75
346.625	88.75
346.853	84.75
347.08	68.75
347.308	91.75
347.535	92.75
347.763	94.75
347.99	100.75
348.218	110.75
348.445	86.75
348.673	80.75
348.9	92.75
349.128	86.75
349.355	95.75
349.583	83.75
349.81	85.75
350.037	98.75
350.265	103.75
350.492	93.75
350.72	92.75
350.947	98.75
351.174	104.75
351.402	92.75
351.629	104.75
351.856	101.75
352.083	88.75
352.311	107.75
352.538	93.75
352.765	82.75
352.992	100.75
353.22	101.75
353.447	96.75
353.674	108.75
353.901	111.75
354.128	97.75
354.355	107.75
354.583	103.75
354.81	97.75
355.037	97.75
355.264	94.75
355.491	95.75
355.718	85.75
355.945	105.75
356.172	84.75
356.399	102.75
356.626	91.75
356.853	72.75
357.08	87.75
357.307	94.75
357.534	99.75
357.761	103.75
357.988	100.75
358.215	96.75
358.441	99.75
358.668	88.75
358.895	108.75
359.122	95.75
359.349	100.75
359.576	102.75
359.802	95.75
360.029	111.75
360.256	103.75
360.483	84.75
360.709	83.75
360.936	102.75
361.163	102.75
361.39	79.75
361.616	91.75
361.843	85.75
362.07	81.75
362.296	82.75
362.523	91.75
362.749	95.75
362.976	88.75
363.203	96.75
363.429	80.75
363.656	87.75
363.882	82.75
364.109	79.75
364.335	97.75
364.562	96.75
364.788	76.75
365.015	78.75
365.241	90.75
365.468	93.75
365.694	91.75
365.92	92.75
366.147	83.75
366.373	82.75
366.599	84.75
366.826	96.75
367.052	89.75
367.278	93.75
367.505	93.75
367.731	95.75
367.957	83.75
368.184	92.75
368.41	91.75
368.636	93.75
368.862	117.75
369.089	100.75
369.315	102.75
369.541	85.75
369.767	93.75
369.993	85.75
370.219	103.75
370.445	93.75
370.672	74.75
370.898	90.75
371.124	87.75
371.35	76.75
371.576	75.75
371.802	79.75
372.028	95.75
372.254	91.75
372.48	82.75
372.706	80.75
372.932	95.75
373.158	87.75
373.384	98.75
373.61	104.75
373.835	95.75
374.061	83.75
374.287	88.75
374.513	90.75
374.739	85.75
374.965	79.75
375.191	95.75
375.416	76.75
375.642	70.75
375.868	88.75
376.094	86.75
376.319	100.75
376.545	85.75
376.771	85.75
376.997	94.75
377.222	90.75
377.448	89.75
377.674	89.75
377.899	89.75
378.125	104.75
378.35	91.75
378.576	81.75
378.802	103.75
379.027	100.75
379.253	88.75
379.478	103.75
379.704	92.75
379.929	99.75
380.155	96.75
380.38	87.75
380.606	101.75
380.831	99.75
381.057	87.75
381.282	107.75
381.507	100.75
381.733	103.75
381.958	100.75
382.184	111.75
382.409	102.75
382.634	99.75
382.86	95.75
383.085	100.75
383.31	96.75
383.535	112.75
383.761	119.75
383.986	107.75
384.211	97.75
384.436	110.75
384.662	108.75
384.887	128.75
385.112	143.75
385.337	120.75
385.562	112.75
385.787	131.75
386.013	126.75
386.238	147.75
386.463	124.75
386.688	131.75
386.913	133.75
387.138	140.75
387.363	130.75
387.588	118.75
387.813	128.75
388.038	145.75
388.263	138.75
388.488	125.75
388.713	93.75
388.938	108.75
389.163	120.75
389.387	95.75
389.612	92.75
389.837	79.75
390.062	84.75
390.287	89.75
390.512	80.75
390.736	92.75
390.961	107.75
391.186	84.75
391.411	92.75
391.636	79.75
391.86	91.75
392.085	81.75
392.31	91.75
392.534	89.75
392.759	87.75
392.984	80.75
393.208	101.75
393.433	107.75
393.658	99.75
393.882	87.75
394.107	73.75
394.331	91.75
394.556	77.75
394.78	79.75
395.005	92.75
395.229	83.75
395.454	84.75
395.678	83.75
395.903	75.75
396.127	84.75
396.352	73.75
396.576	87.75
396.801	108.75
397.025	106.75
397.249	83.75
397.474	84.75
397.698	83.75
397.922	83.75
398.147	83.75
398.371	88.75
398.595	86.75
398.82	81.75
399.044	96.75
399.268	88.75
399.492	80.75
399.717	88.75
399.941	88.75
400.165	97.75
400.389	88.75
400.613	84.75
400.837	66.75
401.062	76.75
401.286	100.75
401.51	92.75
401.734	84.75
401.958	90.75
402.182	111.75
402.406	116.75
402.63	116.75
402.854	95.75
403.078	92.75
403.302	87.75
403.526	90.75
403.75	67.75
403.974	81.75
404.198	75.75
404.422	84.75
404.645	88.75
404.869	84.75
405.093	87.75
405.317	87.75
405.541	89.75
405.765	82.75
405.988	111.75
406.212	136.75
406.436	186.75
406.66	118.75
406.883	87.75
407.107	97.75
407.331	93.75
407.555	97.75
407.778	91.75
408.002	85.75
408.226	90.75
408.449	75.75
408.673	82.75
408.896	97.75
409.12	96.75
409.344	85.75
409.567	85.75
409.791	99.75
410.014	82.75
410.238	89.75
410.461	84.75
410.685	91.75
410.908	102.75
411.132	94.75
411.355	105.75
411.578	85.75
411.802	75.75
412.025	91.75
412.249	84.75
412.472	81.75
412.695	98.75
412.919	100.75
413.142	96.75
413.365	96.75
413.589	87.75
413.812	99.75
414.035	79.75
414.258	76.75
414.482	98.75
414.705	102.75
414.928	89.75
415.151	102.75
415.374	79.75
415.597	91.75
415.821	89.75
416.044	95.75
416.267	91.75
416.49	95.75
416.713	100.75
416.936	82.75
417.159	88.75
417.382	94.75
417.605	92.75
417.828	82.75
418.051	91.75
418.274	93.75
418.497	84.75
418.72	90.75
418.943	81.75
419.166	90.75
419.389	91.75
419.611	97.75
419.834	88.75
420.057	88.75
420.28	69.75
420.503	85.75
420.726	92.75
420.948	84.75
421.171	86.75
421.394	87.75
421.617	86.75
421.839	93.75
422.062	76.75
422.285	83.75
422.507	92.75
422.73	104.75
422.953	93.75
423.175	92.75
423.398	86.75
423.621	83.75
423.843	83.75
424.066	76.75
424.288	81.75
424.511	96.75
424.733	86.75
424.956	87.75
425.178	86.75
425.401	87.75
425.623	83.75
425.846	79.75
426.068	96.75
426.291	102.75
426.513	87.75
426.735	96.75
426.958	88.75
427.18	113.75
427.402	108.75
427.625	134.75
427.847	93.75
428.069	89.75
428.292	79.75
428.514	75.75
428.736	81.75
428.958	99.75
429.181	93.75
429.403	79.75
429.625	81.75
429.847	85.75
430.069	88.75
430.292	83.75
430.514	78.75
430.736	88.75
430.958	81.75
431.18	78.75
431.402	79.75
431.624	101.75
431.846	88.75
432.068	88.75
432.29	77.75
432.512	91.75
432.734	80.75
432.956	78.75
433.178	95.75
433.4	104.75
433.622	94.75
433.844	85.75
434.066	94.75
434.287	91.75
434.509	91.75
434.731	84.75
434.953	88.75
435.175	91.75
435.397	100.75
435.618	96.75
435.84	96.75
436.062	118.75
436.284	103.75
436.505	78.75
436.727	93.75
436.949	84.75
437.17	80.75
437.392	88.75
437.614	65.75
437.835	85.75
438.057	100.75
438.278	110.75
438.5	103.75
438.721	95.75
438.943	92.75
439.165	84.75
439.386	86.75
439.608	69.75
439.829	105.75
440.05	100.75
440.272	110.75
440.493	80.75
440.715	84.75
440.936	96.75
441.158	87.75
441.379	87.75
441.6	77.75
441.822	86.75
442.043	75.75
442.264	83.75
442.486	88.75
442.707	84.75
442.928	92.75
443.149	105.75
443.371	110.75
443.592	94.75
443.813	110.75
444.034	102.75
444.255	86.75
444.476	84.75
444.698	90.75
444.919	97.75
445.14	131.75
445.361	99.75
445.582	110.75
445.803	116.75
446.024	108.75
446.245	120.75
446.466	96.75
446.687	82.75
446.908	90.75
447.129	86.75
447.35	89.75
447.571	92.75
447.792	93.75
448.013	93.75
448.234	98.75
448.455	109.75
448.675	103.75
448.896	109.75
449.117	94.75
449.338	106.75
449.559	115.75
449.779	126.75
450	93.75
450.221	102.75
450.442	90.75
450.662	93.75
450.883	100.75
451.104	93.75
451.324	92.75
451.545	72.75
451.766	81.75
451.986	87.75
452.207	88.75
452.428	105.75
452.648	87.75
452.869	96.75
453.089	100.75
453.31	115.75
453.53	83.75
453.751	90.75
453.971	88.75
454.192	99.75
454.412	81.75
454.633	92.75
454.853	86.75
455.073	75.75
455.294	94.75
455.514	93.75
455.734	96.75
455.955	79.75
456.175	73.75
456.395	87.75
456.616	90.75
456.836	87.75
457.056	75.75
457.276	86.75
457.497	82.75
457.717	97.75
457.937	88.75
458.157	80.75
458.377	85.75
458.598	96.75
458.818	115.75
459.038	115.75
459.258	105.75
459.478	102.75
459.698	84.75
459.918	87.75
460.138	88.75
460.358	89.75
460.578	95.75
460.798	79.75
461.018	93.75
461.238	83.75
461.458	88.75
461.678	84.75
461.898	91.75
462.118	82.75
462.338	79.75
462.558	84.75
462.777	81.75
462.997	87.75
463.217	74.75
463.437	67.75
463.657	67.75
463.876	77.75
464.096	80.75
464.316	97.75
464.536	82.75
464.755	79.75
464.975	86.75
465.195	138.75
465.414	127.75
465.634	92.75
465.854	85.75
466.073	98.75
466.293	85.75
466.512	78.75
466.732	65.75
466.951	89.75
467.171	92.75
467.391	89.75
467.61	88.75
467.829	103.75
468.049	85.75
468.268	85.75
468.488	85.75
468.707	89.75
468.927	86.75
469.146	90.75
469.365	92.75
469.585	81.75
469.804	97.75
470.023	93.75
470.243	95.75
470.462	90.75
470.681	98.75
470.901	78.75
471.12	84.75
471.339	87.75
471.558	88.75
471.777	87.75
471.997	79.75
472.216	92.75
472.435	95.75
472.654	93.75
472.873	76.75
473.092	77.75
473.311	84.75
473.53	94.75
473.749	77.75
473.968	109.75
474.187	104.75
474.406	78.75
474.625	97.75
474.844	98.75
475.063	81.75
475.282	80.75
475.501	87.75
475.72	93.75
475.939	85.75
476.158	74.75
476.377	93.75
476.596	77.75
476.814	87.75
477.033	84.75
477.252	93.75
477.471	94.75
477.69	91.75
477.908	98.75
478.127	90.75
478.346	93.75
478.564	96.75
478.783	101.75
479.002	95.75
479.22	80.75
479.439	95.75
479.658	89.75
479.876	87.75
480.095	83.75
480.313	84.75
480.532	69.75
480.751	100.75
480.969	86.75
481.188	87.75
481.406	99.75
481.624	100.75
481.843	94.75
482.061	84.75
482.28	85.75
482.498	97.75
482.717	85.75
482.935	85.75
483.153	73.75
483.372	97.75
483.59	80.75
483.808	108.75
484.027	86.75
484.245	85.75
484.463	88.75
484.681	107.75
484.9	94.75
485.118	87.75
485.336	99.75
485.554	109.75
485.772	103.75
485.99	89.75
486.209	109.75
486.427	108.75
486.645	91.75
486.863	116.75
487.081	108.75
487.299	86.75
487.517	78.75
487.735	98.75
487.953	87.75
488.171	87.75
488.389	100.75
488.607	95.75
488.825	89.75
489.043	80.75
489.261	89.75
489.479	93.75
489.696	87.75
489.914	72.75
490.132	77.75
490.35	94.75
490.568	91.75
490.786	78.75
491.003	80.75
491.221	93.75
491.439	72.75
491.657	87.75
491.874	91.75
492.092	84.75
492.31	84.75
492.527	106.75
492.745	90.75
492.963	93.75
493.18	90.75
493.398	99.75
493.615	88.75
493.833	97.75
494.05	81.75
494.268	82.75
494.485	104.75
494.703	101.75
494.92	99.75
495.138	100.75
495.355	85.75
495.573	85.75
495.79	82.75
496.008	99.75
496.225	101.75
496.442	114.75
496.66	91.75
496.877	89.75
497.094	86.75
497.312	84.75
497.529	92.75
497.746	89.75
497.963	77.75
498.181	78.75
498.398	96.75
498.615	87.75
498.832	108.75
499.049	80.75
499.267	82.75
499.484	77.75
499.701	91.75
499.918	104.75
500.135	89.75
500.352	82.75
500.569	88.75
500.786	92.75
501.003	97.75
501.22	86.75
501.437	87.75
501.654	95.75
501.871	104.75
502.088	88.75
502.305	86.75
502.522	87.75
502.739	85.75
502.956	76.75
503.172	98.75
503.389	87.75
503.606	90.75
503.823	82.75
504.04	79.75
504.256	84.75
504.473	83.75
504.69	100.75
504.907	92.75
505.123	85.75
505.34	85.75
505.557	95.75
505.773	96.75
505.99	74.75
506.207	74.75
506.423	103.75
506.64	92.75
506.856	99.75
507.073	89.75
507.289	100.75
507.506	89.75
507.722	98.75
507.939	99.75
508.155	93.75
508.372	86.75
508.588	87.75
508.805	79.75
509.021	88.75
509.238	84.75
509.454	93.75
509.67	92.75
509.887	104.75
510.103	118.75
510.319	195.75
510.536	607.75
510.752	1903.75
510.968	544.75
511.184	143.75
511.401	89.75
511.617	106.75
511.833	87.75
512.049	96.75
512.265	82.75
512.481	98.75
512.698	81.75
512.914	88.75
513.13	98.75
513.346	102.75
513.562	95.75
513.778	95.75
513.994	92.75
514.21	88.75
514.426	119.75
514.642	110.75
514.858	109.75
515.074	136.75
515.29	342.75
515.506	1052.75
515.721	417.75
515.937	137.75
516.153	96.75
516.369	88.75
516.585	100.75
516.801	103.75
