Data from Circ_2003_H10_HRD10591_00076.txt Node
Date: Wed Jan 03 10:37:17 EST 2024
User: Yrep
Spectrometer: HR+D1059
Trigger mode: 1
Integration Time (sec): 1.000000E-1
Scans to average: 1
Electric dark correction enabled: true
Nonlinearity correction enabled: false
Boxcar width: 0
XAxis mode: Wavelengths
Number of Pixels in Spectrum: 2048
>>>>>Begin Spectral Data<<<<<
223.165	-6.38
223.4	-6.38
223.635	-6.38
223.869	-27.38
224.104	-6.38
224.338	-6.38
224.573	-20.38
224.808	-9.38
225.042	-11.38
225.277	-9.38
225.511	4.62
225.746	-3.38
225.98	8.62
226.215	9.62
226.449	-0.38
226.683	13.62
226.918	33.62
227.152	30.62
227.387	19.62
227.621	20.62
227.856	28.62
228.09	51.62
228.324	47.62
228.559	47.62
228.793	42.62
229.027	66.62
229.262	69.62
229.496	62.62
229.73	85.62
229.964	74.62
230.199	64.62
230.433	68.62
230.667	78.62
230.901	82.62
231.136	78.62
231.37	79.62
231.604	79.62
231.838	63.62
232.072	69.62
232.306	74.62
232.541	70.62
232.775	84.62
233.009	67.62
233.243	74.62
233.477	76.62
233.711	69.62
233.945	66.62
234.179	75.62
234.413	78.62
234.647	72.62
234.881	71.62
235.115	75.62
235.349	72.62
235.583	76.62
235.817	71.62
236.051	72.62
236.285	69.62
236.519	68.62
236.753	65.62
236.987	75.62
237.221	76.62
237.455	69.62
237.689	69.62
237.922	71.62
238.156	69.62
238.39	66.62
238.624	73.62
238.858	77.62
239.091	57.62
239.325	77.62
239.559	85.62
239.793	84.62
240.027	86.62
240.26	71.62
240.494	87.62
240.728	70.62
240.961	64.62
241.195	66.62
241.429	62.62
241.662	67.62
241.896	77.62
242.13	60.62
242.363	75.62
242.597	82.62
242.83	66.62
243.064	74.62
243.298	90.62
243.531	64.62
243.765	71.62
243.998	78.62
244.232	72.62
244.465	85.62
244.699	82.62
244.932	81.62
245.166	70.62
245.399	81.62
245.633	78.62
245.866	65.62
246.099	70.62
246.333	73.62
246.566	78.62
246.8	79.62
247.033	71.62
247.266	73.62
247.5	85.62
247.733	82.62
247.966	75.62
248.2	77.62
248.433	76.62
248.666	78.62
248.899	77.62
249.133	90.62
249.366	85.62
249.599	82.62
249.832	72.62
250.066	78.62
250.299	67.62
250.532	81.62
250.765	92.62
250.998	77.62
251.231	89.62
251.465	73.62
251.698	82.62
251.931	75.62
252.164	76.62
252.397	77.62
252.63	85.62
252.863	74.62
253.096	83.62
253.329	72.62
253.562	74.62
253.795	91.62
254.028	81.62
254.261	78.62
254.494	82.62
254.727	75.62
254.96	89.62
255.193	73.62
255.426	70.62
255.659	79.62
255.892	77.62
256.124	73.62
256.357	80.62
256.59	71.62
256.823	77.62
257.056	67.62
257.289	73.62
257.521	77.62
257.754	74.62
257.987	80.62
258.22	65.62
258.452	70.62
258.685	88.62
258.918	68.62
259.151	76.62
259.383	85.62
259.616	77.62
259.849	80.62
260.081	77.62
260.314	82.62
260.547	67.62
260.779	81.62
261.012	83.62
261.244	77.62
261.477	86.62
261.71	78.62
261.942	100.62
262.175	107.62
262.407	89.62
262.64	74.62
262.872	73.62
263.105	91.62
263.337	69.62
263.57	85.62
263.802	84.62
264.035	80.62
264.267	82.62
264.499	78.62
264.732	78.62
264.964	78.62
265.197	93.62
265.429	108.62
265.661	91.62
265.894	69.62
266.126	88.62
266.358	89.62
266.591	84.62
266.823	90.62
267.055	90.62
267.287	73.62
267.52	75.62
267.752	82.62
267.984	81.62
268.216	74.62
268.448	80.62
268.681	79.62
268.913	84.62
269.145	69.62
269.377	86.62
269.609	87.62
269.841	75.62
270.073	78.62
270.306	76.62
270.538	76.62
270.77	75.62
271.002	91.62
271.234	78.62
271.466	80.62
271.698	81.62
271.93	90.62
272.162	85.62
272.394	89.62
272.626	75.62
272.858	66.62
273.09	77.62
273.322	82.62
273.553	81.62
273.785	75.62
274.017	79.62
274.249	83.62
274.481	69.62
274.713	93.62
274.945	77.62
275.176	85.62
275.408	77.62
275.64	86.62
275.872	85.62
276.104	84.62
276.335	84.62
276.567	97.62
276.799	99.62
277.031	99.62
277.262	80.62
277.494	85.62
277.726	78.62
277.957	82.62
278.189	79.62
278.421	85.62
278.652	73.62
278.884	68.62
279.115	73.62
279.347	79.62
279.579	82.62
279.81	65.62
280.042	81.62
280.273	90.62
280.505	75.62
280.736	91.62
280.968	87.62
281.199	79.62
281.431	76.62
281.662	84.62
281.894	92.62
282.125	88.62
282.356	103.62
282.588	142.62
282.819	110.62
283.051	86.62
283.282	84.62
283.513	82.62
283.745	66.62
283.976	91.62
284.207	104.62
284.439	73.62
284.67	83.62
284.901	73.62
285.132	82.62
285.364	87.62
285.595	81.62
285.826	63.62
286.057	92.62
286.288	93.62
286.52	99.62
286.751	94.62
286.982	73.62
287.213	81.62
287.444	89.62
287.675	83.62
287.906	90.62
288.138	92.62
288.369	87.62
288.6	88.62
288.831	82.62
289.062	93.62
289.293	82.62
289.524	78.62
289.755	77.62
289.986	78.62
290.217	75.62
290.448	79.62
290.679	94.62
290.91	80.62
291.141	80.62
291.371	84.62
291.602	70.62
291.833	91.62
292.064	90.62
292.295	82.62
292.526	87.62
292.757	99.62
292.987	91.62
293.218	97.62
293.449	78.62
293.68	79.62
293.91	87.62
294.141	90.62
294.372	96.62
294.603	77.62
294.833	86.62
295.064	79.62
295.295	98.62
295.525	90.62
295.756	101.62
295.987	112.62
296.217	128.62
296.448	121.62
296.679	98.62
296.909	95.62
297.14	88.62
297.37	78.62
297.601	79.62
297.831	80.62
298.062	96.62
298.292	91.62
298.523	89.62
298.753	79.62
298.984	100.62
299.214	92.62
299.445	82.62
299.675	89.62
299.905	100.62
300.136	86.62
300.366	86.62
300.597	76.62
300.827	90.62
301.057	99.62
301.288	100.62
301.518	97.62
301.748	86.62
301.979	93.62
302.209	86.62
302.439	93.62
302.669	78.62
302.9	97.62
303.13	93.62
303.36	92.62
303.59	111.62
303.82	96.62
304.051	81.62
304.281	84.62
304.511	86.62
304.741	94.62
304.971	81.62
305.201	87.62
305.431	80.62
305.661	86.62
305.891	92.62
306.121	77.62
306.352	107.62
306.582	95.62
306.812	95.62
307.042	93.62
307.272	88.62
307.502	91.62
307.731	93.62
307.961	102.62
308.191	80.62
308.421	80.62
308.651	84.62
308.881	100.62
309.111	94.62
309.341	93.62
309.571	82.62
309.8	80.62
310.03	83.62
310.26	78.62
310.49	81.62
310.72	98.62
310.949	101.62
311.179	83.62
311.409	100.62
311.639	78.62
311.868	87.62
312.098	76.62
312.328	89.62
312.557	92.62
312.787	92.62
313.017	106.62
313.246	85.62
313.476	92.62
313.706	90.62
313.935	81.62
314.165	97.62
314.394	107.62
314.624	95.62
314.853	98.62
315.083	94.62
315.312	87.62
315.542	89.62
315.771	94.62
316.001	85.62
316.23	93.62
316.46	86.62
316.689	88.62
316.919	92.62
317.148	83.62
317.377	93.62
317.607	77.62
317.836	73.62
318.065	88.62
318.295	87.62
318.524	91.62
318.753	95.62
318.983	94.62
319.212	100.62
319.441	110.62
319.67	97.62
319.9	110.62
320.129	92.62
320.358	85.62
320.587	89.62
320.816	81.62
321.046	92.62
321.275	99.62
321.504	87.62
321.733	90.62
321.962	103.62
322.191	86.62
322.42	108.62
322.649	107.62
322.878	96.62
323.108	114.62
323.337	116.62
323.566	128.62
323.795	149.62
324.024	204.62
324.253	403.62
324.482	873.62
324.71	1761.62
324.939	2263.62
325.168	849.62
325.397	245.62
325.626	147.62
325.855	113.62
326.084	126.62
326.313	128.62
326.542	162.62
326.77	246.62
326.999	474.62
327.228	971.62
327.457	1779.62
327.686	1400.62
327.914	386.62
328.143	196.62
328.372	156.62
328.6	138.62
328.829	111.62
329.058	114.62
329.287	128.62
329.515	99.62
329.744	122.62
329.972	111.62
330.201	134.62
330.43	160.62
330.658	124.62
330.887	139.62
331.115	114.62
331.344	91.62
331.572	87.62
331.801	91.62
332.03	98.62
332.258	95.62
332.486	87.62
332.715	92.62
332.943	83.62
333.172	101.62
333.4	101.62
333.629	97.62
333.857	117.62
334.085	116.62
334.314	142.62
334.542	202.62
334.771	193.62
334.999	106.62
335.227	88.62
335.455	87.62
335.684	89.62
335.912	97.62
336.14	91.62
336.369	98.62
336.597	100.62
336.825	106.62
337.053	77.62
337.281	83.62
337.51	83.62
337.738	81.62
337.966	83.62
338.194	91.62
338.422	80.62
338.65	95.62
338.878	95.62
339.106	93.62
339.334	82.62
339.562	87.62
339.79	93.62
340.018	82.62
340.246	102.62
340.474	82.62
340.702	105.62
340.93	83.62
341.158	94.62
341.386	106.62
341.614	85.62
341.842	96.62
342.07	89.62
342.298	86.62
342.526	83.62
342.754	104.62
342.981	87.62
343.209	104.62
343.437	87.62
343.665	94.62
343.893	79.62
344.12	85.62
344.348	87.62
344.576	85.62
344.804	83.62
345.031	94.62
345.259	98.62
345.487	83.62
345.714	87.62
345.942	88.62
346.17	96.62
346.397	87.62
346.625	98.62
346.853	85.62
347.08	74.62
347.308	90.62
347.535	82.62
347.763	97.62
347.99	98.62
348.218	102.62
348.445	111.62
348.673	84.62
348.9	85.62
349.128	85.62
349.355	95.62
349.583	91.62
349.81	86.62
350.037	93.62
350.265	87.62
350.492	91.62
350.72	83.62
350.947	83.62
351.174	97.62
351.402	104.62
351.629	101.62
351.856	95.62
352.083	107.62
352.311	104.62
352.538	112.62
352.765	115.62
352.992	103.62
353.22	80.62
353.447	98.62
353.674	106.62
353.901	105.62
354.128	87.62
354.355	95.62
354.583	80.62
354.81	78.62
355.037	90.62
355.264	87.62
355.491	96.62
355.718	91.62
355.945	99.62
356.172	90.62
356.399	96.62
356.626	76.62
356.853	76.62
357.08	94.62
357.307	89.62
357.534	86.62
357.761	87.62
357.988	94.62
358.215	90.62
358.441	82.62
358.668	98.62
358.895	90.62
359.122	82.62
359.349	87.62
359.576	95.62
359.802	88.62
360.029	95.62
360.256	101.62
360.483	93.62
360.709	76.62
360.936	76.62
361.163	92.62
361.39	81.62
361.616	84.62
361.843	98.62
362.07	105.62
362.296	91.62
362.523	97.62
362.749	86.62
362.976	73.62
363.203	94.62
363.429	94.62
363.656	90.62
363.882	92.62
364.109	84.62
364.335	93.62
364.562	89.62
364.788	95.62
365.015	77.62
365.241	106.62
365.468	92.62
365.694	96.62
365.92	85.62
366.147	87.62
366.373	84.62
366.599	78.62
366.826	85.62
367.052	83.62
367.278	96.62
367.505	77.62
367.731	81.62
367.957	83.62
368.184	100.62
368.41	104.62
368.636	99.62
368.862	99.62
369.089	86.62
369.315	87.62
369.541	96.62
369.767	82.62
369.993	85.62
370.219	68.62
370.445	68.62
370.672	93.62
370.898	87.62
371.124	77.62
371.35	97.62
371.576	89.62
371.802	92.62
372.028	100.62
372.254	79.62
372.48	81.62
372.706	82.62
372.932	84.62
373.158	72.62
373.384	79.62
373.61	93.62
373.835	99.62
374.061	89.62
374.287	96.62
374.513	91.62
374.739	84.62
374.965	99.62
375.191	68.62
375.416	84.62
375.642	86.62
375.868	93.62
376.094	92.62
376.319	76.62
376.545	91.62
376.771	80.62
376.997	92.62
377.222	75.62
377.448	88.62
377.674	69.62
377.899	95.62
378.125	77.62
378.35	82.62
378.576	87.62
378.802	78.62
379.027	95.62
379.253	86.62
379.478	98.62
379.704	88.62
379.929	90.62
380.155	72.62
380.38	98.62
380.606	87.62
380.831	80.62
381.057	92.62
381.282	87.62
381.507	95.62
381.733	90.62
381.958	99.62
382.184	83.62
382.409	86.62
382.634	89.62
382.86	86.62
383.085	95.62
383.31	101.62
383.535	98.62
383.761	103.62
383.986	100.62
384.211	94.62
384.436	102.62
384.662	89.62
384.887	93.62
385.112	106.62
385.337	93.62
385.562	108.62
385.787	108.62
386.013	95.62
386.238	106.62
386.463	85.62
386.688	107.62
386.913	104.62
387.138	94.62
387.363	111.62
387.588	104.62
387.813	86.62
388.038	97.62
388.263	101.62
388.488	98.62
388.713	108.62
388.938	100.62
389.163	90.62
389.387	74.62
389.612	94.62
389.837	87.62
390.062	93.62
390.287	72.62
390.512	89.62
390.736	86.62
390.961	89.62
391.186	105.62
391.411	88.62
391.636	83.62
391.86	83.62
392.085	82.62
392.31	82.62
392.534	77.62
392.759	94.62
392.984	74.62
393.208	83.62
393.433	78.62
393.658	80.62
393.882	82.62
394.107	83.62
394.331	80.62
394.556	85.62
394.78	77.62
395.005	84.62
395.229	88.62
395.454	86.62
395.678	103.62
395.903	85.62
396.127	70.62
396.352	82.62
396.576	75.62
396.801	97.62
397.025	87.62
397.249	79.62
397.474	85.62
397.698	87.62
397.922	81.62
398.147	81.62
398.371	71.62
398.595	85.62
398.82	89.62
399.044	93.62
399.268	68.62
399.492	100.62
399.717	86.62
399.941	90.62
400.165	80.62
400.389	82.62
400.613	84.62
400.837	89.62
401.062	82.62
401.286	88.62
401.51	71.62
401.734	95.62
401.958	102.62
402.182	118.62
402.406	134.62
402.63	110.62
402.854	94.62
403.078	83.62
403.302	85.62
403.526	93.62
403.75	94.62
403.974	91.62
404.198	73.62
404.422	79.62
404.645	96.62
404.869	94.62
405.093	101.62
405.317	95.62
405.541	100.62
405.765	97.62
405.988	101.62
406.212	163.62
406.436	208.62
406.66	125.62
406.883	86.62
407.107	78.62
407.331	94.62
407.555	89.62
407.778	87.62
408.002	85.62
408.226	95.62
408.449	77.62
408.673	76.62
408.896	101.62
409.12	85.62
409.344	83.62
409.567	85.62
409.791	73.62
410.014	92.62
410.238	90.62
410.461	81.62
410.685	87.62
410.908	102.62
411.132	101.62
411.355	80.62
411.578	91.62
411.802	69.62
412.025	69.62
412.249	78.62
412.472	79.62
412.695	116.62
412.919	92.62
413.142	84.62
413.365	73.62
413.589	86.62
413.812	80.62
414.035	91.62
414.258	95.62
414.482	87.62
414.705	78.62
414.928	73.62
415.151	89.62
415.374	88.62
415.597	95.62
415.821	76.62
416.044	83.62
416.267	90.62
416.49	69.62
416.713	87.62
416.936	92.62
417.159	79.62
417.382	80.62
417.605	89.62
417.828	95.62
418.051	75.62
418.274	93.62
418.497	84.62
418.72	70.62
418.943	99.62
419.166	86.62
419.389	99.62
419.611	85.62
419.834	89.62
420.057	96.62
420.28	75.62
420.503	95.62
420.726	82.62
420.948	77.62
421.171	83.62
421.394	75.62
421.617	71.62
421.839	75.62
422.062	89.62
422.285	95.62
422.507	93.62
422.73	98.62
422.953	83.62
423.175	93.62
423.398	73.62
423.621	86.62
423.843	82.62
424.066	78.62
424.288	87.62
424.511	92.62
424.733	94.62
424.956	87.62
425.178	80.62
425.401	99.62
425.623	97.62
425.846	92.62
426.068	76.62
426.291	93.62
426.513	80.62
426.735	81.62
426.958	87.62
427.18	93.62
427.402	126.62
427.625	167.62
427.847	119.62
428.069	114.62
428.292	98.62
428.514	85.62
428.736	82.62
428.958	81.62
429.181	86.62
429.403	77.62
429.625	90.62
429.847	101.62
430.069	95.62
430.292	97.62
430.514	83.62
430.736	88.62
430.958	76.62
431.18	88.62
431.402	85.62
431.624	76.62
431.846	95.62
432.068	71.62
432.29	69.62
432.512	70.62
432.734	73.62
432.956	67.62
433.178	85.62
433.4	95.62
433.622	87.62
433.844	91.62
434.066	81.62
434.287	77.62
434.509	93.62
434.731	93.62
434.953	74.62
435.175	85.62
435.397	92.62
435.618	84.62
435.84	95.62
436.062	107.62
436.284	101.62
436.505	94.62
436.727	90.62
436.949	94.62
437.17	94.62
437.392	91.62
437.614	77.62
437.835	102.62
438.057	110.62
438.278	99.62
438.5	92.62
438.721	108.62
438.943	98.62
439.165	77.62
439.386	103.62
439.608	82.62
439.829	97.62
440.05	100.62
440.272	125.62
440.493	80.62
440.715	85.62
440.936	79.62
441.158	77.62
441.379	77.62
441.6	91.62
441.822	91.62
442.043	92.62
442.264	116.62
442.486	87.62
442.707	84.62
442.928	81.62
443.149	108.62
443.371	123.62
443.592	93.62
443.813	88.62
444.034	108.62
444.255	98.62
444.476	68.62
444.698	86.62
444.919	90.62
445.14	123.62
445.361	93.62
445.582	108.62
445.803	124.62
446.024	134.62
446.245	109.62
446.466	92.62
446.687	86.62
446.908	88.62
447.129	85.62
447.35	84.62
447.571	97.62
447.792	79.62
448.013	90.62
448.234	101.62
448.455	94.62
448.675	104.62
448.896	107.62
449.117	79.62
449.338	107.62
449.559	121.62
449.779	121.62
450	74.62
450.221	87.62
450.442	78.62
450.662	84.62
450.883	87.62
451.104	109.62
451.324	89.62
451.545	78.62
451.766	82.62
451.986	91.62
452.207	90.62
452.428	91.62
452.648	92.62
452.869	92.62
453.089	85.62
453.31	102.62
453.53	97.62
453.751	87.62
453.971	93.62
454.192	99.62
454.412	87.62
454.633	73.62
454.853	82.62
455.073	70.62
455.294	78.62
455.514	89.62
455.734	83.62
455.955	82.62
456.175	74.62
456.395	75.62
456.616	86.62
456.836	80.62
457.056	82.62
457.276	79.62
457.497	85.62
457.717	86.62
457.937	61.62
458.157	101.62
458.377	75.62
458.598	95.62
458.818	137.62
459.038	143.62
459.258	102.62
459.478	91.62
459.698	69.62
459.918	69.62
460.138	86.62
460.358	87.62
460.578	72.62
460.798	85.62
461.018	101.62
461.238	86.62
461.458	81.62
461.678	91.62
461.898	81.62
462.118	68.62
462.338	83.62
462.558	93.62
462.777	78.62
462.997	80.62
463.217	99.62
463.437	96.62
463.657	94.62
463.876	74.62
464.096	75.62
464.316	87.62
464.536	84.62
464.755	102.62
464.975	100.62
465.195	137.62
465.414	139.62
465.634	102.62
465.854	90.62
466.073	79.62
466.293	66.62
466.512	76.62
466.732	84.62
466.951	87.62
467.171	82.62
467.391	89.62
467.61	97.62
467.829	111.62
468.049	99.62
468.268	122.62
468.488	80.62
468.707	91.62
468.927	80.62
469.146	81.62
469.365	88.62
469.585	93.62
469.804	82.62
470.023	79.62
470.243	94.62
470.462	95.62
470.681	87.62
470.901	89.62
471.12	91.62
471.339	84.62
471.558	90.62
471.777	73.62
471.997	95.62
472.216	163.62
472.435	221.62
472.654	109.62
472.873	87.62
473.092	73.62
473.311	71.62
473.53	73.62
473.749	80.62
473.968	90.62
474.187	96.62
474.406	95.62
474.625	90.62
474.844	93.62
475.063	72.62
475.282	69.62
475.501	87.62
475.72	81.62
475.939	87.62
476.158	78.62
476.377	106.62
476.596	92.62
476.814	80.62
477.033	91.62
477.252	97.62
477.471	73.62
477.69	82.62
477.908	96.62
478.127	92.62
478.346	87.62
478.564	82.62
478.783	90.62
479.002	91.62
479.22	91.62
479.439	98.62
479.658	86.62
479.876	94.62
480.095	101.62
480.313	96.62
480.532	83.62
480.751	101.62
480.969	177.62
481.188	348.62
481.406	253.62
481.624	99.62
481.843	89.62
482.061	80.62
482.28	99.62
482.498	72.62
482.717	68.62
482.935	80.62
483.153	82.62
483.372	78.62
483.59	98.62
483.808	75.62
484.027	82.62
484.245	79.62
484.463	66.62
484.681	85.62
484.9	79.62
485.118	81.62
485.336	83.62
485.554	82.62
485.772	85.62
485.99	106.62
486.209	104.62
486.427	99.62
486.645	93.62
486.863	98.62
487.081	89.62
487.299	81.62
487.517	85.62
487.735	95.62
487.953	73.62
488.171	82.62
488.389	93.62
488.607	104.62
488.825	70.62
489.043	77.62
489.261	93.62
489.479	87.62
489.696	90.62
489.914	82.62
490.132	86.62
490.35	92.62
490.568	83.62
490.786	73.62
491.003	93.62
491.221	86.62
491.439	84.62
491.657	108.62
491.874	78.62
492.092	95.62
492.31	100.62
492.527	75.62
492.745	73.62
492.963	79.62
493.18	83.62
493.398	101.62
493.615	93.62
493.833	88.62
494.05	87.62
494.268	80.62
494.485	82.62
494.703	85.62
494.92	87.62
495.138	93.62
495.355	91.62
495.573	96.62
495.79	83.62
496.008	87.62
496.225	97.62
496.442	69.62
496.66	87.62
496.877	91.62
497.094	89.62
497.312	98.62
497.529	97.62
497.746	78.62
497.963	95.62
498.181	86.62
498.398	81.62
498.615	97.62
498.832	93.62
499.049	80.62
499.267	95.62
499.484	80.62
499.701	81.62
499.918	80.62
500.135	72.62
500.352	88.62
500.569	95.62
500.786	90.62
501.003	97.62
501.22	73.62
501.437	87.62
501.654	85.62
501.871	90.62
502.088	94.62
502.305	81.62
502.522	90.62
502.739	98.62
502.956	95.62
503.172	78.62
503.389	88.62
503.606	99.62
503.823	90.62
504.04	77.62
504.256	83.62
504.473	87.62
504.69	71.62
504.907	86.62
505.123	86.62
505.34	65.62
505.557	84.62
505.773	81.62
505.99	87.62
506.207	99.62
506.423	94.62
506.64	85.62
506.856	79.62
507.073	71.62
507.289	89.62
507.506	95.62
507.722	100.62
507.939	108.62
508.155	94.62
508.372	86.62
508.588	91.62
508.805	83.62
509.021	87.62
509.238	99.62
509.454	99.62
509.67	109.62
509.887	94.62
510.103	141.62
510.319	232.62
510.536	778.62
510.752	2456.62
510.968	682.62
511.184	137.62
511.401	109.62
511.617	99.62
511.833	81.62
512.049	83.62
512.265	98.62
512.481	94.62
512.698	86.62
512.914	79.62
513.13	80.62
513.346	80.62
513.562	94.62
513.778	97.62
513.994	86.62
514.21	98.62
514.426	110.62
514.642	126.62
514.858	117.62
515.074	152.62
515.29	410.62
515.506	1385.62
515.721	511.62
515.937	133.62
516.153	112.62
516.369	104.62
516.585	102.62
516.801	80.62
517.016	100.62
517.232	93.62
