Data from Circ_2003_H10_HRD10591_00097.txt Node
Date: Wed Jan 03 10:37:22 EST 2024
User: Yrep
Spectrometer: HR+D1059
Trigger mode: 1
Integration Time (sec): 1.000000E-1
Scans to average: 1
Electric dark correction enabled: true
Nonlinearity correction enabled: false
Boxcar width: 0
XAxis mode: Wavelengths
Number of Pixels in Spectrum: 2048
>>>>>Begin Spectral Data<<<<<
223.165	-23.88
223.4	-23.88
223.635	-23.88
223.869	-3.88
224.104	-21.88
224.338	-18.88
224.573	-20.88
224.808	-10.88
225.042	-5.88
225.277	-9.88
225.511	-7.88
225.746	-0.88
225.98	22.12
226.215	15.12
226.449	22.12
226.683	9.12
226.918	29.12
227.152	27.12
227.387	32.12
227.621	45.12
227.856	41.12
228.09	46.12
228.324	61.12
228.559	49.12
228.793	72.12
229.027	49.12
229.262	69.12
229.496	86.12
229.73	69.12
229.964	75.12
230.199	70.12
230.433	73.12
230.667	76.12
230.901	78.12
231.136	79.12
231.37	83.12
231.604	71.12
231.838	66.12
232.072	75.12
232.306	97.12
232.541	84.12
232.775	71.12
233.009	75.12
233.243	82.12
233.477	87.12
233.711	91.12
233.945	83.12
234.179	70.12
234.413	75.12
234.647	71.12
234.881	95.12
235.115	76.12
235.349	78.12
235.583	72.12
235.817	84.12
236.051	74.12
236.285	77.12
236.519	68.12
236.753	73.12
236.987	86.12
237.221	80.12
237.455	79.12
237.689	74.12
237.922	88.12
238.156	74.12
238.39	86.12
238.624	80.12
238.858	72.12
239.091	57.12
239.325	84.12
239.559	84.12
239.793	77.12
240.027	85.12
240.26	72.12
240.494	75.12
240.728	83.12
240.961	79.12
241.195	91.12
241.429	96.12
241.662	98.12
241.896	81.12
242.13	83.12
242.363	73.12
242.597	85.12
242.83	85.12
243.064	80.12
243.298	79.12
243.531	70.12
243.765	65.12
243.998	91.12
244.232	71.12
244.465	81.12
244.699	91.12
244.932	73.12
245.166	75.12
245.399	86.12
245.633	78.12
245.866	65.12
246.099	85.12
246.333	87.12
246.566	73.12
246.8	87.12
247.033	67.12
247.266	77.12
247.5	90.12
247.733	77.12
247.966	71.12
248.2	79.12
248.433	90.12
248.666	71.12
248.899	80.12
249.133	92.12
249.366	90.12
249.599	79.12
249.832	77.12
250.066	90.12
250.299	90.12
250.532	92.12
250.765	58.12
250.998	80.12
251.231	74.12
251.465	81.12
251.698	75.12
251.931	90.12
252.164	91.12
252.397	74.12
252.63	82.12
252.863	66.12
253.096	78.12
253.329	90.12
253.562	79.12
253.795	86.12
254.028	81.12
254.261	67.12
254.494	72.12
254.727	82.12
254.96	77.12
255.193	91.12
255.426	89.12
255.659	78.12
255.892	72.12
256.124	88.12
256.357	80.12
256.59	75.12
256.823	85.12
257.056	66.12
257.289	82.12
257.521	88.12
257.754	70.12
257.987	78.12
258.22	89.12
258.452	84.12
258.685	77.12
258.918	90.12
259.151	72.12
259.383	74.12
259.616	87.12
259.849	72.12
260.081	67.12
260.314	82.12
260.547	87.12
260.779	75.12
261.012	74.12
261.244	85.12
261.477	79.12
261.71	95.12
261.942	101.12
262.175	110.12
262.407	87.12
262.64	83.12
262.872	80.12
263.105	80.12
263.337	73.12
263.57	72.12
263.802	77.12
264.035	69.12
264.267	85.12
264.499	84.12
264.732	80.12
264.964	73.12
265.197	86.12
265.429	86.12
265.661	71.12
265.894	93.12
266.126	82.12
266.358	79.12
266.591	90.12
266.823	83.12
267.055	75.12
267.287	88.12
267.52	83.12
267.752	89.12
267.984	78.12
268.216	81.12
268.448	79.12
268.681	91.12
268.913	89.12
269.145	86.12
269.377	85.12
269.609	74.12
269.841	83.12
270.073	75.12
270.306	88.12
270.538	65.12
270.77	93.12
271.002	73.12
271.234	64.12
271.466	96.12
271.698	81.12
271.93	72.12
272.162	81.12
272.394	87.12
272.626	75.12
272.858	71.12
273.09	85.12
273.322	79.12
273.553	90.12
273.785	97.12
274.017	90.12
274.249	67.12
274.481	91.12
274.713	86.12
274.945	90.12
275.176	93.12
275.408	73.12
275.64	73.12
275.872	92.12
276.104	79.12
276.335	89.12
276.567	103.12
276.799	112.12
277.031	104.12
277.262	87.12
277.494	85.12
277.726	86.12
277.957	71.12
278.189	70.12
278.421	91.12
278.652	88.12
278.884	73.12
279.115	71.12
279.347	80.12
279.579	101.12
279.81	74.12
280.042	89.12
280.273	87.12
280.505	98.12
280.736	80.12
280.968	89.12
281.199	77.12
281.431	71.12
281.662	97.12
281.894	93.12
282.125	93.12
282.356	106.12
282.588	128.12
282.819	116.12
283.051	73.12
283.282	86.12
283.513	86.12
283.745	95.12
283.976	89.12
284.207	83.12
284.439	89.12
284.67	86.12
284.901	99.12
285.132	77.12
285.364	84.12
285.595	85.12
285.826	87.12
286.057	92.12
286.288	78.12
286.52	94.12
286.751	82.12
286.982	72.12
287.213	88.12
287.444	73.12
287.675	93.12
287.906	99.12
288.138	87.12
288.369	78.12
288.6	87.12
288.831	76.12
289.062	89.12
289.293	91.12
289.524	81.12
289.755	86.12
289.986	84.12
290.217	98.12
290.448	92.12
290.679	88.12
290.91	94.12
291.141	84.12
291.371	88.12
291.602	93.12
291.833	83.12
292.064	89.12
292.295	90.12
292.526	85.12
292.757	84.12
292.987	88.12
293.218	82.12
293.449	83.12
293.68	94.12
293.91	77.12
294.141	101.12
294.372	92.12
294.603	86.12
294.833	81.12
295.064	97.12
295.295	82.12
295.525	95.12
295.756	88.12
295.987	121.12
296.217	130.12
296.448	112.12
296.679	91.12
296.909	87.12
297.14	81.12
297.37	88.12
297.601	82.12
297.831	86.12
298.062	97.12
298.292	74.12
298.523	86.12
298.753	88.12
298.984	92.12
299.214	91.12
299.445	88.12
299.675	96.12
299.905	86.12
300.136	101.12
300.366	76.12
300.597	87.12
300.827	85.12
301.057	83.12
301.288	93.12
301.518	91.12
301.748	82.12
301.979	105.12
302.209	78.12
302.439	83.12
302.669	89.12
302.9	102.12
303.13	78.12
303.36	81.12
303.59	90.12
303.82	100.12
304.051	88.12
304.281	86.12
304.511	94.12
304.741	81.12
304.971	94.12
305.201	71.12
305.431	80.12
305.661	93.12
305.891	93.12
306.121	93.12
306.352	100.12
306.582	103.12
306.812	92.12
307.042	101.12
307.272	96.12
307.502	98.12
307.731	87.12
307.961	83.12
308.191	86.12
308.421	93.12
308.651	103.12
308.881	91.12
309.111	91.12
309.341	87.12
309.571	102.12
309.8	98.12
310.03	96.12
310.26	97.12
310.49	103.12
310.72	97.12
310.949	91.12
311.179	95.12
311.409	86.12
311.639	92.12
311.868	91.12
312.098	87.12
312.328	84.12
312.557	85.12
312.787	94.12
313.017	83.12
313.246	100.12
313.476	91.12
313.706	82.12
313.935	91.12
314.165	101.12
314.394	93.12
314.624	98.12
314.853	98.12
315.083	86.12
315.312	98.12
315.542	102.12
315.771	98.12
316.001	73.12
316.23	89.12
316.46	87.12
316.689	95.12
316.919	86.12
317.148	110.12
317.377	100.12
317.607	97.12
317.836	90.12
318.065	93.12
318.295	87.12
318.524	97.12
318.753	86.12
318.983	101.12
319.212	97.12
319.441	101.12
319.67	95.12
319.9	88.12
320.129	91.12
320.358	85.12
320.587	87.12
320.816	104.12
321.046	98.12
321.275	92.12
321.504	85.12
321.733	96.12
321.962	93.12
322.191	86.12
322.42	111.12
322.649	126.12
322.878	109.12
323.108	118.12
323.337	109.12
323.566	122.12
323.795	139.12
324.024	194.12
324.253	357.12
324.482	785.12
324.71	1556.12
324.939	2024.12
325.168	765.12
325.397	242.12
325.626	132.12
325.855	121.12
326.084	115.12
326.313	129.12
326.542	140.12
326.77	207.12
326.999	415.12
327.228	899.12
327.457	1609.12
327.686	1249.12
327.914	352.12
328.143	192.12
328.372	158.12
328.6	146.12
328.829	122.12
329.058	109.12
329.287	125.12
329.515	114.12
329.744	113.12
329.972	110.12
330.201	152.12
330.43	180.12
330.658	141.12
330.887	129.12
331.115	106.12
331.344	101.12
331.572	92.12
331.801	96.12
332.03	88.12
332.258	99.12
332.486	94.12
332.715	92.12
332.943	98.12
333.172	94.12
333.4	76.12
333.629	107.12
333.857	108.12
334.085	134.12
334.314	163.12
334.542	214.12
334.771	223.12
334.999	123.12
335.227	102.12
335.455	86.12
335.684	89.12
335.912	96.12
336.14	85.12
336.369	101.12
336.597	101.12
336.825	99.12
337.053	89.12
337.281	93.12
337.51	96.12
337.738	99.12
337.966	92.12
338.194	82.12
338.422	93.12
338.65	79.12
338.878	86.12
339.106	90.12
339.334	96.12
339.562	100.12
339.79	88.12
340.018	95.12
340.246	90.12
340.474	93.12
340.702	93.12
340.93	93.12
341.158	92.12
341.386	95.12
341.614	100.12
341.842	85.12
342.07	94.12
342.298	100.12
342.526	82.12
342.754	86.12
342.981	80.12
343.209	82.12
343.437	85.12
343.665	78.12
343.893	91.12
344.12	95.12
344.348	88.12
344.576	89.12
344.804	82.12
345.031	87.12
345.259	108.12
345.487	90.12
345.714	93.12
345.942	94.12
346.17	98.12
346.397	91.12
346.625	97.12
346.853	87.12
347.08	89.12
347.308	100.12
347.535	91.12
347.763	99.12
347.99	96.12
348.218	95.12
348.445	110.12
348.673	91.12
348.9	84.12
349.128	96.12
349.355	95.12
349.583	99.12
349.81	105.12
350.037	104.12
350.265	95.12
350.492	95.12
350.72	85.12
350.947	99.12
351.174	109.12
351.402	97.12
351.629	90.12
351.856	106.12
352.083	89.12
352.311	96.12
352.538	98.12
352.765	94.12
352.992	101.12
353.22	97.12
353.447	100.12
353.674	94.12
353.901	91.12
354.128	81.12
354.355	97.12
354.583	86.12
354.81	107.12
355.037	108.12
355.264	96.12
355.491	85.12
355.718	83.12
355.945	104.12
356.172	101.12
356.399	103.12
356.626	95.12
356.853	89.12
357.08	104.12
357.307	92.12
357.534	102.12
357.761	86.12
357.988	98.12
358.215	104.12
358.441	91.12
358.668	88.12
358.895	79.12
359.122	95.12
359.349	91.12
359.576	95.12
359.802	106.12
360.029	89.12
360.256	97.12
360.483	108.12
360.709	90.12
360.936	98.12
361.163	107.12
361.39	89.12
361.616	98.12
361.843	94.12
362.07	105.12
362.296	90.12
362.523	78.12
362.749	94.12
362.976	97.12
363.203	87.12
363.429	96.12
363.656	96.12
363.882	91.12
364.109	94.12
364.335	91.12
364.562	90.12
364.788	76.12
365.015	103.12
365.241	88.12
365.468	100.12
365.694	105.12
365.92	91.12
366.147	84.12
366.373	94.12
366.599	89.12
366.826	88.12
367.052	85.12
367.278	90.12
367.505	85.12
367.731	89.12
367.957	83.12
368.184	89.12
368.41	83.12
368.636	96.12
368.862	103.12
369.089	103.12
369.315	79.12
369.541	82.12
369.767	88.12
369.993	104.12
370.219	102.12
370.445	85.12
370.672	82.12
370.898	85.12
371.124	101.12
371.35	94.12
371.576	87.12
371.802	86.12
372.028	78.12
372.254	82.12
372.48	78.12
372.706	91.12
372.932	87.12
373.158	85.12
373.384	91.12
373.61	85.12
373.835	88.12
374.061	85.12
374.287	91.12
374.513	90.12
374.739	78.12
374.965	95.12
375.191	102.12
375.416	87.12
375.642	94.12
375.868	100.12
376.094	79.12
376.319	95.12
376.545	82.12
376.771	89.12
376.997	90.12
377.222	88.12
377.448	69.12
377.674	76.12
377.899	89.12
378.125	91.12
378.35	79.12
378.576	86.12
378.802	79.12
379.027	88.12
379.253	91.12
379.478	89.12
379.704	97.12
379.929	86.12
380.155	90.12
380.38	73.12
380.606	85.12
380.831	79.12
381.057	98.12
381.282	97.12
381.507	95.12
381.733	99.12
381.958	85.12
382.184	102.12
382.409	89.12
382.634	101.12
382.86	79.12
383.085	95.12
383.31	107.12
383.535	101.12
383.761	94.12
383.986	90.12
384.211	97.12
384.436	89.12
384.662	99.12
384.887	88.12
385.112	89.12
385.337	100.12
385.562	99.12
385.787	103.12
386.013	93.12
386.238	120.12
386.463	116.12
386.688	97.12
386.913	89.12
387.138	100.12
387.363	97.12
387.588	105.12
387.813	108.12
388.038	85.12
388.263	109.12
388.488	107.12
388.713	86.12
388.938	81.12
389.163	81.12
389.387	96.12
389.612	89.12
389.837	100.12
390.062	98.12
390.287	80.12
390.512	79.12
390.736	67.12
390.961	88.12
391.186	83.12
391.411	81.12
391.636	98.12
391.86	93.12
392.085	87.12
392.31	92.12
392.534	90.12
392.759	91.12
392.984	75.12
393.208	96.12
393.433	93.12
393.658	79.12
393.882	88.12
394.107	99.12
394.331	83.12
394.556	88.12
394.78	90.12
395.005	97.12
395.229	81.12
395.454	94.12
395.678	95.12
395.903	83.12
396.127	102.12
396.352	89.12
396.576	79.12
396.801	85.12
397.025	101.12
397.249	94.12
397.474	92.12
397.698	90.12
397.922	93.12
398.147	80.12
398.371	86.12
398.595	95.12
398.82	97.12
399.044	90.12
399.268	73.12
399.492	86.12
399.717	81.12
399.941	80.12
400.165	90.12
400.389	98.12
400.613	72.12
400.837	79.12
401.062	75.12
401.286	88.12
401.51	93.12
401.734	87.12
401.958	93.12
402.182	106.12
402.406	135.12
402.63	110.12
402.854	82.12
403.078	91.12
403.302	89.12
403.526	90.12
403.75	84.12
403.974	84.12
404.198	86.12
404.422	78.12
404.645	98.12
404.869	87.12
405.093	90.12
405.317	107.12
405.541	95.12
405.765	90.12
405.988	113.12
406.212	149.12
406.436	189.12
406.66	132.12
406.883	97.12
407.107	85.12
407.331	89.12
407.555	91.12
407.778	97.12
408.002	86.12
408.226	87.12
408.449	98.12
408.673	90.12
408.896	92.12
409.12	95.12
409.344	89.12
409.567	94.12
409.791	89.12
410.014	97.12
410.238	89.12
410.461	95.12
410.685	89.12
410.908	109.12
411.132	106.12
411.355	94.12
411.578	99.12
411.802	98.12
412.025	90.12
412.249	89.12
412.472	90.12
412.695	97.12
412.919	86.12
413.142	96.12
413.365	83.12
413.589	82.12
413.812	89.12
414.035	105.12
414.258	71.12
414.482	97.12
414.705	95.12
414.928	82.12
415.151	89.12
415.374	81.12
415.597	94.12
415.821	84.12
416.044	101.12
416.267	95.12
416.49	87.12
416.713	92.12
416.936	90.12
417.159	83.12
417.382	87.12
417.605	93.12
417.828	106.12
418.051	85.12
418.274	100.12
418.497	79.12
418.72	81.12
418.943	103.12
419.166	86.12
419.389	84.12
419.611	98.12
419.834	97.12
420.057	85.12
420.28	84.12
420.503	98.12
420.726	79.12
420.948	95.12
421.171	100.12
421.394	90.12
421.617	87.12
421.839	95.12
422.062	94.12
422.285	100.12
422.507	101.12
422.73	93.12
422.953	81.12
423.175	97.12
423.398	82.12
423.621	100.12
423.843	72.12
424.066	77.12
424.288	89.12
424.511	81.12
424.733	108.12
424.956	106.12
425.178	92.12
425.401	85.12
425.623	105.12
425.846	92.12
426.068	69.12
426.291	89.12
426.513	104.12
426.735	87.12
426.958	99.12
427.18	100.12
427.402	117.12
427.625	165.12
427.847	106.12
428.069	125.12
428.292	87.12
428.514	71.12
428.736	91.12
428.958	83.12
429.181	95.12
429.403	96.12
429.625	94.12
429.847	112.12
430.069	111.12
430.292	81.12
430.514	86.12
430.736	93.12
430.958	98.12
431.18	87.12
431.402	81.12
431.624	91.12
431.846	93.12
432.068	91.12
432.29	93.12
432.512	75.12
432.734	81.12
432.956	93.12
433.178	103.12
433.4	93.12
433.622	83.12
433.844	89.12
434.066	95.12
434.287	87.12
434.509	68.12
434.731	89.12
434.953	79.12
435.175	68.12
435.397	76.12
435.618	84.12
435.84	86.12
436.062	109.12
436.284	105.12
436.505	88.12
436.727	100.12
436.949	93.12
437.17	78.12
437.392	82.12
437.614	86.12
437.835	89.12
438.057	119.12
438.278	100.12
438.5	90.12
438.721	104.12
438.943	94.12
439.165	71.12
439.386	82.12
439.608	78.12
439.829	94.12
440.05	110.12
440.272	134.12
440.493	89.12
440.715	87.12
440.936	90.12
441.158	94.12
441.379	85.12
441.6	84.12
441.822	95.12
442.043	91.12
442.264	101.12
442.486	97.12
442.707	88.12
442.928	87.12
443.149	123.12
443.371	109.12
443.592	103.12
443.813	97.12
444.034	93.12
444.255	88.12
444.476	79.12
444.698	84.12
444.919	79.12
445.14	125.12
445.361	126.12
445.582	119.12
445.803	129.12
446.024	122.12
446.245	127.12
446.466	102.12
446.687	91.12
446.908	94.12
447.129	88.12
447.35	90.12
447.571	85.12
447.792	89.12
448.013	88.12
448.234	106.12
448.455	102.12
448.675	98.12
448.896	121.12
449.117	99.12
449.338	91.12
449.559	109.12
449.779	126.12
450	90.12
450.221	86.12
450.442	87.12
450.662	91.12
450.883	96.12
451.104	97.12
451.324	68.12
451.545	97.12
451.766	75.12
451.986	91.12
452.207	88.12
452.428	92.12
452.648	99.12
452.869	105.12
453.089	118.12
453.31	119.12
453.53	97.12
453.751	91.12
453.971	86.12
454.192	95.12
454.412	93.12
454.633	88.12
454.853	88.12
455.073	96.12
455.294	86.12
455.514	100.12
455.734	105.12
455.955	82.12
456.175	81.12
456.395	97.12
456.616	91.12
456.836	82.12
457.056	82.12
457.276	75.12
457.497	96.12
457.717	89.12
457.937	91.12
458.157	94.12
458.377	90.12
458.598	122.12
458.818	151.12
459.038	141.12
459.258	107.12
459.478	94.12
459.698	79.12
459.918	85.12
460.138	92.12
460.358	85.12
460.578	85.12
460.798	88.12
461.018	89.12
461.238	81.12
461.458	82.12
461.678	94.12
461.898	81.12
462.118	89.12
462.338	94.12
462.558	84.12
462.777	80.12
462.997	85.12
463.217	84.12
463.437	82.12
463.657	88.12
463.876	96.12
464.096	69.12
464.316	89.12
464.536	88.12
464.755	94.12
464.975	90.12
465.195	139.12
465.414	149.12
465.634	100.12
465.854	86.12
466.073	87.12
466.293	89.12
466.512	90.12
466.732	74.12
466.951	82.12
467.171	107.12
467.391	110.12
467.61	87.12
467.829	110.12
468.049	107.12
468.268	150.12
468.488	95.12
468.707	91.12
468.927	89.12
469.146	84.12
469.365	88.12
469.585	84.12
469.804	97.12
470.023	94.12
470.243	85.12
470.462	106.12
470.681	114.12
470.901	78.12
471.12	102.12
471.339	89.12
471.558	81.12
471.777	78.12
471.997	103.12
472.216	169.12
472.435	269.12
472.654	120.12
472.873	77.12
473.092	86.12
473.311	83.12
473.53	78.12
473.749	97.12
473.968	93.12
474.187	91.12
474.406	89.12
474.625	83.12
474.844	70.12
475.063	96.12
475.282	96.12
475.501	75.12
475.72	79.12
475.939	73.12
476.158	82.12
476.377	93.12
476.596	97.12
476.814	81.12
477.033	86.12
477.252	92.12
477.471	77.12
477.69	96.12
477.908	96.12
478.127	98.12
478.346	83.12
478.564	88.12
478.783	110.12
479.002	82.12
479.22	83.12
479.439	104.12
479.658	95.12
479.876	96.12
480.095	87.12
480.313	89.12
480.532	85.12
480.751	93.12
480.969	179.12
481.188	452.12
481.406	283.12
481.624	109.12
481.843	88.12
482.061	98.12
482.28	85.12
482.498	88.12
482.717	85.12
482.935	101.12
483.153	82.12
483.372	90.12
483.59	87.12
483.808	98.12
484.027	91.12
484.245	87.12
484.463	99.12
484.681	97.12
484.9	78.12
485.118	71.12
485.336	98.12
485.554	91.12
485.772	96.12
485.99	96.12
486.209	92.12
486.427	91.12
486.645	111.12
486.863	95.12
487.081	90.12
487.299	102.12
487.517	87.12
487.735	96.12
487.953	72.12
488.171	84.12
488.389	94.12
488.607	116.12
488.825	81.12
489.043	80.12
489.261	89.12
489.479	96.12
489.696	87.12
489.914	90.12
490.132	90.12
490.35	76.12
490.568	92.12
490.786	94.12
491.003	96.12
491.221	89.12
491.439	84.12
491.657	88.12
491.874	81.12
492.092	87.12
492.31	77.12
492.527	81.12
492.745	97.12
492.963	88.12
493.18	96.12
493.398	84.12
493.615	87.12
493.833	90.12
494.05	79.12
494.268	93.12
494.485	95.12
494.703	81.12
494.92	98.12
495.138	80.12
495.355	94.12
495.573	96.12
495.79	87.12
496.008	87.12
496.225	95.12
496.442	103.12
496.66	93.12
496.877	92.12
497.094	93.12
497.312	96.12
497.529	90.12
497.746	96.12
497.963	92.12
498.181	93.12
498.398	101.12
498.615	104.12
498.832	103.12
499.049	92.12
499.267	97.12
499.484	86.12
499.701	81.12
499.918	82.12
500.135	94.12
500.352	96.12
500.569	98.12
500.786	83.12
501.003	94.12
501.22	87.12
501.437	91.12
501.654	90.12
501.871	106.12
502.088	91.12
502.305	74.12
502.522	97.12
502.739	104.12
502.956	87.12
503.172	91.12
503.389	89.12
503.606	103.12
503.823	95.12
504.04	100.12
504.256	63.12
504.473	100.12
504.69	87.12
504.907	81.12
505.123	90.12
505.34	86.12
505.557	104.12
505.773	81.12
505.99	99.12
506.207	86.12
506.423	85.12
506.64	106.12
506.856	95.12
507.073	83.12
507.289	90.12
507.506	86.12
507.722	119.12
507.939	100.12
508.155	96.12
508.372	87.12
508.588	83.12
508.805	76.12
509.021	111.12
509.238	99.12
509.454	94.12
509.67	98.12
509.887	96.12
510.103	120.12
510.319	207.12
510.536	705.12
510.752	2146.12
510.968	605.12
511.184	156.12
511.401	100.12
511.617	95.12
511.833	84.12
512.049	97.12
512.265	85.12
512.481	91.12
512.698	103.12
512.914	82.12
513.13	84.12
513.346	96.12
513.562	97.12
513.778	91.12
513.994	84.12
514.21	93.12
514.426	114.12
514.642	130.12
514.858	114.12
515.074	147.12
515.29	383.12
515.506	1250.12
515.721	475.12
515.937	134.12
516.153	110.12
516.369	94.12
516.585	92.12
