Data from Circ_2003_H10_HRD10591_00041.txt Node
Date: Wed Jan 03 10:37:10 EST 2024
User: Yrep
Spectrometer: HR+D1059
Trigger mode: 1
Integration Time (sec): 1.000000E-1
Scans to average: 1
Electric dark correction enabled: true
Nonlinearity correction enabled: false
Boxcar width: 0
XAxis mode: Wavelengths
Number of Pixels in Spectrum: 2048
>>>>>Begin Spectral Data<<<<<
223.165	-14
223.4	-14
223.635	-14
223.869	-29
224.104	-12
224.338	-17
224.573	-15
224.808	-5
225.042	-2
225.277	-5
225.511	16
225.746	-3
225.98	4
226.215	6
226.449	6
226.683	17
226.918	19
227.152	34
227.387	42
227.621	33
227.856	51
228.09	52
228.324	59
228.559	52
228.793	57
229.027	53
229.262	72
229.496	65
229.73	85
229.964	65
230.199	75
230.433	80
230.667	88
230.901	78
231.136	69
231.37	88
231.604	87
231.838	74
232.072	82
232.306	81
232.541	80
232.775	74
233.009	74
233.243	72
233.477	83
233.711	72
233.945	72
234.179	64
234.413	79
234.647	82
234.881	88
235.115	69
235.349	73
235.583	81
235.817	72
236.051	76
236.285	62
236.519	78
236.753	65
236.987	88
237.221	79
237.455	73
237.689	85
237.922	78
238.156	81
238.39	91
238.624	83
238.858	76
239.091	78
239.325	81
239.559	82
239.793	84
240.027	90
240.26	75
240.494	70
240.728	82
240.961	81
241.195	91
241.429	74
241.662	90
241.896	78
242.13	67
242.363	70
242.597	75
242.83	70
243.064	69
243.298	73
243.531	79
243.765	84
243.998	78
244.232	83
244.465	92
244.699	81
244.932	78
245.166	70
245.399	75
245.633	75
245.866	64
246.099	81
246.333	73
246.566	84
246.8	89
247.033	80
247.266	84
247.5	60
247.733	80
247.966	84
248.2	89
248.433	82
248.666	95
248.899	88
249.133	85
249.366	104
249.599	103
249.832	83
250.066	83
250.299	101
250.532	91
250.765	73
250.998	86
251.231	86
251.465	81
251.698	80
251.931	82
252.164	81
252.397	75
252.63	93
252.863	74
253.096	86
253.329	89
253.562	79
253.795	96
254.028	92
254.261	71
254.494	74
254.727	80
254.96	78
255.193	97
255.426	87
255.659	72
255.892	75
256.124	73
256.357	86
256.59	87
256.823	88
257.056	82
257.289	85
257.521	80
257.754	55
257.987	79
258.22	85
258.452	78
258.685	80
258.918	80
259.151	80
259.383	91
259.616	77
259.849	71
260.081	81
260.314	84
260.547	84
260.779	87
261.012	91
261.244	84
261.477	76
261.71	98
261.942	116
262.175	115
262.407	78
262.64	86
262.872	72
263.105	90
263.337	79
263.57	81
263.802	73
264.035	74
264.267	102
264.499	77
264.732	99
264.964	82
265.197	89
265.429	80
265.661	83
265.894	89
266.126	88
266.358	85
266.591	74
266.823	74
267.055	97
267.287	88
267.52	82
267.752	81
267.984	79
268.216	94
268.448	83
268.681	92
268.913	89
269.145	75
269.377	90
269.609	74
269.841	95
270.073	98
270.306	87
270.538	87
270.77	100
271.002	82
271.234	86
271.466	91
271.698	80
271.93	80
272.162	93
272.394	84
272.626	97
272.858	90
273.09	75
273.322	72
273.553	99
273.785	83
274.017	95
274.249	92
274.481	82
274.713	85
274.945	72
275.176	79
275.408	87
275.64	81
275.872	80
276.104	104
276.335	100
276.567	104
276.799	103
277.031	91
277.262	83
277.494	91
277.726	80
277.957	80
278.189	86
278.421	92
278.652	83
278.884	87
279.115	93
279.347	97
279.579	85
279.81	87
280.042	86
280.273	88
280.505	92
280.736	104
280.968	87
281.199	74
281.431	95
281.662	87
281.894	66
282.125	97
282.356	112
282.588	135
282.819	116
283.051	102
283.282	98
283.513	96
283.745	86
283.976	85
284.207	82
284.439	87
284.67	97
284.901	82
285.132	90
285.364	83
285.595	89
285.826	92
286.057	88
286.288	87
286.52	88
286.751	88
286.982	85
287.213	89
287.444	95
287.675	90
287.906	82
288.138	91
288.369	72
288.6	97
288.831	92
289.062	90
289.293	90
289.524	87
289.755	78
289.986	98
290.217	75
290.448	98
290.679	81
290.91	94
291.141	86
291.371	93
291.602	75
291.833	76
292.064	90
292.295	88
292.526	92
292.757	91
292.987	100
293.218	92
293.449	90
293.68	79
293.91	89
294.141	109
294.372	83
294.603	73
294.833	97
295.064	87
295.295	95
295.525	92
295.756	121
295.987	122
296.217	146
296.448	121
296.679	92
296.909	92
297.14	89
297.37	90
297.601	82
297.831	108
298.062	95
298.292	92
298.523	87
298.753	78
298.984	99
299.214	79
299.445	93
299.675	91
299.905	102
300.136	77
300.366	78
300.597	80
300.827	86
301.057	100
301.288	113
301.518	82
301.748	96
301.979	92
302.209	85
302.439	92
302.669	100
302.9	87
303.13	83
303.36	106
303.59	109
303.82	111
304.051	94
304.281	93
304.511	90
304.741	81
304.971	99
305.201	85
305.431	83
305.661	99
305.891	101
306.121	106
306.352	98
306.582	112
306.812	94
307.042	89
307.272	96
307.502	92
307.731	79
307.961	93
308.191	96
308.421	76
308.651	104
308.881	84
309.111	81
309.341	92
309.571	105
309.8	105
310.03	103
310.26	95
310.49	92
310.72	97
310.949	109
311.179	103
311.409	85
311.639	89
311.868	93
312.098	94
312.328	99
312.557	108
312.787	93
313.017	107
313.246	92
313.476	104
313.706	96
313.935	88
314.165	80
314.394	106
314.624	83
314.853	103
315.083	100
315.312	94
315.542	92
315.771	102
316.001	90
316.23	85
316.46	94
316.689	94
316.919	88
317.148	103
317.377	102
317.607	104
317.836	83
318.065	91
318.295	99
318.524	91
318.753	91
318.983	88
319.212	83
319.441	99
319.67	117
319.9	91
320.129	98
320.358	95
320.587	93
320.816	112
321.046	94
321.275	91
321.504	102
321.733	89
321.962	101
322.191	111
322.42	110
322.649	105
322.878	116
323.108	124
323.337	132
323.566	132
323.795	145
324.024	212
324.253	423
324.482	898
324.71	1867
324.939	2410
325.168	873
325.397	262
325.626	141
325.855	123
326.084	129
326.313	139
326.542	156
326.77	234
326.999	505
327.228	1014
327.457	1866
327.686	1475
327.914	399
328.143	210
328.372	155
328.6	128
328.829	118
329.058	126
329.287	135
329.515	103
329.744	98
329.972	105
330.201	116
330.43	120
330.658	128
330.887	139
331.115	115
331.344	110
331.572	104
331.801	100
332.03	102
332.258	105
332.486	98
332.715	104
332.943	120
333.172	96
333.4	86
333.629	103
333.857	110
334.085	112
334.314	113
334.542	114
334.771	131
334.999	112
335.227	103
335.455	96
335.684	100
335.912	105
336.14	104
336.369	104
336.597	98
336.825	89
337.053	101
337.281	114
337.51	94
337.738	93
337.966	85
338.194	98
338.422	92
338.65	91
338.878	101
339.106	98
339.334	103
339.562	83
339.79	92
340.018	87
340.246	80
340.474	99
340.702	98
340.93	97
341.158	99
341.386	93
341.614	89
341.842	81
342.07	90
342.298	100
342.526	96
342.754	105
342.981	92
343.209	87
343.437	112
343.665	90
343.893	90
344.12	94
344.348	103
344.576	94
344.804	85
345.031	89
345.259	98
345.487	97
345.714	92
345.942	89
346.17	102
346.397	92
346.625	95
346.853	94
347.08	97
347.308	101
347.535	98
347.763	100
347.99	114
348.218	105
348.445	92
348.673	109
348.9	102
349.128	110
349.355	91
349.583	98
349.81	92
350.037	102
350.265	102
350.492	94
350.72	95
350.947	103
351.174	109
351.402	107
351.629	104
351.856	97
352.083	102
352.311	106
352.538	117
352.765	113
352.992	128
353.22	103
353.447	106
353.674	113
353.901	115
354.128	107
354.355	99
354.583	100
354.81	97
355.037	110
355.264	107
355.491	97
355.718	99
355.945	106
356.172	90
356.399	102
356.626	89
356.853	100
357.08	108
357.307	98
357.534	106
357.761	94
357.988	90
358.215	106
358.441	97
358.668	82
358.895	94
359.122	92
359.349	93
359.576	99
359.802	104
360.029	105
360.256	107
360.483	101
360.709	96
360.936	90
361.163	111
361.39	95
361.616	92
361.843	92
362.07	92
362.296	95
362.523	93
362.749	95
362.976	98
363.203	96
363.429	105
363.656	89
363.882	85
364.109	85
364.335	101
364.562	90
364.788	93
365.015	95
365.241	92
365.468	101
365.694	110
365.92	110
366.147	93
366.373	86
366.599	97
366.826	98
367.052	93
367.278	90
367.505	100
367.731	85
367.957	86
368.184	95
368.41	99
368.636	107
368.862	118
369.089	110
369.315	97
369.541	94
369.767	92
369.993	102
370.219	95
370.445	85
370.672	82
370.898	99
371.124	90
371.35	81
371.576	78
371.802	83
372.028	89
372.254	84
372.48	99
372.706	82
372.932	98
373.158	93
373.384	99
373.61	90
373.835	100
374.061	94
374.287	95
374.513	92
374.739	100
374.965	95
375.191	97
375.416	100
375.642	96
375.868	97
376.094	91
376.319	91
376.545	86
376.771	85
376.997	87
377.222	95
377.448	111
377.674	83
377.899	89
378.125	101
378.35	100
378.576	74
378.802	111
379.027	99
379.253	102
379.478	95
379.704	79
379.929	92
380.155	87
380.38	99
380.606	99
380.831	103
381.057	88
381.282	95
381.507	114
381.733	110
381.958	114
382.184	110
382.409	98
382.634	109
382.86	96
383.085	97
383.31	98
383.535	111
383.761	101
383.986	102
384.211	103
384.436	101
384.662	107
384.887	95
385.112	104
385.337	97
385.562	120
385.787	116
386.013	107
386.238	108
386.463	111
386.688	106
386.913	117
387.138	115
387.363	106
387.588	100
387.813	86
388.038	110
388.263	114
388.488	116
388.713	93
388.938	94
389.163	111
389.387	102
389.612	98
389.837	105
390.062	94
390.287	90
390.512	97
390.736	100
390.961	114
391.186	87
391.411	98
391.636	91
391.86	102
392.085	84
392.31	80
392.534	91
392.759	87
392.984	100
393.208	92
393.433	90
393.658	83
393.882	84
394.107	94
394.331	80
394.556	77
394.78	92
395.005	101
395.229	89
395.454	88
395.678	100
395.903	99
396.127	99
396.352	83
396.576	99
396.801	87
397.025	72
397.249	84
397.474	99
397.698	87
397.922	87
398.147	87
398.371	80
398.595	85
398.82	86
399.044	89
399.268	96
399.492	102
399.717	104
399.941	97
400.165	92
400.389	83
400.613	83
400.837	99
401.062	87
401.286	96
401.51	102
401.734	95
401.958	97
402.182	120
402.406	169
402.63	120
402.854	98
403.078	90
403.302	91
403.526	92
403.75	104
403.974	73
404.198	92
404.422	82
404.645	100
404.869	84
405.093	87
405.317	103
405.541	115
405.765	95
405.988	126
406.212	175
406.436	240
406.66	151
406.883	110
407.107	93
407.331	99
407.555	82
407.778	96
408.002	99
408.226	98
408.449	85
408.673	90
408.896	92
409.12	80
409.344	89
409.567	83
409.791	87
410.014	85
410.238	96
410.461	97
410.685	86
410.908	102
411.132	97
411.355	105
411.578	113
411.802	82
412.025	68
412.249	91
412.472	90
412.695	87
412.919	92
413.142	103
413.365	87
413.589	80
413.812	87
414.035	95
414.258	108
414.482	98
414.705	98
414.928	97
415.151	90
415.374	91
415.597	95
415.821	71
416.044	103
416.267	113
416.49	90
416.713	107
416.936	96
417.159	86
417.382	96
417.605	82
417.828	102
418.051	78
418.274	82
418.497	91
418.72	97
418.943	92
419.166	79
419.389	78
419.611	83
419.834	76
420.057	78
420.28	87
420.503	92
420.726	95
420.948	86
421.171	103
421.394	84
421.617	90
421.839	101
422.062	82
422.285	103
422.507	88
422.73	104
422.953	100
423.175	92
423.398	95
423.621	86
423.843	85
424.066	90
424.288	91
424.511	93
424.733	102
424.956	99
425.178	99
425.401	95
425.623	96
425.846	74
426.068	91
426.291	104
426.513	96
426.735	91
426.958	109
427.18	106
427.402	126
427.625	148
427.847	124
428.069	115
428.292	88
428.514	83
428.736	95
428.958	88
429.181	84
429.403	86
429.625	87
429.847	91
430.069	101
430.292	90
430.514	79
430.736	88
430.958	85
431.18	90
431.402	79
431.624	89
431.846	78
432.068	77
432.29	82
432.512	81
432.734	88
432.956	81
433.178	86
433.4	112
433.622	73
433.844	84
434.066	95
434.287	100
434.509	78
434.731	98
434.953	95
435.175	83
435.397	86
435.618	97
435.84	98
436.062	116
436.284	106
436.505	105
436.727	101
436.949	92
437.17	98
437.392	85
437.614	78
437.835	95
438.057	112
438.278	107
438.5	104
438.721	122
438.943	100
439.165	88
439.386	93
439.608	100
439.829	106
440.05	114
440.272	135
440.493	108
440.715	96
440.936	88
441.158	80
441.379	88
441.6	99
441.822	87
442.043	87
442.264	104
442.486	86
442.707	94
442.928	110
443.149	145
443.371	122
443.592	112
443.813	102
444.034	107
444.255	92
444.476	92
444.698	94
444.919	96
445.14	130
445.361	127
445.582	117
445.803	128
446.024	146
446.245	118
446.466	101
446.687	92
446.908	99
447.129	99
447.35	81
447.571	90
447.792	97
448.013	103
448.234	115
448.455	107
448.675	105
448.896	107
449.117	103
449.338	106
449.559	107
449.779	132
450	99
450.221	86
450.442	88
450.662	97
450.883	105
451.104	96
451.324	103
451.545	92
451.766	92
451.986	94
452.207	100
452.428	90
452.648	94
452.869	110
453.089	120
453.31	123
453.53	94
453.751	93
453.971	107
454.192	110
454.412	97
454.633	74
454.853	95
455.073	88
455.294	96
455.514	98
455.734	91
455.955	88
456.175	83
456.395	84
456.616	79
456.836	82
457.056	92
457.276	71
457.497	82
457.717	82
457.937	90
458.157	81
458.377	83
458.598	106
458.818	150
459.038	160
459.258	118
459.478	86
459.698	82
459.918	75
460.138	81
460.358	73
460.578	89
460.798	90
461.018	98
461.238	90
461.458	77
461.678	72
461.898	76
462.118	76
462.338	80
462.558	81
462.777	80
462.997	91
463.217	82
463.437	80
463.657	78
463.876	84
464.096	79
464.316	84
464.536	88
464.755	90
464.975	112
465.195	178
465.414	154
465.634	94
465.854	96
466.073	91
466.293	80
466.512	83
466.732	86
466.951	116
467.171	94
467.391	87
467.61	98
467.829	104
468.049	103
468.268	105
468.488	98
468.707	95
468.927	89
469.146	90
469.365	73
469.585	87
469.804	92
470.023	97
470.243	87
470.462	108
470.681	108
470.901	94
471.12	98
471.339	92
471.558	97
471.777	88
471.997	110
472.216	94
472.435	119
472.654	87
472.873	85
473.092	98
473.311	78
473.53	85
473.749	90
473.968	100
474.187	106
474.406	99
474.625	94
474.844	83
475.063	91
475.282	90
475.501	90
475.72	85
475.939	90
476.158	90
476.377	100
476.596	93
476.814	87
477.033	95
477.252	90
477.471	70
477.69	90
477.908	90
478.127	103
478.346	89
478.564	99
478.783	80
479.002	98
479.22	95
479.439	111
479.658	109
479.876	100
480.095	90
480.313	79
480.532	90
480.751	102
480.969	108
481.188	165
481.406	131
481.624	94
481.843	86
482.061	88
482.28	92
482.498	97
482.717	76
482.935	104
483.153	94
483.372	81
483.59	76
483.808	98
484.027	94
484.245	98
484.463	77
484.681	90
484.9	86
485.118	92
485.336	108
485.554	108
485.772	124
485.99	103
486.209	117
486.427	104
486.645	108
486.863	104
487.081	103
487.299	88
487.517	93
487.735	90
487.953	82
488.171	97
488.389	85
488.607	101
488.825	85
489.043	92
489.261	89
489.479	87
489.696	96
489.914	92
490.132	94
490.35	92
490.568	89
490.786	90
491.003	94
491.221	90
491.439	95
491.657	84
491.874	104
492.092	82
492.31	102
492.527	93
492.745	77
492.963	71
493.18	106
493.398	92
493.615	116
493.833	106
494.05	87
494.268	101
494.485	83
494.703	82
494.92	92
495.138	99
495.355	100
495.573	99
495.79	107
496.008	90
496.225	103
496.442	89
496.66	99
496.877	88
497.094	89
497.312	93
497.529	89
497.746	100
497.963	96
498.181	89
498.398	86
498.615	111
498.832	102
499.049	99
499.267	88
499.484	96
499.701	96
499.918	111
500.135	83
500.352	96
500.569	74
500.786	84
501.003	96
501.22	91
501.437	88
501.654	95
501.871	103
502.088	88
502.305	113
502.522	96
502.739	85
502.956	84
503.172	92
503.389	94
503.606	104
503.823	96
504.04	99
504.256	79
504.473	86
504.69	92
504.907	84
505.123	86
505.34	79
505.557	88
505.773	96
505.99	95
506.207	91
506.423	86
506.64	91
506.856	94
507.073	96
507.289	90
507.506	97
507.722	113
507.939	106
508.155	94
508.372	94
508.588	90
508.805	89
509.021	98
509.238	118
509.454	100
509.67	100
509.887	128
510.103	146
510.319	232
510.536	828
510.752	2711
510.968	751
511.184	166
511.401	108
511.617	97
511.833	90
512.049	101
512.265	98
512.481	94
512.698	86
512.914	81
513.13	71
513.346	98
513.562	94
513.778	94
513.994	109
514.21	99
514.426	119
514.642	121
514.858	129
515.074	178
515.29	471
515.506	1595
515.721	578
515.937	148
516.153	111
516.369	97
516.585	97
516.801	100
517.016	96
517.232	103
517.448	97
517.664	96
517.879	107
518.095	106
518.311	101
518.527	92
518.742	100
518.958	103
519.173	83
519.389	89
519.605	107
519.82	103
520.036	102
520.251	113
520.467	122
520.682	94
520.898	111
521.113	123
521.329	148
521.544	224
521.76	612
521.975	2634
522.19	1590
522.406	338
522.621	132
522.836	98
523.052	97
523.267	101
523.482	92
523.698	96
523.913	113
524.128	105
524.343	94
524.559	96
524.774	92
524.989	107
525.204	107
525.419	100
525.634	91
525.849	94
526.064	92
526.28	97
526.495	80
526.71	88
526.925	97
527.14	92
527.355	96
527.57	97
527.785	87
527.999	80
528.214	102
528.429	96
528.644	100
528.859	92
529.074	108
529.289	121
529.503	172
529.718	106
529.933	84
530.148	97
530.363	73
530.577	87
530.792	85
531.007	93
531.221	72
531.436	86
531.651	92
531.865	90
532.08	90
532.295	94
532.509	95
532.724	85
532.938	83
533.153	107
533.367	108
533.582	89
533.796	92
534.011	91
534.225	97
534.44	89
534.654	91
534.868	84
535.083	89
535.297	89
535.511	90
535.726	101
535.94	101
536.154	99
536.369	89
536.583	81
536.797	99
537.011	92
537.225	98
537.44	92
537.654	99
537.868	91
538.082	92
538.296	81
538.51	88
538.724	95
538.938	91
539.153	101
539.367	104
539.581	92
539.795	97
540.009	84
540.222	102
540.436	95
540.65	97
540.864	96
541.078	95
541.292	95
541.506	91
541.72	96
541.934	101
542.147	83
542.361	98
542.575	94
542.789	103
543.002	83
543.216	80
543.43	103
543.644	86
543.857	80
544.071	96
544.285	90
544.498	78
544.712	85
544.925	79
545.139	92
545.352	79
545.566	98
545.779	93
545.993	97
546.206	89
546.42	91
546.633	97
546.847	99
547.06	86
547.274	94
547.487	80
547.7	93
547.914	86
548.127	89
548.34	101
548.554	91
548.767	81
548.98	92
549.193	91
549.407	90
549.62	98
549.833	88
550.046	95
550.259	92
550.473	86
550.686	83
550.899	99
551.112	97
551.325	93
551.538	95
551.751	82
551.964	113
552.177	112
552.39	82
552.603	104
552.816	87
553.029	98
553.242	90
553.455	98
553.667	119
553.88	111
554.093	98
554.306	87
554.519	83
554.732	95
554.944	96
555.157	101
555.37	79
555.583	101
555.795	81
556.008	85
556.221	104
556.433	100
556.646	96
556.859	87
557.071	105
557.284	103
557.496	95
557.709	119
557.921	95
558.134	86
558.346	98
558.559	97
558.771	83
558.984	104
559.196	87
559.409	88
559.621	73
559.833	88
560.046	106
560.258	95
560.47	87
560.683	90
560.895	83
561.107	87
561.32	86
561.532	74
561.744	87
561.956	91
562.168	95
562.381	109
562.593	86
562.805	108
563.017	95
563.229	97
563.441	81
563.653	80
563.865	87
564.077	93
564.289	90
564.501	81
564.713	94
564.925	87
565.137	101
565.349	97
565.561	83
565.773	95
565.985	80
566.197	76
566.408	96
566.62	94
566.832	90
567.044	75
567.255	92
567.467	79
567.679	94
567.891	84
568.102	79
568.314	95
568.526	92
568.737	104
568.949	83
569.161	81
569.372	92
569.584	88
569.795	99
570.007	128
570.218	266
570.43	135
570.641	92
570.853	81
571.064	95
571.276	83
571.487	93
571.698	94
571.91	96
572.121	91
572.333	84
572.544	87
572.755	89
572.966	67
573.178	101
573.389	104
573.6	78
573.811	98
574.023	84
574.234	90
574.445	86
574.656	93
574.867	92
575.078	90
575.289	100
575.501	103
575.712	99
575.923	95
576.134	86
576.345	96
576.556	91
576.767	85
576.978	96
577.188	96
577.399	102
577.61	104
577.821	102
578.032	115
578.243	284
578.454	872
578.665	245
578.875	108
579.086	95
579.297	89
579.508	77
579.718	94
579.929	91
580.14	88
580.35	95
580.561	113
580.772	76
580.982	96
581.193	89
581.403	78
581.614	86
581.825	74
582.035	86
582.246	108
582.456	86
582.667	92
582.877	95
