Data from Circ_2003_H10_HRD10591_00040.txt Node
Date: Wed Jan 03 10:37:10 EST 2024
User: Yrep
Spectrometer: HR+D1059
Trigger mode: 1
Integration Time (sec): 1.000000E-1
Scans to average: 1
Electric dark correction enabled: true
Nonlinearity correction enabled: false
Boxcar width: 0
XAxis mode: Wavelengths
Number of Pixels in Spectrum: 2048
>>>>>Begin Spectral Data<<<<<
223.165	-9.38
223.4	-9.38
223.635	-9.38
223.869	-20.38
224.104	-21.38
224.338	-6.38
224.573	-15.38
224.808	-23.38
225.042	-6.38
225.277	-3.38
225.511	5.62
225.746	7.62
225.98	7.62
226.215	19.62
226.449	11.62
226.683	21.62
226.918	5.62
227.152	26.62
227.387	20.62
227.621	37.62
227.856	43.62
228.09	36.62
228.324	66.62
228.559	69.62
228.793	41.62
229.027	57.62
229.262	61.62
229.496	68.62
229.73	84.62
229.964	92.62
230.199	72.62
230.433	82.62
230.667	66.62
230.901	76.62
231.136	68.62
231.37	71.62
231.604	75.62
231.838	65.62
232.072	75.62
232.306	83.62
232.541	82.62
232.775	90.62
233.009	81.62
233.243	67.62
233.477	88.62
233.711	71.62
233.945	75.62
234.179	68.62
234.413	74.62
234.647	68.62
234.881	81.62
235.115	76.62
235.349	80.62
235.583	84.62
235.817	95.62
236.051	85.62
236.285	70.62
236.519	82.62
236.753	86.62
236.987	95.62
237.221	88.62
237.455	83.62
237.689	79.62
237.922	75.62
238.156	75.62
238.39	68.62
238.624	69.62
238.858	74.62
239.091	83.62
239.325	81.62
239.559	76.62
239.793	82.62
240.027	73.62
240.26	64.62
240.494	86.62
240.728	70.62
240.961	69.62
241.195	69.62
241.429	78.62
241.662	69.62
241.896	67.62
242.13	67.62
242.363	77.62
242.597	71.62
242.83	82.62
243.064	69.62
243.298	77.62
243.531	93.62
243.765	70.62
243.998	68.62
244.232	80.62
244.465	79.62
244.699	80.62
244.932	86.62
245.166	82.62
245.399	94.62
245.633	87.62
245.866	63.62
246.099	81.62
246.333	78.62
246.566	72.62
246.8	67.62
247.033	69.62
247.266	81.62
247.5	69.62
247.733	73.62
247.966	98.62
248.2	78.62
248.433	92.62
248.666	92.62
248.899	68.62
249.133	83.62
249.366	83.62
249.599	87.62
249.832	78.62
250.066	78.62
250.299	75.62
250.532	83.62
250.765	88.62
250.998	78.62
251.231	70.62
251.465	87.62
251.698	78.62
251.931	79.62
252.164	86.62
252.397	84.62
252.63	79.62
252.863	83.62
253.096	72.62
253.329	76.62
253.562	78.62
253.795	79.62
254.028	80.62
254.261	81.62
254.494	70.62
254.727	87.62
254.96	87.62
255.193	74.62
255.426	73.62
255.659	75.62
255.892	84.62
256.124	77.62
256.357	83.62
256.59	71.62
256.823	83.62
257.056	79.62
257.289	73.62
257.521	77.62
257.754	79.62
257.987	72.62
258.22	86.62
258.452	68.62
258.685	79.62
258.918	85.62
259.151	94.62
259.383	80.62
259.616	74.62
259.849	69.62
260.081	82.62
260.314	84.62
260.547	84.62
260.779	94.62
261.012	87.62
261.244	75.62
261.477	93.62
261.71	95.62
261.942	100.62
262.175	114.62
262.407	87.62
262.64	69.62
262.872	84.62
263.105	93.62
263.337	82.62
263.57	79.62
263.802	77.62
264.035	81.62
264.267	85.62
264.499	76.62
264.732	82.62
264.964	81.62
265.197	79.62
265.429	73.62
265.661	85.62
265.894	84.62
266.126	94.62
266.358	84.62
266.591	86.62
266.823	74.62
267.055	74.62
267.287	88.62
267.52	86.62
267.752	73.62
267.984	80.62
268.216	79.62
268.448	96.62
268.681	78.62
268.913	84.62
269.145	82.62
269.377	78.62
269.609	85.62
269.841	86.62
270.073	83.62
270.306	67.62
270.538	72.62
270.77	66.62
271.002	80.62
271.234	85.62
271.466	84.62
271.698	77.62
271.93	72.62
272.162	83.62
272.394	84.62
272.626	80.62
272.858	93.62
273.09	75.62
273.322	73.62
273.553	73.62
273.785	85.62
274.017	85.62
274.249	82.62
274.481	93.62
274.713	88.62
274.945	101.62
275.176	74.62
275.408	75.62
275.64	79.62
275.872	88.62
276.104	86.62
276.335	88.62
276.567	88.62
276.799	92.62
277.031	94.62
277.262	81.62
277.494	79.62
277.726	97.62
277.957	87.62
278.189	88.62
278.421	84.62
278.652	93.62
278.884	76.62
279.115	67.62
279.347	74.62
279.579	83.62
279.81	97.62
280.042	100.62
280.273	60.62
280.505	95.62
280.736	75.62
280.968	73.62
281.199	79.62
281.431	81.62
281.662	81.62
281.894	102.62
282.125	100.62
282.356	108.62
282.588	130.62
282.819	125.62
283.051	79.62
283.282	86.62
283.513	96.62
283.745	74.62
283.976	73.62
284.207	81.62
284.439	81.62
284.67	82.62
284.901	96.62
285.132	77.62
285.364	77.62
285.595	74.62
285.826	83.62
286.057	97.62
286.288	80.62
286.52	101.62
286.751	65.62
286.982	94.62
287.213	86.62
287.444	94.62
287.675	88.62
287.906	86.62
288.138	89.62
288.369	97.62
288.6	89.62
288.831	91.62
289.062	89.62
289.293	84.62
289.524	92.62
289.755	86.62
289.986	86.62
290.217	85.62
290.448	88.62
290.679	76.62
290.91	88.62
291.141	92.62
291.371	90.62
291.602	79.62
291.833	94.62
292.064	82.62
292.295	85.62
292.526	70.62
292.757	84.62
292.987	90.62
293.218	87.62
293.449	86.62
293.68	85.62
293.91	81.62
294.141	94.62
294.372	77.62
294.603	97.62
294.833	89.62
295.064	84.62
295.295	83.62
295.525	92.62
295.756	92.62
295.987	86.62
296.217	144.62
296.448	145.62
296.679	83.62
296.909	82.62
297.14	83.62
297.37	97.62
297.601	84.62
297.831	79.62
298.062	83.62
298.292	81.62
298.523	85.62
298.753	88.62
298.984	86.62
299.214	77.62
299.445	94.62
299.675	81.62
299.905	90.62
300.136	85.62
300.366	83.62
300.597	80.62
300.827	79.62
301.057	80.62
301.288	109.62
301.518	90.62
301.748	85.62
301.979	87.62
302.209	82.62
302.439	95.62
302.669	101.62
302.9	92.62
303.13	97.62
303.36	95.62
303.59	91.62
303.82	107.62
304.051	104.62
304.281	96.62
304.511	96.62
304.741	94.62
304.971	86.62
305.201	74.62
305.431	85.62
305.661	72.62
305.891	94.62
306.121	107.62
306.352	96.62
306.582	100.62
306.812	103.62
307.042	85.62
307.272	87.62
307.502	89.62
307.731	84.62
307.961	95.62
308.191	87.62
308.421	100.62
308.651	87.62
308.881	80.62
309.111	88.62
309.341	103.62
309.571	103.62
309.8	98.62
310.03	108.62
310.26	88.62
310.49	80.62
310.72	100.62
310.949	97.62
311.179	94.62
311.409	92.62
311.639	87.62
311.868	83.62
312.098	78.62
312.328	101.62
312.557	96.62
312.787	101.62
313.017	100.62
313.246	95.62
313.476	86.62
313.706	95.62
313.935	101.62
314.165	88.62
314.394	84.62
314.624	105.62
314.853	100.62
315.083	95.62
315.312	96.62
315.542	86.62
315.771	75.62
316.001	83.62
316.23	92.62
316.46	79.62
316.689	93.62
316.919	88.62
317.148	100.62
317.377	87.62
317.607	83.62
317.836	78.62
318.065	88.62
318.295	96.62
318.524	95.62
318.753	86.62
318.983	91.62
319.212	95.62
319.441	89.62
319.67	103.62
319.9	93.62
320.129	99.62
320.358	92.62
320.587	94.62
320.816	103.62
321.046	90.62
321.275	98.62
321.504	94.62
321.733	98.62
321.962	103.62
322.191	91.62
322.42	109.62
322.649	120.62
322.878	106.62
323.108	119.62
323.337	123.62
323.566	139.62
323.795	130.62
324.024	211.62
324.253	402.62
324.482	823.62
324.71	1748.62
324.939	2333.62
325.168	816.62
325.397	244.62
325.626	147.62
325.855	129.62
326.084	141.62
326.313	143.62
326.542	163.62
326.77	228.62
326.999	468.62
327.228	998.62
327.457	1776.62
327.686	1373.62
327.914	379.62
328.143	199.62
328.372	153.62
328.6	115.62
328.829	117.62
329.058	124.62
329.287	104.62
329.515	101.62
329.744	94.62
329.972	104.62
330.201	118.62
330.43	123.62
330.658	128.62
330.887	126.62
331.115	112.62
331.344	93.62
331.572	101.62
331.801	96.62
332.03	107.62
332.258	103.62
332.486	95.62
332.715	102.62
332.943	84.62
333.172	104.62
333.4	109.62
333.629	95.62
333.857	111.62
334.085	106.62
334.314	101.62
334.542	99.62
334.771	117.62
334.999	94.62
335.227	99.62
335.455	86.62
335.684	88.62
335.912	112.62
336.14	100.62
336.369	84.62
336.597	91.62
336.825	91.62
337.053	96.62
337.281	92.62
337.51	104.62
337.738	86.62
337.966	73.62
338.194	87.62
338.422	87.62
338.65	79.62
338.878	94.62
339.106	94.62
339.334	99.62
339.562	82.62
339.79	75.62
340.018	88.62
340.246	93.62
340.474	92.62
340.702	88.62
340.93	88.62
341.158	83.62
341.386	95.62
341.614	101.62
341.842	88.62
342.07	81.62
342.298	89.62
342.526	85.62
342.754	83.62
342.981	77.62
343.209	86.62
343.437	94.62
343.665	83.62
343.893	77.62
344.12	103.62
344.348	91.62
344.576	81.62
344.804	89.62
345.031	101.62
345.259	87.62
345.487	96.62
345.714	88.62
345.942	85.62
346.17	85.62
346.397	97.62
346.625	100.62
346.853	86.62
347.08	75.62
347.308	80.62
347.535	87.62
347.763	101.62
347.99	104.62
348.218	94.62
348.445	100.62
348.673	84.62
348.9	88.62
349.128	85.62
349.355	83.62
349.583	105.62
349.81	95.62
350.037	96.62
350.265	97.62
350.492	101.62
350.72	99.62
350.947	102.62
351.174	99.62
351.402	104.62
351.629	93.62
351.856	100.62
352.083	90.62
352.311	102.62
352.538	108.62
352.765	105.62
352.992	105.62
353.22	103.62
353.447	108.62
353.674	103.62
353.901	95.62
354.128	79.62
354.355	93.62
354.583	109.62
354.81	84.62
355.037	85.62
355.264	74.62
355.491	101.62
355.718	104.62
355.945	92.62
356.172	103.62
356.399	99.62
356.626	94.62
356.853	92.62
357.08	104.62
357.307	89.62
357.534	88.62
357.761	91.62
357.988	77.62
358.215	81.62
358.441	90.62
358.668	93.62
358.895	97.62
359.122	84.62
359.349	91.62
359.576	78.62
359.802	85.62
360.029	107.62
360.256	108.62
360.483	110.62
360.709	82.62
360.936	88.62
361.163	88.62
361.39	81.62
361.616	93.62
361.843	94.62
362.07	87.62
362.296	93.62
362.523	94.62
362.749	81.62
362.976	85.62
363.203	99.62
363.429	62.62
363.656	84.62
363.882	88.62
364.109	84.62
364.335	95.62
364.562	94.62
364.788	88.62
365.015	81.62
365.241	98.62
365.468	104.62
365.694	102.62
365.92	96.62
366.147	93.62
366.373	96.62
366.599	84.62
366.826	72.62
367.052	69.62
367.278	77.62
367.505	105.62
367.731	99.62
367.957	89.62
368.184	102.62
368.41	93.62
368.636	94.62
368.862	101.62
369.089	115.62
369.315	101.62
369.541	94.62
369.767	89.62
369.993	88.62
370.219	87.62
370.445	89.62
370.672	89.62
370.898	94.62
371.124	85.62
371.35	75.62
371.576	99.62
371.802	77.62
372.028	83.62
372.254	95.62
372.48	100.62
372.706	73.62
372.932	98.62
373.158	88.62
373.384	88.62
373.61	96.62
373.835	100.62
374.061	95.62
374.287	101.62
374.513	84.62
374.739	73.62
374.965	88.62
375.191	91.62
375.416	104.62
375.642	80.62
375.868	96.62
376.094	89.62
376.319	86.62
376.545	95.62
376.771	84.62
376.997	106.62
377.222	97.62
377.448	96.62
377.674	91.62
377.899	92.62
378.125	96.62
378.35	109.62
378.576	96.62
378.802	78.62
379.027	91.62
379.253	83.62
379.478	89.62
379.704	88.62
379.929	100.62
380.155	108.62
380.38	77.62
380.606	104.62
380.831	84.62
381.057	93.62
381.282	92.62
381.507	88.62
381.733	80.62
381.958	89.62
382.184	96.62
382.409	96.62
382.634	102.62
382.86	98.62
383.085	104.62
383.31	107.62
383.535	104.62
383.761	97.62
383.986	112.62
384.211	85.62
384.436	107.62
384.662	93.62
384.887	97.62
385.112	115.62
385.337	106.62
385.562	109.62
385.787	100.62
386.013	114.62
386.238	104.62
386.463	90.62
386.688	124.62
386.913	105.62
387.138	99.62
387.363	104.62
387.588	97.62
387.813	104.62
388.038	113.62
388.263	125.62
388.488	94.62
388.713	94.62
388.938	97.62
389.163	92.62
389.387	94.62
389.612	101.62
389.837	106.62
390.062	84.62
390.287	108.62
390.512	89.62
390.736	72.62
390.961	72.62
391.186	89.62
391.411	107.62
391.636	91.62
391.86	84.62
392.085	83.62
392.31	81.62
392.534	70.62
392.759	83.62
392.984	89.62
393.208	98.62
393.433	92.62
393.658	93.62
393.882	89.62
394.107	93.62
394.331	84.62
394.556	77.62
394.78	86.62
395.005	86.62
395.229	85.62
395.454	87.62
395.678	85.62
395.903	87.62
396.127	81.62
396.352	95.62
396.576	84.62
396.801	71.62
397.025	96.62
397.249	77.62
397.474	89.62
397.698	76.62
397.922	85.62
398.147	89.62
398.371	96.62
398.595	68.62
398.82	83.62
399.044	91.62
399.268	90.62
399.492	94.62
399.717	89.62
399.941	93.62
400.165	86.62
400.389	84.62
400.613	101.62
400.837	94.62
401.062	88.62
401.286	96.62
401.51	87.62
401.734	93.62
401.958	103.62
402.182	119.62
402.406	154.62
402.63	97.62
402.854	86.62
403.078	95.62
403.302	81.62
403.526	94.62
403.75	71.62
403.974	84.62
404.198	79.62
404.422	77.62
404.645	77.62
404.869	88.62
405.093	87.62
405.317	91.62
405.541	92.62
405.765	80.62
405.988	121.62
406.212	169.62
406.436	230.62
406.66	149.62
406.883	100.62
407.107	71.62
407.331	94.62
407.555	103.62
407.778	101.62
408.002	78.62
408.226	87.62
408.449	80.62
408.673	71.62
408.896	85.62
409.12	86.62
409.344	94.62
409.567	106.62
409.791	93.62
410.014	94.62
410.238	103.62
410.461	78.62
410.685	99.62
410.908	85.62
411.132	103.62
411.355	84.62
411.578	87.62
411.802	86.62
412.025	88.62
412.249	100.62
412.472	96.62
412.695	97.62
412.919	77.62
413.142	86.62
413.365	88.62
413.589	92.62
413.812	79.62
414.035	104.62
414.258	98.62
414.482	100.62
414.705	85.62
414.928	81.62
415.151	92.62
415.374	98.62
415.597	86.62
415.821	85.62
416.044	85.62
416.267	81.62
416.49	87.62
416.713	98.62
416.936	88.62
417.159	88.62
417.382	88.62
417.605	67.62
417.828	97.62
418.051	87.62
418.274	102.62
418.497	86.62
418.72	95.62
418.943	86.62
419.166	93.62
419.389	80.62
419.611	80.62
419.834	75.62
420.057	85.62
420.28	75.62
420.503	78.62
420.726	87.62
420.948	88.62
421.171	76.62
421.394	92.62
421.617	95.62
421.839	82.62
422.062	90.62
422.285	92.62
422.507	93.62
422.73	95.62
422.953	87.62
423.175	91.62
423.398	78.62
423.621	88.62
423.843	89.62
424.066	96.62
424.288	90.62
424.511	95.62
424.733	78.62
424.956	98.62
425.178	95.62
425.401	91.62
425.623	96.62
425.846	84.62
426.068	89.62
426.291	81.62
426.513	92.62
426.735	80.62
426.958	81.62
427.18	112.62
427.402	121.62
427.625	159.62
427.847	112.62
428.069	106.62
428.292	85.62
428.514	84.62
428.736	79.62
428.958	77.62
429.181	81.62
429.403	78.62
429.625	87.62
429.847	72.62
430.069	100.62
430.292	86.62
430.514	81.62
430.736	67.62
430.958	75.62
431.18	96.62
431.402	64.62
431.624	81.62
431.846	86.62
432.068	63.62
432.29	94.62
432.512	98.62
432.734	98.62
432.956	94.62
433.178	90.62
433.4	93.62
433.622	80.62
433.844	89.62
434.066	108.62
434.287	83.62
434.509	93.62
434.731	88.62
434.953	88.62
435.175	86.62
435.397	103.62
435.618	91.62
435.84	96.62
436.062	111.62
436.284	121.62
436.505	93.62
436.727	88.62
436.949	92.62
437.17	83.62
437.392	90.62
437.614	87.62
437.835	86.62
438.057	112.62
438.278	108.62
438.5	92.62
438.721	102.62
438.943	80.62
439.165	77.62
439.386	93.62
439.608	108.62
439.829	101.62
440.05	113.62
440.272	134.62
440.493	113.62
440.715	81.62
440.936	88.62
441.158	78.62
441.379	84.62
441.6	81.62
441.822	87.62
442.043	88.62
442.264	90.62
442.486	95.62
442.707	88.62
442.928	99.62
443.149	103.62
443.371	123.62
443.592	104.62
443.813	92.62
444.034	110.62
444.255	88.62
444.476	95.62
444.698	100.62
444.919	89.62
445.14	142.62
445.361	124.62
445.582	109.62
445.803	126.62
446.024	141.62
446.245	134.62
446.466	118.62
446.687	82.62
446.908	87.62
447.129	93.62
447.35	95.62
447.571	87.62
447.792	97.62
448.013	91.62
448.234	98.62
448.455	84.62
448.675	105.62
448.896	103.62
449.117	95.62
449.338	113.62
449.559	114.62
449.779	117.62
450	86.62
450.221	88.62
450.442	94.62
450.662	94.62
450.883	103.62
451.104	111.62
451.324	86.62
451.545	82.62
451.766	80.62
451.986	70.62
452.207	85.62
452.428	90.62
452.648	100.62
452.869	103.62
453.089	97.62
453.31	116.62
453.53	93.62
453.751	88.62
453.971	105.62
454.192	115.62
454.412	80.62
454.633	89.62
454.853	89.62
455.073	88.62
455.294	81.62
455.514	94.62
455.734	86.62
455.955	84.62
456.175	83.62
456.395	88.62
456.616	98.62
456.836	88.62
457.056	82.62
457.276	75.62
457.497	73.62
457.717	75.62
457.937	80.62
458.157	99.62
458.377	95.62
458.598	112.62
458.818	135.62
459.038	158.62
459.258	116.62
459.478	99.62
459.698	79.62
459.918	97.62
460.138	87.62
460.358	94.62
460.578	99.62
460.798	85.62
461.018	94.62
461.238	95.62
461.458	95.62
461.678	86.62
461.898	70.62
462.118	85.62
462.338	92.62
462.558	81.62
462.777	71.62
462.997	80.62
463.217	76.62
463.437	83.62
463.657	85.62
463.876	88.62
464.096	86.62
464.316	96.62
464.536	95.62
464.755	96.62
464.975	102.62
465.195	160.62
465.414	149.62
465.634	89.62
465.854	89.62
466.073	89.62
466.293	89.62
466.512	92.62
466.732	88.62
466.951	89.62
467.171	96.62
467.391	93.62
467.61	107.62
467.829	94.62
468.049	94.62
468.268	91.62
468.488	95.62
468.707	88.62
468.927	89.62
469.146	80.62
469.365	93.62
469.585	91.62
469.804	91.62
470.023	83.62
470.243	87.62
470.462	97.62
470.681	118.62
470.901	86.62
471.12	79.62
471.339	68.62
471.558	93.62
471.777	92.62
471.997	85.62
472.216	101.62
472.435	132.62
472.654	68.62
472.873	80.62
473.092	79.62
473.311	91.62
473.53	89.62
473.749	89.62
473.968	78.62
474.187	111.62
474.406	101.62
474.625	93.62
474.844	83.62
475.063	89.62
475.282	82.62
475.501	79.62
475.72	99.62
475.939	86.62
476.158	85.62
476.377	81.62
476.596	85.62
476.814	88.62
477.033	82.62
477.252	88.62
477.471	92.62
477.69	90.62
477.908	94.62
478.127	94.62
478.346	81.62
478.564	74.62
478.783	89.62
479.002	84.62
479.22	97.62
479.439	109.62
479.658	108.62
479.876	103.62
480.095	98.62
480.313	89.62
480.532	89.62
480.751	98.62
480.969	86.62
481.188	153.62
481.406	125.62
481.624	93.62
481.843	97.62
482.061	83.62
482.28	99.62
482.498	76.62
482.717	91.62
482.935	91.62
483.153	84.62
483.372	77.62
483.59	84.62
483.808	94.62
484.027	83.62
484.245	76.62
484.463	91.62
484.681	89.62
484.9	83.62
485.118	90.62
485.336	99.62
485.554	85.62
485.772	104.62
485.99	106.62
486.209	111.62
486.427	99.62
486.645	111.62
486.863	111.62
487.081	111.62
487.299	88.62
487.517	94.62
487.735	90.62
487.953	107.62
488.171	92.62
488.389	95.62
488.607	92.62
488.825	101.62
489.043	110.62
489.261	87.62
489.479	85.62
489.696	88.62
489.914	100.62
490.132	80.62
490.35	92.62
490.568	73.62
490.786	72.62
491.003	87.62
491.221	83.62
491.439	87.62
491.657	85.62
491.874	102.62
492.092	82.62
492.31	85.62
492.527	88.62
492.745	83.62
492.963	87.62
493.18	89.62
493.398	85.62
493.615	93.62
493.833	86.62
494.05	73.62
494.268	83.62
494.485	93.62
494.703	90.62
494.92	85.62
495.138	99.62
495.355	88.62
495.573	97.62
495.79	97.62
496.008	107.62
496.225	81.62
496.442	92.62
496.66	86.62
496.877	95.62
497.094	103.62
497.312	92.62
497.529	92.62
497.746	85.62
497.963	85.62
498.181	96.62
498.398	95.62
498.615	111.62
498.832	96.62
499.049	78.62
499.267	83.62
499.484	76.62
499.701	93.62
499.918	78.62
500.135	89.62
500.352	98.62
500.569	87.62
500.786	87.62
501.003	74.62
501.22	84.62
501.437	89.62
501.654	99.62
501.871	114.62
502.088	96.62
502.305	86.62
502.522	111.62
502.739	83.62
502.956	96.62
503.172	88.62
503.389	90.62
503.606	96.62
503.823	83.62
504.04	92.62
504.256	84.62
504.473	95.62
504.69	91.62
504.907	101.62
505.123	98.62
505.34	93.62
505.557	77.62
505.773	99.62
505.99	92.62
506.207	83.62
506.423	89.62
506.64	94.62
506.856	91.62
507.073	96.62
507.289	60.62
507.506	91.62
507.722	120.62
507.939	91.62
508.155	74.62
508.372	91.62
508.588	85.62
508.805	84.62
509.021	98.62
509.238	97.62
509.454	88.62
509.67	101.62
509.887	115.62
510.103	132.62
510.319	225.62
510.536	787.62
510.752	2566.62
510.968	733.62
511.184	157.62
511.401	119.62
511.617	91.62
511.833	83.62
512.049	96.62
512.265	101.62
512.481	96.62
512.698	84.62
512.914	90.62
513.13	91.62
513.346	83.62
513.562	79.62
513.778	90.62
513.994	94.62
514.21	99.62
514.426	116.62
514.642	136.62
514.858	124.62
515.074	154.62
515.29	450.62
515.506	1484.62
515.721	562.62
515.937	168.62
516.153	112.62
516.369	107.62
