Data from Circ_2003_H10_HRD10591_00098.txt Node
Date: Wed Jan 03 10:37:22 EST 2024
User: Yrep
Spectrometer: HR+D1059
Trigger mode: 1
Integration Time (sec): 1.000000E-1
Scans to average: 1
Electric dark correction enabled: true
Nonlinearity correction enabled: false
Boxcar width: 0
XAxis mode: Wavelengths
Number of Pixels in Spectrum: 2048
>>>>>Begin Spectral Data<<<<<
223.165	2.19
223.4	2.19
223.635	2.19
223.869	-23.81
224.104	-22.81
224.338	-1.81
224.573	-24.81
224.808	-23.81
225.042	-13.81
225.277	1.19
225.511	-0.81
225.746	7.19
225.98	9.19
226.215	10.19
226.449	23.19
226.683	11.19
226.918	26.19
227.152	21.19
227.387	40.19
227.621	40.19
227.856	60.19
228.09	59.19
228.324	42.19
228.559	42.19
228.793	62.19
229.027	73.19
229.262	56.19
229.496	81.19
229.73	81.19
229.964	73.19
230.199	86.19
230.433	75.19
230.667	75.19
230.901	70.19
231.136	85.19
231.37	90.19
231.604	81.19
231.838	97.19
232.072	75.19
232.306	80.19
232.541	87.19
232.775	81.19
233.009	84.19
233.243	81.19
233.477	84.19
233.711	72.19
233.945	72.19
234.179	73.19
234.413	75.19
234.647	87.19
234.881	84.19
235.115	85.19
235.349	84.19
235.583	77.19
235.817	86.19
236.051	84.19
236.285	79.19
236.519	80.19
236.753	92.19
236.987	67.19
237.221	80.19
237.455	75.19
237.689	71.19
237.922	82.19
238.156	70.19
238.39	84.19
238.624	73.19
238.858	84.19
239.091	77.19
239.325	81.19
239.559	74.19
239.793	83.19
240.027	81.19
240.26	89.19
240.494	76.19
240.728	71.19
240.961	81.19
241.195	74.19
241.429	79.19
241.662	71.19
241.896	91.19
242.13	81.19
242.363	78.19
242.597	81.19
242.83	71.19
243.064	85.19
243.298	76.19
243.531	66.19
243.765	85.19
243.998	82.19
244.232	84.19
244.465	100.19
244.699	87.19
244.932	82.19
245.166	87.19
245.399	73.19
245.633	71.19
245.866	68.19
246.099	85.19
246.333	80.19
246.566	70.19
246.8	87.19
247.033	60.19
247.266	88.19
247.5	77.19
247.733	72.19
247.966	81.19
248.2	85.19
248.433	90.19
248.666	84.19
248.899	91.19
249.133	94.19
249.366	115.19
249.599	92.19
249.832	88.19
250.066	84.19
250.299	83.19
250.532	75.19
250.765	84.19
250.998	88.19
251.231	82.19
251.465	76.19
251.698	70.19
251.931	74.19
252.164	67.19
252.397	72.19
252.63	74.19
252.863	84.19
253.096	84.19
253.329	88.19
253.562	85.19
253.795	92.19
254.028	88.19
254.261	88.19
254.494	82.19
254.727	85.19
254.96	90.19
255.193	92.19
255.426	69.19
255.659	84.19
255.892	90.19
256.124	81.19
256.357	80.19
256.59	86.19
256.823	81.19
257.056	79.19
257.289	87.19
257.521	85.19
257.754	81.19
257.987	76.19
258.22	77.19
258.452	76.19
258.685	84.19
258.918	77.19
259.151	73.19
259.383	83.19
259.616	81.19
259.849	93.19
260.081	84.19
260.314	80.19
260.547	88.19
260.779	96.19
261.012	85.19
261.244	92.19
261.477	89.19
261.71	89.19
261.942	98.19
262.175	114.19
262.407	94.19
262.64	88.19
262.872	76.19
263.105	79.19
263.337	82.19
263.57	93.19
263.802	84.19
264.035	90.19
264.267	90.19
264.499	78.19
264.732	94.19
264.964	83.19
265.197	82.19
265.429	78.19
265.661	83.19
265.894	74.19
266.126	91.19
266.358	82.19
266.591	87.19
266.823	83.19
267.055	84.19
267.287	84.19
267.52	86.19
267.752	74.19
267.984	89.19
268.216	85.19
268.448	76.19
268.681	84.19
268.913	76.19
269.145	79.19
269.377	86.19
269.609	87.19
269.841	97.19
270.073	87.19
270.306	87.19
270.538	82.19
270.77	72.19
271.002	90.19
271.234	68.19
271.466	80.19
271.698	81.19
271.93	81.19
272.162	86.19
272.394	92.19
272.626	84.19
272.858	91.19
273.09	85.19
273.322	101.19
273.553	90.19
273.785	90.19
274.017	90.19
274.249	77.19
274.481	92.19
274.713	103.19
274.945	90.19
275.176	81.19
275.408	83.19
275.64	96.19
275.872	103.19
276.104	90.19
276.335	93.19
276.567	93.19
276.799	88.19
277.031	91.19
277.262	89.19
277.494	88.19
277.726	80.19
277.957	90.19
278.189	90.19
278.421	79.19
278.652	88.19
278.884	75.19
279.115	82.19
279.347	82.19
279.579	69.19
279.81	95.19
280.042	100.19
280.273	98.19
280.505	100.19
280.736	89.19
280.968	84.19
281.199	88.19
281.431	92.19
281.662	108.19
281.894	86.19
282.125	99.19
282.356	118.19
282.588	131.19
282.819	111.19
283.051	86.19
283.282	87.19
283.513	84.19
283.745	95.19
283.976	81.19
284.207	84.19
284.439	96.19
284.67	86.19
284.901	89.19
285.132	97.19
285.364	84.19
285.595	90.19
285.826	90.19
286.057	87.19
286.288	87.19
286.52	87.19
286.751	86.19
286.982	92.19
287.213	106.19
287.444	90.19
287.675	78.19
287.906	92.19
288.138	93.19
288.369	95.19
288.6	99.19
288.831	82.19
289.062	87.19
289.293	93.19
289.524	88.19
289.755	76.19
289.986	73.19
290.217	76.19
290.448	86.19
290.679	91.19
290.91	97.19
291.141	91.19
291.371	90.19
291.602	86.19
291.833	95.19
292.064	98.19
292.295	80.19
292.526	86.19
292.757	82.19
292.987	75.19
293.218	75.19
293.449	78.19
293.68	74.19
293.91	93.19
294.141	89.19
294.372	89.19
294.603	90.19
294.833	91.19
295.064	90.19
295.295	88.19
295.525	93.19
295.756	83.19
295.987	108.19
296.217	141.19
296.448	108.19
296.679	89.19
296.909	83.19
297.14	79.19
297.37	97.19
297.601	88.19
297.831	90.19
298.062	84.19
298.292	92.19
298.523	82.19
298.753	98.19
298.984	95.19
299.214	89.19
299.445	80.19
299.675	93.19
299.905	90.19
300.136	98.19
300.366	100.19
300.597	81.19
300.827	108.19
301.057	90.19
301.288	99.19
301.518	85.19
301.748	92.19
301.979	98.19
302.209	87.19
302.439	89.19
302.669	99.19
302.9	95.19
303.13	82.19
303.36	89.19
303.59	89.19
303.82	107.19
304.051	91.19
304.281	93.19
304.511	96.19
304.741	91.19
304.971	97.19
305.201	89.19
305.431	104.19
305.661	99.19
305.891	91.19
306.121	86.19
306.352	97.19
306.582	103.19
306.812	91.19
307.042	97.19
307.272	102.19
307.502	92.19
307.731	92.19
307.961	96.19
308.191	93.19
308.421	106.19
308.651	94.19
308.881	104.19
309.111	97.19
309.341	88.19
309.571	92.19
309.8	93.19
310.03	96.19
310.26	95.19
310.49	109.19
310.72	101.19
310.949	105.19
311.179	102.19
311.409	88.19
311.639	97.19
311.868	104.19
312.098	99.19
312.328	96.19
312.557	93.19
312.787	116.19
313.017	104.19
313.246	99.19
313.476	87.19
313.706	98.19
313.935	101.19
314.165	99.19
314.394	89.19
314.624	86.19
314.853	88.19
315.083	94.19
315.312	83.19
315.542	89.19
315.771	89.19
316.001	102.19
316.23	97.19
316.46	108.19
316.689	113.19
316.919	87.19
317.148	97.19
317.377	100.19
317.607	92.19
317.836	83.19
318.065	84.19
318.295	90.19
318.524	85.19
318.753	88.19
318.983	92.19
319.212	103.19
319.441	108.19
319.67	107.19
319.9	94.19
320.129	86.19
320.358	109.19
320.587	96.19
320.816	98.19
321.046	107.19
321.275	91.19
321.504	98.19
321.733	96.19
321.962	101.19
322.191	97.19
322.42	103.19
322.649	107.19
322.878	117.19
323.108	124.19
323.337	122.19
323.566	135.19
323.795	165.19
324.024	206.19
324.253	393.19
324.482	862.19
324.71	1738.19
324.939	2340.19
325.168	841.19
325.397	237.19
325.626	152.19
325.855	127.19
326.084	142.19
326.313	139.19
326.542	144.19
326.77	239.19
326.999	493.19
327.228	963.19
327.457	1772.19
327.686	1377.19
327.914	377.19
328.143	203.19
328.372	171.19
328.6	145.19
328.829	115.19
329.058	142.19
329.287	107.19
329.515	114.19
329.744	119.19
329.972	131.19
330.201	157.19
330.43	189.19
330.658	152.19
330.887	128.19
331.115	113.19
331.344	101.19
331.572	95.19
331.801	89.19
332.03	104.19
332.258	100.19
332.486	95.19
332.715	96.19
332.943	88.19
333.172	89.19
333.4	93.19
333.629	99.19
333.857	124.19
334.085	119.19
334.314	169.19
334.542	219.19
334.771	200.19
334.999	114.19
335.227	103.19
335.455	99.19
335.684	98.19
335.912	86.19
336.14	83.19
336.369	112.19
336.597	101.19
336.825	100.19
337.053	98.19
337.281	92.19
337.51	103.19
337.738	91.19
337.966	87.19
338.194	103.19
338.422	99.19
338.65	89.19
338.878	90.19
339.106	94.19
339.334	88.19
339.562	87.19
339.79	88.19
340.018	72.19
340.246	95.19
340.474	95.19
340.702	93.19
340.93	105.19
341.158	99.19
341.386	97.19
341.614	80.19
341.842	97.19
342.07	88.19
342.298	98.19
342.526	71.19
342.754	85.19
342.981	92.19
343.209	94.19
343.437	92.19
343.665	89.19
343.893	97.19
344.12	104.19
344.348	98.19
344.576	103.19
344.804	94.19
345.031	89.19
345.259	92.19
345.487	90.19
345.714	95.19
345.942	92.19
346.17	98.19
346.397	98.19
346.625	100.19
346.853	100.19
347.08	84.19
347.308	101.19
347.535	88.19
347.763	100.19
347.99	96.19
348.218	101.19
348.445	105.19
348.673	111.19
348.9	88.19
349.128	75.19
349.355	82.19
349.583	88.19
349.81	88.19
350.037	96.19
350.265	90.19
350.492	92.19
350.72	96.19
350.947	115.19
351.174	108.19
351.402	101.19
351.629	97.19
351.856	93.19
352.083	101.19
352.311	110.19
352.538	100.19
352.765	118.19
352.992	105.19
353.22	92.19
353.447	93.19
353.674	92.19
353.901	94.19
354.128	111.19
354.355	76.19
354.583	102.19
354.81	108.19
355.037	89.19
355.264	72.19
355.491	87.19
355.718	91.19
355.945	100.19
356.172	98.19
356.399	112.19
356.626	96.19
356.853	99.19
357.08	98.19
357.307	96.19
357.534	94.19
357.761	80.19
357.988	94.19
358.215	107.19
358.441	106.19
358.668	87.19
358.895	95.19
359.122	90.19
359.349	76.19
359.576	95.19
359.802	93.19
360.029	101.19
360.256	113.19
360.483	102.19
360.709	90.19
360.936	93.19
361.163	103.19
361.39	100.19
361.616	79.19
361.843	99.19
362.07	86.19
362.296	81.19
362.523	91.19
362.749	93.19
362.976	106.19
363.203	91.19
363.429	85.19
363.656	90.19
363.882	94.19
364.109	97.19
364.335	86.19
364.562	91.19
364.788	94.19
365.015	96.19
365.241	102.19
365.468	115.19
365.694	110.19
365.92	101.19
366.147	89.19
366.373	84.19
366.599	95.19
366.826	92.19
367.052	99.19
367.278	75.19
367.505	84.19
367.731	99.19
367.957	95.19
368.184	93.19
368.41	92.19
368.636	117.19
368.862	108.19
369.089	100.19
369.315	76.19
369.541	97.19
369.767	97.19
369.993	92.19
370.219	102.19
370.445	95.19
370.672	83.19
370.898	99.19
371.124	105.19
371.35	88.19
371.576	75.19
371.802	103.19
372.028	93.19
372.254	90.19
372.48	68.19
372.706	89.19
372.932	86.19
373.158	92.19
373.384	80.19
373.61	95.19
373.835	107.19
374.061	87.19
374.287	109.19
374.513	91.19
374.739	88.19
374.965	84.19
375.191	83.19
375.416	92.19
375.642	115.19
375.868	98.19
376.094	86.19
376.319	106.19
376.545	93.19
376.771	96.19
376.997	97.19
377.222	97.19
377.448	90.19
377.674	78.19
377.899	95.19
378.125	99.19
378.35	105.19
378.576	100.19
378.802	78.19
379.027	97.19
379.253	88.19
379.478	91.19
379.704	99.19
379.929	103.19
380.155	107.19
380.38	101.19
380.606	96.19
380.831	87.19
381.057	91.19
381.282	107.19
381.507	103.19
381.733	99.19
381.958	109.19
382.184	100.19
382.409	108.19
382.634	95.19
382.86	98.19
383.085	97.19
383.31	99.19
383.535	113.19
383.761	100.19
383.986	90.19
384.211	90.19
384.436	98.19
384.662	103.19
384.887	111.19
385.112	101.19
385.337	98.19
385.562	94.19
385.787	96.19
386.013	112.19
386.238	101.19
386.463	104.19
386.688	119.19
386.913	118.19
387.138	95.19
387.363	95.19
387.588	115.19
387.813	99.19
388.038	108.19
388.263	106.19
388.488	104.19
388.713	107.19
388.938	103.19
389.163	89.19
389.387	89.19
389.612	99.19
389.837	94.19
390.062	96.19
390.287	108.19
390.512	103.19
390.736	82.19
390.961	91.19
391.186	113.19
391.411	106.19
391.636	101.19
391.86	93.19
392.085	92.19
392.31	90.19
392.534	86.19
392.759	85.19
392.984	76.19
393.208	88.19
393.433	94.19
393.658	101.19
393.882	89.19
394.107	96.19
394.331	96.19
394.556	93.19
394.78	100.19
395.005	100.19
395.229	80.19
395.454	88.19
395.678	96.19
395.903	100.19
396.127	94.19
396.352	84.19
396.576	80.19
396.801	91.19
397.025	98.19
397.249	73.19
397.474	99.19
397.698	104.19
397.922	79.19
398.147	86.19
398.371	88.19
398.595	84.19
398.82	86.19
399.044	93.19
399.268	105.19
399.492	87.19
399.717	92.19
399.941	90.19
400.165	94.19
400.389	81.19
400.613	77.19
400.837	91.19
401.062	87.19
401.286	95.19
401.51	86.19
401.734	84.19
401.958	88.19
402.182	114.19
402.406	171.19
402.63	115.19
402.854	104.19
403.078	95.19
403.302	107.19
403.526	91.19
403.75	77.19
403.974	87.19
404.198	86.19
404.422	78.19
404.645	96.19
404.869	87.19
405.093	88.19
405.317	102.19
405.541	106.19
405.765	89.19
405.988	106.19
406.212	151.19
406.436	207.19
406.66	143.19
406.883	85.19
407.107	80.19
407.331	101.19
407.555	89.19
407.778	92.19
408.002	111.19
408.226	87.19
408.449	84.19
408.673	84.19
408.896	85.19
409.12	112.19
409.344	111.19
409.567	92.19
409.791	92.19
410.014	89.19
410.238	92.19
410.461	105.19
410.685	96.19
410.908	97.19
411.132	98.19
411.355	103.19
411.578	96.19
411.802	68.19
412.025	81.19
412.249	77.19
412.472	91.19
412.695	108.19
412.919	103.19
413.142	87.19
413.365	76.19
413.589	87.19
413.812	88.19
414.035	92.19
414.258	96.19
414.482	81.19
414.705	82.19
414.928	85.19
415.151	80.19
415.374	93.19
415.597	93.19
415.821	92.19
416.044	89.19
416.267	101.19
416.49	92.19
416.713	84.19
416.936	91.19
417.159	87.19
417.382	80.19
417.605	98.19
417.828	91.19
418.051	97.19
418.274	86.19
418.497	88.19
418.72	90.19
418.943	91.19
419.166	96.19
419.389	82.19
419.611	103.19
419.834	86.19
420.057	99.19
420.28	90.19
420.503	87.19
420.726	99.19
420.948	105.19
421.171	92.19
421.394	95.19
421.617	89.19
421.839	97.19
422.062	107.19
422.285	109.19
422.507	108.19
422.73	86.19
422.953	83.19
423.175	100.19
423.398	92.19
423.621	93.19
423.843	92.19
424.066	107.19
424.288	87.19
424.511	81.19
424.733	98.19
424.956	93.19
425.178	100.19
425.401	88.19
425.623	100.19
425.846	74.19
426.068	91.19
426.291	96.19
426.513	87.19
426.735	95.19
426.958	105.19
427.18	86.19
427.402	127.19
427.625	136.19
427.847	128.19
428.069	125.19
428.292	100.19
428.514	97.19
428.736	84.19
428.958	85.19
429.181	92.19
429.403	92.19
429.625	86.19
429.847	93.19
430.069	113.19
430.292	80.19
430.514	88.19
430.736	88.19
430.958	83.19
431.18	84.19
431.402	69.19
431.624	105.19
431.846	87.19
432.068	88.19
432.29	99.19
432.512	93.19
432.734	73.19
432.956	93.19
433.178	102.19
433.4	91.19
433.622	90.19
433.844	101.19
434.066	85.19
434.287	100.19
434.509	90.19
434.731	94.19
434.953	82.19
435.175	85.19
435.397	84.19
435.618	102.19
435.84	92.19
436.062	116.19
436.284	102.19
436.505	103.19
436.727	107.19
436.949	83.19
437.17	91.19
437.392	115.19
437.614	87.19
437.835	97.19
438.057	109.19
438.278	107.19
438.5	104.19
438.721	106.19
438.943	97.19
439.165	90.19
439.386	81.19
439.608	110.19
439.829	110.19
440.05	121.19
440.272	134.19
440.493	90.19
440.715	89.19
440.936	93.19
441.158	83.19
441.379	84.19
441.6	95.19
441.822	101.19
442.043	93.19
442.264	105.19
442.486	115.19
442.707	94.19
442.928	95.19
443.149	119.19
443.371	120.19
443.592	110.19
443.813	110.19
444.034	106.19
444.255	98.19
444.476	100.19
444.698	83.19
444.919	85.19
445.14	130.19
445.361	122.19
445.582	91.19
445.803	118.19
446.024	115.19
446.245	136.19
446.466	100.19
446.687	94.19
446.908	77.19
447.129	84.19
447.35	91.19
447.571	91.19
447.792	97.19
448.013	91.19
448.234	102.19
448.455	90.19
448.675	100.19
448.896	111.19
449.117	101.19
449.338	106.19
449.559	118.19
449.779	130.19
450	101.19
450.221	99.19
450.442	86.19
450.662	90.19
450.883	103.19
451.104	108.19
451.324	79.19
451.545	93.19
451.766	90.19
451.986	83.19
452.207	92.19
452.428	104.19
452.648	100.19
452.869	102.19
453.089	102.19
453.31	114.19
453.53	105.19
453.751	86.19
453.971	100.19
454.192	84.19
454.412	93.19
454.633	82.19
454.853	88.19
455.073	75.19
455.294	96.19
455.514	80.19
455.734	83.19
455.955	75.19
456.175	79.19
456.395	94.19
456.616	88.19
456.836	81.19
457.056	98.19
457.276	92.19
457.497	87.19
457.717	74.19
457.937	74.19
458.157	91.19
458.377	88.19
458.598	127.19
458.818	140.19
459.038	147.19
459.258	98.19
459.478	93.19
459.698	90.19
459.918	95.19
460.138	89.19
460.358	84.19
460.578	94.19
460.798	91.19
461.018	89.19
461.238	101.19
461.458	74.19
461.678	96.19
461.898	87.19
462.118	79.19
462.338	83.19
462.558	82.19
462.777	89.19
462.997	85.19
463.217	88.19
463.437	84.19
463.657	101.19
463.876	88.19
464.096	93.19
464.316	100.19
464.536	102.19
464.755	109.19
464.975	107.19
465.195	155.19
465.414	136.19
465.634	98.19
465.854	92.19
466.073	84.19
466.293	88.19
466.512	90.19
466.732	109.19
466.951	94.19
467.171	92.19
467.391	100.19
467.61	116.19
467.829	97.19
468.049	133.19
468.268	150.19
468.488	104.19
468.707	88.19
468.927	87.19
469.146	93.19
469.365	95.19
469.585	90.19
469.804	104.19
470.023	101.19
470.243	91.19
470.462	124.19
470.681	105.19
470.901	103.19
471.12	90.19
471.339	84.19
471.558	77.19
471.777	85.19
471.997	103.19
472.216	185.19
472.435	294.19
472.654	131.19
472.873	99.19
473.092	87.19
473.311	101.19
473.53	99.19
473.749	94.19
473.968	92.19
474.187	112.19
474.406	108.19
474.625	82.19
474.844	89.19
475.063	89.19
475.282	76.19
475.501	76.19
475.72	102.19
475.939	90.19
476.158	89.19
476.377	98.19
476.596	99.19
476.814	84.19
477.033	101.19
477.252	87.19
477.471	88.19
477.69	93.19
477.908	85.19
478.127	93.19
478.346	71.19
478.564	82.19
478.783	85.19
479.002	92.19
479.22	93.19
479.439	94.19
479.658	111.19
479.876	97.19
480.095	93.19
480.313	98.19
480.532	89.19
480.751	107.19
480.969	178.19
481.188	447.19
481.406	284.19
481.624	115.19
481.843	94.19
482.061	87.19
482.28	85.19
482.498	87.19
482.717	88.19
482.935	94.19
483.153	86.19
483.372	86.19
483.59	94.19
483.808	102.19
484.027	86.19
484.245	107.19
484.463	119.19
484.681	94.19
484.9	92.19
485.118	101.19
485.336	103.19
485.554	91.19
485.772	100.19
485.99	108.19
486.209	105.19
486.427	109.19
486.645	103.19
486.863	104.19
487.081	115.19
487.299	95.19
487.517	87.19
487.735	97.19
487.953	90.19
488.171	89.19
488.389	102.19
488.607	99.19
488.825	92.19
489.043	82.19
489.261	88.19
489.479	71.19
489.696	97.19
489.914	85.19
490.132	87.19
490.35	94.19
490.568	88.19
490.786	81.19
491.003	91.19
491.221	84.19
491.439	84.19
491.657	104.19
491.874	97.19
492.092	91.19
492.31	94.19
492.527	91.19
492.745	88.19
492.963	96.19
493.18	87.19
493.398	103.19
493.615	102.19
493.833	102.19
494.05	93.19
494.268	97.19
494.485	104.19
494.703	90.19
494.92	87.19
495.138	103.19
495.355	105.19
495.573	97.19
495.79	86.19
496.008	105.19
496.225	108.19
496.442	92.19
496.66	83.19
496.877	96.19
497.094	95.19
497.312	87.19
497.529	86.19
497.746	82.19
497.963	88.19
498.181	92.19
498.398	90.19
498.615	109.19
498.832	99.19
499.049	90.19
499.267	86.19
499.484	88.19
499.701	104.19
499.918	93.19
500.135	88.19
500.352	84.19
500.569	85.19
500.786	86.19
501.003	99.19
501.22	95.19
501.437	91.19
501.654	96.19
501.871	104.19
502.088	93.19
502.305	90.19
502.522	88.19
502.739	105.19
502.956	96.19
503.172	97.19
503.389	93.19
503.606	83.19
503.823	100.19
504.04	107.19
504.256	97.19
504.473	89.19
504.69	88.19
504.907	101.19
505.123	93.19
505.34	96.19
505.557	82.19
505.773	99.19
505.99	94.19
506.207	95.19
506.423	85.19
506.64	90.19
506.856	96.19
507.073	79.19
507.289	82.19
507.506	103.19
507.722	110.19
507.939	112.19
508.155	97.19
508.372	94.19
508.588	93.19
508.805	107.19
509.021	96.19
509.238	108.19
509.454	97.19
509.67	102.19
509.887	113.19
510.103	127.19
510.319	220.19
510.536	759.19
510.752	2436.19
510.968	694.19
511.184	163.19
511.401	105.19
511.617	107.19
511.833	99.19
512.049	86.19
512.265	101.19
512.481	92.19
512.698	95.19
512.914	98.19
513.13	95.19
513.346	97.19
513.562	91.19
513.778	94.19
513.994	114.19
514.21	115.19
514.426	119.19
514.642	143.19
514.858	122.19
515.074	172.19
