Data from Circ_2003_H10_HRD10591_00015.txt Node
Date: Wed Jan 03 10:37:05 EST 2024
User: Yrep
Spectrometer: HR+D1059
Trigger mode: 1
Integration Time (sec): 1.000000E-1
Scans to average: 1
Electric dark correction enabled: true
Nonlinearity correction enabled: false
Boxcar width: 0
XAxis mode: Wavelengths
Number of Pixels in Spectrum: 2048
>>>>>Begin Spectral Data<<<<<
223.165	-13.62
223.4	-13.62
223.635	-13.62
223.869	-27.62
224.104	-11.62
224.338	-22.62
224.573	-4.62
224.808	-25.62
225.042	-20.62
225.277	-7.62
225.511	1.38
225.746	10.38
225.98	7.38
226.215	12.38
226.449	14.38
226.683	25.38
226.918	26.38
227.152	36.38
227.387	42.38
227.621	44.38
227.856	34.38
228.09	44.38
228.324	58.38
228.559	66.38
228.793	66.38
229.027	65.38
229.262	73.38
229.496	69.38
229.73	81.38
229.964	76.38
230.199	74.38
230.433	74.38
230.667	89.38
230.901	94.38
231.136	80.38
231.37	75.38
231.604	90.38
231.838	82.38
232.072	74.38
232.306	92.38
232.541	91.38
232.775	94.38
233.009	94.38
233.243	86.38
233.477	82.38
233.711	77.38
233.945	87.38
234.179	83.38
234.413	73.38
234.647	82.38
234.881	74.38
235.115	85.38
235.349	71.38
235.583	82.38
235.817	80.38
236.051	76.38
236.285	77.38
236.519	62.38
236.753	84.38
236.987	72.38
237.221	86.38
237.455	81.38
237.689	93.38
237.922	80.38
238.156	78.38
238.39	84.38
238.624	88.38
238.858	67.38
239.091	75.38
239.325	76.38
239.559	73.38
239.793	70.38
240.027	91.38
240.26	80.38
240.494	78.38
240.728	81.38
240.961	87.38
241.195	80.38
241.429	83.38
241.662	81.38
241.896	73.38
242.13	90.38
242.363	71.38
242.597	80.38
242.83	80.38
243.064	72.38
243.298	75.38
243.531	81.38
243.765	90.38
243.998	88.38
244.232	84.38
244.465	85.38
244.699	92.38
244.932	80.38
245.166	75.38
245.399	81.38
245.633	73.38
245.866	90.38
246.099	70.38
246.333	79.38
246.566	83.38
246.8	72.38
247.033	86.38
247.266	75.38
247.5	80.38
247.733	82.38
247.966	104.38
248.2	106.38
248.433	77.38
248.666	84.38
248.899	97.38
249.133	81.38
249.366	94.38
249.599	104.38
249.832	86.38
250.066	83.38
250.299	93.38
250.532	78.38
250.765	85.38
250.998	71.38
251.231	85.38
251.465	79.38
251.698	94.38
251.931	81.38
252.164	84.38
252.397	100.38
252.63	85.38
252.863	86.38
253.096	83.38
253.329	85.38
253.562	62.38
253.795	94.38
254.028	79.38
254.261	76.38
254.494	82.38
254.727	75.38
254.96	76.38
255.193	79.38
255.426	99.38
255.659	87.38
255.892	90.38
256.124	83.38
256.357	87.38
256.59	68.38
256.823	76.38
257.056	75.38
257.289	84.38
257.521	82.38
257.754	89.38
257.987	78.38
258.22	90.38
258.452	81.38
258.685	85.38
258.918	92.38
259.151	88.38
259.383	97.38
259.616	80.38
259.849	77.38
260.081	90.38
260.314	93.38
260.547	79.38
260.779	82.38
261.012	86.38
261.244	87.38
261.477	83.38
261.71	98.38
261.942	112.38
262.175	102.38
262.407	96.38
262.64	79.38
262.872	76.38
263.105	87.38
263.337	86.38
263.57	76.38
263.802	91.38
264.035	80.38
264.267	81.38
264.499	92.38
264.732	92.38
264.964	75.38
265.197	77.38
265.429	82.38
265.661	89.38
265.894	96.38
266.126	96.38
266.358	98.38
266.591	74.38
266.823	72.38
267.055	79.38
267.287	79.38
267.52	106.38
267.752	83.38
267.984	73.38
268.216	84.38
268.448	81.38
268.681	86.38
268.913	98.38
269.145	85.38
269.377	69.38
269.609	77.38
269.841	88.38
270.073	76.38
270.306	98.38
270.538	81.38
270.77	74.38
271.002	100.38
271.234	102.38
271.466	93.38
271.698	85.38
271.93	84.38
272.162	78.38
272.394	102.38
272.626	91.38
272.858	95.38
273.09	87.38
273.322	80.38
273.553	90.38
273.785	89.38
274.017	90.38
274.249	87.38
274.481	93.38
274.713	90.38
274.945	96.38
275.176	94.38
275.408	89.38
275.64	81.38
275.872	86.38
276.104	102.38
276.335	92.38
276.567	97.38
276.799	103.38
277.031	107.38
277.262	86.38
277.494	86.38
277.726	86.38
277.957	97.38
278.189	88.38
278.421	100.38
278.652	90.38
278.884	94.38
279.115	104.38
279.347	81.38
279.579	102.38
279.81	91.38
280.042	85.38
280.273	90.38
280.505	94.38
280.736	75.38
280.968	89.38
281.199	89.38
281.431	90.38
281.662	88.38
281.894	102.38
282.125	93.38
282.356	110.38
282.588	131.38
282.819	106.38
283.051	100.38
283.282	86.38
283.513	93.38
283.745	91.38
283.976	92.38
284.207	91.38
284.439	103.38
284.67	88.38
284.901	79.38
285.132	75.38
285.364	93.38
285.595	89.38
285.826	91.38
286.057	80.38
286.288	81.38
286.52	93.38
286.751	86.38
286.982	96.38
287.213	81.38
287.444	97.38
287.675	87.38
287.906	93.38
288.138	82.38
288.369	93.38
288.6	98.38
288.831	84.38
289.062	95.38
289.293	80.38
289.524	91.38
289.755	97.38
289.986	98.38
290.217	90.38
290.448	88.38
290.679	87.38
290.91	89.38
291.141	90.38
291.371	86.38
291.602	97.38
291.833	89.38
292.064	88.38
292.295	89.38
292.526	82.38
292.757	91.38
292.987	94.38
293.218	76.38
293.449	78.38
293.68	83.38
293.91	84.38
294.141	90.38
294.372	85.38
294.603	90.38
294.833	100.38
295.064	93.38
295.295	101.38
295.525	84.38
295.756	102.38
295.987	108.38
296.217	124.38
296.448	131.38
296.679	88.38
296.909	112.38
297.14	84.38
297.37	84.38
297.601	87.38
297.831	104.38
298.062	79.38
298.292	83.38
298.523	91.38
298.753	97.38
298.984	80.38
299.214	99.38
299.445	100.38
299.675	91.38
299.905	102.38
300.136	95.38
300.366	98.38
300.597	79.38
300.827	92.38
301.057	104.38
301.288	101.38
301.518	92.38
301.748	85.38
301.979	99.38
302.209	77.38
302.439	85.38
302.669	97.38
302.9	85.38
303.13	92.38
303.36	87.38
303.59	93.38
303.82	106.38
304.051	91.38
304.281	88.38
304.511	81.38
304.741	91.38
304.971	82.38
305.201	98.38
305.431	79.38
305.661	91.38
305.891	99.38
306.121	91.38
306.352	89.38
306.582	95.38
306.812	104.38
307.042	83.38
307.272	89.38
307.502	89.38
307.731	82.38
307.961	90.38
308.191	87.38
308.421	94.38
308.651	94.38
308.881	94.38
309.111	109.38
309.341	96.38
309.571	89.38
309.8	89.38
310.03	100.38
310.26	92.38
310.49	105.38
310.72	103.38
310.949	88.38
311.179	92.38
311.409	105.38
311.639	82.38
311.868	95.38
312.098	96.38
312.328	116.38
312.557	97.38
312.787	96.38
313.017	97.38
313.246	93.38
313.476	85.38
313.706	93.38
313.935	91.38
314.165	88.38
314.394	99.38
314.624	97.38
314.853	95.38
315.083	91.38
315.312	103.38
315.542	88.38
315.771	94.38
316.001	78.38
316.23	89.38
316.46	108.38
316.689	91.38
316.919	99.38
317.148	93.38
317.377	102.38
317.607	100.38
317.836	96.38
318.065	100.38
318.295	82.38
318.524	87.38
318.753	94.38
318.983	94.38
319.212	98.38
319.441	105.38
319.67	97.38
319.9	99.38
320.129	86.38
320.358	101.38
320.587	82.38
320.816	97.38
321.046	104.38
321.275	99.38
321.504	88.38
321.733	104.38
321.962	104.38
322.191	104.38
322.42	105.38
322.649	104.38
322.878	102.38
323.108	107.38
323.337	121.38
323.566	140.38
323.795	155.38
324.024	183.38
324.253	353.38
324.482	774.38
324.71	1548.38
324.939	2034.38
325.168	753.38
325.397	234.38
325.626	136.38
325.855	113.38
326.084	118.38
326.313	131.38
326.542	172.38
326.77	236.38
326.999	410.38
327.228	887.38
327.457	1622.38
327.686	1269.38
327.914	345.38
328.143	169.38
328.372	134.38
328.6	124.38
328.829	123.38
329.058	126.38
329.287	114.38
329.515	106.38
329.744	98.38
329.972	87.38
330.201	102.38
330.43	107.38
330.658	114.38
330.887	130.38
331.115	94.38
331.344	106.38
331.572	95.38
331.801	97.38
332.03	102.38
332.258	104.38
332.486	100.38
332.715	96.38
332.943	98.38
333.172	100.38
333.4	106.38
333.629	96.38
333.857	117.38
334.085	103.38
334.314	88.38
334.542	112.38
334.771	97.38
334.999	91.38
335.227	96.38
335.455	80.38
335.684	93.38
335.912	98.38
336.14	109.38
336.369	85.38
336.597	110.38
336.825	94.38
337.053	112.38
337.281	94.38
337.51	92.38
337.738	100.38
337.966	98.38
338.194	94.38
338.422	92.38
338.65	95.38
338.878	89.38
339.106	101.38
339.334	91.38
339.562	87.38
339.79	83.38
340.018	95.38
340.246	94.38
340.474	94.38
340.702	102.38
340.93	91.38
341.158	98.38
341.386	102.38
341.614	103.38
341.842	100.38
342.07	103.38
342.298	107.38
342.526	97.38
342.754	93.38
342.981	86.38
343.209	87.38
343.437	93.38
343.665	104.38
343.893	88.38
344.12	104.38
344.348	97.38
344.576	90.38
344.804	85.38
345.031	85.38
345.259	100.38
345.487	97.38
345.714	100.38
345.942	99.38
346.17	101.38
346.397	99.38
346.625	93.38
346.853	104.38
347.08	89.38
347.308	84.38
347.535	91.38
347.763	105.38
347.99	106.38
348.218	110.38
348.445	113.38
348.673	107.38
348.9	108.38
349.128	79.38
349.355	88.38
349.583	94.38
349.81	100.38
350.037	92.38
350.265	95.38
350.492	85.38
350.72	86.38
350.947	104.38
351.174	115.38
351.402	111.38
351.629	107.38
351.856	107.38
352.083	102.38
352.311	119.38
352.538	118.38
352.765	112.38
352.992	118.38
353.22	103.38
353.447	124.38
353.674	91.38
353.901	97.38
354.128	92.38
354.355	103.38
354.583	104.38
354.81	108.38
355.037	97.38
355.264	84.38
355.491	97.38
355.718	82.38
355.945	92.38
356.172	99.38
356.399	92.38
356.626	98.38
356.853	101.38
357.08	95.38
357.307	102.38
357.534	87.38
357.761	95.38
357.988	121.38
358.215	107.38
358.441	110.38
358.668	111.38
358.895	98.38
359.122	72.38
359.349	84.38
359.576	113.38
359.802	90.38
360.029	110.38
360.256	97.38
360.483	91.38
360.709	92.38
360.936	92.38
361.163	94.38
361.39	94.38
361.616	101.38
361.843	104.38
362.07	100.38
362.296	106.38
362.523	90.38
362.749	87.38
362.976	97.38
363.203	97.38
363.429	89.38
363.656	78.38
363.882	96.38
364.109	82.38
364.335	101.38
364.562	77.38
364.788	88.38
365.015	83.38
365.241	96.38
365.468	100.38
365.694	98.38
365.92	97.38
366.147	94.38
366.373	94.38
366.599	104.38
366.826	91.38
367.052	107.38
367.278	86.38
367.505	104.38
367.731	104.38
367.957	106.38
368.184	95.38
368.41	107.38
368.636	114.38
368.862	111.38
369.089	113.38
369.315	97.38
369.541	85.38
369.767	94.38
369.993	99.38
370.219	100.38
370.445	111.38
370.672	100.38
370.898	92.38
371.124	89.38
371.35	94.38
371.576	94.38
371.802	103.38
372.028	89.38
372.254	83.38
372.48	93.38
372.706	94.38
372.932	82.38
373.158	86.38
373.384	84.38
373.61	82.38
373.835	96.38
374.061	87.38
374.287	98.38
374.513	89.38
374.739	90.38
374.965	89.38
375.191	90.38
375.416	89.38
375.642	104.38
375.868	86.38
376.094	102.38
376.319	104.38
376.545	89.38
376.771	83.38
376.997	95.38
377.222	88.38
377.448	102.38
377.674	97.38
377.899	99.38
378.125	96.38
378.35	104.38
378.576	94.38
378.802	100.38
379.027	93.38
379.253	105.38
379.478	98.38
379.704	114.38
379.929	94.38
380.155	95.38
380.38	112.38
380.606	108.38
380.831	98.38
381.057	112.38
381.282	112.38
381.507	111.38
381.733	96.38
381.958	112.38
382.184	105.38
382.409	109.38
382.634	105.38
382.86	112.38
383.085	111.38
383.31	109.38
383.535	111.38
383.761	110.38
383.986	101.38
384.211	116.38
384.436	128.38
384.662	117.38
384.887	124.38
385.112	121.38
385.337	128.38
385.562	120.38
385.787	129.38
386.013	130.38
386.238	126.38
386.463	122.38
386.688	141.38
386.913	125.38
387.138	142.38
387.363	128.38
387.588	109.38
387.813	118.38
388.038	116.38
388.263	137.38
388.488	150.38
388.713	120.38
388.938	100.38
389.163	93.38
389.387	102.38
389.612	91.38
389.837	95.38
390.062	91.38
390.287	97.38
390.512	114.38
390.736	101.38
390.961	94.38
391.186	100.38
391.411	100.38
391.636	93.38
391.86	97.38
392.085	94.38
392.31	81.38
392.534	90.38
392.759	86.38
392.984	100.38
393.208	111.38
393.433	133.38
393.658	114.38
393.882	93.38
394.107	100.38
394.331	96.38
394.556	98.38
394.78	99.38
395.005	81.38
395.229	104.38
395.454	85.38
395.678	84.38
395.903	98.38
396.127	100.38
396.352	93.38
396.576	86.38
396.801	94.38
397.025	100.38
397.249	103.38
397.474	108.38
397.698	93.38
397.922	90.38
398.147	84.38
398.371	88.38
398.595	72.38
398.82	94.38
399.044	92.38
399.268	80.38
399.492	92.38
399.717	94.38
399.941	84.38
400.165	103.38
400.389	98.38
400.613	102.38
400.837	93.38
401.062	101.38
401.286	89.38
401.51	90.38
401.734	73.38
401.958	99.38
402.182	133.38
402.406	138.38
402.63	112.38
402.854	103.38
403.078	88.38
403.302	87.38
403.526	87.38
403.75	96.38
403.974	93.38
404.198	101.38
404.422	90.38
404.645	98.38
404.869	96.38
405.093	92.38
405.317	96.38
405.541	93.38
405.765	98.38
405.988	120.38
406.212	146.38
406.436	186.38
406.66	125.38
406.883	103.38
407.107	98.38
407.331	82.38
407.555	99.38
407.778	96.38
408.002	97.38
408.226	87.38
408.449	95.38
408.673	99.38
408.896	102.38
409.12	93.38
409.344	89.38
409.567	101.38
409.791	114.38
410.014	94.38
410.238	101.38
410.461	104.38
410.685	100.38
410.908	91.38
411.132	113.38
411.355	98.38
411.578	93.38
411.802	91.38
412.025	106.38
412.249	87.38
412.472	90.38
412.695	101.38
412.919	82.38
413.142	87.38
413.365	103.38
413.589	81.38
413.812	100.38
414.035	80.38
414.258	93.38
414.482	99.38
414.705	104.38
414.928	85.38
415.151	91.38
415.374	96.38
415.597	76.38
415.821	90.38
416.044	86.38
416.267	92.38
416.49	103.38
416.713	91.38
416.936	100.38
417.159	90.38
417.382	87.38
417.605	82.38
417.828	96.38
418.051	98.38
418.274	104.38
418.497	91.38
418.72	97.38
418.943	87.38
419.166	95.38
419.389	98.38
419.611	101.38
419.834	80.38
420.057	90.38
420.28	85.38
420.503	97.38
420.726	95.38
420.948	100.38
421.171	108.38
421.394	94.38
421.617	105.38
421.839	87.38
422.062	93.38
422.285	105.38
422.507	98.38
422.73	118.38
422.953	101.38
423.175	97.38
423.398	94.38
423.621	93.38
423.843	92.38
424.066	99.38
424.288	86.38
424.511	93.38
424.733	85.38
424.956	103.38
425.178	82.38
425.401	93.38
425.623	108.38
425.846	104.38
426.068	96.38
426.291	100.38
426.513	91.38
426.735	85.38
426.958	91.38
427.18	79.38
427.402	122.38
427.625	146.38
427.847	119.38
428.069	93.38
428.292	98.38
428.514	87.38
428.736	89.38
428.958	92.38
429.181	93.38
429.403	97.38
429.625	87.38
429.847	88.38
430.069	98.38
430.292	105.38
430.514	96.38
430.736	92.38
430.958	101.38
431.18	84.38
431.402	84.38
431.624	104.38
431.846	79.38
432.068	98.38
432.29	84.38
432.512	93.38
432.734	84.38
432.956	104.38
433.178	97.38
433.4	93.38
433.622	98.38
433.844	86.38
434.066	104.38
434.287	76.38
434.509	94.38
434.731	100.38
434.953	101.38
435.175	88.38
435.397	89.38
435.618	111.38
435.84	114.38
436.062	109.38
436.284	105.38
436.505	99.38
436.727	100.38
436.949	84.38
437.17	88.38
437.392	86.38
437.614	90.38
437.835	98.38
438.057	112.38
438.278	112.38
438.5	99.38
438.721	106.38
438.943	99.38
439.165	78.38
439.386	77.38
439.608	94.38
439.829	95.38
440.05	124.38
440.272	144.38
440.493	104.38
440.715	96.38
440.936	100.38
441.158	101.38
441.379	89.38
441.6	86.38
441.822	100.38
442.043	98.38
442.264	102.38
442.486	99.38
442.707	87.38
442.928	105.38
443.149	114.38
443.371	123.38
443.592	118.38
443.813	95.38
444.034	104.38
444.255	93.38
444.476	91.38
444.698	83.38
444.919	90.38
445.14	136.38
445.361	140.38
445.582	99.38
445.803	117.38
446.024	128.38
446.245	129.38
446.466	99.38
446.687	108.38
446.908	86.38
447.129	98.38
447.35	83.38
447.571	90.38
447.792	84.38
448.013	104.38
448.234	110.38
448.455	117.38
448.675	112.38
448.896	115.38
449.117	114.38
449.338	101.38
449.559	124.38
449.779	121.38
450	85.38
450.221	97.38
450.442	95.38
450.662	90.38
450.883	86.38
451.104	103.38
451.324	86.38
451.545	95.38
451.766	85.38
451.986	86.38
452.207	101.38
452.428	83.38
452.648	93.38
452.869	106.38
453.089	110.38
453.31	109.38
453.53	84.38
453.751	98.38
453.971	97.38
454.192	102.38
454.412	97.38
454.633	92.38
454.853	79.38
455.073	81.38
455.294	99.38
455.514	114.38
455.734	89.38
455.955	99.38
456.175	91.38
456.395	82.38
456.616	77.38
456.836	99.38
457.056	97.38
457.276	99.38
457.497	97.38
457.717	94.38
457.937	93.38
458.157	84.38
458.377	104.38
458.598	106.38
458.818	144.38
459.038	150.38
459.258	121.38
459.478	111.38
459.698	81.38
459.918	90.38
460.138	91.38
460.358	101.38
460.578	101.38
460.798	90.38
461.018	94.38
461.238	74.38
461.458	86.38
461.678	92.38
461.898	85.38
462.118	89.38
462.338	105.38
462.558	101.38
462.777	109.38
462.997	92.38
463.217	105.38
463.437	89.38
463.657	94.38
463.876	95.38
464.096	84.38
464.316	89.38
464.536	103.38
464.755	108.38
464.975	120.38
465.195	140.38
465.414	153.38
465.634	92.38
465.854	81.38
466.073	89.38
466.293	95.38
466.512	95.38
466.732	102.38
466.951	99.38
467.171	90.38
467.391	105.38
467.61	80.38
467.829	105.38
468.049	93.38
468.268	100.38
468.488	76.38
468.707	78.38
468.927	90.38
469.146	79.38
469.365	109.38
469.585	98.38
469.804	104.38
470.023	107.38
470.243	110.38
470.462	109.38
470.681	108.38
470.901	94.38
471.12	91.38
471.339	84.38
471.558	95.38
471.777	82.38
471.997	94.38
472.216	105.38
472.435	97.38
472.654	92.38
472.873	83.38
473.092	86.38
473.311	85.38
473.53	102.38
473.749	90.38
473.968	92.38
474.187	100.38
474.406	93.38
474.625	102.38
474.844	90.38
475.063	83.38
475.282	92.38
475.501	90.38
475.72	96.38
475.939	96.38
476.158	80.38
476.377	83.38
476.596	94.38
476.814	77.38
477.033	88.38
477.252	91.38
477.471	83.38
477.69	96.38
477.908	101.38
478.127	88.38
478.346	82.38
478.564	88.38
478.783	100.38
479.002	95.38
479.22	96.38
479.439	115.38
479.658	107.38
479.876	95.38
480.095	100.38
480.313	101.38
480.532	78.38
480.751	101.38
480.969	99.38
481.188	112.38
481.406	108.38
481.624	88.38
481.843	98.38
482.061	92.38
482.28	106.38
482.498	91.38
482.717	94.38
482.935	98.38
483.153	107.38
483.372	93.38
483.59	104.38
483.808	102.38
484.027	90.38
484.245	96.38
484.463	76.38
484.681	100.38
484.9	94.38
485.118	106.38
485.336	91.38
485.554	105.38
485.772	114.38
485.99	104.38
486.209	114.38
486.427	112.38
486.645	120.38
486.863	116.38
487.081	108.38
487.299	106.38
487.517	102.38
487.735	101.38
487.953	92.38
488.171	100.38
488.389	110.38
488.607	89.38
488.825	92.38
489.043	95.38
489.261	107.38
489.479	92.38
489.696	91.38
489.914	89.38
490.132	104.38
490.35	92.38
490.568	105.38
490.786	94.38
491.003	88.38
491.221	101.38
491.439	101.38
491.657	115.38
491.874	92.38
492.092	102.38
492.31	99.38
492.527	82.38
492.745	112.38
492.963	92.38
493.18	92.38
493.398	106.38
493.615	99.38
493.833	99.38
494.05	97.38
494.268	78.38
494.485	93.38
494.703	83.38
494.92	97.38
495.138	106.38
495.355	97.38
495.573	89.38
495.79	104.38
496.008	113.38
496.225	108.38
496.442	89.38
496.66	106.38
496.877	92.38
497.094	98.38
497.312	92.38
497.529	102.38
497.746	94.38
497.963	80.38
498.181	83.38
498.398	84.38
498.615	120.38
498.832	108.38
499.049	82.38
499.267	98.38
499.484	94.38
499.701	90.38
499.918	92.38
500.135	89.38
500.352	95.38
500.569	93.38
500.786	107.38
501.003	101.38
501.22	103.38
501.437	99.38
501.654	87.38
501.871	108.38
502.088	100.38
502.305	96.38
502.522	78.38
502.739	90.38
502.956	94.38
503.172	99.38
503.389	96.38
503.606	117.38
503.823	104.38
504.04	94.38
504.256	100.38
504.473	93.38
504.69	94.38
504.907	101.38
505.123	94.38
505.34	100.38
505.557	94.38
505.773	84.38
505.99	107.38
506.207	88.38
506.423	100.38
506.64	93.38
506.856	92.38
507.073	83.38
507.289	102.38
507.506	104.38
507.722	109.38
507.939	106.38
508.155	109.38
508.372	85.38
508.588	95.38
508.805	102.38
509.021	91.38
509.238	91.38
509.454	94.38
509.67	109.38
509.887	124.38
510.103	129.38
510.319	202.38
510.536	677.38
510.752	2098.38
510.968	603.38
511.184	138.38
511.401	104.38
511.617	99.38
511.833	101.38
512.049	97.38
512.265	91.38
512.481	96.38
512.698	90.38
512.914	106.38
513.13	99.38
513.346	102.38
513.562	95.38
513.778	87.38
513.994	101.38
