Data from Circ_2003_H10_HRD10591_00017.txt Node
Date: Wed Jan 03 10:37:06 EST 2024
User: Yrep
Spectrometer: HR+D1059
Trigger mode: 1
Integration Time (sec): 1.000000E-1
Scans to average: 1
Electric dark correction enabled: true
Nonlinearity correction enabled: false
Boxcar width: 0
XAxis mode: Wavelengths
Number of Pixels in Spectrum: 2048
>>>>>Begin Spectral Data<<<<<
223.165	-18.94
223.4	-18.94
223.635	-18.94
223.869	-16.94
224.104	-16.94
224.338	-17.94
224.573	-1.94
224.808	-19.94
225.042	-7.94
225.277	-12.94
225.511	-14.94
225.746	3.06
225.98	-1.94
226.215	17.06
226.449	26.06
226.683	26.06
226.918	26.06
227.152	32.06
227.387	42.06
227.621	29.06
227.856	41.06
228.09	33.06
228.324	34.06
228.559	47.06
228.793	48.06
229.027	60.06
229.262	64.06
229.496	65.06
229.73	86.06
229.964	79.06
230.199	75.06
230.433	70.06
230.667	71.06
230.901	78.06
231.136	79.06
231.37	85.06
231.604	79.06
231.838	76.06
232.072	77.06
232.306	85.06
232.541	78.06
232.775	81.06
233.009	75.06
233.243	71.06
233.477	76.06
233.711	86.06
233.945	78.06
234.179	72.06
234.413	87.06
234.647	82.06
234.881	87.06
235.115	78.06
235.349	68.06
235.583	71.06
235.817	72.06
236.051	86.06
236.285	78.06
236.519	63.06
236.753	78.06
236.987	86.06
237.221	95.06
237.455	50.06
237.689	75.06
237.922	65.06
238.156	72.06
238.39	81.06
238.624	76.06
238.858	65.06
239.091	74.06
239.325	76.06
239.559	78.06
239.793	64.06
240.027	84.06
240.26	80.06
240.494	74.06
240.728	74.06
240.961	70.06
241.195	77.06
241.429	81.06
241.662	71.06
241.896	81.06
242.13	82.06
242.363	82.06
242.597	72.06
242.83	68.06
243.064	74.06
243.298	78.06
243.531	68.06
243.765	70.06
243.998	81.06
244.232	72.06
244.465	75.06
244.699	87.06
244.932	70.06
245.166	76.06
245.399	71.06
245.633	67.06
245.866	75.06
246.099	80.06
246.333	82.06
246.566	92.06
246.8	72.06
247.033	77.06
247.266	70.06
247.5	74.06
247.733	82.06
247.966	78.06
248.2	86.06
248.433	82.06
248.666	84.06
248.899	80.06
249.133	76.06
249.366	106.06
249.599	85.06
249.832	75.06
250.066	83.06
250.299	53.06
250.532	86.06
250.765	61.06
250.998	82.06
251.231	72.06
251.465	78.06
251.698	72.06
251.931	63.06
252.164	79.06
252.397	81.06
252.63	65.06
252.863	77.06
253.096	86.06
253.329	94.06
253.562	83.06
253.795	75.06
254.028	82.06
254.261	70.06
254.494	86.06
254.727	86.06
254.96	81.06
255.193	84.06
255.426	79.06
255.659	86.06
255.892	70.06
256.124	87.06
256.357	83.06
256.59	87.06
256.823	82.06
257.056	85.06
257.289	67.06
257.521	84.06
257.754	66.06
257.987	82.06
258.22	76.06
258.452	83.06
258.685	88.06
258.918	84.06
259.151	81.06
259.383	89.06
259.616	77.06
259.849	75.06
260.081	95.06
260.314	84.06
260.547	91.06
260.779	77.06
261.012	73.06
261.244	75.06
261.477	82.06
261.71	101.06
261.942	107.06
262.175	116.06
262.407	75.06
262.64	89.06
262.872	68.06
263.105	79.06
263.337	92.06
263.57	78.06
263.802	76.06
264.035	79.06
264.267	85.06
264.499	81.06
264.732	69.06
264.964	86.06
265.197	86.06
265.429	87.06
265.661	84.06
265.894	72.06
266.126	84.06
266.358	77.06
266.591	83.06
266.823	92.06
267.055	78.06
267.287	75.06
267.52	77.06
267.752	65.06
267.984	80.06
268.216	80.06
268.448	75.06
268.681	76.06
268.913	106.06
269.145	74.06
269.377	84.06
269.609	79.06
269.841	73.06
270.073	78.06
270.306	88.06
270.538	77.06
270.77	62.06
271.002	85.06
271.234	67.06
271.466	70.06
271.698	69.06
271.93	78.06
272.162	78.06
272.394	73.06
272.626	81.06
272.858	73.06
273.09	89.06
273.322	75.06
273.553	79.06
273.785	91.06
274.017	73.06
274.249	65.06
274.481	84.06
274.713	84.06
274.945	73.06
275.176	68.06
275.408	77.06
275.64	78.06
275.872	98.06
276.104	78.06
276.335	87.06
276.567	98.06
276.799	100.06
277.031	95.06
277.262	76.06
277.494	92.06
277.726	84.06
277.957	93.06
278.189	85.06
278.421	74.06
278.652	80.06
278.884	73.06
279.115	88.06
279.347	88.06
279.579	89.06
279.81	83.06
280.042	71.06
280.273	81.06
280.505	72.06
280.736	97.06
280.968	82.06
281.199	87.06
281.431	84.06
281.662	97.06
281.894	73.06
282.125	97.06
282.356	99.06
282.588	108.06
282.819	109.06
283.051	89.06
283.282	73.06
283.513	90.06
283.745	81.06
283.976	84.06
284.207	73.06
284.439	76.06
284.67	80.06
284.901	73.06
285.132	81.06
285.364	93.06
285.595	93.06
285.826	86.06
286.057	74.06
286.288	93.06
286.52	90.06
286.751	78.06
286.982	74.06
287.213	79.06
287.444	83.06
287.675	77.06
287.906	86.06
288.138	79.06
288.369	102.06
288.6	83.06
288.831	80.06
289.062	86.06
289.293	79.06
289.524	72.06
289.755	66.06
289.986	77.06
290.217	85.06
290.448	72.06
290.679	97.06
290.91	90.06
291.141	82.06
291.371	94.06
291.602	104.06
291.833	97.06
292.064	69.06
292.295	85.06
292.526	94.06
292.757	87.06
292.987	83.06
293.218	86.06
293.449	84.06
293.68	82.06
293.91	81.06
294.141	83.06
294.372	87.06
294.603	90.06
294.833	75.06
295.064	88.06
295.295	87.06
295.525	69.06
295.756	93.06
295.987	112.06
296.217	129.06
296.448	110.06
296.679	89.06
296.909	82.06
297.14	90.06
297.37	92.06
297.601	88.06
297.831	69.06
298.062	70.06
298.292	70.06
298.523	94.06
298.753	91.06
298.984	65.06
299.214	81.06
299.445	81.06
299.675	84.06
299.905	81.06
300.136	91.06
300.366	78.06
300.597	84.06
300.827	82.06
301.057	83.06
301.288	96.06
301.518	87.06
301.748	75.06
301.979	90.06
302.209	85.06
302.439	88.06
302.669	86.06
302.9	83.06
303.13	101.06
303.36	80.06
303.59	94.06
303.82	81.06
304.051	80.06
304.281	80.06
304.511	90.06
304.741	89.06
304.971	91.06
305.201	80.06
305.431	82.06
305.661	108.06
305.891	92.06
306.121	95.06
306.352	92.06
306.582	108.06
306.812	93.06
307.042	98.06
307.272	89.06
307.502	79.06
307.731	83.06
307.961	85.06
308.191	76.06
308.421	82.06
308.651	94.06
308.881	101.06
309.111	83.06
309.341	83.06
309.571	81.06
309.8	85.06
310.03	88.06
310.26	90.06
310.49	88.06
310.72	96.06
310.949	104.06
311.179	92.06
311.409	90.06
311.639	89.06
311.868	100.06
312.098	93.06
312.328	93.06
312.557	100.06
312.787	90.06
313.017	105.06
313.246	97.06
313.476	98.06
313.706	87.06
313.935	86.06
314.165	89.06
314.394	99.06
314.624	85.06
314.853	91.06
315.083	84.06
315.312	84.06
315.542	91.06
315.771	89.06
316.001	94.06
316.23	87.06
316.46	86.06
316.689	91.06
316.919	84.06
317.148	89.06
317.377	89.06
317.607	75.06
317.836	85.06
318.065	86.06
318.295	90.06
318.524	89.06
318.753	99.06
318.983	72.06
319.212	94.06
319.441	107.06
319.67	90.06
319.9	91.06
320.129	99.06
320.358	92.06
320.587	89.06
320.816	96.06
321.046	94.06
321.275	91.06
321.504	86.06
321.733	87.06
321.962	76.06
322.191	86.06
322.42	94.06
322.649	109.06
322.878	116.06
323.108	108.06
323.337	116.06
323.566	112.06
323.795	135.06
324.024	185.06
324.253	345.06
324.482	721.06
324.71	1498.06
324.939	2036.06
325.168	749.06
325.397	214.06
325.626	129.06
325.855	121.06
326.084	114.06
326.313	108.06
326.542	145.06
326.77	210.06
326.999	431.06
327.228	865.06
327.457	1506.06
327.686	1263.06
327.914	329.06
328.143	157.06
328.372	124.06
328.6	106.06
328.829	97.06
329.058	118.06
329.287	103.06
329.515	98.06
329.744	85.06
329.972	82.06
330.201	84.06
330.43	96.06
330.658	107.06
330.887	115.06
331.115	103.06
331.344	88.06
331.572	96.06
331.801	95.06
332.03	86.06
332.258	100.06
332.486	90.06
332.715	96.06
332.943	82.06
333.172	105.06
333.4	100.06
333.629	97.06
333.857	101.06
334.085	104.06
334.314	91.06
334.542	90.06
334.771	90.06
334.999	99.06
335.227	81.06
335.455	94.06
335.684	102.06
335.912	91.06
336.14	102.06
336.369	95.06
336.597	87.06
336.825	95.06
337.053	85.06
337.281	84.06
337.51	90.06
337.738	82.06
337.966	93.06
338.194	79.06
338.422	83.06
338.65	89.06
338.878	76.06
339.106	83.06
339.334	99.06
339.562	87.06
339.79	85.06
340.018	77.06
340.246	73.06
340.474	91.06
340.702	83.06
340.93	96.06
341.158	87.06
341.386	101.06
341.614	91.06
341.842	87.06
342.07	91.06
342.298	100.06
342.526	88.06
342.754	87.06
342.981	88.06
343.209	89.06
343.437	87.06
343.665	68.06
343.893	85.06
344.12	74.06
344.348	97.06
344.576	88.06
344.804	93.06
345.031	94.06
345.259	92.06
345.487	87.06
345.714	77.06
345.942	96.06
346.17	77.06
346.397	86.06
346.625	82.06
346.853	77.06
347.08	100.06
347.308	92.06
347.535	94.06
347.763	100.06
347.99	85.06
348.218	99.06
348.445	86.06
348.673	89.06
348.9	91.06
349.128	79.06
349.355	100.06
349.583	81.06
349.81	92.06
350.037	81.06
350.265	93.06
350.492	96.06
350.72	103.06
350.947	87.06
351.174	97.06
351.402	115.06
351.629	85.06
351.856	89.06
352.083	107.06
352.311	97.06
352.538	100.06
352.765	94.06
352.992	113.06
353.22	97.06
353.447	111.06
353.674	101.06
353.901	93.06
354.128	104.06
354.355	95.06
354.583	92.06
354.81	92.06
355.037	93.06
355.264	94.06
355.491	86.06
355.718	86.06
355.945	103.06
356.172	103.06
356.399	95.06
356.626	92.06
356.853	94.06
357.08	85.06
357.307	83.06
357.534	89.06
357.761	87.06
357.988	91.06
358.215	94.06
358.441	99.06
358.668	73.06
358.895	97.06
359.122	102.06
359.349	76.06
359.576	75.06
359.802	100.06
360.029	90.06
360.256	105.06
360.483	93.06
360.709	80.06
360.936	76.06
361.163	69.06
361.39	94.06
361.616	87.06
361.843	88.06
362.07	91.06
362.296	89.06
362.523	77.06
362.749	82.06
362.976	88.06
363.203	84.06
363.429	93.06
363.656	83.06
363.882	78.06
364.109	92.06
364.335	82.06
364.562	93.06
364.788	80.06
365.015	90.06
365.241	87.06
365.468	102.06
365.694	89.06
365.92	101.06
366.147	102.06
366.373	94.06
366.599	88.06
366.826	95.06
367.052	100.06
367.278	84.06
367.505	82.06
367.731	85.06
367.957	86.06
368.184	87.06
368.41	85.06
368.636	107.06
368.862	111.06
369.089	100.06
369.315	80.06
369.541	82.06
369.767	84.06
369.993	83.06
370.219	86.06
370.445	77.06
370.672	82.06
370.898	85.06
371.124	67.06
371.35	73.06
371.576	103.06
371.802	83.06
372.028	83.06
372.254	70.06
372.48	92.06
372.706	86.06
372.932	78.06
373.158	76.06
373.384	91.06
373.61	96.06
373.835	103.06
374.061	98.06
374.287	104.06
374.513	90.06
374.739	87.06
374.965	87.06
375.191	76.06
375.416	92.06
375.642	97.06
375.868	95.06
376.094	90.06
376.319	81.06
376.545	83.06
376.771	100.06
376.997	85.06
377.222	93.06
377.448	84.06
377.674	100.06
377.899	77.06
378.125	103.06
378.35	85.06
378.576	100.06
378.802	91.06
379.027	91.06
379.253	90.06
379.478	97.06
379.704	94.06
379.929	87.06
380.155	100.06
380.38	97.06
380.606	102.06
380.831	96.06
381.057	99.06
381.282	87.06
381.507	109.06
381.733	90.06
381.958	99.06
382.184	98.06
382.409	96.06
382.634	111.06
382.86	115.06
383.085	90.06
383.31	103.06
383.535	91.06
383.761	103.06
383.986	103.06
384.211	101.06
384.436	119.06
384.662	106.06
384.887	117.06
385.112	117.06
385.337	107.06
385.562	134.06
385.787	127.06
386.013	108.06
386.238	116.06
386.463	118.06
386.688	115.06
386.913	118.06
387.138	123.06
387.363	114.06
387.588	105.06
387.813	99.06
388.038	103.06
388.263	139.06
388.488	126.06
388.713	90.06
388.938	86.06
389.163	77.06
389.387	88.06
389.612	85.06
389.837	96.06
390.062	109.06
390.287	91.06
390.512	79.06
390.736	81.06
390.961	91.06
391.186	97.06
391.411	88.06
391.636	97.06
391.86	85.06
392.085	78.06
392.31	89.06
392.534	86.06
392.759	98.06
392.984	82.06
393.208	85.06
393.433	104.06
393.658	91.06
393.882	83.06
394.107	78.06
394.331	70.06
394.556	77.06
394.78	75.06
395.005	88.06
395.229	75.06
395.454	85.06
395.678	77.06
395.903	82.06
396.127	89.06
396.352	69.06
396.576	88.06
396.801	81.06
397.025	79.06
397.249	81.06
397.474	75.06
397.698	83.06
397.922	90.06
398.147	82.06
398.371	73.06
398.595	90.06
398.82	89.06
399.044	79.06
399.268	86.06
399.492	93.06
399.717	71.06
399.941	88.06
400.165	87.06
400.389	68.06
400.613	89.06
400.837	78.06
401.062	75.06
401.286	80.06
401.51	98.06
401.734	80.06
401.958	111.06
402.182	121.06
402.406	148.06
402.63	96.06
402.854	82.06
403.078	81.06
403.302	81.06
403.526	94.06
403.75	81.06
403.974	90.06
404.198	84.06
404.422	84.06
404.645	80.06
404.869	93.06
405.093	91.06
405.317	83.06
405.541	92.06
405.765	87.06
405.988	116.06
406.212	147.06
406.436	185.06
406.66	122.06
406.883	90.06
407.107	105.06
407.331	93.06
407.555	98.06
407.778	84.06
408.002	73.06
408.226	82.06
408.449	89.06
408.673	78.06
408.896	98.06
409.12	92.06
409.344	90.06
409.567	86.06
409.791	84.06
410.014	92.06
410.238	89.06
410.461	95.06
410.685	87.06
410.908	91.06
411.132	98.06
411.355	84.06
411.578	90.06
411.802	82.06
412.025	72.06
412.249	88.06
412.472	93.06
412.695	91.06
412.919	77.06
413.142	83.06
413.365	83.06
413.589	80.06
413.812	86.06
414.035	87.06
414.258	93.06
414.482	84.06
414.705	91.06
414.928	96.06
415.151	71.06
415.374	108.06
415.597	94.06
415.821	81.06
416.044	83.06
416.267	93.06
416.49	86.06
416.713	97.06
416.936	103.06
417.159	84.06
417.382	77.06
417.605	83.06
417.828	89.06
418.051	82.06
418.274	81.06
418.497	79.06
418.72	87.06
418.943	87.06
419.166	88.06
419.389	98.06
419.611	85.06
419.834	93.06
420.057	80.06
420.28	100.06
420.503	73.06
420.726	89.06
420.948	104.06
421.171	92.06
421.394	82.06
421.617	95.06
421.839	84.06
422.062	77.06
422.285	77.06
422.507	93.06
422.73	103.06
422.953	93.06
423.175	78.06
423.398	74.06
423.621	81.06
423.843	76.06
424.066	72.06
424.288	73.06
424.511	82.06
424.733	78.06
424.956	81.06
425.178	85.06
425.401	80.06
425.623	99.06
425.846	81.06
426.068	87.06
426.291	75.06
426.513	82.06
426.735	84.06
426.958	82.06
427.18	96.06
427.402	116.06
427.625	141.06
427.847	118.06
428.069	101.06
428.292	82.06
428.514	86.06
428.736	83.06
428.958	85.06
429.181	95.06
429.403	78.06
429.625	75.06
429.847	84.06
430.069	83.06
430.292	77.06
430.514	74.06
430.736	83.06
430.958	86.06
431.18	69.06
431.402	77.06
431.624	82.06
431.846	91.06
432.068	87.06
432.29	76.06
432.512	79.06
432.734	90.06
432.956	87.06
433.178	94.06
433.4	85.06
433.622	72.06
433.844	86.06
434.066	81.06
434.287	99.06
434.509	88.06
434.731	79.06
434.953	84.06
435.175	74.06
435.397	85.06
435.618	78.06
435.84	94.06
436.062	106.06
436.284	100.06
436.505	100.06
436.727	93.06
436.949	93.06
437.17	86.06
437.392	91.06
437.614	80.06
437.835	108.06
438.057	115.06
438.278	109.06
438.5	117.06
438.721	120.06
438.943	102.06
439.165	87.06
439.386	78.06
439.608	84.06
439.829	103.06
440.05	113.06
440.272	134.06
440.493	92.06
440.715	75.06
440.936	76.06
441.158	70.06
441.379	88.06
441.6	85.06
441.822	81.06
442.043	80.06
442.264	98.06
442.486	91.06
442.707	75.06
442.928	93.06
443.149	108.06
443.371	128.06
443.592	93.06
443.813	110.06
444.034	106.06
444.255	99.06
444.476	82.06
444.698	84.06
444.919	78.06
445.14	131.06
445.361	108.06
445.582	105.06
445.803	115.06
446.024	115.06
446.245	126.06
446.466	94.06
446.687	90.06
446.908	83.06
447.129	81.06
447.35	86.06
447.571	68.06
447.792	93.06
448.013	90.06
448.234	100.06
448.455	89.06
448.675	95.06
448.896	110.06
449.117	90.06
449.338	93.06
449.559	107.06
449.779	110.06
450	91.06
450.221	90.06
450.442	77.06
450.662	69.06
450.883	102.06
451.104	102.06
451.324	91.06
451.545	105.06
451.766	81.06
451.986	79.06
452.207	89.06
452.428	92.06
452.648	85.06
452.869	99.06
453.089	97.06
453.31	100.06
453.53	87.06
453.751	77.06
453.971	98.06
454.192	104.06
454.412	89.06
454.633	77.06
454.853	81.06
455.073	83.06
455.294	89.06
455.514	87.06
455.734	82.06
455.955	87.06
456.175	86.06
456.395	77.06
456.616	72.06
456.836	66.06
457.056	82.06
457.276	78.06
457.497	84.06
457.717	76.06
457.937	74.06
458.157	91.06
458.377	81.06
458.598	106.06
458.818	117.06
459.038	133.06
459.258	102.06
459.478	75.06
459.698	73.06
459.918	77.06
460.138	91.06
460.358	82.06
460.578	93.06
460.798	85.06
461.018	87.06
461.238	83.06
461.458	75.06
461.678	89.06
461.898	70.06
462.118	76.06
462.338	89.06
462.558	72.06
462.777	62.06
462.997	86.06
463.217	87.06
463.437	90.06
463.657	83.06
463.876	91.06
464.096	91.06
464.316	92.06
464.536	94.06
464.755	90.06
464.975	107.06
465.195	137.06
465.414	147.06
465.634	83.06
465.854	68.06
466.073	75.06
466.293	91.06
466.512	77.06
466.732	87.06
466.951	91.06
467.171	89.06
467.391	78.06
467.61	94.06
467.829	73.06
468.049	83.06
468.268	70.06
468.488	89.06
468.707	81.06
468.927	85.06
469.146	89.06
469.365	78.06
469.585	86.06
469.804	82.06
470.023	83.06
470.243	86.06
470.462	90.06
470.681	105.06
470.901	100.06
471.12	96.06
471.339	84.06
471.558	79.06
471.777	79.06
471.997	76.06
472.216	93.06
472.435	84.06
472.654	79.06
472.873	87.06
473.092	81.06
473.311	77.06
473.53	60.06
473.749	79.06
473.968	95.06
474.187	106.06
474.406	107.06
474.625	71.06
474.844	88.06
475.063	74.06
475.282	70.06
475.501	71.06
475.72	80.06
475.939	84.06
476.158	87.06
476.377	73.06
476.596	84.06
476.814	83.06
477.033	82.06
477.252	76.06
477.471	73.06
477.69	75.06
477.908	83.06
478.127	72.06
478.346	98.06
478.564	92.06
478.783	87.06
479.002	102.06
479.22	90.06
479.439	89.06
479.658	97.06
479.876	75.06
480.095	83.06
480.313	86.06
480.532	89.06
480.751	92.06
480.969	105.06
481.188	91.06
481.406	100.06
481.624	77.06
481.843	62.06
482.061	78.06
482.28	89.06
482.498	84.06
482.717	82.06
482.935	93.06
483.153	83.06
483.372	81.06
483.59	85.06
483.808	97.06
484.027	87.06
484.245	82.06
484.463	94.06
484.681	93.06
484.9	69.06
485.118	100.06
485.336	88.06
485.554	99.06
485.772	101.06
485.99	116.06
486.209	111.06
486.427	107.06
486.645	104.06
486.863	108.06
487.081	108.06
487.299	91.06
487.517	94.06
487.735	97.06
487.953	94.06
488.171	102.06
488.389	88.06
488.607	94.06
488.825	90.06
489.043	87.06
489.261	72.06
489.479	102.06
489.696	94.06
489.914	89.06
490.132	91.06
490.35	102.06
490.568	83.06
490.786	91.06
491.003	71.06
491.221	85.06
491.439	82.06
491.657	91.06
491.874	91.06
492.092	105.06
492.31	96.06
492.527	97.06
492.745	100.06
492.963	89.06
493.18	84.06
493.398	94.06
493.615	92.06
493.833	97.06
494.05	92.06
494.268	89.06
494.485	74.06
494.703	80.06
494.92	80.06
495.138	83.06
495.355	94.06
495.573	91.06
495.79	83.06
496.008	99.06
496.225	76.06
496.442	85.06
496.66	69.06
496.877	83.06
497.094	86.06
497.312	91.06
497.529	87.06
497.746	86.06
497.963	89.06
498.181	89.06
498.398	106.06
498.615	89.06
498.832	90.06
499.049	91.06
499.267	84.06
499.484	97.06
499.701	79.06
499.918	96.06
500.135	87.06
500.352	89.06
500.569	67.06
500.786	91.06
501.003	84.06
501.22	73.06
501.437	77.06
501.654	85.06
501.871	101.06
502.088	97.06
502.305	72.06
502.522	78.06
502.739	82.06
502.956	85.06
503.172	100.06
503.389	96.06
503.606	116.06
503.823	80.06
504.04	71.06
504.256	95.06
504.473	79.06
504.69	84.06
504.907	72.06
505.123	84.06
505.34	85.06
505.557	87.06
505.773	82.06
505.99	83.06
506.207	93.06
506.423	89.06
506.64	87.06
506.856	90.06
507.073	82.06
507.289	99.06
507.506	97.06
507.722	109.06
507.939	103.06
508.155	94.06
508.372	89.06
508.588	80.06
508.805	83.06
509.021	90.06
509.238	76.06
509.454	83.06
509.67	94.06
509.887	96.06
510.103	123.06
510.319	206.06
510.536	694.06
510.752	2181.06
510.968	623.06
511.184	140.06
511.401	94.06
511.617	94.06
511.833	85.06
512.049	95.06
512.265	82.06
512.481	84.06
512.698	79.06
512.914	86.06
513.13	94.06
513.346	96.06
513.562	91.06
513.778	92.06
513.994	90.06
514.21	86.06
514.426	112.06
514.642	122.06
514.858	110.06
515.074	119.06
515.29	387.06
515.506	1260.06
515.721	454.06
515.937	135.06
516.153	95.06
516.369	83.06
516.585	98.06
516.801	89.06
517.016	91.06
