Data from Circ_2003_H10_HRD10591_00054.txt Node
Date: Wed Jan 03 10:37:13 EST 2024
User: Yrep
Spectrometer: HR+D1059
Trigger mode: 1
Integration Time (sec): 1.000000E-1
Scans to average: 1
Electric dark correction enabled: true
Nonlinearity correction enabled: false
Boxcar width: 0
XAxis mode: Wavelengths
Number of Pixels in Spectrum: 2048
>>>>>Begin Spectral Data<<<<<
223.165	-14.75
223.4	-14.75
223.635	-14.75
223.869	-11.75
224.104	-18.75
224.338	-0.75
224.573	-9.75
224.808	-10.75
225.042	-12.75
225.277	-9.75
225.511	2.25
225.746	1.25
225.98	8.25
226.215	9.25
226.449	9.25
226.683	20.25
226.918	26.25
227.152	12.25
227.387	25.25
227.621	45.25
227.856	26.25
228.09	36.25
228.324	53.25
228.559	56.25
228.793	46.25
229.027	55.25
229.262	62.25
229.496	54.25
229.73	60.25
229.964	79.25
230.199	71.25
230.433	70.25
230.667	76.25
230.901	75.25
231.136	72.25
231.37	90.25
231.604	75.25
231.838	74.25
232.072	72.25
232.306	72.25
232.541	66.25
232.775	81.25
233.009	75.25
233.243	71.25
233.477	86.25
233.711	87.25
233.945	75.25
234.179	91.25
234.413	67.25
234.647	71.25
234.881	69.25
235.115	70.25
235.349	68.25
235.583	67.25
235.817	70.25
236.051	67.25
236.285	78.25
236.519	74.25
236.753	73.25
236.987	91.25
237.221	77.25
237.455	79.25
237.689	76.25
237.922	71.25
238.156	56.25
238.39	72.25
238.624	79.25
238.858	63.25
239.091	67.25
239.325	80.25
239.559	83.25
239.793	69.25
240.027	76.25
240.26	84.25
240.494	64.25
240.728	85.25
240.961	84.25
241.195	72.25
241.429	75.25
241.662	76.25
241.896	76.25
242.13	95.25
242.363	73.25
242.597	76.25
242.83	81.25
243.064	71.25
243.298	81.25
243.531	66.25
243.765	73.25
243.998	77.25
244.232	84.25
244.465	83.25
244.699	83.25
244.932	63.25
245.166	72.25
245.399	67.25
245.633	75.25
245.866	81.25
246.099	80.25
246.333	65.25
246.566	76.25
246.8	67.25
247.033	77.25
247.266	87.25
247.5	82.25
247.733	82.25
247.966	89.25
248.2	61.25
248.433	77.25
248.666	77.25
248.899	92.25
249.133	89.25
249.366	105.25
249.599	93.25
249.832	83.25
250.066	69.25
250.299	80.25
250.532	84.25
250.765	75.25
250.998	85.25
251.231	70.25
251.465	67.25
251.698	82.25
251.931	69.25
252.164	86.25
252.397	79.25
252.63	82.25
252.863	66.25
253.096	64.25
253.329	87.25
253.562	83.25
253.795	86.25
254.028	80.25
254.261	80.25
254.494	67.25
254.727	82.25
254.96	79.25
255.193	71.25
255.426	78.25
255.659	93.25
255.892	86.25
256.124	89.25
256.357	78.25
256.59	76.25
256.823	81.25
257.056	78.25
257.289	71.25
257.521	68.25
257.754	78.25
257.987	83.25
258.22	74.25
258.452	68.25
258.685	77.25
258.918	70.25
259.151	85.25
259.383	87.25
259.616	79.25
259.849	73.25
260.081	81.25
260.314	64.25
260.547	71.25
260.779	86.25
261.012	85.25
261.244	65.25
261.477	73.25
261.71	84.25
261.942	91.25
262.175	108.25
262.407	93.25
262.64	73.25
262.872	80.25
263.105	76.25
263.337	96.25
263.57	80.25
263.802	93.25
264.035	77.25
264.267	87.25
264.499	73.25
264.732	72.25
264.964	77.25
265.197	90.25
265.429	84.25
265.661	80.25
265.894	75.25
266.126	93.25
266.358	88.25
266.591	88.25
266.823	77.25
267.055	94.25
267.287	83.25
267.52	106.25
267.752	86.25
267.984	80.25
268.216	96.25
268.448	93.25
268.681	72.25
268.913	84.25
269.145	81.25
269.377	81.25
269.609	92.25
269.841	87.25
270.073	82.25
270.306	80.25
270.538	96.25
270.77	86.25
271.002	86.25
271.234	85.25
271.466	89.25
271.698	92.25
271.93	92.25
272.162	72.25
272.394	94.25
272.626	84.25
272.858	76.25
273.09	86.25
273.322	77.25
273.553	75.25
273.785	87.25
274.017	91.25
274.249	86.25
274.481	87.25
274.713	71.25
274.945	87.25
275.176	79.25
275.408	80.25
275.64	90.25
275.872	79.25
276.104	87.25
276.335	97.25
276.567	99.25
276.799	95.25
277.031	89.25
277.262	93.25
277.494	89.25
277.726	82.25
277.957	89.25
278.189	89.25
278.421	83.25
278.652	72.25
278.884	92.25
279.115	102.25
279.347	86.25
279.579	86.25
279.81	83.25
280.042	85.25
280.273	77.25
280.505	88.25
280.736	82.25
280.968	79.25
281.199	82.25
281.431	78.25
281.662	84.25
281.894	103.25
282.125	103.25
282.356	106.25
282.588	131.25
282.819	118.25
283.051	82.25
283.282	77.25
283.513	69.25
283.745	83.25
283.976	74.25
284.207	91.25
284.439	92.25
284.67	84.25
284.901	100.25
285.132	85.25
285.364	85.25
285.595	82.25
285.826	72.25
286.057	92.25
286.288	80.25
286.52	69.25
286.751	85.25
286.982	86.25
287.213	80.25
287.444	95.25
287.675	97.25
287.906	86.25
288.138	99.25
288.369	97.25
288.6	83.25
288.831	71.25
289.062	80.25
289.293	85.25
289.524	79.25
289.755	84.25
289.986	76.25
290.217	87.25
290.448	82.25
290.679	82.25
290.91	76.25
291.141	85.25
291.371	86.25
291.602	80.25
291.833	107.25
292.064	81.25
292.295	91.25
292.526	89.25
292.757	89.25
292.987	77.25
293.218	98.25
293.449	86.25
293.68	82.25
293.91	93.25
294.141	93.25
294.372	87.25
294.603	80.25
294.833	78.25
295.064	78.25
295.295	84.25
295.525	88.25
295.756	105.25
295.987	114.25
296.217	139.25
296.448	114.25
296.679	82.25
296.909	65.25
297.14	94.25
297.37	82.25
297.601	91.25
297.831	86.25
298.062	84.25
298.292	93.25
298.523	92.25
298.753	84.25
298.984	93.25
299.214	79.25
299.445	93.25
299.675	89.25
299.905	90.25
300.136	83.25
300.366	87.25
300.597	92.25
300.827	78.25
301.057	87.25
301.288	87.25
301.518	90.25
301.748	98.25
301.979	96.25
302.209	103.25
302.439	91.25
302.669	84.25
302.9	80.25
303.13	85.25
303.36	84.25
303.59	97.25
303.82	108.25
304.051	92.25
304.281	95.25
304.511	88.25
304.741	88.25
304.971	72.25
305.201	88.25
305.431	96.25
305.661	92.25
305.891	89.25
306.121	105.25
306.352	83.25
306.582	107.25
306.812	95.25
307.042	85.25
307.272	76.25
307.502	81.25
307.731	87.25
307.961	90.25
308.191	95.25
308.421	66.25
308.651	92.25
308.881	80.25
309.111	83.25
309.341	103.25
309.571	101.25
309.8	85.25
310.03	89.25
310.26	106.25
310.49	98.25
310.72	79.25
310.949	93.25
311.179	114.25
311.409	93.25
311.639	96.25
311.868	110.25
312.098	100.25
312.328	97.25
312.557	98.25
312.787	96.25
313.017	95.25
313.246	102.25
313.476	80.25
313.706	100.25
313.935	99.25
314.165	97.25
314.394	87.25
314.624	79.25
314.853	85.25
315.083	86.25
315.312	92.25
315.542	89.25
315.771	92.25
316.001	87.25
316.23	83.25
316.46	79.25
316.689	84.25
316.919	92.25
317.148	96.25
317.377	87.25
317.607	95.25
317.836	95.25
318.065	97.25
318.295	82.25
318.524	85.25
318.753	89.25
318.983	73.25
319.212	96.25
319.441	94.25
319.67	100.25
319.9	86.25
320.129	89.25
320.358	104.25
320.587	99.25
320.816	89.25
321.046	91.25
321.275	95.25
321.504	101.25
321.733	88.25
321.962	99.25
322.191	101.25
322.42	107.25
322.649	92.25
322.878	116.25
323.108	111.25
323.337	113.25
323.566	123.25
323.795	129.25
324.024	194.25
324.253	389.25
324.482	793.25
324.71	1652.25
324.939	2183.25
325.168	790.25
325.397	232.25
325.626	140.25
325.855	140.25
326.084	110.25
326.313	133.25
326.542	130.25
326.77	233.25
326.999	451.25
327.228	915.25
327.457	1652.25
327.686	1341.25
327.914	351.25
328.143	187.25
328.372	161.25
328.6	138.25
328.829	114.25
329.058	117.25
329.287	114.25
329.515	87.25
329.744	98.25
329.972	103.25
330.201	125.25
330.43	135.25
330.658	129.25
330.887	125.25
331.115	111.25
331.344	103.25
331.572	112.25
331.801	93.25
332.03	104.25
332.258	100.25
332.486	79.25
332.715	95.25
332.943	72.25
333.172	87.25
333.4	92.25
333.629	104.25
333.857	121.25
334.085	108.25
334.314	124.25
334.542	139.25
334.771	134.25
334.999	94.25
335.227	89.25
335.455	87.25
335.684	99.25
335.912	101.25
336.14	104.25
336.369	96.25
336.597	88.25
336.825	79.25
337.053	85.25
337.281	93.25
337.51	80.25
337.738	87.25
337.966	91.25
338.194	100.25
338.422	88.25
338.65	88.25
338.878	85.25
339.106	90.25
339.334	88.25
339.562	75.25
339.79	85.25
340.018	95.25
340.246	89.25
340.474	86.25
340.702	80.25
340.93	92.25
341.158	88.25
341.386	97.25
341.614	88.25
341.842	104.25
342.07	94.25
342.298	93.25
342.526	83.25
342.754	71.25
342.981	97.25
343.209	76.25
343.437	88.25
343.665	85.25
343.893	79.25
344.12	91.25
344.348	81.25
344.576	86.25
344.804	73.25
345.031	99.25
345.259	85.25
345.487	84.25
345.714	76.25
345.942	86.25
346.17	103.25
346.397	92.25
346.625	81.25
346.853	78.25
347.08	103.25
347.308	91.25
347.535	88.25
347.763	91.25
347.99	105.25
348.218	100.25
348.445	96.25
348.673	101.25
348.9	98.25
349.128	90.25
349.355	80.25
349.583	86.25
349.81	92.25
350.037	97.25
350.265	99.25
350.492	104.25
350.72	93.25
350.947	95.25
351.174	102.25
351.402	102.25
351.629	104.25
351.856	101.25
352.083	111.25
352.311	89.25
352.538	95.25
352.765	102.25
352.992	91.25
353.22	102.25
353.447	99.25
353.674	94.25
353.901	105.25
354.128	94.25
354.355	105.25
354.583	99.25
354.81	104.25
355.037	94.25
355.264	79.25
355.491	90.25
355.718	101.25
355.945	97.25
356.172	103.25
356.399	93.25
356.626	92.25
356.853	88.25
357.08	70.25
357.307	94.25
357.534	85.25
357.761	85.25
357.988	95.25
358.215	99.25
358.441	94.25
358.668	93.25
358.895	85.25
359.122	90.25
359.349	84.25
359.576	85.25
359.802	101.25
360.029	94.25
360.256	90.25
360.483	98.25
360.709	87.25
360.936	83.25
361.163	95.25
361.39	92.25
361.616	80.25
361.843	90.25
362.07	93.25
362.296	100.25
362.523	91.25
362.749	85.25
362.976	78.25
363.203	96.25
363.429	84.25
363.656	63.25
363.882	79.25
364.109	81.25
364.335	84.25
364.562	78.25
364.788	84.25
365.015	82.25
365.241	93.25
365.468	91.25
365.694	107.25
365.92	81.25
366.147	91.25
366.373	75.25
366.599	91.25
366.826	77.25
367.052	86.25
367.278	92.25
367.505	90.25
367.731	92.25
367.957	88.25
368.184	78.25
368.41	99.25
368.636	91.25
368.862	111.25
369.089	101.25
369.315	72.25
369.541	83.25
369.767	83.25
369.993	76.25
370.219	83.25
370.445	93.25
370.672	79.25
370.898	94.25
371.124	81.25
371.35	94.25
371.576	87.25
371.802	90.25
372.028	84.25
372.254	89.25
372.48	80.25
372.706	86.25
372.932	97.25
373.158	86.25
373.384	86.25
373.61	94.25
373.835	87.25
374.061	85.25
374.287	94.25
374.513	77.25
374.739	83.25
374.965	85.25
375.191	94.25
375.416	91.25
375.642	91.25
375.868	85.25
376.094	96.25
376.319	92.25
376.545	83.25
376.771	78.25
376.997	84.25
377.222	86.25
377.448	95.25
377.674	104.25
377.899	71.25
378.125	84.25
378.35	100.25
378.576	80.25
378.802	76.25
379.027	93.25
379.253	84.25
379.478	91.25
379.704	83.25
379.929	88.25
380.155	92.25
380.38	80.25
380.606	91.25
380.831	89.25
381.057	118.25
381.282	87.25
381.507	79.25
381.733	86.25
381.958	79.25
382.184	98.25
382.409	103.25
382.634	108.25
382.86	91.25
383.085	103.25
383.31	83.25
383.535	115.25
383.761	97.25
383.986	87.25
384.211	102.25
384.436	105.25
384.662	123.25
384.887	95.25
385.112	109.25
385.337	104.25
385.562	94.25
385.787	99.25
386.013	112.25
386.238	111.25
386.463	96.25
386.688	102.25
386.913	106.25
387.138	100.25
387.363	96.25
387.588	95.25
387.813	110.25
388.038	110.25
388.263	117.25
388.488	110.25
388.713	92.25
388.938	104.25
389.163	92.25
389.387	95.25
389.612	93.25
389.837	88.25
390.062	91.25
390.287	82.25
390.512	100.25
390.736	96.25
390.961	79.25
391.186	89.25
391.411	84.25
391.636	95.25
391.86	79.25
392.085	92.25
392.31	88.25
392.534	82.25
392.759	88.25
392.984	88.25
393.208	84.25
393.433	95.25
393.658	86.25
393.882	89.25
394.107	67.25
394.331	80.25
394.556	87.25
394.78	98.25
395.005	76.25
395.229	80.25
395.454	77.25
395.678	77.25
395.903	92.25
396.127	84.25
396.352	87.25
396.576	92.25
396.801	93.25
397.025	85.25
397.249	75.25
397.474	89.25
397.698	78.25
397.922	82.25
398.147	78.25
398.371	85.25
398.595	81.25
398.82	87.25
399.044	91.25
399.268	94.25
399.492	82.25
399.717	76.25
399.941	81.25
400.165	94.25
400.389	79.25
400.613	89.25
400.837	83.25
401.062	93.25
401.286	86.25
401.51	79.25
401.734	90.25
401.958	94.25
402.182	113.25
402.406	151.25
402.63	101.25
402.854	93.25
403.078	84.25
403.302	83.25
403.526	76.25
403.75	70.25
403.974	75.25
404.198	83.25
404.422	75.25
404.645	79.25
404.869	94.25
405.093	100.25
405.317	97.25
405.541	95.25
405.765	107.25
405.988	111.25
406.212	153.25
406.436	201.25
406.66	129.25
406.883	95.25
407.107	79.25
407.331	89.25
407.555	92.25
407.778	97.25
408.002	87.25
408.226	78.25
408.449	82.25
408.673	89.25
408.896	97.25
409.12	85.25
409.344	87.25
409.567	88.25
409.791	87.25
410.014	95.25
410.238	94.25
410.461	97.25
410.685	94.25
410.908	84.25
411.132	100.25
411.355	95.25
411.578	103.25
411.802	108.25
412.025	101.25
412.249	88.25
412.472	90.25
412.695	83.25
412.919	83.25
413.142	89.25
413.365	80.25
413.589	83.25
413.812	97.25
414.035	97.25
414.258	80.25
414.482	92.25
414.705	91.25
414.928	82.25
415.151	93.25
415.374	88.25
415.597	86.25
415.821	88.25
416.044	80.25
416.267	92.25
416.49	85.25
416.713	89.25
416.936	77.25
417.159	78.25
417.382	85.25
417.605	74.25
417.828	92.25
418.051	97.25
418.274	89.25
418.497	86.25
418.72	73.25
418.943	84.25
419.166	82.25
419.389	84.25
419.611	86.25
419.834	85.25
420.057	78.25
420.28	81.25
420.503	94.25
420.726	78.25
420.948	100.25
421.171	100.25
421.394	85.25
421.617	85.25
421.839	92.25
422.062	94.25
422.285	97.25
422.507	91.25
422.73	83.25
422.953	91.25
423.175	77.25
423.398	83.25
423.621	89.25
423.843	81.25
424.066	80.25
424.288	89.25
424.511	91.25
424.733	100.25
424.956	108.25
425.178	101.25
425.401	86.25
425.623	97.25
425.846	98.25
426.068	95.25
426.291	89.25
426.513	80.25
426.735	85.25
426.958	92.25
427.18	107.25
427.402	113.25
427.625	143.25
427.847	129.25
428.069	101.25
428.292	89.25
428.514	78.25
428.736	81.25
428.958	82.25
429.181	95.25
429.403	63.25
429.625	72.25
429.847	94.25
430.069	99.25
430.292	94.25
430.514	86.25
430.736	75.25
430.958	83.25
431.18	87.25
431.402	78.25
431.624	82.25
431.846	81.25
432.068	87.25
432.29	86.25
432.512	89.25
432.734	85.25
432.956	80.25
433.178	88.25
433.4	84.25
433.622	92.25
433.844	94.25
434.066	93.25
434.287	81.25
434.509	84.25
434.731	93.25
434.953	89.25
435.175	88.25
435.397	97.25
435.618	85.25
435.84	92.25
436.062	115.25
436.284	98.25
436.505	99.25
436.727	95.25
436.949	88.25
437.17	79.25
437.392	92.25
437.614	93.25
437.835	111.25
438.057	102.25
438.278	111.25
438.5	101.25
438.721	107.25
438.943	84.25
439.165	92.25
439.386	104.25
439.608	71.25
439.829	85.25
440.05	116.25
440.272	121.25
440.493	96.25
440.715	80.25
440.936	81.25
441.158	99.25
441.379	84.25
441.6	89.25
441.822	80.25
442.043	92.25
442.264	90.25
442.486	94.25
442.707	86.25
442.928	89.25
443.149	116.25
443.371	122.25
443.592	127.25
443.813	102.25
444.034	97.25
444.255	81.25
444.476	88.25
444.698	84.25
444.919	89.25
445.14	124.25
445.361	110.25
445.582	102.25
445.803	112.25
446.024	118.25
446.245	123.25
446.466	97.25
446.687	86.25
446.908	94.25
447.129	79.25
447.35	106.25
447.571	89.25
447.792	96.25
448.013	88.25
448.234	107.25
448.455	93.25
448.675	101.25
448.896	112.25
449.117	99.25
449.338	109.25
449.559	124.25
449.779	120.25
450	81.25
450.221	84.25
450.442	80.25
450.662	83.25
450.883	93.25
451.104	114.25
451.324	94.25
451.545	80.25
451.766	80.25
451.986	75.25
452.207	85.25
452.428	97.25
452.648	96.25
452.869	101.25
453.089	115.25
453.31	111.25
453.53	88.25
453.751	87.25
453.971	106.25
454.192	109.25
454.412	89.25
454.633	86.25
454.853	90.25
455.073	84.25
455.294	92.25
455.514	89.25
455.734	83.25
455.955	91.25
456.175	78.25
456.395	89.25
456.616	87.25
456.836	86.25
457.056	89.25
457.276	85.25
457.497	92.25
457.717	88.25
457.937	80.25
458.157	90.25
458.377	86.25
458.598	103.25
458.818	131.25
459.038	137.25
459.258	86.25
459.478	84.25
459.698	68.25
459.918	84.25
460.138	88.25
460.358	88.25
460.578	86.25
460.798	91.25
461.018	88.25
461.238	83.25
461.458	77.25
461.678	76.25
461.898	94.25
462.118	83.25
462.338	72.25
462.558	78.25
462.777	76.25
462.997	71.25
463.217	80.25
463.437	90.25
463.657	85.25
463.876	85.25
464.096	88.25
464.316	99.25
464.536	88.25
464.755	86.25
464.975	110.25
465.195	143.25
465.414	150.25
465.634	72.25
465.854	87.25
466.073	71.25
466.293	84.25
466.512	92.25
466.732	86.25
466.951	73.25
467.171	94.25
467.391	92.25
467.61	95.25
467.829	96.25
468.049	101.25
468.268	99.25
468.488	95.25
468.707	80.25
468.927	73.25
469.146	72.25
469.365	84.25
469.585	85.25
469.804	90.25
470.023	89.25
470.243	89.25
470.462	87.25
470.681	96.25
470.901	89.25
471.12	93.25
471.339	86.25
471.558	85.25
471.777	92.25
471.997	80.25
472.216	106.25
472.435	147.25
472.654	82.25
472.873	93.25
473.092	95.25
473.311	84.25
473.53	85.25
473.749	90.25
473.968	89.25
474.187	92.25
474.406	88.25
474.625	86.25
474.844	77.25
475.063	77.25
475.282	92.25
475.501	76.25
475.72	81.25
475.939	79.25
476.158	89.25
476.377	74.25
476.596	74.25
476.814	92.25
477.033	93.25
477.252	81.25
477.471	87.25
477.69	91.25
477.908	87.25
478.127	92.25
478.346	83.25
478.564	78.25
478.783	79.25
479.002	94.25
479.22	76.25
479.439	98.25
479.658	105.25
479.876	105.25
480.095	84.25
480.313	86.25
480.532	83.25
480.751	102.25
480.969	115.25
481.188	222.25
481.406	163.25
481.624	101.25
481.843	94.25
482.061	84.25
482.28	91.25
482.498	87.25
482.717	73.25
482.935	94.25
483.153	96.25
483.372	70.25
483.59	80.25
483.808	83.25
484.027	98.25
484.245	88.25
484.463	88.25
484.681	105.25
484.9	83.25
485.118	86.25
485.336	85.25
485.554	95.25
485.772	100.25
485.99	96.25
486.209	95.25
486.427	98.25
486.645	100.25
486.863	112.25
487.081	108.25
487.299	90.25
487.517	85.25
487.735	95.25
487.953	98.25
488.171	84.25
488.389	88.25
488.607	109.25
488.825	97.25
489.043	88.25
489.261	91.25
489.479	89.25
489.696	76.25
489.914	83.25
490.132	82.25
490.35	94.25
490.568	90.25
490.786	94.25
491.003	87.25
491.221	75.25
491.439	84.25
491.657	98.25
491.874	89.25
492.092	86.25
492.31	91.25
492.527	91.25
492.745	72.25
492.963	94.25
493.18	86.25
493.398	109.25
493.615	88.25
493.833	91.25
494.05	94.25
494.268	94.25
494.485	93.25
494.703	86.25
494.92	88.25
495.138	100.25
495.355	71.25
495.573	86.25
495.79	94.25
496.008	88.25
496.225	102.25
496.442	90.25
496.66	80.25
496.877	85.25
497.094	98.25
497.312	94.25
497.529	88.25
497.746	88.25
497.963	76.25
498.181	87.25
498.398	98.25
498.615	106.25
498.832	105.25
499.049	81.25
499.267	84.25
499.484	81.25
499.701	77.25
499.918	92.25
500.135	87.25
500.352	86.25
500.569	88.25
500.786	96.25
501.003	88.25
501.22	94.25
501.437	73.25
501.654	99.25
501.871	86.25
502.088	76.25
502.305	96.25
502.522	97.25
502.739	81.25
502.956	89.25
503.172	88.25
503.389	91.25
503.606	104.25
503.823	83.25
504.04	82.25
504.256	84.25
504.473	86.25
504.69	84.25
504.907	97.25
505.123	100.25
505.34	88.25
505.557	91.25
505.773	96.25
505.99	87.25
506.207	101.25
506.423	87.25
506.64	102.25
506.856	87.25
507.073	81.25
507.289	92.25
507.506	103.25
507.722	97.25
507.939	103.25
508.155	89.25
508.372	85.25
508.588	93.25
508.805	98.25
509.021	111.25
509.238	99.25
509.454	100.25
509.67	111.25
509.887	108.25
510.103	127.25
510.319	190.25
510.536	742.25
510.752	2356.25
510.968	642.25
511.184	165.25
511.401	117.25
511.617	103.25
511.833	98.25
512.049	87.25
512.265	99.25
512.481	101.25
512.698	85.25
512.914	101.25
513.13	94.25
513.346	79.25
513.562	86.25
513.778	92.25
513.994	95.25
514.21	98.25
514.426	118.25
514.642	116.25
514.858	121.25
515.074	161.25
515.29	396.25
515.506	1321.25
515.721	483.25
515.937	141.25
516.153	105.25
516.369	87.25
516.585	104.25
516.801	92.25
