Data from Circ_2003_H10_HRD10591_00011.txt Node
Date: Wed Jan 03 10:37:04 EST 2024
User: Yrep
Spectrometer: HR+D1059
Trigger mode: 1
Integration Time (sec): 1.000000E-1
Scans to average: 1
Electric dark correction enabled: true
Nonlinearity correction enabled: false
Boxcar width: 0
XAxis mode: Wavelengths
Number of Pixels in Spectrum: 2048
>>>>>Begin Spectral Data<<<<<
223.165	-15.44
223.4	-15.44
223.635	-15.44
223.869	-22.44
224.104	-19.44
224.338	-4.44
224.573	-17.44
224.808	-16.44
225.042	-10.44
225.277	1.56
225.511	-4.44
225.746	-9.44
225.98	19.56
226.215	7.56
226.449	22.56
226.683	13.56
226.918	21.56
227.152	33.56
227.387	41.56
227.621	26.56
227.856	32.56
228.09	51.56
228.324	42.56
228.559	69.56
228.793	64.56
229.027	56.56
229.262	61.56
229.496	68.56
229.73	81.56
229.964	61.56
230.199	64.56
230.433	85.56
230.667	79.56
230.901	99.56
231.136	80.56
231.37	83.56
231.604	69.56
231.838	69.56
232.072	62.56
232.306	86.56
232.541	98.56
232.775	83.56
233.009	76.56
233.243	95.56
233.477	70.56
233.711	82.56
233.945	68.56
234.179	71.56
234.413	87.56
234.647	76.56
234.881	67.56
235.115	80.56
235.349	96.56
235.583	70.56
235.817	88.56
236.051	76.56
236.285	84.56
236.519	72.56
236.753	75.56
236.987	79.56
237.221	82.56
237.455	75.56
237.689	64.56
237.922	70.56
238.156	72.56
238.39	73.56
238.624	62.56
238.858	66.56
239.091	65.56
239.325	83.56
239.559	87.56
239.793	75.56
240.027	80.56
240.26	71.56
240.494	76.56
240.728	71.56
240.961	77.56
241.195	67.56
241.429	54.56
241.662	75.56
241.896	75.56
242.13	78.56
242.363	65.56
242.597	79.56
242.83	72.56
243.064	75.56
243.298	71.56
243.531	70.56
243.765	82.56
243.998	73.56
244.232	79.56
244.465	98.56
244.699	80.56
244.932	72.56
245.166	73.56
245.399	83.56
245.633	71.56
245.866	82.56
246.099	73.56
246.333	76.56
246.566	72.56
246.8	76.56
247.033	79.56
247.266	89.56
247.5	82.56
247.733	81.56
247.966	78.56
248.2	72.56
248.433	81.56
248.666	72.56
248.899	72.56
249.133	76.56
249.366	91.56
249.599	81.56
249.832	66.56
250.066	88.56
250.299	92.56
250.532	89.56
250.765	84.56
250.998	57.56
251.231	68.56
251.465	84.56
251.698	76.56
251.931	59.56
252.164	88.56
252.397	69.56
252.63	88.56
252.863	87.56
253.096	85.56
253.329	76.56
253.562	79.56
253.795	90.56
254.028	96.56
254.261	90.56
254.494	71.56
254.727	80.56
254.96	73.56
255.193	76.56
255.426	87.56
255.659	79.56
255.892	81.56
256.124	66.56
256.357	84.56
256.59	76.56
256.823	86.56
257.056	74.56
257.289	76.56
257.521	63.56
257.754	78.56
257.987	71.56
258.22	97.56
258.452	79.56
258.685	102.56
258.918	71.56
259.151	75.56
259.383	91.56
259.616	76.56
259.849	80.56
260.081	84.56
260.314	85.56
260.547	88.56
260.779	83.56
261.012	70.56
261.244	93.56
261.477	88.56
261.71	93.56
261.942	89.56
262.175	104.56
262.407	80.56
262.64	70.56
262.872	75.56
263.105	77.56
263.337	80.56
263.57	76.56
263.802	81.56
264.035	83.56
264.267	96.56
264.499	84.56
264.732	67.56
264.964	80.56
265.197	95.56
265.429	72.56
265.661	95.56
265.894	89.56
266.126	75.56
266.358	75.56
266.591	83.56
266.823	81.56
267.055	86.56
267.287	87.56
267.52	86.56
267.752	102.56
267.984	89.56
268.216	84.56
268.448	83.56
268.681	71.56
268.913	59.56
269.145	82.56
269.377	92.56
269.609	80.56
269.841	88.56
270.073	82.56
270.306	64.56
270.538	73.56
270.77	73.56
271.002	87.56
271.234	82.56
271.466	79.56
271.698	89.56
271.93	78.56
272.162	73.56
272.394	95.56
272.626	85.56
272.858	87.56
273.09	82.56
273.322	68.56
273.553	67.56
273.785	74.56
274.017	70.56
274.249	80.56
274.481	94.56
274.713	80.56
274.945	83.56
275.176	80.56
275.408	82.56
275.64	78.56
275.872	75.56
276.104	61.56
276.335	89.56
276.567	72.56
276.799	103.56
277.031	99.56
277.262	83.56
277.494	79.56
277.726	84.56
277.957	79.56
278.189	81.56
278.421	80.56
278.652	84.56
278.884	68.56
279.115	89.56
279.347	103.56
279.579	82.56
279.81	84.56
280.042	76.56
280.273	86.56
280.505	75.56
280.736	92.56
280.968	89.56
281.199	83.56
281.431	86.56
281.662	87.56
281.894	88.56
282.125	85.56
282.356	93.56
282.588	110.56
282.819	108.56
283.051	78.56
283.282	84.56
283.513	97.56
283.745	87.56
283.976	83.56
284.207	83.56
284.439	75.56
284.67	76.56
284.901	91.56
285.132	88.56
285.364	94.56
285.595	84.56
285.826	92.56
286.057	99.56
286.288	88.56
286.52	74.56
286.751	72.56
286.982	78.56
287.213	79.56
287.444	77.56
287.675	98.56
287.906	103.56
288.138	87.56
288.369	80.56
288.6	84.56
288.831	70.56
289.062	82.56
289.293	87.56
289.524	88.56
289.755	93.56
289.986	83.56
290.217	67.56
290.448	77.56
290.679	77.56
290.91	94.56
291.141	88.56
291.371	106.56
291.602	80.56
291.833	93.56
292.064	87.56
292.295	89.56
292.526	82.56
292.757	71.56
292.987	95.56
293.218	75.56
293.449	84.56
293.68	87.56
293.91	76.56
294.141	89.56
294.372	72.56
294.603	70.56
294.833	82.56
295.064	100.56
295.295	94.56
295.525	81.56
295.756	83.56
295.987	104.56
296.217	113.56
296.448	108.56
296.679	94.56
296.909	78.56
297.14	87.56
297.37	89.56
297.601	86.56
297.831	78.56
298.062	92.56
298.292	97.56
298.523	86.56
298.753	73.56
298.984	88.56
299.214	89.56
299.445	82.56
299.675	95.56
299.905	91.56
300.136	78.56
300.366	89.56
300.597	96.56
300.827	73.56
301.057	86.56
301.288	98.56
301.518	82.56
301.748	84.56
301.979	97.56
302.209	70.56
302.439	71.56
302.669	92.56
302.9	88.56
303.13	85.56
303.36	87.56
303.59	93.56
303.82	99.56
304.051	91.56
304.281	93.56
304.511	89.56
304.741	87.56
304.971	95.56
305.201	81.56
305.431	78.56
305.661	80.56
305.891	81.56
306.121	83.56
306.352	88.56
306.582	111.56
306.812	87.56
307.042	87.56
307.272	83.56
307.502	83.56
307.731	102.56
307.961	91.56
308.191	77.56
308.421	85.56
308.651	89.56
308.881	95.56
309.111	86.56
309.341	107.56
309.571	97.56
309.8	92.56
310.03	88.56
310.26	85.56
310.49	101.56
310.72	89.56
310.949	100.56
311.179	91.56
311.409	85.56
311.639	88.56
311.868	90.56
312.098	98.56
312.328	83.56
312.557	108.56
312.787	104.56
313.017	93.56
313.246	91.56
313.476	75.56
313.706	81.56
313.935	95.56
314.165	92.56
314.394	95.56
314.624	85.56
314.853	102.56
315.083	103.56
315.312	99.56
315.542	84.56
315.771	86.56
316.001	88.56
316.23	69.56
316.46	83.56
316.689	96.56
316.919	71.56
317.148	79.56
317.377	93.56
317.607	104.56
317.836	101.56
318.065	98.56
318.295	89.56
318.524	77.56
318.753	73.56
318.983	82.56
319.212	86.56
319.441	107.56
319.67	101.56
319.9	93.56
320.129	97.56
320.358	85.56
320.587	99.56
320.816	99.56
321.046	112.56
321.275	92.56
321.504	100.56
321.733	105.56
321.962	93.56
322.191	99.56
322.42	102.56
322.649	106.56
322.878	105.56
323.108	113.56
323.337	113.56
323.566	122.56
323.795	142.56
324.024	195.56
324.253	351.56
324.482	719.56
324.71	1478.56
324.939	1965.56
325.168	726.56
325.397	230.56
325.626	147.56
325.855	116.56
326.084	115.56
326.313	112.56
326.542	128.56
326.77	199.56
326.999	418.56
327.228	856.56
327.457	1551.56
327.686	1171.56
327.914	321.56
328.143	166.56
328.372	137.56
328.6	108.56
328.829	105.56
329.058	111.56
329.287	112.56
329.515	102.56
329.744	93.56
329.972	83.56
330.201	99.56
330.43	101.56
330.658	106.56
330.887	139.56
331.115	111.56
331.344	101.56
331.572	92.56
331.801	95.56
332.03	96.56
332.258	100.56
332.486	93.56
332.715	104.56
332.943	97.56
333.172	93.56
333.4	94.56
333.629	107.56
333.857	104.56
334.085	99.56
334.314	92.56
334.542	99.56
334.771	110.56
334.999	92.56
335.227	77.56
335.455	88.56
335.684	96.56
335.912	90.56
336.14	91.56
336.369	105.56
336.597	100.56
336.825	95.56
337.053	101.56
337.281	92.56
337.51	93.56
337.738	92.56
337.966	88.56
338.194	98.56
338.422	100.56
338.65	84.56
338.878	100.56
339.106	92.56
339.334	89.56
339.562	84.56
339.79	80.56
340.018	95.56
340.246	103.56
340.474	97.56
340.702	100.56
340.93	84.56
341.158	97.56
341.386	81.56
341.614	98.56
341.842	89.56
342.07	82.56
342.298	89.56
342.526	75.56
342.754	81.56
342.981	83.56
343.209	86.56
343.437	111.56
343.665	91.56
343.893	91.56
344.12	93.56
344.348	89.56
344.576	92.56
344.804	89.56
345.031	86.56
345.259	96.56
345.487	98.56
345.714	98.56
345.942	103.56
346.17	88.56
346.397	94.56
346.625	105.56
346.853	90.56
347.08	95.56
347.308	86.56
347.535	95.56
347.763	95.56
347.99	103.56
348.218	81.56
348.445	93.56
348.673	89.56
348.9	87.56
349.128	92.56
349.355	84.56
349.583	87.56
349.81	91.56
350.037	79.56
350.265	97.56
350.492	81.56
350.72	103.56
350.947	102.56
351.174	111.56
351.402	103.56
351.629	96.56
351.856	100.56
352.083	102.56
352.311	97.56
352.538	104.56
352.765	102.56
352.992	101.56
353.22	95.56
353.447	97.56
353.674	96.56
353.901	94.56
354.128	83.56
354.355	101.56
354.583	99.56
354.81	112.56
355.037	105.56
355.264	101.56
355.491	95.56
355.718	82.56
355.945	92.56
356.172	95.56
356.399	100.56
356.626	99.56
356.853	94.56
357.08	107.56
357.307	89.56
357.534	99.56
357.761	93.56
357.988	102.56
358.215	102.56
358.441	88.56
358.668	85.56
358.895	85.56
359.122	92.56
359.349	90.56
359.576	96.56
359.802	95.56
360.029	101.56
360.256	84.56
360.483	92.56
360.709	75.56
360.936	92.56
361.163	84.56
361.39	93.56
361.616	75.56
361.843	85.56
362.07	99.56
362.296	99.56
362.523	99.56
362.749	98.56
362.976	102.56
363.203	80.56
363.429	81.56
363.656	78.56
363.882	80.56
364.109	100.56
364.335	95.56
364.562	78.56
364.788	85.56
365.015	90.56
365.241	95.56
365.468	112.56
365.694	91.56
365.92	80.56
366.147	86.56
366.373	84.56
366.599	88.56
366.826	99.56
367.052	84.56
367.278	89.56
367.505	101.56
367.731	88.56
367.957	83.56
368.184	86.56
368.41	90.56
368.636	107.56
368.862	119.56
369.089	94.56
369.315	89.56
369.541	97.56
369.767	88.56
369.993	92.56
370.219	80.56
370.445	83.56
370.672	82.56
370.898	86.56
371.124	86.56
371.35	88.56
371.576	75.56
371.802	93.56
372.028	83.56
372.254	87.56
372.48	101.56
372.706	89.56
372.932	100.56
373.158	91.56
373.384	80.56
373.61	95.56
373.835	79.56
374.061	100.56
374.287	89.56
374.513	92.56
374.739	98.56
374.965	83.56
375.191	86.56
375.416	87.56
375.642	94.56
375.868	87.56
376.094	104.56
376.319	94.56
376.545	91.56
376.771	99.56
376.997	91.56
377.222	87.56
377.448	91.56
377.674	87.56
377.899	88.56
378.125	84.56
378.35	111.56
378.576	105.56
378.802	102.56
379.027	105.56
379.253	84.56
379.478	101.56
379.704	98.56
379.929	94.56
380.155	106.56
380.38	108.56
380.606	100.56
380.831	89.56
381.057	97.56
381.282	113.56
381.507	94.56
381.733	101.56
381.958	99.56
382.184	117.56
382.409	107.56
382.634	101.56
382.86	102.56
383.085	108.56
383.31	106.56
383.535	121.56
383.761	112.56
383.986	125.56
384.211	114.56
384.436	113.56
384.662	114.56
384.887	131.56
385.112	126.56
385.337	126.56
385.562	112.56
385.787	135.56
386.013	143.56
386.238	131.56
386.463	108.56
386.688	131.56
386.913	137.56
387.138	142.56
387.363	121.56
387.588	99.56
387.813	112.56
388.038	136.56
388.263	142.56
388.488	134.56
388.713	97.56
388.938	84.56
389.163	99.56
389.387	92.56
389.612	102.56
389.837	92.56
390.062	86.56
390.287	94.56
390.512	83.56
390.736	89.56
390.961	94.56
391.186	102.56
391.411	88.56
391.636	89.56
391.86	82.56
392.085	92.56
392.31	78.56
392.534	84.56
392.759	94.56
392.984	96.56
393.208	100.56
393.433	103.56
393.658	110.56
393.882	92.56
394.107	81.56
394.331	84.56
394.556	100.56
394.78	85.56
395.005	75.56
395.229	85.56
395.454	86.56
395.678	84.56
395.903	92.56
396.127	86.56
396.352	90.56
396.576	94.56
396.801	92.56
397.025	87.56
397.249	78.56
397.474	79.56
397.698	69.56
397.922	88.56
398.147	76.56
398.371	83.56
398.595	89.56
398.82	83.56
399.044	82.56
399.268	86.56
399.492	91.56
399.717	85.56
399.941	92.56
400.165	102.56
400.389	92.56
400.613	79.56
400.837	75.56
401.062	87.56
401.286	79.56
401.51	98.56
401.734	73.56
401.958	93.56
402.182	117.56
402.406	127.56
402.63	94.56
402.854	81.56
403.078	88.56
403.302	92.56
403.526	92.56
403.75	92.56
403.974	84.56
404.198	86.56
404.422	85.56
404.645	72.56
404.869	93.56
405.093	92.56
405.317	102.56
405.541	95.56
405.765	95.56
405.988	113.56
406.212	138.56
406.436	189.56
406.66	141.56
406.883	92.56
407.107	81.56
407.331	96.56
407.555	94.56
407.778	91.56
408.002	100.56
408.226	92.56
408.449	80.56
408.673	85.56
408.896	99.56
409.12	96.56
409.344	101.56
409.567	100.56
409.791	96.56
410.014	83.56
410.238	89.56
410.461	99.56
410.685	92.56
410.908	103.56
411.132	95.56
411.355	83.56
411.578	87.56
411.802	84.56
412.025	88.56
412.249	81.56
412.472	72.56
412.695	90.56
412.919	88.56
413.142	94.56
413.365	102.56
413.589	94.56
413.812	79.56
414.035	85.56
414.258	100.56
414.482	84.56
414.705	92.56
414.928	75.56
415.151	90.56
415.374	91.56
415.597	84.56
415.821	81.56
416.044	94.56
416.267	95.56
416.49	94.56
416.713	87.56
416.936	85.56
417.159	94.56
417.382	81.56
417.605	81.56
417.828	83.56
418.051	103.56
418.274	92.56
418.497	94.56
418.72	96.56
418.943	86.56
419.166	87.56
419.389	91.56
419.611	82.56
419.834	99.56
420.057	97.56
420.28	77.56
420.503	78.56
420.726	86.56
420.948	95.56
421.171	87.56
421.394	82.56
421.617	92.56
421.839	84.56
422.062	93.56
422.285	73.56
422.507	98.56
422.73	125.56
422.953	112.56
423.175	107.56
423.398	89.56
423.621	91.56
423.843	90.56
424.066	76.56
424.288	91.56
424.511	95.56
424.733	82.56
424.956	95.56
425.178	102.56
425.401	98.56
425.623	86.56
425.846	87.56
426.068	87.56
426.291	75.56
426.513	86.56
426.735	87.56
426.958	94.56
427.18	105.56
427.402	131.56
427.625	144.56
427.847	99.56
428.069	91.56
428.292	86.56
428.514	83.56
428.736	88.56
428.958	89.56
429.181	83.56
429.403	86.56
429.625	93.56
429.847	83.56
430.069	95.56
430.292	96.56
430.514	86.56
430.736	72.56
430.958	76.56
431.18	99.56
431.402	87.56
431.624	90.56
431.846	87.56
432.068	67.56
432.29	83.56
432.512	87.56
432.734	100.56
432.956	96.56
433.178	95.56
433.4	89.56
433.622	88.56
433.844	75.56
434.066	95.56
434.287	91.56
434.509	87.56
434.731	91.56
434.953	76.56
435.175	83.56
435.397	83.56
435.618	93.56
435.84	104.56
436.062	112.56
436.284	99.56
436.505	88.56
436.727	86.56
436.949	89.56
437.17	83.56
437.392	104.56
437.614	93.56
437.835	100.56
438.057	102.56
438.278	96.56
438.5	99.56
438.721	114.56
438.943	97.56
439.165	78.56
439.386	86.56
439.608	80.56
439.829	89.56
440.05	108.56
440.272	126.56
440.493	101.56
440.715	93.56
440.936	84.56
441.158	66.56
441.379	78.56
441.6	89.56
441.822	90.56
442.043	88.56
442.264	105.56
442.486	91.56
442.707	77.56
442.928	103.56
443.149	95.56
443.371	107.56
443.592	91.56
443.813	92.56
444.034	108.56
444.255	84.56
444.476	94.56
444.698	77.56
444.919	75.56
445.14	124.56
445.361	103.56
445.582	107.56
445.803	112.56
446.024	114.56
446.245	118.56
446.466	110.56
446.687	84.56
446.908	75.56
447.129	84.56
447.35	85.56
447.571	80.56
447.792	95.56
448.013	90.56
448.234	102.56
448.455	78.56
448.675	101.56
448.896	103.56
449.117	100.56
449.338	92.56
449.559	123.56
449.779	125.56
450	93.56
450.221	93.56
450.442	90.56
450.662	74.56
450.883	89.56
451.104	93.56
451.324	82.56
451.545	72.56
451.766	98.56
451.986	86.56
452.207	92.56
452.428	96.56
452.648	82.56
452.869	107.56
453.089	93.56
453.31	91.56
453.53	95.56
453.751	88.56
453.971	92.56
454.192	109.56
454.412	94.56
454.633	72.56
454.853	81.56
455.073	76.56
455.294	86.56
455.514	96.56
455.734	86.56
455.955	74.56
456.175	92.56
456.395	77.56
456.616	79.56
456.836	85.56
457.056	86.56
457.276	79.56
457.497	85.56
457.717	79.56
457.937	97.56
458.157	84.56
458.377	81.56
458.598	86.56
458.818	119.56
459.038	139.56
459.258	101.56
459.478	85.56
459.698	86.56
459.918	79.56
460.138	81.56
460.358	91.56
460.578	80.56
460.798	84.56
461.018	79.56
461.238	92.56
461.458	86.56
461.678	79.56
461.898	83.56
462.118	79.56
462.338	101.56
462.558	79.56
462.777	95.56
462.997	79.56
463.217	85.56
463.437	95.56
463.657	74.56
463.876	94.56
464.096	84.56
464.316	95.56
464.536	84.56
464.755	89.56
464.975	95.56
465.195	128.56
465.414	109.56
465.634	84.56
465.854	80.56
466.073	95.56
466.293	95.56
466.512	89.56
466.732	86.56
466.951	90.56
467.171	89.56
467.391	91.56
467.61	94.56
467.829	90.56
468.049	72.56
468.268	86.56
468.488	85.56
468.707	78.56
468.927	84.56
469.146	106.56
469.365	78.56
469.585	79.56
469.804	83.56
470.023	86.56
470.243	96.56
470.462	112.56
470.681	101.56
470.901	73.56
471.12	87.56
471.339	97.56
471.558	88.56
471.777	94.56
471.997	91.56
472.216	85.56
472.435	87.56
472.654	87.56
472.873	84.56
473.092	89.56
473.311	99.56
473.53	84.56
473.749	89.56
473.968	80.56
474.187	94.56
474.406	79.56
474.625	100.56
474.844	81.56
475.063	88.56
475.282	86.56
475.501	83.56
475.72	70.56
475.939	96.56
476.158	84.56
476.377	85.56
476.596	83.56
476.814	87.56
477.033	97.56
477.252	93.56
477.471	84.56
477.69	93.56
477.908	87.56
478.127	90.56
478.346	72.56
478.564	82.56
478.783	95.56
479.002	104.56
479.22	94.56
479.439	100.56
479.658	113.56
479.876	102.56
480.095	76.56
480.313	88.56
480.532	85.56
480.751	87.56
480.969	86.56
481.188	104.56
481.406	101.56
481.624	100.56
481.843	77.56
482.061	97.56
482.28	85.56
482.498	96.56
482.717	78.56
482.935	84.56
483.153	100.56
483.372	89.56
483.59	99.56
483.808	92.56
484.027	81.56
484.245	91.56
484.463	87.56
484.681	93.56
484.9	79.56
485.118	100.56
485.336	96.56
485.554	95.56
485.772	108.56
485.99	99.56
486.209	107.56
486.427	104.56
486.645	105.56
486.863	107.56
487.081	107.56
487.299	92.56
487.517	98.56
487.735	87.56
487.953	101.56
488.171	88.56
488.389	95.56
488.607	98.56
488.825	85.56
489.043	92.56
489.261	93.56
489.479	100.56
489.696	84.56
489.914	90.56
490.132	79.56
490.35	89.56
490.568	73.56
490.786	79.56
491.003	92.56
491.221	86.56
491.439	80.56
491.657	82.56
491.874	90.56
492.092	79.56
492.31	93.56
492.527	75.56
492.745	79.56
492.963	101.56
493.18	99.56
493.398	104.56
493.615	84.56
493.833	99.56
494.05	87.56
494.268	81.56
494.485	90.56
494.703	85.56
494.92	89.56
495.138	75.56
495.355	79.56
495.573	96.56
495.79	96.56
496.008	103.56
496.225	93.56
496.442	85.56
496.66	95.56
496.877	74.56
497.094	86.56
497.312	85.56
497.529	84.56
497.746	84.56
497.963	91.56
498.181	84.56
498.398	92.56
498.615	89.56
498.832	82.56
499.049	94.56
499.267	71.56
499.484	93.56
499.701	92.56
499.918	89.56
500.135	67.56
500.352	76.56
500.569	80.56
500.786	84.56
501.003	94.56
501.22	94.56
501.437	75.56
501.654	82.56
501.871	99.56
502.088	74.56
502.305	78.56
502.522	86.56
502.739	87.56
502.956	103.56
503.172	92.56
503.389	75.56
503.606	93.56
503.823	99.56
504.04	98.56
504.256	91.56
504.473	93.56
504.69	102.56
504.907	80.56
505.123	85.56
505.34	83.56
505.557	77.56
505.773	84.56
505.99	79.56
506.207	101.56
506.423	94.56
506.64	79.56
506.856	93.56
507.073	99.56
507.289	84.56
507.506	89.56
507.722	93.56
507.939	100.56
508.155	89.56
508.372	97.56
508.588	87.56
508.805	95.56
509.021	93.56
509.238	87.56
509.454	92.56
509.67	95.56
509.887	104.56
510.103	126.56
510.319	189.56
510.536	615.56
510.752	1953.56
510.968	564.56
511.184	140.56
511.401	104.56
511.617	91.56
511.833	82.56
512.049	82.56
512.265	88.56
512.481	81.56
512.698	90.56
512.914	96.56
513.13	85.56
513.346	77.56
513.562	88.56
513.778	76.56
513.994	103.56
514.21	98.56
514.426	109.56
514.642	109.56
514.858	118.56
515.074	131.56
515.29	338.56
515.506	1091.56
515.721	426.56
515.937	130.56
516.153	101.56
516.369	108.56
