Data from Circ_2003_H10_HRD10591_00061.txt Node
Date: Wed Jan 03 10:37:14 EST 2024
User: Yrep
Spectrometer: HR+D1059
Trigger mode: 1
Integration Time (sec): 1.000000E-1
Scans to average: 1
Electric dark correction enabled: true
Nonlinearity correction enabled: false
Boxcar width: 0
XAxis mode: Wavelengths
Number of Pixels in Spectrum: 2048
>>>>>Begin Spectral Data<<<<<
223.165	-36.88
223.4	-36.88
223.635	-36.88
223.869	-17.88
224.104	-19.88
224.338	-19.88
224.573	-21.88
224.808	-12.88
225.042	-4.88
225.277	-18.88
225.511	-1.88
225.746	8.12
225.98	10.12
226.215	6.12
226.449	27.12
226.683	28.12
226.918	30.12
227.152	45.12
227.387	27.12
227.621	36.12
227.856	44.12
228.09	42.12
228.324	50.12
228.559	51.12
228.793	50.12
229.027	50.12
229.262	48.12
229.496	70.12
229.73	62.12
229.964	69.12
230.199	86.12
230.433	67.12
230.667	75.12
230.901	63.12
231.136	75.12
231.37	82.12
231.604	71.12
231.838	79.12
232.072	66.12
232.306	83.12
232.541	74.12
232.775	77.12
233.009	90.12
233.243	88.12
233.477	75.12
233.711	69.12
233.945	80.12
234.179	71.12
234.413	68.12
234.647	73.12
234.881	83.12
235.115	88.12
235.349	81.12
235.583	74.12
235.817	65.12
236.051	76.12
236.285	85.12
236.519	74.12
236.753	75.12
236.987	67.12
237.221	90.12
237.455	87.12
237.689	79.12
237.922	60.12
238.156	61.12
238.39	70.12
238.624	77.12
238.858	72.12
239.091	84.12
239.325	82.12
239.559	81.12
239.793	71.12
240.027	67.12
240.26	75.12
240.494	72.12
240.728	64.12
240.961	75.12
241.195	77.12
241.429	78.12
241.662	69.12
241.896	69.12
242.13	86.12
242.363	81.12
242.597	79.12
242.83	75.12
243.064	79.12
243.298	80.12
243.531	67.12
243.765	59.12
243.998	65.12
244.232	71.12
244.465	79.12
244.699	87.12
244.932	92.12
245.166	71.12
245.399	72.12
245.633	75.12
245.866	63.12
246.099	54.12
246.333	76.12
246.566	69.12
246.8	78.12
247.033	70.12
247.266	76.12
247.5	71.12
247.733	75.12
247.966	77.12
248.2	76.12
248.433	85.12
248.666	71.12
248.899	86.12
249.133	90.12
249.366	87.12
249.599	79.12
249.832	70.12
250.066	81.12
250.299	87.12
250.532	80.12
250.765	74.12
250.998	69.12
251.231	82.12
251.465	75.12
251.698	75.12
251.931	77.12
252.164	80.12
252.397	101.12
252.63	87.12
252.863	70.12
253.096	93.12
253.329	80.12
253.562	74.12
253.795	70.12
254.028	74.12
254.261	74.12
254.494	79.12
254.727	88.12
254.96	67.12
255.193	84.12
255.426	69.12
255.659	82.12
255.892	83.12
256.124	81.12
256.357	73.12
256.59	70.12
256.823	84.12
257.056	81.12
257.289	68.12
257.521	77.12
257.754	79.12
257.987	66.12
258.22	83.12
258.452	69.12
258.685	72.12
258.918	62.12
259.151	90.12
259.383	67.12
259.616	77.12
259.849	83.12
260.081	72.12
260.314	77.12
260.547	84.12
260.779	79.12
261.012	77.12
261.244	83.12
261.477	85.12
261.71	87.12
261.942	120.12
262.175	103.12
262.407	84.12
262.64	74.12
262.872	81.12
263.105	77.12
263.337	70.12
263.57	71.12
263.802	88.12
264.035	78.12
264.267	85.12
264.499	73.12
264.732	81.12
264.964	72.12
265.197	75.12
265.429	91.12
265.661	75.12
265.894	71.12
266.126	97.12
266.358	87.12
266.591	76.12
266.823	78.12
267.055	76.12
267.287	78.12
267.52	79.12
267.752	74.12
267.984	67.12
268.216	73.12
268.448	87.12
268.681	67.12
268.913	71.12
269.145	78.12
269.377	86.12
269.609	86.12
269.841	72.12
270.073	68.12
270.306	80.12
270.538	83.12
270.77	68.12
271.002	87.12
271.234	101.12
271.466	89.12
271.698	82.12
271.93	85.12
272.162	58.12
272.394	76.12
272.626	82.12
272.858	78.12
273.09	78.12
273.322	79.12
273.553	85.12
273.785	75.12
274.017	85.12
274.249	80.12
274.481	91.12
274.713	80.12
274.945	81.12
275.176	85.12
275.408	60.12
275.64	83.12
275.872	93.12
276.104	93.12
276.335	91.12
276.567	106.12
276.799	100.12
277.031	95.12
277.262	94.12
277.494	78.12
277.726	79.12
277.957	83.12
278.189	83.12
278.421	75.12
278.652	80.12
278.884	82.12
279.115	81.12
279.347	75.12
279.579	89.12
279.81	86.12
280.042	82.12
280.273	91.12
280.505	81.12
280.736	88.12
280.968	85.12
281.199	76.12
281.431	80.12
281.662	79.12
281.894	87.12
282.125	80.12
282.356	92.12
282.588	126.12
282.819	107.12
283.051	86.12
283.282	95.12
283.513	91.12
283.745	83.12
283.976	90.12
284.207	84.12
284.439	76.12
284.67	86.12
284.901	68.12
285.132	81.12
285.364	68.12
285.595	84.12
285.826	78.12
286.057	78.12
286.288	63.12
286.52	86.12
286.751	80.12
286.982	76.12
287.213	80.12
287.444	94.12
287.675	79.12
287.906	74.12
288.138	71.12
288.369	70.12
288.6	82.12
288.831	86.12
289.062	84.12
289.293	94.12
289.524	92.12
289.755	79.12
289.986	79.12
290.217	79.12
290.448	81.12
290.679	72.12
290.91	81.12
291.141	93.12
291.371	75.12
291.602	82.12
291.833	78.12
292.064	81.12
292.295	84.12
292.526	94.12
292.757	78.12
292.987	70.12
293.218	80.12
293.449	86.12
293.68	78.12
293.91	92.12
294.141	90.12
294.372	74.12
294.603	81.12
294.833	77.12
295.064	90.12
295.295	97.12
295.525	93.12
295.756	98.12
295.987	105.12
296.217	105.12
296.448	111.12
296.679	84.12
296.909	95.12
297.14	94.12
297.37	89.12
297.601	80.12
297.831	96.12
298.062	92.12
298.292	93.12
298.523	71.12
298.753	90.12
298.984	78.12
299.214	100.12
299.445	94.12
299.675	92.12
299.905	86.12
300.136	88.12
300.366	87.12
300.597	88.12
300.827	78.12
301.057	98.12
301.288	93.12
301.518	92.12
301.748	80.12
301.979	88.12
302.209	70.12
302.439	87.12
302.669	87.12
302.9	83.12
303.13	74.12
303.36	81.12
303.59	76.12
303.82	88.12
304.051	84.12
304.281	85.12
304.511	97.12
304.741	89.12
304.971	93.12
305.201	87.12
305.431	86.12
305.661	84.12
305.891	91.12
306.121	94.12
306.352	82.12
306.582	95.12
306.812	97.12
307.042	84.12
307.272	87.12
307.502	101.12
307.731	98.12
307.961	93.12
308.191	89.12
308.421	84.12
308.651	82.12
308.881	76.12
309.111	75.12
309.341	85.12
309.571	87.12
309.8	92.12
310.03	88.12
310.26	96.12
310.49	96.12
310.72	77.12
310.949	90.12
311.179	113.12
311.409	91.12
311.639	103.12
311.868	86.12
312.098	82.12
312.328	87.12
312.557	89.12
312.787	101.12
313.017	100.12
313.246	81.12
313.476	67.12
313.706	96.12
313.935	96.12
314.165	93.12
314.394	98.12
314.624	96.12
314.853	98.12
315.083	81.12
315.312	109.12
315.542	85.12
315.771	79.12
316.001	97.12
316.23	84.12
316.46	83.12
316.689	93.12
316.919	90.12
317.148	91.12
317.377	89.12
317.607	89.12
317.836	82.12
318.065	85.12
318.295	91.12
318.524	87.12
318.753	87.12
318.983	83.12
319.212	92.12
319.441	103.12
319.67	101.12
319.9	90.12
320.129	74.12
320.358	77.12
320.587	79.12
320.816	102.12
321.046	83.12
321.275	83.12
321.504	78.12
321.733	88.12
321.962	77.12
322.191	85.12
322.42	97.12
322.649	102.12
322.878	109.12
323.108	101.12
323.337	109.12
323.566	113.12
323.795	136.12
324.024	187.12
324.253	363.12
324.482	761.12
324.71	1566.12
324.939	2127.12
325.168	778.12
325.397	231.12
325.626	137.12
325.855	119.12
326.084	107.12
326.313	125.12
326.542	140.12
326.77	206.12
326.999	431.12
327.228	877.12
327.457	1596.12
327.686	1287.12
327.914	360.12
328.143	165.12
328.372	143.12
328.6	120.12
328.829	118.12
329.058	122.12
329.287	119.12
329.515	95.12
329.744	102.12
329.972	112.12
330.201	116.12
330.43	133.12
330.658	112.12
330.887	126.12
331.115	114.12
331.344	105.12
331.572	89.12
331.801	103.12
332.03	110.12
332.258	99.12
332.486	92.12
332.715	100.12
332.943	82.12
333.172	93.12
333.4	107.12
333.629	95.12
333.857	119.12
334.085	110.12
334.314	134.12
334.542	157.12
334.771	166.12
334.999	117.12
335.227	93.12
335.455	94.12
335.684	92.12
335.912	96.12
336.14	91.12
336.369	110.12
336.597	95.12
336.825	98.12
337.053	87.12
337.281	79.12
337.51	86.12
337.738	97.12
337.966	88.12
338.194	83.12
338.422	84.12
338.65	76.12
338.878	75.12
339.106	73.12
339.334	99.12
339.562	81.12
339.79	98.12
340.018	80.12
340.246	86.12
340.474	88.12
340.702	98.12
340.93	92.12
341.158	79.12
341.386	82.12
341.614	81.12
341.842	101.12
342.07	86.12
342.298	86.12
342.526	98.12
342.754	94.12
342.981	94.12
343.209	92.12
343.437	94.12
343.665	98.12
343.893	78.12
344.12	80.12
344.348	95.12
344.576	77.12
344.804	85.12
345.031	95.12
345.259	99.12
345.487	97.12
345.714	85.12
345.942	95.12
346.17	88.12
346.397	94.12
346.625	76.12
346.853	88.12
347.08	85.12
347.308	91.12
347.535	88.12
347.763	100.12
347.99	86.12
348.218	83.12
348.445	91.12
348.673	104.12
348.9	104.12
349.128	76.12
349.355	67.12
349.583	89.12
349.81	97.12
350.037	101.12
350.265	93.12
350.492	79.12
350.72	101.12
350.947	101.12
351.174	113.12
351.402	98.12
351.629	102.12
351.856	96.12
352.083	89.12
352.311	89.12
352.538	109.12
352.765	112.12
352.992	109.12
353.22	106.12
353.447	103.12
353.674	96.12
353.901	88.12
354.128	107.12
354.355	92.12
354.583	90.12
354.81	94.12
355.037	71.12
355.264	83.12
355.491	89.12
355.718	91.12
355.945	98.12
356.172	88.12
356.399	102.12
356.626	95.12
356.853	82.12
357.08	100.12
357.307	79.12
357.534	87.12
357.761	90.12
357.988	98.12
358.215	98.12
358.441	89.12
358.668	92.12
358.895	88.12
359.122	88.12
359.349	98.12
359.576	100.12
359.802	101.12
360.029	114.12
360.256	97.12
360.483	91.12
360.709	90.12
360.936	95.12
361.163	94.12
361.39	88.12
361.616	91.12
361.843	78.12
362.07	84.12
362.296	89.12
362.523	98.12
362.749	85.12
362.976	112.12
363.203	95.12
363.429	92.12
363.656	86.12
363.882	83.12
364.109	100.12
364.335	83.12
364.562	88.12
364.788	84.12
365.015	87.12
365.241	95.12
365.468	100.12
365.694	102.12
365.92	95.12
366.147	76.12
366.373	79.12
366.599	92.12
366.826	99.12
367.052	80.12
367.278	82.12
367.505	69.12
367.731	87.12
367.957	80.12
368.184	95.12
368.41	90.12
368.636	102.12
368.862	101.12
369.089	93.12
369.315	93.12
369.541	88.12
369.767	94.12
369.993	95.12
370.219	81.12
370.445	77.12
370.672	84.12
370.898	93.12
371.124	83.12
371.35	77.12
371.576	81.12
371.802	94.12
372.028	96.12
372.254	80.12
372.48	90.12
372.706	98.12
372.932	86.12
373.158	87.12
373.384	88.12
373.61	88.12
373.835	81.12
374.061	88.12
374.287	81.12
374.513	81.12
374.739	62.12
374.965	92.12
375.191	80.12
375.416	88.12
375.642	92.12
375.868	89.12
376.094	97.12
376.319	88.12
376.545	94.12
376.771	94.12
376.997	82.12
377.222	82.12
377.448	80.12
377.674	91.12
377.899	101.12
378.125	84.12
378.35	80.12
378.576	94.12
378.802	86.12
379.027	88.12
379.253	85.12
379.478	86.12
379.704	89.12
379.929	92.12
380.155	90.12
380.38	88.12
380.606	85.12
380.831	92.12
381.057	86.12
381.282	77.12
381.507	87.12
381.733	102.12
381.958	107.12
382.184	94.12
382.409	95.12
382.634	87.12
382.86	92.12
383.085	109.12
383.31	107.12
383.535	92.12
383.761	106.12
383.986	87.12
384.211	94.12
384.436	104.12
384.662	94.12
384.887	101.12
385.112	109.12
385.337	87.12
385.562	103.12
385.787	110.12
386.013	128.12
386.238	96.12
386.463	106.12
386.688	109.12
386.913	96.12
387.138	98.12
387.363	102.12
387.588	91.12
387.813	101.12
388.038	108.12
388.263	111.12
388.488	89.12
388.713	98.12
388.938	87.12
389.163	86.12
389.387	84.12
389.612	92.12
389.837	92.12
390.062	92.12
390.287	93.12
390.512	91.12
390.736	100.12
390.961	78.12
391.186	88.12
391.411	99.12
391.636	88.12
391.86	84.12
392.085	83.12
392.31	83.12
392.534	78.12
392.759	82.12
392.984	85.12
393.208	82.12
393.433	99.12
393.658	87.12
393.882	81.12
394.107	87.12
394.331	74.12
394.556	82.12
394.78	94.12
395.005	80.12
395.229	89.12
395.454	87.12
395.678	74.12
395.903	79.12
396.127	92.12
396.352	86.12
396.576	86.12
396.801	83.12
397.025	76.12
397.249	84.12
397.474	92.12
397.698	92.12
397.922	76.12
398.147	84.12
398.371	90.12
398.595	81.12
398.82	85.12
399.044	97.12
399.268	79.12
399.492	86.12
399.717	74.12
399.941	89.12
400.165	95.12
400.389	95.12
400.613	86.12
400.837	77.12
401.062	78.12
401.286	75.12
401.51	62.12
401.734	90.12
401.958	101.12
402.182	113.12
402.406	133.12
402.63	122.12
402.854	98.12
403.078	81.12
403.302	91.12
403.526	91.12
403.75	83.12
403.974	75.12
404.198	77.12
404.422	87.12
404.645	86.12
404.869	101.12
405.093	95.12
405.317	96.12
405.541	93.12
405.765	83.12
405.988	110.12
406.212	156.12
406.436	197.12
406.66	122.12
406.883	81.12
407.107	92.12
407.331	78.12
407.555	99.12
407.778	84.12
408.002	77.12
408.226	85.12
408.449	84.12
408.673	87.12
408.896	91.12
409.12	90.12
409.344	83.12
409.567	80.12
409.791	82.12
410.014	94.12
410.238	85.12
410.461	82.12
410.685	94.12
410.908	94.12
411.132	104.12
411.355	95.12
411.578	91.12
411.802	95.12
412.025	88.12
412.249	80.12
412.472	78.12
412.695	89.12
412.919	82.12
413.142	87.12
413.365	88.12
413.589	85.12
413.812	81.12
414.035	98.12
414.258	84.12
414.482	94.12
414.705	80.12
414.928	82.12
415.151	92.12
415.374	91.12
415.597	80.12
415.821	100.12
416.044	80.12
416.267	82.12
416.49	87.12
416.713	86.12
416.936	91.12
417.159	93.12
417.382	94.12
417.605	89.12
417.828	76.12
418.051	87.12
418.274	83.12
418.497	96.12
418.72	88.12
418.943	94.12
419.166	93.12
419.389	80.12
419.611	100.12
419.834	81.12
420.057	84.12
420.28	82.12
420.503	87.12
420.726	84.12
420.948	88.12
421.171	91.12
421.394	95.12
421.617	94.12
421.839	84.12
422.062	70.12
422.285	90.12
422.507	89.12
422.73	89.12
422.953	95.12
423.175	91.12
423.398	86.12
423.621	87.12
423.843	86.12
424.066	83.12
424.288	81.12
424.511	92.12
424.733	95.12
424.956	111.12
425.178	90.12
425.401	91.12
425.623	110.12
425.846	87.12
426.068	93.12
426.291	98.12
426.513	76.12
426.735	90.12
426.958	83.12
427.18	103.12
427.402	136.12
427.625	146.12
427.847	123.12
428.069	94.12
428.292	80.12
428.514	86.12
428.736	78.12
428.958	89.12
429.181	79.12
429.403	78.12
429.625	86.12
429.847	86.12
430.069	88.12
430.292	76.12
430.514	79.12
430.736	88.12
430.958	96.12
431.18	76.12
431.402	85.12
431.624	86.12
431.846	79.12
432.068	66.12
432.29	86.12
432.512	78.12
432.734	78.12
432.956	96.12
433.178	96.12
433.4	87.12
433.622	82.12
433.844	87.12
434.066	79.12
434.287	74.12
434.509	83.12
434.731	74.12
434.953	92.12
435.175	96.12
435.397	83.12
435.618	95.12
435.84	100.12
436.062	101.12
436.284	112.12
436.505	90.12
436.727	91.12
436.949	104.12
437.17	85.12
437.392	94.12
437.614	82.12
437.835	97.12
438.057	99.12
438.278	109.12
438.5	102.12
438.721	106.12
438.943	113.12
439.165	82.12
439.386	88.12
439.608	97.12
439.829	111.12
440.05	116.12
440.272	131.12
440.493	110.12
440.715	88.12
440.936	90.12
441.158	82.12
441.379	67.12
441.6	97.12
441.822	78.12
442.043	97.12
442.264	98.12
442.486	98.12
442.707	98.12
442.928	89.12
443.149	132.12
443.371	130.12
443.592	94.12
443.813	105.12
444.034	109.12
444.255	104.12
444.476	83.12
444.698	74.12
444.919	78.12
445.14	140.12
445.361	110.12
445.582	113.12
445.803	115.12
446.024	122.12
446.245	119.12
446.466	105.12
446.687	85.12
446.908	93.12
447.129	80.12
447.35	98.12
447.571	78.12
447.792	93.12
448.013	84.12
448.234	94.12
448.455	98.12
448.675	90.12
448.896	108.12
449.117	102.12
449.338	103.12
449.559	99.12
449.779	135.12
450	87.12
450.221	88.12
450.442	96.12
450.662	97.12
450.883	78.12
451.104	87.12
451.324	85.12
451.545	81.12
451.766	76.12
451.986	86.12
452.207	83.12
452.428	87.12
452.648	91.12
452.869	109.12
453.089	98.12
453.31	110.12
453.53	95.12
453.751	80.12
453.971	87.12
454.192	87.12
454.412	83.12
454.633	80.12
454.853	84.12
455.073	79.12
455.294	72.12
455.514	80.12
455.734	88.12
455.955	87.12
456.175	78.12
456.395	84.12
456.616	87.12
456.836	89.12
457.056	77.12
457.276	86.12
457.497	80.12
457.717	92.12
457.937	82.12
458.157	93.12
458.377	88.12
458.598	99.12
458.818	133.12
459.038	122.12
459.258	90.12
459.478	91.12
459.698	72.12
459.918	65.12
460.138	68.12
460.358	67.12
460.578	86.12
460.798	74.12
461.018	88.12
461.238	91.12
461.458	94.12
461.678	83.12
461.898	92.12
462.118	79.12
462.338	82.12
462.558	80.12
462.777	95.12
462.997	82.12
463.217	81.12
463.437	85.12
463.657	83.12
463.876	79.12
464.096	85.12
464.316	91.12
464.536	95.12
464.755	84.12
464.975	92.12
465.195	141.12
465.414	123.12
465.634	88.12
465.854	78.12
466.073	87.12
466.293	86.12
466.512	95.12
466.732	91.12
466.951	84.12
467.171	78.12
467.391	78.12
467.61	88.12
467.829	96.12
468.049	98.12
468.268	104.12
468.488	71.12
468.707	71.12
468.927	76.12
469.146	95.12
469.365	83.12
469.585	105.12
469.804	92.12
470.023	92.12
470.243	79.12
470.462	82.12
470.681	96.12
470.901	74.12
471.12	85.12
471.339	93.12
471.558	84.12
471.777	80.12
471.997	92.12
472.216	134.12
472.435	178.12
472.654	103.12
472.873	95.12
473.092	91.12
473.311	67.12
473.53	75.12
473.749	88.12
473.968	94.12
474.187	95.12
474.406	87.12
474.625	88.12
474.844	77.12
475.063	80.12
475.282	84.12
475.501	85.12
475.72	74.12
475.939	89.12
476.158	66.12
476.377	84.12
476.596	88.12
476.814	96.12
477.033	91.12
477.252	88.12
477.471	80.12
477.69	76.12
477.908	76.12
478.127	80.12
478.346	66.12
478.564	79.12
478.783	95.12
479.002	79.12
479.22	79.12
479.439	95.12
479.658	96.12
479.876	91.12
480.095	93.12
480.313	85.12
480.532	79.12
480.751	84.12
480.969	135.12
481.188	259.12
481.406	199.12
481.624	94.12
481.843	90.12
482.061	88.12
482.28	92.12
482.498	93.12
482.717	92.12
482.935	75.12
483.153	84.12
483.372	81.12
483.59	81.12
483.808	79.12
484.027	85.12
484.245	85.12
484.463	95.12
484.681	104.12
484.9	88.12
485.118	78.12
485.336	95.12
485.554	100.12
485.772	105.12
485.99	111.12
486.209	101.12
486.427	92.12
486.645	104.12
486.863	95.12
487.081	94.12
487.299	87.12
487.517	88.12
487.735	74.12
487.953	94.12
488.171	90.12
488.389	100.12
488.607	93.12
488.825	93.12
489.043	77.12
489.261	95.12
489.479	83.12
489.696	87.12
489.914	80.12
490.132	74.12
490.35	90.12
490.568	88.12
490.786	90.12
491.003	83.12
491.221	85.12
491.439	100.12
491.657	98.12
491.874	89.12
492.092	90.12
492.31	86.12
492.527	100.12
492.745	83.12
492.963	107.12
493.18	89.12
493.398	99.12
493.615	88.12
493.833	72.12
494.05	80.12
494.268	87.12
494.485	89.12
494.703	90.12
494.92	77.12
495.138	77.12
495.355	94.12
495.573	84.12
495.79	97.12
496.008	82.12
496.225	72.12
496.442	75.12
496.66	83.12
496.877	74.12
497.094	87.12
497.312	81.12
497.529	92.12
497.746	83.12
497.963	90.12
498.181	84.12
498.398	94.12
498.615	90.12
498.832	109.12
499.049	87.12
499.267	86.12
499.484	102.12
499.701	98.12
499.918	90.12
500.135	83.12
500.352	78.12
500.569	84.12
500.786	87.12
501.003	98.12
501.22	86.12
501.437	71.12
501.654	94.12
501.871	92.12
502.088	79.12
502.305	90.12
502.522	83.12
502.739	76.12
502.956	79.12
503.172	79.12
503.389	79.12
503.606	86.12
503.823	80.12
504.04	83.12
504.256	85.12
504.473	74.12
504.69	88.12
504.907	91.12
505.123	94.12
505.34	81.12
505.557	96.12
505.773	90.12
505.99	86.12
506.207	105.12
506.423	74.12
506.64	90.12
506.856	78.12
507.073	77.12
507.289	102.12
507.506	87.12
507.722	107.12
507.939	112.12
508.155	83.12
508.372	94.12
508.588	92.12
508.805	91.12
509.021	109.12
509.238	97.12
509.454	88.12
509.67	82.12
509.887	102.12
510.103	136.12
510.319	194.12
510.536	707.12
510.752	2314.12
510.968	625.12
511.184	149.12
511.401	104.12
511.617	98.12
511.833	76.12
512.049	90.12
512.265	84.12
512.481	92.12
512.698	96.12
512.914	96.12
513.13	107.12
513.346	93.12
513.562	87.12
513.778	94.12
513.994	93.12
514.21	78.12
514.426	112.12
514.642	117.12
514.858	112.12
515.074	141.12
515.29	369.12
515.506	1286.12
515.721	463.12
515.937	146.12
516.153	102.12
516.369	83.12
516.585	85.12
516.801	100.12
517.016	84.12
