Data from Circ_2003_H10_HRD10591_00039.txt Node
Date: Wed Jan 03 10:37:10 EST 2024
User: Yrep
Spectrometer: HR+D1059
Trigger mode: 1
Integration Time (sec): 1.000000E-1
Scans to average: 1
Electric dark correction enabled: true
Nonlinearity correction enabled: false
Boxcar width: 0
XAxis mode: Wavelengths
Number of Pixels in Spectrum: 2048
>>>>>Begin Spectral Data<<<<<
223.165	-25.81
223.4	-25.81
223.635	-25.81
223.869	-22.81
224.104	-23.81
224.338	-23.81
224.573	-7.81
224.808	-11.81
225.042	7.19
225.277	-15.81
225.511	-7.81
225.746	-1.81
225.98	9.19
226.215	13.19
226.449	28.19
226.683	16.19
226.918	28.19
227.152	39.19
227.387	41.19
227.621	37.19
227.856	49.19
228.09	51.19
228.324	57.19
228.559	66.19
228.793	151.19
229.027	427.19
229.262	515.19
229.496	595.19
229.73	791.19
229.964	769.19
230.199	534.19
230.433	472.19
230.667	449.19
230.901	469.19
231.136	425.19
231.37	440.19
231.604	439.19
231.838	444.19
232.072	444.19
232.306	450.19
232.541	460.19
232.775	445.19
233.009	452.19
233.243	457.19
233.477	477.19
233.711	484.19
233.945	517.19
234.179	488.19
234.413	487.19
234.647	474.19
234.881	492.19
235.115	511.19
235.349	526.19
235.583	537.19
235.817	581.19
236.051	639.19
236.285	618.19
236.519	619.19
236.753	700.19
236.987	903.19
237.221	1345.19
237.455	1429.19
237.689	866.19
237.922	725.19
238.156	705.19
238.39	663.19
238.624	657.19
238.858	632.19
239.091	636.19
239.325	640.19
239.559	649.19
239.793	687.19
240.027	757.19
240.26	879.19
240.494	933.19
240.728	922.19
240.961	880.19
241.195	835.19
241.429	783.19
241.662	780.19
241.896	759.19
242.13	745.19
242.363	756.19
242.597	751.19
242.83	804.19
243.064	817.19
243.298	804.19
243.531	811.19
243.765	809.19
243.998	817.19
244.232	837.19
244.465	858.19
244.699	869.19
244.932	872.19
245.166	878.19
245.399	897.19
245.633	882.19
245.866	860.19
246.099	894.19
246.333	911.19
246.566	939.19
246.8	975.19
247.033	985.19
247.266	1040.19
247.5	1065.19
247.733	1125.19
247.966	1111.19
248.2	1120.19
248.433	1136.19
248.666	1175.19
248.899	1288.19
249.133	1397.19
249.366	1400.19
249.599	1298.19
249.832	1212.19
250.066	1195.19
250.299	1237.19
250.532	1369.19
250.765	1518.19
250.998	1706.19
251.231	1648.19
251.465	1451.19
251.698	1373.19
251.931	1347.19
252.164	1376.19
252.397	1376.19
252.63	1422.19
252.863	1491.19
253.096	1629.19
253.329	1682.19
253.562	1595.19
253.795	1516.19
254.028	1512.19
254.261	1596.19
254.494	1795.19
254.727	2129.19
254.96	2166.19
255.193	1900.19
255.426	1747.19
255.659	1631.19
255.892	1650.19
256.124	1706.19
256.357	1647.19
256.59	1551.19
256.823	1509.19
257.056	1461.19
257.289	1509.19
257.521	1527.19
257.754	1515.19
257.987	1498.19
258.22	1481.19
258.452	1492.19
258.685	1529.19
258.918	1549.19
259.151	1568.19
259.383	1665.19
259.616	1669.19
259.849	1743.19
260.081	1891.19
260.314	2070.19
260.547	1988.19
260.779	1817.19
261.012	1720.19
261.244	1655.19
261.477	1647.19
261.71	1663.19
261.942	1689.19
262.175	1680.19
262.407	1643.19
262.64	1571.19
262.872	1610.19
263.105	1635.19
263.337	1620.19
263.57	1603.19
263.802	1660.19
264.035	1631.19
264.267	1635.19
264.499	1640.19
264.732	1663.19
264.964	1683.19
265.197	1656.19
265.429	1666.19
265.661	1693.19
265.894	1720.19
266.126	1670.19
266.358	1724.19
266.591	1779.19
266.823	1830.19
267.055	1857.19
267.287	1851.19
267.52	1820.19
267.752	1780.19
267.984	1843.19
268.216	1867.19
268.448	1902.19
268.681	1981.19
268.913	2093.19
269.145	2280.19
269.377	2294.19
269.609	2239.19
269.841	2237.19
270.073	2355.19
270.306	2631.19
270.538	2799.19
270.77	2639.19
271.002	2467.19
271.234	2414.19
271.466	2614.19
271.698	2732.19
271.93	2695.19
272.162	2676.19
272.394	2637.19
272.626	2472.19
272.858	2351.19
273.09	2283.19
273.322	2245.19
273.553	2170.19
273.785	2225.19
274.017	2170.19
274.249	2200.19
274.481	2215.19
274.713	2254.19
274.945	2218.19
275.176	2262.19
275.408	2260.19
275.64	2243.19
275.872	2200.19
276.104	2314.19
276.335	2286.19
276.567	2359.19
276.799	2506.19
277.031	2741.19
277.262	2849.19
277.494	2764.19
277.726	2520.19
277.957	2484.19
278.189	2414.19
278.421	2362.19
278.652	2370.19
278.884	2345.19
279.115	2361.19
279.347	2298.19
279.579	2332.19
279.81	2371.19
280.042	2345.19
280.273	2368.19
280.505	2353.19
280.736	2378.19
280.968	2359.19
281.199	2384.19
281.431	2431.19
281.662	2427.19
281.894	2440.19
282.125	2561.19
282.356	2645.19
282.588	2784.19
282.819	2617.19
283.051	2570.19
283.282	2451.19
283.513	2535.19
283.745	2558.19
283.976	2639.19
284.207	2619.19
284.439	2603.19
284.67	2579.19
284.901	2597.19
285.132	2551.19
285.364	2605.19
285.595	2625.19
285.826	2602.19
286.057	2658.19
286.288	2667.19
286.52	2700.19
286.751	2630.19
286.982	2651.19
287.213	2684.19
287.444	2640.19
287.675	2793.19
287.906	2856.19
288.138	2935.19
288.369	2875.19
288.6	2841.19
288.831	2797.19
289.062	2784.19
289.293	2762.19
289.524	2799.19
289.755	2792.19
289.986	2748.19
290.217	2764.19
290.448	2767.19
290.679	2824.19
290.91	2823.19
291.141	2776.19
291.371	2831.19
291.602	2776.19
291.833	2765.19
292.064	2806.19
292.295	2817.19
292.526	2837.19
292.757	2785.19
292.987	2800.19
293.218	2780.19
293.449	2795.19
293.68	2834.19
293.91	2827.19
294.141	2841.19
294.372	2787.19
294.603	2840.19
294.833	2873.19
295.064	2864.19
295.295	2877.19
295.525	2839.19
295.756	2877.19
295.987	3014.19
296.217	3141.19
296.448	3106.19
296.679	2953.19
296.909	2917.19
297.14	2943.19
297.37	3023.19
297.601	3062.19
297.831	2995.19
298.062	3023.19
298.292	3034.19
298.523	3105.19
298.753	3167.19
298.984	3051.19
299.214	3096.19
299.445	3111.19
299.675	3087.19
299.905	3111.19
300.136	3103.19
300.366	3168.19
300.597	3109.19
300.827	3243.19
301.057	3324.19
301.288	3299.19
301.518	3285.19
301.748	3379.19
301.979	3365.19
302.209	3359.19
302.439	3370.19
302.669	3333.19
302.9	3267.19
303.13	3235.19
303.36	3317.19
303.59	3316.19
303.82	3417.19
304.051	3379.19
304.281	3401.19
304.511	3234.19
304.741	3277.19
304.971	3255.19
305.201	3274.19
305.431	3298.19
305.661	3217.19
305.891	3250.19
306.121	3296.19
306.352	3328.19
306.582	3277.19
306.812	3270.19
307.042	3278.19
307.272	3293.19
307.502	3203.19
307.731	3274.19
307.961	3319.19
308.191	3289.19
308.421	3264.19
308.651	3273.19
308.881	3274.19
309.111	3373.19
309.341	3411.19
309.571	3450.19
309.8	3496.19
310.03	3558.19
310.26	3565.19
310.49	3563.19
310.72	3673.19
310.949	3744.19
311.179	3707.19
311.409	3616.19
311.639	3641.19
311.868	3624.19
312.098	3687.19
312.328	3800.19
312.557	3914.19
312.787	3953.19
313.017	3866.19
313.246	3845.19
313.476	3707.19
313.706	3722.19
313.935	3892.19
314.165	3955.19
314.394	3949.19
314.624	3898.19
314.853	3831.19
315.083	3784.19
315.312	3746.19
315.542	3717.19
315.771	3674.19
316.001	3715.19
316.23	3674.19
316.46	3672.19
316.689	3706.19
316.919	3768.19
317.148	3829.19
317.377	3780.19
317.607	3739.19
317.836	3739.19
318.065	3682.19
318.295	3627.19
318.524	3588.19
318.753	3672.19
318.983	3704.19
319.212	3651.19
319.441	3727.19
319.67	3798.19
319.9	3674.19
320.129	3695.19
320.358	3721.19
320.587	3753.19
320.816	3814.19
321.046	3809.19
321.275	3831.19
321.504	3827.19
321.733	3844.19
321.962	3889.19
322.191	4010.19
322.42	4118.19
322.649	4223.19
322.878	4251.19
323.108	4331.19
323.337	4539.19
323.566	4722.19
323.795	5025.19
324.024	5580.19
324.253	7493.19
324.482	11203.19
324.71	15417.19
324.939	15613.19
325.168	13115.19
325.397	6666.19
325.626	5327.19
325.855	4950.19
326.084	4724.19
326.313	4811.19
326.542	4968.19
326.77	5619.19
326.999	7217.19
327.228	10629.19
327.457	14547.19
327.686	13660.19
327.914	7334.19
328.143	5905.19
328.372	5545.19
328.6	5347.19
328.829	5206.19
329.058	5410.19
329.287	5323.19
329.515	5011.19
329.744	4839.19
329.972	4936.19
330.201	5069.19
330.43	5367.19
330.658	5554.19
330.887	5819.19
331.115	5439.19
331.344	5033.19
331.572	4942.19
331.801	5057.19
332.03	5018.19
332.258	4940.19
332.486	4984.19
332.715	5016.19
332.943	5221.19
333.172	5363.19
333.4	5492.19
333.629	5556.19
333.857	5673.19
334.085	5754.19
334.314	5732.19
334.542	5786.19
334.771	5751.19
334.999	5382.19
335.227	5322.19
335.455	5159.19
335.684	5030.19
335.912	4973.19
336.14	4989.19
336.369	4957.19
336.597	4996.19
336.825	4979.19
337.053	4842.19
337.281	4779.19
337.51	4823.19
337.738	4863.19
337.966	4744.19
338.194	4658.19
338.422	4643.19
338.65	4553.19
338.878	4491.19
339.106	4540.19
339.334	4516.19
339.562	4426.19
339.79	4369.19
340.018	4445.19
340.246	4413.19
340.474	4395.19
340.702	4431.19
340.93	4416.19
341.158	4369.19
341.386	4419.19
341.614	4450.19
341.842	4372.19
342.07	4345.19
342.298	4344.19
342.526	4209.19
342.754	4272.19
342.981	4367.19
343.209	4483.19
343.437	4666.19
343.665	4972.19
343.893	5170.19
344.12	5205.19
344.348	4933.19
344.576	4807.19
344.804	4700.19
345.031	4553.19
345.259	4663.19
345.487	4459.19
345.714	4347.19
345.942	4312.19
346.17	4230.19
346.397	4175.19
346.625	4227.19
346.853	4206.19
347.08	4254.19
347.308	4227.19
347.535	4327.19
347.763	4340.19
347.99	4263.19
348.218	4360.19
348.445	4383.19
348.673	4241.19
348.9	4203.19
349.128	4089.19
349.355	4031.19
349.583	4066.19
349.81	4114.19
350.037	4067.19
350.265	4016.19
350.492	4105.19
350.72	4078.19
350.947	4120.19
351.174	4158.19
351.402	4249.19
351.629	4230.19
351.856	4246.19
352.083	4289.19
352.311	4252.19
352.538	4284.19
352.765	4246.19
352.992	4168.19
353.22	4125.19
353.447	4089.19
353.674	4039.19
353.901	4025.19
354.128	4020.19
354.355	3987.19
354.583	3988.19
354.81	3954.19
355.037	3944.19
355.264	3891.19
355.491	3947.19
355.718	3925.19
355.945	3957.19
356.172	3947.19
356.399	3911.19
356.626	3968.19
356.853	3951.19
357.08	3873.19
357.307	4038.19
357.534	3929.19
357.761	4003.19
357.988	3972.19
358.215	4000.19
358.441	4062.19
358.668	4026.19
358.895	4019.19
359.122	4077.19
359.349	4162.19
359.576	4339.19
359.802	4450.19
360.029	4625.19
360.256	4559.19
360.483	4441.19
360.709	4228.19
360.936	4217.19
361.163	4230.19
361.39	4257.19
361.616	4227.19
361.843	4231.19
362.07	4201.19
362.296	4212.19
362.523	4205.19
362.749	4172.19
362.976	4125.19
363.203	4137.19
363.429	4064.19
363.656	4058.19
363.882	4033.19
364.109	4007.19
364.335	4008.19
364.562	4028.19
364.788	3975.19
365.015	4112.19
365.241	4107.19
365.468	4049.19
365.694	4154.19
365.92	4100.19
366.147	4056.19
366.373	4017.19
366.599	4036.19
366.826	4017.19
367.052	4008.19
367.278	4126.19
367.505	4090.19
367.731	4139.19
367.957	4092.19
368.184	4151.19
368.41	4176.19
368.636	4262.19
368.862	4314.19
369.089	4218.19
369.315	4142.19
369.541	4139.19
369.767	4176.19
369.993	4176.19
370.219	4139.19
370.445	4221.19
370.672	4229.19
370.898	4175.19
371.124	4265.19
371.35	4344.19
371.576	4308.19
371.802	4312.19
372.028	4277.19
372.254	4311.19
372.48	4421.19
372.706	4455.19
372.932	4556.19
373.158	4453.19
373.384	4331.19
373.61	4332.19
373.835	4345.19
374.061	4381.19
374.287	4400.19
374.513	4551.19
374.739	4656.19
374.965	4724.19
375.191	4690.19
375.416	4702.19
375.642	4585.19
375.868	4572.19
376.094	4385.19
376.319	4437.19
376.545	4391.19
376.771	4353.19
376.997	4323.19
377.222	4339.19
377.448	4308.19
377.674	4282.19
377.899	4340.19
378.125	4243.19
378.35	4253.19
378.576	4308.19
378.802	4291.19
379.027	4282.19
379.253	4313.19
379.478	4286.19
379.704	4300.19
379.929	4317.19
380.155	4304.19
380.38	4348.19
380.606	4401.19
380.831	4347.19
381.057	4323.19
381.282	4379.19
381.507	4338.19
381.733	4463.19
381.958	4460.19
382.184	4440.19
382.409	4484.19
382.634	4545.19
382.86	4602.19
383.085	4671.19
383.31	4745.19
383.535	4761.19
383.761	4836.19
383.986	4893.19
384.211	4968.19
384.436	5081.19
384.662	5117.19
384.887	5253.19
385.112	5162.19
385.337	5261.19
385.562	5253.19
385.787	5261.19
386.013	5432.19
386.238	5335.19
386.463	5350.19
386.688	5274.19
386.913	5190.19
387.138	5248.19
387.363	5155.19
387.588	5193.19
387.813	5210.19
388.038	5187.19
388.263	5173.19
388.488	5237.19
388.713	5176.19
388.938	5194.19
389.163	5136.19
389.387	5177.19
389.612	5091.19
389.837	5137.19
390.062	5083.19
390.287	5136.19
390.512	5083.19
390.736	5183.19
390.961	5306.19
391.186	5362.19
391.411	5527.19
391.636	5602.19
391.86	5821.19
392.085	5845.19
392.31	5648.19
392.534	5623.19
392.759	5524.19
392.984	5487.19
393.208	5371.19
393.433	5359.19
393.658	5401.19
393.882	5403.19
394.107	5425.19
394.331	5464.19
394.556	5497.19
394.78	5588.19
395.005	5620.19
395.229	5552.19
395.454	5791.19
395.678	5889.19
395.903	5819.19
396.127	5865.19
396.352	5680.19
396.576	5535.19
396.801	5541.19
397.025	5584.19
397.249	5721.19
397.474	5803.19
397.698	5851.19
397.922	5953.19
398.147	6122.19
398.371	6230.19
398.595	6272.19
398.82	6621.19
399.044	7113.19
399.268	7892.19
399.492	9115.19
399.717	9577.19
399.941	9497.19
400.165	8820.19
400.389	8148.19
400.613	7353.19
400.837	6896.19
401.062	6737.19
401.286	6596.19
401.51	6570.19
401.734	6509.19
401.958	6719.19
402.182	6797.19
402.406	6948.19
402.63	6934.19
402.854	7083.19
403.078	7109.19
403.302	7253.19
403.526	7256.19
403.75	7395.19
403.974	7480.19
404.198	7465.19
404.422	7524.19
404.645	7457.19
404.869	7526.19
405.093	7632.19
405.317	7834.19
405.541	7836.19
405.765	7358.19
405.988	7227.19
406.212	7464.19
406.436	7628.19
406.66	7761.19
406.883	7808.19
407.107	8365.19
407.331	8990.19
407.555	9433.19
407.778	9047.19
408.002	8372.19
408.226	7914.19
408.449	7772.19
408.673	7752.19
408.896	7789.19
409.12	7977.19
409.344	7527.19
409.567	7137.19
409.791	7119.19
410.014	7073.19
410.238	6937.19
410.461	6913.19
410.685	7124.19
410.908	7115.19
411.132	7398.19
411.355	7450.19
411.578	7018.19
411.802	6835.19
412.025	6819.19
412.249	6946.19
412.472	7111.19
412.695	7188.19
412.919	6785.19
413.142	6663.19
413.365	6513.19
413.589	6578.19
413.812	6402.19
414.035	6290.19
414.258	6409.19
414.482	6475.19
414.705	6432.19
414.928	6457.19
415.151	6496.19
415.374	6501.19
415.597	6303.19
415.821	6291.19
416.044	6267.19
416.267	6223.19
416.49	6168.19
416.713	6174.19
416.936	6357.19
417.159	6270.19
417.382	6371.19
417.605	6397.19
417.828	6494.19
418.051	6728.19
418.274	6625.19
418.497	6457.19
418.72	6608.19
418.943	6527.19
419.166	6916.19
419.389	7283.19
419.611	7186.19
419.834	7011.19
420.057	6933.19
420.28	6685.19
420.503	6548.19
420.726	6565.19
420.948	6791.19
421.171	7123.19
421.394	7092.19
421.617	6601.19
421.839	6556.19
422.062	6634.19
422.285	6841.19
422.507	7495.19
422.73	7961.19
422.953	7393.19
423.175	7071.19
423.398	7106.19
423.621	7104.19
423.843	7292.19
424.066	7203.19
424.288	7212.19
424.511	7386.19
424.733	7866.19
424.956	8284.19
425.178	7776.19
425.401	7954.19
425.623	7758.19
425.846	6880.19
426.068	6693.19
426.291	6474.19
426.513	6595.19
426.735	6735.19
426.958	7281.19
427.18	7940.19
427.402	9121.19
427.625	9173.19
427.847	7771.19
428.069	7058.19
428.292	6445.19
428.514	6106.19
428.736	6051.19
428.958	6039.19
429.181	5777.19
429.403	5879.19
429.625	6020.19
429.847	6416.19
430.069	6917.19
430.292	6451.19
430.514	5863.19
430.736	5829.19
430.958	5739.19
431.18	5804.19
431.402	5743.19
431.624	5712.19
431.846	5771.19
432.068	5725.19
432.29	5868.19
432.512	5721.19
432.734	5873.19
432.956	5764.19
433.178	5892.19
433.4	5815.19
433.622	5823.19
433.844	5812.19
434.066	5850.19
434.287	5857.19
434.509	6067.19
434.731	6408.19
434.953	6490.19
435.175	6669.19
435.397	6807.19
435.618	6689.19
435.84	7095.19
436.062	7861.19
436.284	7791.19
436.505	6522.19
436.727	6281.19
436.949	5985.19
437.17	5887.19
437.392	5853.19
437.614	6016.19
437.835	6479.19
438.057	7396.19
438.278	8043.19
438.5	7981.19
438.721	8809.19
438.943	7681.19
439.165	6442.19
439.386	6272.19
439.608	6365.19
439.829	6427.19
440.05	6740.19
440.272	7113.19
440.493	6429.19
440.715	6258.19
440.936	6148.19
441.158	6203.19
441.379	6323.19
441.6	6671.19
441.822	6979.19
442.043	7441.19
442.264	8251.19
442.486	7727.19
442.707	6908.19
442.928	6796.19
443.149	6898.19
443.371	7288.19
443.592	7685.19
443.813	8709.19
444.034	8626.19
444.255	7618.19
444.476	7395.19
444.698	7585.19
444.919	7707.19
445.14	7472.19
445.361	7288.19
445.582	7459.19
445.803	8063.19
446.024	8698.19
446.245	8264.19
446.466	7488.19
446.687	6507.19
446.908	6199.19
447.129	5815.19
447.35	5706.19
447.571	5670.19
447.792	5548.19
448.013	5708.19
448.234	5987.19
448.455	6587.19
448.675	7805.19
448.896	8225.19
449.117	6844.19
449.338	7030.19
449.559	8268.19
449.779	8492.19
450	6535.19
450.221	5849.19
450.442	5505.19
450.662	5506.19
450.883	5576.19
451.104	5702.19
451.324	5543.19
451.545	5396.19
451.766	5201.19
451.986	5122.19
452.207	5081.19
452.428	5094.19
452.648	5128.19
452.869	5164.19
453.089	5267.19
453.31	5251.19
453.53	5084.19
453.751	5025.19
453.971	5074.19
454.192	5237.19
454.412	4963.19
454.633	4961.19
454.853	4913.19
455.073	5009.19
455.294	5488.19
455.514	5941.19
455.734	5433.19
455.955	4843.19
456.175	4758.19
456.395	4704.19
456.616	4666.19
456.836	4645.19
457.056	4629.19
457.276	4543.19
457.497	4809.19
457.717	4715.19
457.937	4785.19
458.157	4895.19
458.377	5056.19
458.598	5270.19
458.818	6075.19
459.038	6776.19
459.258	6687.19
459.478	5995.19
459.698	5769.19
459.918	5960.19
460.138	6083.19
460.358	6383.19
460.578	6373.19
460.798	6448.19
461.018	6408.19
461.238	6284.19
461.458	6306.19
461.678	6187.19
461.898	6532.19
462.118	6396.19
462.338	6790.19
462.558	6909.19
462.777	7244.19
462.997	7807.19
463.217	8161.19
463.437	7942.19
463.657	7417.19
463.876	7211.19
464.096	7272.19
464.316	7225.19
464.536	7281.19
464.755	7019.19
464.975	6914.19
465.195	7160.19
465.414	7101.19
465.634	6323.19
465.854	5944.19
466.073	5714.19
466.293	5539.19
466.512	5400.19
466.732	5242.19
466.951	5292.19
467.171	5311.19
467.391	5398.19
467.61	5305.19
467.829	5412.19
468.049	5223.19
468.268	5198.19
468.488	5096.19
468.707	5037.19
468.927	5060.19
469.146	5075.19
469.365	5183.19
469.585	5171.19
469.804	5368.19
470.023	5446.19
470.243	5483.19
470.462	5587.19
470.681	5601.19
470.901	5546.19
471.12	5375.19
471.339	5391.19
471.558	5368.19
471.777	5313.19
471.997	5122.19
472.216	5195.19
472.435	5305.19
472.654	5125.19
472.873	5019.19
473.092	5027.19
473.311	5023.19
473.53	5043.19
473.749	5197.19
473.968	5761.19
474.187	6738.19
474.406	6290.19
474.625	5385.19
474.844	5091.19
475.063	5087.19
475.282	5074.19
475.501	5059.19
475.72	5077.19
475.939	5137.19
476.158	5219.19
476.377	5212.19
476.596	5247.19
476.814	5422.19
477.033	5416.19
477.252	5507.19
477.471	5620.19
477.69	5772.19
477.908	5793.19
478.127	6023.19
478.346	6065.19
478.564	6190.19
478.783	6181.19
479.002	6403.19
479.22	6374.19
479.439	6415.19
479.658	6594.19
479.876	6697.19
480.095	6874.19
480.313	7248.19
480.532	7185.19
480.751	6976.19
480.969	6885.19
481.188	7219.19
481.406	6930.19
481.624	6457.19
481.843	6321.19
482.061	6096.19
482.28	6023.19
482.498	5907.19
482.717	5897.19
482.935	5942.19
483.153	5890.19
483.372	5859.19
483.59	5946.19
483.808	5929.19
484.027	5940.19
484.245	6066.19
484.463	6010.19
484.681	6132.19
484.9	6112.19
485.118	6207.19
485.336	6227.19
485.554	6244.19
485.772	6304.19
485.99	6300.19
486.209	6439.19
486.427	6441.19
486.645	6439.19
486.863	6618.19
487.081	6503.19
487.299	6445.19
487.517	6431.19
487.735	6406.19
487.953	6391.19
