Data from Circ_2003_H10_HRD10591_00044.txt Node
Date: Wed Jan 03 10:37:11 EST 2024
User: Yrep
Spectrometer: HR+D1059
Trigger mode: 1
Integration Time (sec): 1.000000E-1
Scans to average: 1
Electric dark correction enabled: true
Nonlinearity correction enabled: false
Boxcar width: 0
XAxis mode: Wavelengths
Number of Pixels in Spectrum: 2048
>>>>>Begin Spectral Data<<<<<
223.165	-16.75
223.4	-16.75
223.635	-16.75
223.869	-26.75
224.104	-4.75
224.338	-11.75
224.573	-12.75
224.808	-14.75
225.042	-16.75
225.277	-11.75
225.511	-6.75
225.746	7.25
225.98	6.25
226.215	5.25
226.449	28.25
226.683	18.25
226.918	23.25
227.152	34.25
227.387	27.25
227.621	47.25
227.856	48.25
228.09	50.25
228.324	55.25
228.559	43.25
228.793	57.25
229.027	66.25
229.262	68.25
229.496	73.25
229.73	84.25
229.964	67.25
230.199	67.25
230.433	66.25
230.667	79.25
230.901	60.25
231.136	83.25
231.37	83.25
231.604	88.25
231.838	79.25
232.072	82.25
232.306	65.25
232.541	81.25
232.775	79.25
233.009	82.25
233.243	87.25
233.477	64.25
233.711	77.25
233.945	82.25
234.179	80.25
234.413	77.25
234.647	80.25
234.881	87.25
235.115	89.25
235.349	69.25
235.583	75.25
235.817	75.25
236.051	83.25
236.285	71.25
236.519	80.25
236.753	74.25
236.987	92.25
237.221	87.25
237.455	82.25
237.689	68.25
237.922	72.25
238.156	81.25
238.39	79.25
238.624	71.25
238.858	79.25
239.091	57.25
239.325	85.25
239.559	79.25
239.793	73.25
240.027	75.25
240.26	63.25
240.494	87.25
240.728	88.25
240.961	67.25
241.195	71.25
241.429	80.25
241.662	79.25
241.896	77.25
242.13	68.25
242.363	74.25
242.597	75.25
242.83	84.25
243.064	72.25
243.298	76.25
243.531	83.25
243.765	72.25
243.998	74.25
244.232	84.25
244.465	81.25
244.699	83.25
244.932	75.25
245.166	77.25
245.399	93.25
245.633	80.25
245.866	71.25
246.099	80.25
246.333	74.25
246.566	81.25
246.8	70.25
247.033	76.25
247.266	90.25
247.5	74.25
247.733	75.25
247.966	74.25
248.2	79.25
248.433	91.25
248.666	87.25
248.899	72.25
249.133	91.25
249.366	80.25
249.599	102.25
249.832	81.25
250.066	80.25
250.299	83.25
250.532	86.25
250.765	74.25
250.998	86.25
251.231	85.25
251.465	85.25
251.698	71.25
251.931	69.25
252.164	73.25
252.397	78.25
252.63	74.25
252.863	76.25
253.096	91.25
253.329	76.25
253.562	86.25
253.795	74.25
254.028	91.25
254.261	84.25
254.494	74.25
254.727	66.25
254.96	78.25
255.193	84.25
255.426	82.25
255.659	72.25
255.892	86.25
256.124	90.25
256.357	88.25
256.59	87.25
256.823	86.25
257.056	71.25
257.289	84.25
257.521	80.25
257.754	79.25
257.987	83.25
258.22	84.25
258.452	73.25
258.685	81.25
258.918	79.25
259.151	75.25
259.383	86.25
259.616	89.25
259.849	76.25
260.081	86.25
260.314	70.25
260.547	78.25
260.779	65.25
261.012	86.25
261.244	91.25
261.477	95.25
261.71	94.25
261.942	102.25
262.175	106.25
262.407	87.25
262.64	89.25
262.872	84.25
263.105	79.25
263.337	85.25
263.57	65.25
263.802	79.25
264.035	75.25
264.267	88.25
264.499	97.25
264.732	87.25
264.964	83.25
265.197	99.25
265.429	81.25
265.661	87.25
265.894	94.25
266.126	68.25
266.358	80.25
266.591	85.25
266.823	83.25
267.055	79.25
267.287	87.25
267.52	80.25
267.752	88.25
267.984	83.25
268.216	91.25
268.448	87.25
268.681	89.25
268.913	92.25
269.145	79.25
269.377	87.25
269.609	96.25
269.841	77.25
270.073	90.25
270.306	85.25
270.538	76.25
270.77	97.25
271.002	80.25
271.234	92.25
271.466	71.25
271.698	84.25
271.93	74.25
272.162	83.25
272.394	81.25
272.626	85.25
272.858	88.25
273.09	83.25
273.322	88.25
273.553	78.25
273.785	85.25
274.017	91.25
274.249	89.25
274.481	94.25
274.713	77.25
274.945	84.25
275.176	80.25
275.408	78.25
275.64	82.25
275.872	75.25
276.104	75.25
276.335	89.25
276.567	86.25
276.799	90.25
277.031	99.25
277.262	96.25
277.494	80.25
277.726	71.25
277.957	71.25
278.189	76.25
278.421	106.25
278.652	80.25
278.884	91.25
279.115	89.25
279.347	69.25
279.579	81.25
279.81	89.25
280.042	87.25
280.273	98.25
280.505	93.25
280.736	95.25
280.968	96.25
281.199	96.25
281.431	94.25
281.662	96.25
281.894	95.25
282.125	98.25
282.356	119.25
282.588	142.25
282.819	105.25
283.051	103.25
283.282	79.25
283.513	87.25
283.745	76.25
283.976	89.25
284.207	82.25
284.439	87.25
284.67	93.25
284.901	84.25
285.132	81.25
285.364	86.25
285.595	90.25
285.826	95.25
286.057	96.25
286.288	86.25
286.52	84.25
286.751	78.25
286.982	70.25
287.213	89.25
287.444	90.25
287.675	84.25
287.906	111.25
288.138	84.25
288.369	87.25
288.6	87.25
288.831	86.25
289.062	98.25
289.293	82.25
289.524	82.25
289.755	94.25
289.986	87.25
290.217	87.25
290.448	84.25
290.679	98.25
290.91	78.25
291.141	80.25
291.371	89.25
291.602	100.25
291.833	86.25
292.064	95.25
292.295	74.25
292.526	91.25
292.757	79.25
292.987	84.25
293.218	79.25
293.449	85.25
293.68	91.25
293.91	80.25
294.141	90.25
294.372	96.25
294.603	80.25
294.833	82.25
295.064	85.25
295.295	88.25
295.525	95.25
295.756	111.25
295.987	116.25
296.217	118.25
296.448	123.25
296.679	102.25
296.909	87.25
297.14	88.25
297.37	93.25
297.601	80.25
297.831	97.25
298.062	79.25
298.292	86.25
298.523	99.25
298.753	84.25
298.984	91.25
299.214	92.25
299.445	94.25
299.675	100.25
299.905	84.25
300.136	94.25
300.366	93.25
300.597	96.25
300.827	91.25
301.057	103.25
301.288	104.25
301.518	102.25
301.748	92.25
301.979	94.25
302.209	91.25
302.439	98.25
302.669	82.25
302.9	98.25
303.13	101.25
303.36	95.25
303.59	91.25
303.82	99.25
304.051	100.25
304.281	95.25
304.511	86.25
304.741	90.25
304.971	96.25
305.201	101.25
305.431	84.25
305.661	102.25
305.891	102.25
306.121	90.25
306.352	103.25
306.582	96.25
306.812	108.25
307.042	99.25
307.272	83.25
307.502	87.25
307.731	86.25
307.961	89.25
308.191	82.25
308.421	98.25
308.651	86.25
308.881	102.25
309.111	96.25
309.341	107.25
309.571	93.25
309.8	105.25
310.03	85.25
310.26	98.25
310.49	96.25
310.72	105.25
310.949	104.25
311.179	86.25
311.409	95.25
311.639	98.25
311.868	91.25
312.098	106.25
312.328	90.25
312.557	97.25
312.787	91.25
313.017	98.25
313.246	103.25
313.476	109.25
313.706	98.25
313.935	91.25
314.165	96.25
314.394	86.25
314.624	89.25
314.853	91.25
315.083	96.25
315.312	95.25
315.542	83.25
315.771	100.25
316.001	94.25
316.23	90.25
316.46	91.25
316.689	105.25
316.919	104.25
317.148	96.25
317.377	92.25
317.607	98.25
317.836	83.25
318.065	97.25
318.295	86.25
318.524	93.25
318.753	91.25
318.983	102.25
319.212	84.25
319.441	100.25
319.67	111.25
319.9	95.25
320.129	91.25
320.358	103.25
320.587	96.25
320.816	96.25
321.046	99.25
321.275	110.25
321.504	90.25
321.733	92.25
321.962	95.25
322.191	99.25
322.42	100.25
322.649	123.25
322.878	107.25
323.108	113.25
323.337	122.25
323.566	128.25
323.795	148.25
324.024	216.25
324.253	381.25
324.482	778.25
324.71	1583.25
324.939	2102.25
325.168	776.25
325.397	230.25
325.626	144.25
325.855	128.25
326.084	129.25
326.313	118.25
326.542	148.25
326.77	232.25
326.999	451.25
327.228	914.25
327.457	1674.25
327.686	1320.25
327.914	332.25
328.143	187.25
328.372	156.25
328.6	115.25
328.829	112.25
329.058	108.25
329.287	106.25
329.515	123.25
329.744	112.25
329.972	103.25
330.201	108.25
330.43	127.25
330.658	116.25
330.887	122.25
331.115	128.25
331.344	98.25
331.572	104.25
331.801	85.25
332.03	104.25
332.258	98.25
332.486	88.25
332.715	99.25
332.943	99.25
333.172	90.25
333.4	84.25
333.629	97.25
333.857	110.25
334.085	91.25
334.314	93.25
334.542	133.25
334.771	121.25
334.999	114.25
335.227	111.25
335.455	92.25
335.684	97.25
335.912	92.25
336.14	101.25
336.369	89.25
336.597	103.25
336.825	90.25
337.053	101.25
337.281	94.25
337.51	87.25
337.738	95.25
337.966	106.25
338.194	95.25
338.422	87.25
338.65	98.25
338.878	110.25
339.106	86.25
339.334	92.25
339.562	88.25
339.79	98.25
340.018	100.25
340.246	86.25
340.474	98.25
340.702	106.25
340.93	101.25
341.158	97.25
341.386	99.25
341.614	97.25
341.842	97.25
342.07	90.25
342.298	91.25
342.526	84.25
342.754	100.25
342.981	97.25
343.209	80.25
343.437	101.25
343.665	86.25
343.893	83.25
344.12	102.25
344.348	100.25
344.576	86.25
344.804	95.25
345.031	98.25
345.259	88.25
345.487	84.25
345.714	88.25
345.942	109.25
346.17	100.25
346.397	92.25
346.625	100.25
346.853	106.25
347.08	97.25
347.308	104.25
347.535	94.25
347.763	91.25
347.99	89.25
348.218	98.25
348.445	96.25
348.673	102.25
348.9	99.25
349.128	100.25
349.355	94.25
349.583	113.25
349.81	110.25
350.037	87.25
350.265	110.25
350.492	97.25
350.72	82.25
350.947	99.25
351.174	110.25
351.402	111.25
351.629	107.25
351.856	114.25
352.083	98.25
352.311	107.25
352.538	109.25
352.765	97.25
352.992	101.25
353.22	96.25
353.447	107.25
353.674	111.25
353.901	98.25
354.128	100.25
354.355	110.25
354.583	96.25
354.81	91.25
355.037	98.25
355.264	88.25
355.491	92.25
355.718	101.25
355.945	105.25
356.172	98.25
356.399	100.25
356.626	103.25
356.853	96.25
357.08	102.25
357.307	86.25
357.534	88.25
357.761	73.25
357.988	97.25
358.215	94.25
358.441	99.25
358.668	90.25
358.895	95.25
359.122	96.25
359.349	103.25
359.576	82.25
359.802	104.25
360.029	115.25
360.256	100.25
360.483	98.25
360.709	92.25
360.936	87.25
361.163	86.25
361.39	89.25
361.616	87.25
361.843	88.25
362.07	88.25
362.296	102.25
362.523	107.25
362.749	96.25
362.976	100.25
363.203	89.25
363.429	98.25
363.656	80.25
363.882	104.25
364.109	84.25
364.335	112.25
364.562	102.25
364.788	97.25
365.015	97.25
365.241	91.25
365.468	98.25
365.694	100.25
365.92	83.25
366.147	89.25
366.373	88.25
366.599	88.25
366.826	100.25
367.052	81.25
367.278	98.25
367.505	85.25
367.731	90.25
367.957	94.25
368.184	89.25
368.41	99.25
368.636	92.25
368.862	88.25
369.089	114.25
369.315	88.25
369.541	95.25
369.767	82.25
369.993	90.25
370.219	85.25
370.445	91.25
370.672	86.25
370.898	90.25
371.124	104.25
371.35	73.25
371.576	88.25
371.802	92.25
372.028	91.25
372.254	88.25
372.48	76.25
372.706	83.25
372.932	96.25
373.158	96.25
373.384	108.25
373.61	92.25
373.835	75.25
374.061	90.25
374.287	85.25
374.513	99.25
374.739	104.25
374.965	80.25
375.191	89.25
375.416	91.25
375.642	76.25
375.868	91.25
376.094	96.25
376.319	99.25
376.545	84.25
376.771	78.25
376.997	78.25
377.222	91.25
377.448	96.25
377.674	88.25
377.899	79.25
378.125	98.25
378.35	106.25
378.576	110.25
378.802	103.25
379.027	80.25
379.253	102.25
379.478	113.25
379.704	87.25
379.929	97.25
380.155	71.25
380.38	87.25
380.606	107.25
380.831	100.25
381.057	99.25
381.282	109.25
381.507	103.25
381.733	97.25
381.958	106.25
382.184	101.25
382.409	102.25
382.634	103.25
382.86	108.25
383.085	115.25
383.31	98.25
383.535	106.25
383.761	101.25
383.986	104.25
384.211	103.25
384.436	102.25
384.662	106.25
384.887	112.25
385.112	105.25
385.337	98.25
385.562	110.25
385.787	114.25
386.013	95.25
386.238	117.25
386.463	115.25
386.688	116.25
386.913	119.25
387.138	117.25
387.363	100.25
387.588	112.25
387.813	108.25
388.038	107.25
388.263	129.25
388.488	117.25
388.713	96.25
388.938	106.25
389.163	98.25
389.387	96.25
389.612	89.25
389.837	90.25
390.062	95.25
390.287	95.25
390.512	92.25
390.736	76.25
390.961	91.25
391.186	90.25
391.411	104.25
391.636	96.25
391.86	88.25
392.085	100.25
392.31	86.25
392.534	94.25
392.759	104.25
392.984	97.25
393.208	99.25
393.433	97.25
393.658	90.25
393.882	106.25
394.107	82.25
394.331	88.25
394.556	82.25
394.78	82.25
395.005	87.25
395.229	86.25
395.454	87.25
395.678	92.25
395.903	99.25
396.127	73.25
396.352	70.25
396.576	98.25
396.801	95.25
397.025	96.25
397.249	97.25
397.474	82.25
397.698	83.25
397.922	83.25
398.147	78.25
398.371	78.25
398.595	91.25
398.82	92.25
399.044	83.25
399.268	89.25
399.492	80.25
399.717	83.25
399.941	75.25
400.165	90.25
400.389	89.25
400.613	75.25
400.837	89.25
401.062	92.25
401.286	95.25
401.51	80.25
401.734	97.25
401.958	102.25
402.182	131.25
402.406	146.25
402.63	119.25
402.854	88.25
403.078	89.25
403.302	84.25
403.526	76.25
403.75	90.25
403.974	97.25
404.198	100.25
404.422	81.25
404.645	81.25
404.869	95.25
405.093	94.25
405.317	92.25
405.541	100.25
405.765	84.25
405.988	112.25
406.212	153.25
406.436	200.25
406.66	141.25
406.883	88.25
407.107	84.25
407.331	99.25
407.555	101.25
407.778	92.25
408.002	82.25
408.226	92.25
408.449	85.25
408.673	86.25
408.896	94.25
409.12	100.25
409.344	94.25
409.567	91.25
409.791	93.25
410.014	97.25
410.238	101.25
410.461	89.25
410.685	98.25
410.908	107.25
411.132	105.25
411.355	92.25
411.578	92.25
411.802	106.25
412.025	83.25
412.249	92.25
412.472	104.25
412.695	93.25
412.919	90.25
413.142	87.25
413.365	83.25
413.589	90.25
413.812	86.25
414.035	93.25
414.258	80.25
414.482	96.25
414.705	91.25
414.928	87.25
415.151	93.25
415.374	99.25
415.597	97.25
415.821	100.25
416.044	96.25
416.267	96.25
416.49	84.25
416.713	88.25
416.936	89.25
417.159	91.25
417.382	97.25
417.605	96.25
417.828	88.25
418.051	86.25
418.274	81.25
418.497	85.25
418.72	84.25
418.943	91.25
419.166	90.25
419.389	85.25
419.611	83.25
419.834	95.25
420.057	78.25
420.28	94.25
420.503	84.25
420.726	79.25
420.948	91.25
421.171	99.25
421.394	95.25
421.617	98.25
421.839	81.25
422.062	91.25
422.285	82.25
422.507	100.25
422.73	95.25
422.953	88.25
423.175	91.25
423.398	92.25
423.621	92.25
423.843	86.25
424.066	83.25
424.288	88.25
424.511	97.25
424.733	94.25
424.956	113.25
425.178	98.25
425.401	102.25
425.623	91.25
425.846	85.25
426.068	96.25
426.291	89.25
426.513	90.25
426.735	96.25
426.958	93.25
427.18	102.25
427.402	125.25
427.625	134.25
427.847	115.25
428.069	100.25
428.292	96.25
428.514	82.25
428.736	83.25
428.958	81.25
429.181	98.25
429.403	79.25
429.625	86.25
429.847	92.25
430.069	97.25
430.292	92.25
430.514	70.25
430.736	97.25
430.958	85.25
431.18	97.25
431.402	83.25
431.624	90.25
431.846	74.25
432.068	96.25
432.29	81.25
432.512	86.25
432.734	84.25
432.956	92.25
433.178	94.25
433.4	94.25
433.622	84.25
433.844	81.25
434.066	90.25
434.287	96.25
434.509	89.25
434.731	86.25
434.953	91.25
435.175	77.25
435.397	92.25
435.618	92.25
435.84	100.25
436.062	107.25
436.284	97.25
436.505	95.25
436.727	92.25
436.949	85.25
437.17	82.25
437.392	87.25
437.614	90.25
437.835	94.25
438.057	104.25
438.278	109.25
438.5	101.25
438.721	111.25
438.943	102.25
439.165	83.25
439.386	91.25
439.608	92.25
439.829	100.25
440.05	102.25
440.272	129.25
440.493	89.25
440.715	95.25
440.936	101.25
441.158	102.25
441.379	86.25
441.6	99.25
441.822	89.25
442.043	85.25
442.264	100.25
442.486	86.25
442.707	92.25
442.928	106.25
443.149	112.25
443.371	123.25
443.592	113.25
443.813	108.25
444.034	99.25
444.255	81.25
444.476	96.25
444.698	75.25
444.919	77.25
445.14	152.25
445.361	123.25
445.582	110.25
445.803	118.25
446.024	115.25
446.245	135.25
446.466	101.25
446.687	91.25
446.908	99.25
447.129	83.25
447.35	71.25
447.571	90.25
447.792	92.25
448.013	100.25
448.234	94.25
448.455	100.25
448.675	110.25
448.896	113.25
449.117	106.25
449.338	106.25
449.559	136.25
449.779	137.25
450	92.25
450.221	85.25
450.442	87.25
450.662	86.25
450.883	73.25
451.104	98.25
451.324	86.25
451.545	92.25
451.766	84.25
451.986	81.25
452.207	98.25
452.428	87.25
452.648	94.25
452.869	111.25
453.089	122.25
453.31	119.25
453.53	92.25
453.751	118.25
453.971	94.25
454.192	98.25
454.412	86.25
454.633	89.25
454.853	78.25
455.073	82.25
455.294	81.25
455.514	92.25
455.734	82.25
455.955	85.25
456.175	86.25
456.395	90.25
456.616	90.25
456.836	86.25
457.056	86.25
457.276	82.25
457.497	80.25
457.717	88.25
457.937	84.25
458.157	82.25
458.377	89.25
458.598	102.25
458.818	122.25
459.038	127.25
459.258	123.25
459.478	97.25
459.698	93.25
459.918	92.25
460.138	78.25
460.358	75.25
460.578	76.25
460.798	84.25
461.018	87.25
461.238	77.25
461.458	75.25
461.678	78.25
461.898	67.25
462.118	92.25
462.338	93.25
462.558	94.25
462.777	82.25
462.997	89.25
463.217	89.25
463.437	91.25
463.657	77.25
463.876	86.25
464.096	99.25
464.316	88.25
464.536	80.25
464.755	90.25
464.975	94.25
465.195	136.25
465.414	143.25
465.634	98.25
465.854	88.25
466.073	86.25
466.293	94.25
466.512	82.25
466.732	86.25
466.951	88.25
467.171	92.25
467.391	96.25
467.61	98.25
467.829	110.25
468.049	92.25
468.268	87.25
468.488	84.25
468.707	97.25
468.927	83.25
469.146	87.25
469.365	86.25
469.585	83.25
469.804	84.25
470.023	102.25
470.243	92.25
470.462	92.25
470.681	115.25
470.901	83.25
471.12	94.25
471.339	100.25
471.558	96.25
471.777	76.25
471.997	91.25
472.216	117.25
472.435	126.25
472.654	84.25
472.873	80.25
473.092	75.25
473.311	88.25
473.53	80.25
473.749	95.25
473.968	96.25
474.187	107.25
474.406	94.25
474.625	88.25
474.844	98.25
475.063	83.25
475.282	88.25
475.501	104.25
475.72	103.25
475.939	72.25
476.158	85.25
476.377	70.25
476.596	86.25
476.814	98.25
477.033	99.25
477.252	85.25
477.471	79.25
477.69	81.25
477.908	96.25
478.127	86.25
478.346	83.25
478.564	84.25
478.783	90.25
479.002	85.25
479.22	90.25
479.439	92.25
479.658	110.25
479.876	84.25
480.095	85.25
480.313	88.25
480.532	93.25
480.751	90.25
480.969	100.25
481.188	182.25
481.406	131.25
481.624	82.25
481.843	80.25
482.061	87.25
482.28	98.25
482.498	106.25
482.717	97.25
482.935	74.25
483.153	83.25
483.372	82.25
483.59	92.25
483.808	89.25
484.027	89.25
484.245	87.25
484.463	91.25
484.681	106.25
484.9	92.25
485.118	99.25
485.336	108.25
485.554	95.25
485.772	106.25
485.99	101.25
486.209	106.25
486.427	113.25
486.645	113.25
486.863	105.25
487.081	107.25
487.299	80.25
487.517	90.25
487.735	101.25
487.953	89.25
488.171	103.25
488.389	98.25
488.607	91.25
488.825	85.25
489.043	87.25
489.261	89.25
489.479	90.25
489.696	88.25
489.914	86.25
490.132	97.25
490.35	90.25
490.568	84.25
490.786	89.25
491.003	78.25
491.221	88.25
491.439	77.25
491.657	99.25
491.874	94.25
492.092	98.25
492.31	90.25
492.527	80.25
492.745	67.25
492.963	86.25
493.18	102.25
493.398	99.25
493.615	96.25
493.833	83.25
494.05	88.25
494.268	91.25
494.485	87.25
494.703	98.25
494.92	82.25
495.138	86.25
495.355	83.25
495.573	89.25
495.79	95.25
496.008	98.25
496.225	99.25
496.442	98.25
496.66	104.25
496.877	82.25
497.094	99.25
497.312	90.25
497.529	101.25
497.746	88.25
497.963	91.25
498.181	102.25
498.398	103.25
498.615	109.25
498.832	107.25
499.049	100.25
499.267	100.25
499.484	94.25
499.701	107.25
499.918	93.25
500.135	92.25
500.352	90.25
500.569	95.25
500.786	86.25
501.003	97.25
501.22	90.25
501.437	99.25
501.654	93.25
501.871	101.25
502.088	96.25
502.305	87.25
502.522	100.25
502.739	90.25
502.956	92.25
503.172	81.25
503.389	87.25
503.606	101.25
503.823	90.25
504.04	97.25
504.256	87.25
504.473	87.25
504.69	84.25
504.907	92.25
505.123	95.25
505.34	94.25
505.557	95.25
505.773	98.25
505.99	97.25
506.207	104.25
506.423	99.25
506.64	98.25
506.856	89.25
507.073	81.25
507.289	88.25
507.506	94.25
507.722	110.25
507.939	98.25
508.155	98.25
508.372	82.25
508.588	110.25
508.805	95.25
509.021	89.25
509.238	90.25
509.454	103.25
509.67	102.25
509.887	114.25
510.103	124.25
510.319	206.25
510.536	699.25
510.752	2207.25
510.968	625.25
511.184	158.25
511.401	115.25
511.617	88.25
511.833	84.25
512.049	97.25
512.265	89.25
512.481	84.25
512.698	88.25
512.914	102.25
513.13	90.25
513.346	94.25
513.562	84.25
513.778	100.25
513.994	107.25
514.21	87.25
514.426	101.25
514.642	118.25
514.858	117.25
515.074	142.25
515.29	396.25
515.506	1242.25
515.721	470.25
