Data from Circ_2003_H10_HRD10591_00023.txt Node
Date: Wed Jan 03 10:37:07 EST 2024
User: Yrep
Spectrometer: HR+D1059
Trigger mode: 1
Integration Time (sec): 1.000000E-1
Scans to average: 1
Electric dark correction enabled: true
Nonlinearity correction enabled: false
Boxcar width: 0
XAxis mode: Wavelengths
Number of Pixels in Spectrum: 2048
>>>>>Begin Spectral Data<<<<<
223.165	-12.62
223.4	-12.62
223.635	-12.62
223.869	-13.62
224.104	-24.62
224.338	-15.62
224.573	-18.62
224.808	-13.62
225.042	-8.62
225.277	-9.62
225.511	4.38
225.746	12.38
225.98	-1.62
226.215	4.38
226.449	23.38
226.683	11.38
226.918	31.38
227.152	31.38
227.387	50.38
227.621	54.38
227.856	45.38
228.09	31.38
228.324	56.38
228.559	59.38
228.793	47.38
229.027	58.38
229.262	67.38
229.496	79.38
229.73	70.38
229.964	95.38
230.199	74.38
230.433	70.38
230.667	86.38
230.901	73.38
231.136	88.38
231.37	65.38
231.604	84.38
231.838	85.38
232.072	68.38
232.306	70.38
232.541	88.38
232.775	81.38
233.009	78.38
233.243	88.38
233.477	91.38
233.711	75.38
233.945	75.38
234.179	72.38
234.413	77.38
234.647	87.38
234.881	84.38
235.115	89.38
235.349	76.38
235.583	87.38
235.817	81.38
236.051	74.38
236.285	76.38
236.519	82.38
236.753	74.38
236.987	77.38
237.221	89.38
237.455	73.38
237.689	79.38
237.922	75.38
238.156	71.38
238.39	64.38
238.624	81.38
238.858	79.38
239.091	82.38
239.325	83.38
239.559	81.38
239.793	78.38
240.027	69.38
240.26	71.38
240.494	64.38
240.728	79.38
240.961	84.38
241.195	71.38
241.429	78.38
241.662	66.38
241.896	79.38
242.13	90.38
242.363	73.38
242.597	75.38
242.83	70.38
243.064	74.38
243.298	78.38
243.531	89.38
243.765	88.38
243.998	84.38
244.232	65.38
244.465	81.38
244.699	86.38
244.932	93.38
245.166	68.38
245.399	82.38
245.633	57.38
245.866	75.38
246.099	70.38
246.333	78.38
246.566	83.38
246.8	82.38
247.033	74.38
247.266	85.38
247.5	87.38
247.733	92.38
247.966	84.38
248.2	89.38
248.433	77.38
248.666	83.38
248.899	81.38
249.133	84.38
249.366	90.38
249.599	105.38
249.832	81.38
250.066	93.38
250.299	84.38
250.532	83.38
250.765	83.38
250.998	81.38
251.231	84.38
251.465	88.38
251.698	89.38
251.931	93.38
252.164	68.38
252.397	74.38
252.63	89.38
252.863	73.38
253.096	75.38
253.329	78.38
253.562	84.38
253.795	82.38
254.028	82.38
254.261	73.38
254.494	84.38
254.727	71.38
254.96	90.38
255.193	81.38
255.426	79.38
255.659	90.38
255.892	80.38
256.124	77.38
256.357	81.38
256.59	71.38
256.823	89.38
257.056	82.38
257.289	84.38
257.521	79.38
257.754	85.38
257.987	84.38
258.22	86.38
258.452	52.38
258.685	86.38
258.918	78.38
259.151	65.38
259.383	75.38
259.616	88.38
259.849	74.38
260.081	77.38
260.314	90.38
260.547	74.38
260.779	89.38
261.012	67.38
261.244	75.38
261.477	90.38
261.71	80.38
261.942	105.38
262.175	118.38
262.407	80.38
262.64	74.38
262.872	81.38
263.105	102.38
263.337	86.38
263.57	80.38
263.802	77.38
264.035	81.38
264.267	72.38
264.499	74.38
264.732	90.38
264.964	81.38
265.197	73.38
265.429	84.38
265.661	82.38
265.894	91.38
266.126	83.38
266.358	91.38
266.591	91.38
266.823	81.38
267.055	83.38
267.287	74.38
267.52	84.38
267.752	75.38
267.984	93.38
268.216	82.38
268.448	66.38
268.681	88.38
268.913	87.38
269.145	91.38
269.377	95.38
269.609	91.38
269.841	87.38
270.073	84.38
270.306	91.38
270.538	80.38
270.77	80.38
271.002	87.38
271.234	86.38
271.466	85.38
271.698	87.38
271.93	85.38
272.162	93.38
272.394	84.38
272.626	71.38
272.858	93.38
273.09	80.38
273.322	85.38
273.553	87.38
273.785	85.38
274.017	65.38
274.249	84.38
274.481	89.38
274.713	94.38
274.945	89.38
275.176	87.38
275.408	80.38
275.64	92.38
275.872	89.38
276.104	88.38
276.335	84.38
276.567	80.38
276.799	107.38
277.031	89.38
277.262	86.38
277.494	90.38
277.726	71.38
277.957	90.38
278.189	78.38
278.421	84.38
278.652	82.38
278.884	103.38
279.115	90.38
279.347	102.38
279.579	87.38
279.81	95.38
280.042	81.38
280.273	82.38
280.505	79.38
280.736	91.38
280.968	85.38
281.199	85.38
281.431	80.38
281.662	96.38
281.894	95.38
282.125	95.38
282.356	120.38
282.588	143.38
282.819	104.38
283.051	75.38
283.282	89.38
283.513	96.38
283.745	97.38
283.976	71.38
284.207	92.38
284.439	80.38
284.67	87.38
284.901	89.38
285.132	97.38
285.364	83.38
285.595	83.38
285.826	103.38
286.057	85.38
286.288	69.38
286.52	89.38
286.751	83.38
286.982	81.38
287.213	78.38
287.444	83.38
287.675	92.38
287.906	103.38
288.138	88.38
288.369	101.38
288.6	88.38
288.831	80.38
289.062	90.38
289.293	76.38
289.524	102.38
289.755	86.38
289.986	78.38
290.217	74.38
290.448	95.38
290.679	87.38
290.91	87.38
291.141	93.38
291.371	102.38
291.602	83.38
291.833	83.38
292.064	75.38
292.295	70.38
292.526	80.38
292.757	78.38
292.987	85.38
293.218	82.38
293.449	86.38
293.68	72.38
293.91	92.38
294.141	92.38
294.372	83.38
294.603	93.38
294.833	98.38
295.064	89.38
295.295	84.38
295.525	89.38
295.756	98.38
295.987	121.38
296.217	125.38
296.448	122.38
296.679	87.38
296.909	103.38
297.14	91.38
297.37	96.38
297.601	82.38
297.831	88.38
298.062	81.38
298.292	93.38
298.523	101.38
298.753	90.38
298.984	93.38
299.214	91.38
299.445	99.38
299.675	97.38
299.905	95.38
300.136	96.38
300.366	87.38
300.597	82.38
300.827	93.38
301.057	102.38
301.288	101.38
301.518	93.38
301.748	97.38
301.979	108.38
302.209	86.38
302.439	89.38
302.669	88.38
302.9	79.38
303.13	95.38
303.36	95.38
303.59	109.38
303.82	97.38
304.051	94.38
304.281	83.38
304.511	93.38
304.741	88.38
304.971	96.38
305.201	79.38
305.431	90.38
305.661	89.38
305.891	85.38
306.121	90.38
306.352	95.38
306.582	91.38
306.812	96.38
307.042	83.38
307.272	99.38
307.502	92.38
307.731	98.38
307.961	75.38
308.191	98.38
308.421	92.38
308.651	87.38
308.881	91.38
309.111	88.38
309.341	102.38
309.571	98.38
309.8	96.38
310.03	88.38
310.26	103.38
310.49	90.38
310.72	86.38
310.949	92.38
311.179	101.38
311.409	78.38
311.639	100.38
311.868	94.38
312.098	84.38
312.328	104.38
312.557	103.38
312.787	100.38
313.017	102.38
313.246	92.38
313.476	96.38
313.706	92.38
313.935	87.38
314.165	98.38
314.394	106.38
314.624	99.38
314.853	94.38
315.083	94.38
315.312	95.38
315.542	84.38
315.771	99.38
316.001	92.38
316.23	85.38
316.46	83.38
316.689	99.38
316.919	86.38
317.148	88.38
317.377	98.38
317.607	99.38
317.836	102.38
318.065	89.38
318.295	86.38
318.524	86.38
318.753	90.38
318.983	87.38
319.212	96.38
319.441	108.38
319.67	124.38
319.9	95.38
320.129	97.38
320.358	114.38
320.587	100.38
320.816	88.38
321.046	95.38
321.275	103.38
321.504	87.38
321.733	88.38
321.962	86.38
322.191	95.38
322.42	108.38
322.649	122.38
322.878	101.38
323.108	117.38
323.337	120.38
323.566	121.38
323.795	134.38
324.024	179.38
324.253	347.38
324.482	706.38
324.71	1374.38
324.939	1700.38
325.168	672.38
325.397	220.38
325.626	138.38
325.855	107.38
326.084	124.38
326.313	132.38
326.542	121.38
326.77	194.38
326.999	395.38
327.228	754.38
327.457	1298.38
327.686	979.38
327.914	318.38
328.143	191.38
328.372	142.38
328.6	110.38
328.829	103.38
329.058	112.38
329.287	134.38
329.515	103.38
329.744	101.38
329.972	98.38
330.201	102.38
330.43	102.38
330.658	132.38
330.887	118.38
331.115	114.38
331.344	90.38
331.572	91.38
331.801	84.38
332.03	96.38
332.258	95.38
332.486	70.38
332.715	96.38
332.943	86.38
333.172	96.38
333.4	103.38
333.629	116.38
333.857	115.38
334.085	96.38
334.314	105.38
334.542	99.38
334.771	90.38
334.999	91.38
335.227	87.38
335.455	101.38
335.684	92.38
335.912	83.38
336.14	100.38
336.369	107.38
336.597	86.38
336.825	104.38
337.053	82.38
337.281	74.38
337.51	83.38
337.738	81.38
337.966	91.38
338.194	97.38
338.422	110.38
338.65	84.38
338.878	86.38
339.106	71.38
339.334	84.38
339.562	105.38
339.79	81.38
340.018	80.38
340.246	108.38
340.474	102.38
340.702	90.38
340.93	84.38
341.158	85.38
341.386	100.38
341.614	88.38
341.842	96.38
342.07	88.38
342.298	90.38
342.526	89.38
342.754	76.38
342.981	87.38
343.209	90.38
343.437	93.38
343.665	87.38
343.893	91.38
344.12	88.38
344.348	79.38
344.576	89.38
344.804	76.38
345.031	91.38
345.259	100.38
345.487	91.38
345.714	96.38
345.942	102.38
346.17	87.38
346.397	94.38
346.625	81.38
346.853	92.38
347.08	94.38
347.308	91.38
347.535	82.38
347.763	91.38
347.99	99.38
348.218	90.38
348.445	83.38
348.673	83.38
348.9	84.38
349.128	96.38
349.355	83.38
349.583	91.38
349.81	99.38
350.037	94.38
350.265	89.38
350.492	87.38
350.72	88.38
350.947	89.38
351.174	120.38
351.402	94.38
351.629	102.38
351.856	103.38
352.083	92.38
352.311	93.38
352.538	105.38
352.765	105.38
352.992	89.38
353.22	124.38
353.447	100.38
353.674	91.38
353.901	87.38
354.128	92.38
354.355	80.38
354.583	87.38
354.81	72.38
355.037	100.38
355.264	82.38
355.491	94.38
355.718	99.38
355.945	86.38
356.172	98.38
356.399	80.38
356.626	94.38
356.853	85.38
357.08	92.38
357.307	79.38
357.534	78.38
357.761	103.38
357.988	100.38
358.215	89.38
358.441	87.38
358.668	94.38
358.895	86.38
359.122	105.38
359.349	102.38
359.576	91.38
359.802	96.38
360.029	104.38
360.256	98.38
360.483	88.38
360.709	97.38
360.936	96.38
361.163	95.38
361.39	100.38
361.616	96.38
361.843	98.38
362.07	100.38
362.296	86.38
362.523	79.38
362.749	88.38
362.976	105.38
363.203	87.38
363.429	100.38
363.656	90.38
363.882	90.38
364.109	88.38
364.335	88.38
364.562	81.38
364.788	91.38
365.015	92.38
365.241	95.38
365.468	110.38
365.694	101.38
365.92	95.38
366.147	90.38
366.373	92.38
366.599	92.38
366.826	78.38
367.052	86.38
367.278	98.38
367.505	80.38
367.731	93.38
367.957	76.38
368.184	103.38
368.41	91.38
368.636	113.38
368.862	129.38
369.089	112.38
369.315	84.38
369.541	85.38
369.767	92.38
369.993	80.38
370.219	78.38
370.445	88.38
370.672	84.38
370.898	98.38
371.124	96.38
371.35	94.38
371.576	90.38
371.802	94.38
372.028	93.38
372.254	76.38
372.48	74.38
372.706	97.38
372.932	80.38
373.158	110.38
373.384	90.38
373.61	91.38
373.835	97.38
374.061	88.38
374.287	91.38
374.513	95.38
374.739	96.38
374.965	88.38
375.191	92.38
375.416	97.38
375.642	90.38
375.868	87.38
376.094	90.38
376.319	83.38
376.545	99.38
376.771	100.38
376.997	98.38
377.222	86.38
377.448	83.38
377.674	91.38
377.899	101.38
378.125	84.38
378.35	84.38
378.576	96.38
378.802	76.38
379.027	78.38
379.253	76.38
379.478	90.38
379.704	86.38
379.929	89.38
380.155	70.38
380.38	83.38
380.606	96.38
380.831	84.38
381.057	79.38
381.282	76.38
381.507	94.38
381.733	76.38
381.958	82.38
382.184	99.38
382.409	96.38
382.634	93.38
382.86	88.38
383.085	78.38
383.31	81.38
383.535	86.38
383.761	66.38
383.986	91.38
384.211	108.38
384.436	80.38
384.662	96.38
384.887	102.38
385.112	91.38
385.337	99.38
385.562	98.38
385.787	98.38
386.013	101.38
386.238	114.38
386.463	88.38
386.688	99.38
386.913	98.38
387.138	88.38
387.363	80.38
387.588	88.38
387.813	88.38
388.038	95.38
388.263	95.38
388.488	109.38
388.713	91.38
388.938	75.38
389.163	102.38
389.387	86.38
389.612	92.38
389.837	85.38
390.062	87.38
390.287	80.38
390.512	89.38
390.736	95.38
390.961	89.38
391.186	89.38
391.411	83.38
391.636	83.38
391.86	76.38
392.085	85.38
392.31	74.38
392.534	70.38
392.759	88.38
392.984	102.38
393.208	106.38
393.433	134.38
393.658	127.38
393.882	94.38
394.107	90.38
394.331	83.38
394.556	99.38
394.78	91.38
395.005	90.38
395.229	99.38
395.454	82.38
395.678	67.38
395.903	84.38
396.127	91.38
396.352	86.38
396.576	87.38
396.801	97.38
397.025	101.38
397.249	101.38
397.474	84.38
397.698	90.38
397.922	74.38
398.147	77.38
398.371	72.38
398.595	78.38
398.82	89.38
399.044	82.38
399.268	81.38
399.492	76.38
399.717	99.38
399.941	92.38
400.165	84.38
400.389	82.38
400.613	78.38
400.837	84.38
401.062	100.38
401.286	80.38
401.51	80.38
401.734	87.38
401.958	98.38
402.182	128.38
402.406	170.38
402.63	138.38
402.854	90.38
403.078	91.38
403.302	76.38
403.526	78.38
403.75	86.38
403.974	89.38
404.198	90.38
404.422	91.38
404.645	75.38
404.869	80.38
405.093	97.38
405.317	104.38
405.541	93.38
405.765	83.38
405.988	116.38
406.212	191.38
406.436	239.38
406.66	146.38
406.883	103.38
407.107	88.38
407.331	92.38
407.555	91.38
407.778	83.38
408.002	85.38
408.226	87.38
408.449	87.38
408.673	85.38
408.896	86.38
409.12	81.38
409.344	88.38
409.567	82.38
409.791	78.38
410.014	88.38
410.238	87.38
410.461	94.38
410.685	99.38
410.908	97.38
411.132	87.38
411.355	92.38
411.578	79.38
411.802	84.38
412.025	67.38
412.249	92.38
412.472	85.38
412.695	71.38
412.919	101.38
413.142	92.38
413.365	76.38
413.589	90.38
413.812	74.38
414.035	98.38
414.258	86.38
414.482	76.38
414.705	84.38
414.928	90.38
415.151	86.38
415.374	86.38
415.597	87.38
415.821	95.38
416.044	92.38
416.267	96.38
416.49	87.38
416.713	82.38
416.936	80.38
417.159	83.38
417.382	92.38
417.605	95.38
417.828	84.38
418.051	98.38
418.274	96.38
418.497	79.38
418.72	77.38
418.943	79.38
419.166	86.38
419.389	79.38
419.611	88.38
419.834	78.38
420.057	77.38
420.28	71.38
420.503	78.38
420.726	82.38
420.948	80.38
421.171	95.38
421.394	96.38
421.617	71.38
421.839	107.38
422.062	87.38
422.285	87.38
422.507	122.38
422.73	130.38
422.953	123.38
423.175	75.38
423.398	105.38
423.621	82.38
423.843	70.38
424.066	87.38
424.288	91.38
424.511	66.38
424.733	82.38
424.956	83.38
425.178	92.38
425.401	82.38
425.623	76.38
425.846	77.38
426.068	88.38
426.291	81.38
426.513	88.38
426.735	84.38
426.958	81.38
427.18	92.38
427.402	110.38
427.625	154.38
427.847	124.38
428.069	109.38
428.292	78.38
428.514	99.38
428.736	92.38
428.958	89.38
429.181	84.38
429.403	82.38
429.625	82.38
429.847	95.38
430.069	94.38
430.292	84.38
430.514	98.38
430.736	91.38
430.958	70.38
431.18	80.38
431.402	75.38
431.624	75.38
431.846	89.38
432.068	97.38
432.29	83.38
432.512	85.38
432.734	83.38
432.956	88.38
433.178	75.38
433.4	91.38
433.622	88.38
433.844	87.38
434.066	87.38
434.287	82.38
434.509	94.38
434.731	88.38
434.953	90.38
435.175	78.38
435.397	88.38
435.618	87.38
435.84	95.38
436.062	90.38
436.284	93.38
436.505	80.38
436.727	86.38
436.949	81.38
437.17	91.38
437.392	100.38
437.614	81.38
437.835	102.38
438.057	120.38
438.278	89.38
438.5	83.38
438.721	90.38
438.943	87.38
439.165	81.38
439.386	76.38
439.608	88.38
439.829	96.38
440.05	108.38
440.272	130.38
440.493	86.38
440.715	95.38
440.936	67.38
441.158	89.38
441.379	92.38
441.6	84.38
441.822	76.38
442.043	82.38
442.264	101.38
442.486	86.38
442.707	87.38
442.928	105.38
443.149	110.38
443.371	120.38
443.592	97.38
443.813	97.38
444.034	93.38
444.255	82.38
444.476	89.38
444.698	59.38
444.919	83.38
445.14	128.38
445.361	112.38
445.582	98.38
445.803	100.38
446.024	107.38
446.245	122.38
446.466	101.38
446.687	96.38
446.908	83.38
447.129	92.38
447.35	89.38
447.571	102.38
447.792	101.38
448.013	113.38
448.234	104.38
448.455	89.38
448.675	87.38
448.896	97.38
449.117	99.38
449.338	88.38
449.559	91.38
449.779	89.38
450	69.38
450.221	83.38
450.442	90.38
450.662	98.38
450.883	97.38
451.104	115.38
451.324	92.38
451.545	96.38
451.766	82.38
451.986	81.38
452.207	91.38
452.428	90.38
452.648	96.38
452.869	104.38
453.089	109.38
453.31	113.38
453.53	82.38
453.751	87.38
453.971	100.38
454.192	114.38
454.412	94.38
454.633	81.38
454.853	65.38
455.073	75.38
455.294	79.38
455.514	73.38
455.734	83.38
455.955	75.38
456.175	86.38
456.395	99.38
456.616	95.38
456.836	81.38
457.056	76.38
457.276	88.38
457.497	71.38
457.717	84.38
457.937	78.38
458.157	80.38
458.377	79.38
458.598	106.38
458.818	153.38
459.038	150.38
459.258	120.38
459.478	91.38
459.698	83.38
459.918	85.38
460.138	78.38
460.358	88.38
460.578	89.38
460.798	93.38
461.018	82.38
461.238	81.38
461.458	72.38
461.678	80.38
461.898	84.38
462.118	92.38
462.338	71.38
462.558	72.38
462.777	67.38
462.997	75.38
463.217	88.38
463.437	84.38
463.657	86.38
463.876	88.38
464.096	93.38
464.316	79.38
464.536	85.38
464.755	89.38
464.975	95.38
465.195	159.38
465.414	153.38
465.634	82.38
465.854	89.38
466.073	83.38
466.293	76.38
466.512	75.38
466.732	84.38
466.951	94.38
467.171	98.38
467.391	85.38
467.61	108.38
467.829	94.38
468.049	77.38
468.268	82.38
468.488	78.38
468.707	86.38
468.927	83.38
469.146	80.38
469.365	90.38
469.585	79.38
469.804	90.38
470.023	87.38
470.243	98.38
470.462	97.38
470.681	105.38
470.901	90.38
471.12	103.38
471.339	81.38
471.558	103.38
471.777	88.38
471.997	83.38
472.216	78.38
472.435	86.38
472.654	96.38
472.873	98.38
473.092	72.38
473.311	72.38
473.53	99.38
473.749	94.38
473.968	89.38
474.187	91.38
474.406	83.38
474.625	85.38
474.844	93.38
475.063	89.38
475.282	88.38
475.501	86.38
475.72	87.38
475.939	90.38
476.158	72.38
476.377	87.38
476.596	77.38
476.814	83.38
477.033	94.38
477.252	82.38
477.471	74.38
477.69	86.38
477.908	71.38
478.127	71.38
478.346	90.38
478.564	81.38
478.783	106.38
479.002	98.38
479.22	84.38
479.439	107.38
479.658	93.38
479.876	89.38
480.095	74.38
480.313	81.38
480.532	85.38
480.751	93.38
480.969	74.38
481.188	118.38
481.406	98.38
481.624	96.38
481.843	82.38
482.061	85.38
482.28	68.38
482.498	90.38
482.717	84.38
482.935	84.38
483.153	91.38
483.372	105.38
483.59	85.38
483.808	86.38
484.027	78.38
484.245	90.38
484.463	90.38
484.681	89.38
484.9	81.38
485.118	96.38
485.336	78.38
485.554	72.38
485.772	88.38
485.99	86.38
486.209	77.38
486.427	82.38
486.645	104.38
486.863	93.38
487.081	107.38
487.299	99.38
487.517	79.38
487.735	78.38
487.953	79.38
488.171	83.38
488.389	83.38
488.607	91.38
488.825	96.38
489.043	82.38
489.261	103.38
489.479	82.38
489.696	94.38
489.914	91.38
490.132	81.38
490.35	86.38
490.568	88.38
490.786	106.38
491.003	85.38
491.221	93.38
491.439	83.38
491.657	88.38
491.874	90.38
492.092	85.38
492.31	84.38
492.527	94.38
492.745	89.38
492.963	84.38
493.18	81.38
493.398	79.38
493.615	83.38
493.833	80.38
494.05	80.38
494.268	86.38
494.485	79.38
494.703	81.38
494.92	91.38
495.138	83.38
495.355	90.38
495.573	78.38
495.79	78.38
496.008	91.38
496.225	89.38
496.442	86.38
496.66	83.38
496.877	74.38
497.094	102.38
497.312	86.38
497.529	91.38
497.746	90.38
497.963	96.38
498.181	80.38
498.398	86.38
498.615	105.38
498.832	104.38
499.049	96.38
499.267	93.38
499.484	84.38
499.701	98.38
499.918	87.38
500.135	88.38
500.352	86.38
500.569	103.38
500.786	68.38
501.003	87.38
501.22	80.38
501.437	82.38
501.654	98.38
501.871	113.38
502.088	98.38
502.305	83.38
502.522	78.38
502.739	74.38
502.956	86.38
503.172	87.38
503.389	82.38
503.606	113.38
503.823	90.38
504.04	79.38
504.256	91.38
504.473	83.38
504.69	81.38
504.907	89.38
505.123	82.38
505.34	87.38
505.557	74.38
505.773	91.38
505.99	96.38
506.207	90.38
506.423	91.38
506.64	82.38
506.856	87.38
507.073	76.38
507.289	79.38
507.506	101.38
507.722	106.38
507.939	97.38
508.155	100.38
508.372	83.38
508.588	86.38
508.805	91.38
509.021	91.38
509.238	102.38
509.454	100.38
509.67	107.38
509.887	112.38
510.103	140.38
510.319	221.38
510.536	811.38
510.752	2698.38
510.968	741.38
511.184	166.38
511.401	110.38
511.617	107.38
511.833	84.38
512.049	78.38
512.265	86.38
512.481	97.38
512.698	81.38
512.914	103.38
513.13	99.38
513.346	97.38
513.562	90.38
513.778	101.38
513.994	94.38
514.21	107.38
514.426	108.38
514.642	122.38
514.858	117.38
515.074	155.38
515.29	499.38
515.506	1617.38
515.721	578.38
515.937	151.38
516.153	106.38
516.369	105.38
516.585	82.38
516.801	79.38
