Data from Circ_2003_H10_HRD10591_00092.txt Node
Date: Wed Jan 03 10:37:21 EST 2024
User: Yrep
Spectrometer: HR+D1059
Trigger mode: 1
Integration Time (sec): 1.000000E-1
Scans to average: 1
Electric dark correction enabled: true
Nonlinearity correction enabled: false
Boxcar width: 0
XAxis mode: Wavelengths
Number of Pixels in Spectrum: 2048
>>>>>Begin Spectral Data<<<<<
223.165	-11
223.4	-11
223.635	-11
223.869	-15
224.104	-9
224.338	-13
224.573	-26
224.808	-7
225.042	-16
225.277	7
225.511	-7
225.746	3
225.98	13
226.215	12
226.449	13
226.683	16
226.918	21
227.152	19
227.387	26
227.621	43
227.856	64
228.09	50
228.324	57
228.559	65
228.793	154
229.027	431
229.262	523
229.496	610
229.73	799
229.964	810
230.199	541
230.433	470
230.667	493
230.901	475
231.136	428
231.37	449
231.604	436
231.838	455
232.072	440
232.306	469
232.541	458
232.775	440
233.009	478
233.243	475
233.477	481
233.711	490
233.945	518
234.179	515
234.413	502
234.647	514
234.881	521
235.115	537
235.349	537
235.583	574
235.817	599
236.051	637
236.285	601
236.519	613
236.753	702
236.987	914
237.221	1371
237.455	1503
237.689	877
237.922	709
238.156	712
238.39	669
238.624	663
238.858	640
239.091	664
239.325	669
239.559	680
239.793	683
240.027	758
240.26	893
240.494	970
240.728	943
240.961	905
241.195	843
241.429	788
241.662	766
241.896	779
242.13	782
242.363	781
242.597	804
242.83	840
243.064	861
243.298	833
243.531	846
243.765	849
243.998	881
244.232	849
244.465	889
244.699	885
244.932	897
245.166	890
245.399	921
245.633	920
245.866	916
246.099	917
246.333	958
246.566	936
246.8	959
247.033	1011
247.266	1066
247.5	1089
247.733	1154
247.966	1149
248.2	1123
248.433	1172
248.666	1247
248.899	1374
249.133	1462
249.366	1461
249.599	1357
249.832	1279
250.066	1320
250.299	1500
250.532	1725
250.765	1862
250.998	1890
251.231	1752
251.465	1546
251.698	1462
251.931	1417
252.164	1398
252.397	1452
252.63	1492
252.863	1581
253.096	1693
253.329	1729
253.562	1641
253.795	1576
254.028	1550
254.261	1647
254.494	1831
254.727	2195
254.96	2275
255.193	2006
255.426	1859
255.659	1888
255.892	2194
256.124	2515
256.357	2372
256.59	2003
256.823	1770
257.056	1684
257.289	1665
257.521	1616
257.754	1594
257.987	1568
258.22	1590
258.452	1565
258.685	1549
258.918	1604
259.151	1634
259.383	1719
259.616	1755
259.849	1847
260.081	1956
260.314	2096
260.547	2003
260.779	1881
261.012	1777
261.244	1707
261.477	1649
261.71	1692
261.942	1792
262.175	1771
262.407	1761
262.64	1659
262.872	1646
263.105	1691
263.337	1622
263.57	1717
263.802	1686
264.035	1669
264.267	1686
264.499	1688
264.732	1674
264.964	1671
265.197	1738
265.429	1718
265.661	1696
265.894	1732
266.126	1764
266.358	1816
266.591	1842
266.823	1886
267.055	1899
267.287	1876
267.52	1869
267.752	1845
267.984	1882
268.216	1903
268.448	1924
268.681	1987
268.913	2143
269.145	2362
269.377	2395
269.609	2307
269.841	2272
270.073	2401
270.306	2642
270.538	2784
270.77	2679
271.002	2467
271.234	2482
271.466	2639
271.698	2775
271.93	2703
272.162	2766
272.394	2666
272.626	2493
272.858	2345
273.09	2293
273.322	2279
273.553	2238
273.785	2314
274.017	2239
274.249	2317
274.481	2279
274.713	2285
274.945	2320
275.176	2300
275.408	2321
275.64	2302
275.872	2309
276.104	2349
276.335	2345
276.567	2442
276.799	2637
277.031	2922
277.262	2982
277.494	2838
277.726	2640
277.957	2553
278.189	2508
278.421	2426
278.652	2430
278.884	2442
279.115	2427
279.347	2394
279.579	2449
279.81	2474
280.042	2458
280.273	2497
280.505	2526
280.736	2522
280.968	2476
281.199	2478
281.431	2521
281.662	2506
281.894	2534
282.125	2589
282.356	2757
282.588	2902
282.819	2730
283.051	2638
283.282	2545
283.513	2614
283.745	2673
283.976	2709
284.207	2666
284.439	2642
284.67	2670
284.901	2660
285.132	2654
285.364	2629
285.595	2687
285.826	2709
286.057	2695
286.288	2743
286.52	2743
286.751	2733
286.982	2792
287.213	2728
287.444	2813
287.675	2874
287.906	2936
288.138	2954
288.369	2901
288.6	2977
288.831	2938
289.062	2918
289.293	2854
289.524	2888
289.755	2851
289.986	2849
290.217	2837
290.448	2901
290.679	2814
290.91	2819
291.141	2830
291.371	2889
291.602	2866
291.833	2850
292.064	2893
292.295	2853
292.526	2886
292.757	2850
292.987	2885
293.218	2808
293.449	2920
293.68	2895
293.91	2895
294.141	2871
294.372	2853
294.603	2903
294.833	2922
295.064	2918
295.295	2951
295.525	2920
295.756	3018
295.987	3070
296.217	3260
296.448	3206
296.679	3063
296.909	2991
297.14	3001
297.37	3051
297.601	3046
297.831	3094
298.062	3102
298.292	3123
298.523	3158
298.753	3175
298.984	3154
299.214	3167
299.445	3124
299.675	3138
299.905	3236
300.136	3206
300.366	3201
300.597	3301
300.827	3321
301.057	3402
301.288	3483
301.518	3398
301.748	3383
301.979	3474
302.209	3463
302.439	3456
302.669	3354
302.9	3437
303.13	3373
303.36	3404
303.59	3423
303.82	3503
304.051	3412
304.281	3399
304.511	3303
304.741	3343
304.971	3362
305.201	3277
305.431	3332
305.661	3343
305.891	3320
306.121	3315
306.352	3403
306.582	3373
306.812	3292
307.042	3363
307.272	3359
307.502	3358
307.731	3374
307.961	3360
308.191	3376
308.421	3371
308.651	3347
308.881	3369
309.111	3479
309.341	3411
309.571	3518
309.8	3585
310.03	3668
310.26	3699
310.49	3728
310.72	3848
310.949	3922
311.179	3863
311.409	3707
311.639	3724
311.868	3747
312.098	3786
312.328	3873
312.557	4067
312.787	4102
313.017	3963
313.246	3919
313.476	3823
313.706	3866
313.935	3999
314.165	4022
314.394	4104
314.624	4030
314.853	3916
315.083	3897
315.312	3811
315.542	3776
315.771	3763
316.001	3704
316.23	3749
316.46	3778
316.689	3806
316.919	3874
317.148	3924
317.377	3883
317.607	3769
317.836	3750
318.065	3769
318.295	3826
318.524	3754
318.753	3759
318.983	3794
319.212	3714
319.441	3869
319.67	3884
319.9	3800
320.129	3767
320.358	3776
320.587	3864
320.816	3929
321.046	4043
321.275	3898
321.504	3955
321.733	3983
321.962	4067
322.191	4178
322.42	4256
322.649	4345
322.878	4361
323.108	4487
323.337	4714
323.566	4879
323.795	5178
324.024	5887
324.253	7801
324.482	11702
324.71	15611
324.939	15611
325.168	13613
325.397	6819
325.626	5446
325.855	5087
326.084	5025
326.313	4999
326.542	5230
326.77	5933
326.999	7514
327.228	11034
327.457	14867
327.686	14248
327.914	7977
328.143	6655
328.372	6410
328.6	5918
328.829	5780
329.058	5909
329.287	5853
329.515	5555
329.744	5578
329.972	6020
330.201	6707
330.43	7252
330.658	6672
330.887	6474
331.115	5925
331.344	5366
331.572	5200
331.801	5354
332.03	5310
332.258	5277
332.486	5288
332.715	5424
332.943	5595
333.172	5744
333.4	5973
333.629	6148
333.857	6520
334.085	6861
334.314	7647
334.542	8461
334.771	8069
334.999	6521
335.227	5939
335.455	5585
335.684	5460
335.912	5361
336.14	5183
336.369	5201
336.597	5197
336.825	5169
337.053	5042
337.281	5026
337.51	4943
337.738	4942
337.966	4873
338.194	4878
338.422	4807
338.65	4709
338.878	4778
339.106	4695
339.334	4591
339.562	4579
339.79	4537
340.018	4495
340.246	4533
340.474	4633
340.702	4469
340.93	4511
341.158	4529
341.386	4599
341.614	4562
341.842	4484
342.07	4456
342.298	4401
342.526	4443
342.754	4391
342.981	4423
343.209	4545
343.437	4728
343.665	5058
343.893	5336
344.12	5282
344.348	5014
344.576	4931
344.804	4780
345.031	4771
345.259	4772
345.487	4612
345.714	4513
345.942	4401
346.17	4321
346.397	4309
346.625	4361
346.853	4315
347.08	4347
347.308	4362
347.535	4426
347.763	4441
347.99	4393
348.218	4403
348.445	4452
348.673	4400
348.9	4257
349.128	4228
349.355	4117
349.583	4239
349.81	4206
350.037	4234
350.265	4090
350.492	4127
350.72	4212
350.947	4206
351.174	4342
351.402	4347
351.629	4283
351.856	4338
352.083	4375
352.311	4349
352.538	4341
352.765	4332
352.992	4334
353.22	4252
353.447	4187
353.674	4111
353.901	4109
354.128	4072
354.355	4019
354.583	4127
354.81	4153
355.037	4107
355.264	4033
355.491	4057
355.718	4074
355.945	4082
356.172	4121
356.399	4061
356.626	4077
356.853	4042
357.08	4045
357.307	3981
357.534	4017
357.761	4070
357.988	4101
358.215	4086
358.441	4088
358.668	4170
358.895	4182
359.122	4121
359.349	4242
359.576	4384
359.802	4577
360.029	4793
360.256	4736
360.483	4578
360.709	4331
360.936	4326
361.163	4335
361.39	4344
361.616	4345
361.843	4276
362.07	4315
362.296	4351
362.523	4295
362.749	4308
362.976	4250
363.203	4258
363.429	4196
363.656	4171
363.882	4165
364.109	4130
364.335	4081
364.562	4102
364.788	4170
365.015	4173
365.241	4146
365.468	4202
365.694	4245
365.92	4225
366.147	4201
366.373	4158
366.599	4193
366.826	4074
367.052	4111
367.278	4195
367.505	4109
367.731	4185
367.957	4166
368.184	4294
368.41	4266
368.636	4441
368.862	4399
369.089	4303
369.315	4286
369.541	4205
369.767	4288
369.993	4301
370.219	4295
370.445	4259
370.672	4349
370.898	4305
371.124	4318
371.35	4413
371.576	4330
371.802	4404
372.028	4387
372.254	4367
372.48	4413
372.706	4497
372.932	4655
373.158	4543
373.384	4488
373.61	4390
373.835	4436
374.061	4498
374.287	4537
374.513	4592
374.739	4721
374.965	4754
375.191	4864
375.416	4797
375.642	4573
375.868	4607
376.094	4450
376.319	4483
376.545	4442
376.771	4432
376.997	4429
377.222	4377
377.448	4418
377.674	4403
377.899	4331
378.125	4365
378.35	4328
378.576	4353
378.802	4280
379.027	4369
379.253	4362
379.478	4352
379.704	4365
379.929	4357
380.155	4381
380.38	4395
380.606	4392
380.831	4331
381.057	4428
381.282	4365
381.507	4346
381.733	4537
381.958	4527
382.184	4549
382.409	4618
382.634	4678
382.86	4630
383.085	4672
383.31	4761
383.535	4824
383.761	4888
383.986	5005
384.211	5017
384.436	5099
384.662	5189
384.887	5243
385.112	5249
385.337	5322
385.562	5298
385.787	5327
386.013	5377
386.238	5441
386.463	5371
386.688	5380
386.913	5257
387.138	5274
387.363	5299
387.588	5243
387.813	5246
388.038	5291
388.263	5225
388.488	5295
388.713	5317
388.938	5218
389.163	5198
389.387	5211
389.612	5108
389.837	5121
390.062	5157
390.287	5146
390.512	5185
390.736	5249
390.961	5348
391.186	5386
391.411	5561
391.636	5676
391.86	5939
392.085	5951
392.31	5875
392.534	5690
392.759	5565
392.984	5541
393.208	5486
393.433	5434
393.658	5472
393.882	5471
394.107	5472
394.331	5530
394.556	5471
394.78	5613
395.005	5625
395.229	5695
395.454	5782
395.678	5933
395.903	5899
396.127	5930
396.352	5866
396.576	5627
396.801	5551
397.025	5692
397.249	5809
397.474	5968
397.698	5911
397.922	6015
398.147	6178
398.371	6335
398.595	6392
398.82	6658
399.044	7357
399.268	8058
399.492	9165
399.717	9787
399.941	9441
400.165	8860
400.389	8218
400.613	7362
400.837	6951
401.062	6858
401.286	6646
401.51	6679
401.734	6657
401.958	6719
402.182	6954
402.406	7080
402.63	7001
402.854	7152
403.078	7155
403.302	7325
403.526	7494
403.75	7519
403.974	7683
404.198	7605
404.422	7736
404.645	7670
404.869	7727
405.093	8237
405.317	8592
405.541	8463
405.765	7823
405.988	7546
406.212	7701
406.436	7785
406.66	8008
406.883	7889
407.107	8522
407.331	9050
407.555	9577
407.778	9193
408.002	8473
408.226	8012
408.449	7967
408.673	7823
408.896	7999
409.12	8184
409.344	7579
409.567	7311
409.791	7254
410.014	7203
410.238	7187
410.461	7164
410.685	7222
410.908	7320
411.132	7522
411.355	7535
411.578	7252
411.802	7023
412.025	7077
412.249	7430
412.472	7834
412.695	8221
412.919	7532
413.142	7040
413.365	7009
413.589	6894
413.812	6606
414.035	6590
414.258	6600
414.482	6635
414.705	6587
414.928	6503
415.151	6527
415.374	6576
415.597	6570
415.821	6415
416.044	6485
416.267	6429
416.49	6373
416.713	6376
416.936	6488
417.159	6432
417.382	6577
417.605	6555
417.828	6770
418.051	6853
418.274	6669
418.497	6634
418.72	6733
418.943	6695
419.166	6981
419.389	7378
419.611	7406
419.834	7201
420.057	7241
420.28	7263
420.503	7072
420.726	6994
420.948	6938
421.171	7373
421.394	7280
421.617	6751
421.839	6683
422.062	6797
422.285	6957
422.507	7571
422.73	8051
422.953	7438
423.175	7172
423.398	7245
423.621	7215
423.843	7493
424.066	7295
424.288	7279
424.511	7492
424.733	7953
424.956	8407
425.178	7825
425.401	7984
425.623	7857
425.846	6951
426.068	6759
426.291	6694
426.513	6652
426.735	6859
426.958	7255
427.18	8072
427.402	9264
427.625	9483
427.847	8376
428.069	7751
428.292	6892
428.514	6353
428.736	6156
428.958	6196
429.181	6049
429.403	5990
429.625	6174
429.847	6476
430.069	7026
430.292	6469
430.514	5960
430.736	5969
430.958	5880
431.18	5839
431.402	5762
431.624	5781
431.846	5894
432.068	5788
432.29	5925
432.512	5782
432.734	5967
432.956	5901
433.178	5948
433.4	6021
433.622	5870
433.844	5902
434.066	5869
434.287	6039
434.509	6221
434.731	6389
434.953	6587
435.175	6726
435.397	6841
435.618	6748
435.84	7203
436.062	7987
436.284	7939
436.505	6696
436.727	6322
436.949	6115
437.17	6023
437.392	5960
437.614	6146
437.835	6483
438.057	7512
438.278	8224
438.5	8049
438.721	8929
438.943	7779
439.165	6514
439.386	6359
439.608	6377
439.829	6531
440.05	6876
440.272	7293
440.493	6618
440.715	6342
440.936	6221
441.158	6257
441.379	6414
441.6	6728
441.822	6971
442.043	7453
442.264	8312
442.486	7835
442.707	7013
442.928	6922
443.149	7174
443.371	7298
443.592	7870
443.813	8825
444.034	8811
444.255	7637
444.476	7480
444.698	7713
444.919	7765
445.14	7590
445.361	7421
445.582	7629
445.803	8187
446.024	8940
446.245	8486
446.466	7549
446.687	6542
446.908	6172
447.129	5999
447.35	5832
447.571	5741
447.792	5585
448.013	5750
448.234	5953
448.455	6709
448.675	7844
448.896	8403
449.117	6839
449.338	7153
449.559	8475
449.779	8563
450	6638
450.221	6000
450.442	5643
450.662	5591
450.883	5671
451.104	5774
451.324	5650
451.545	5449
451.766	5266
451.986	5127
452.207	5133
452.428	5119
452.648	5175
452.869	5209
453.089	5312
453.31	5410
453.53	5160
453.751	5167
453.971	5178
454.192	5324
454.412	5077
454.633	5057
454.853	5003
455.073	5025
455.294	5470
455.514	6071
455.734	5498
455.955	4902
456.175	4867
456.395	4777
456.616	4673
456.836	4716
457.056	4784
457.276	4673
457.497	4852
457.717	4877
457.937	4864
458.157	4980
458.377	5074
458.598	5424
458.818	6234
459.038	7060
459.258	6818
459.478	6081
459.698	5986
459.918	5974
460.138	6177
460.358	6372
460.578	6352
460.798	6532
461.018	6589
461.238	6363
461.458	6337
461.678	6349
461.898	6477
462.118	6500
462.338	6880
462.558	6994
462.777	7262
462.997	7848
463.217	8330
463.437	8082
463.657	7524
463.876	7292
464.096	7373
464.316	7365
464.536	7345
464.755	7142
464.975	7135
465.195	7222
465.414	7400
465.634	6401
465.854	6014
466.073	5794
466.293	5621
466.512	5434
466.732	5390
466.951	5347
467.171	5420
467.391	5432
467.61	5467
467.829	5562
468.049	5641
468.268	5778
468.488	5423
468.707	5233
468.927	5222
469.146	5187
469.365	5246
469.585	5250
469.804	5471
470.023	5677
470.243	5617
470.462	5713
470.681	5799
470.901	5712
471.12	5563
471.339	5473
471.558	5397
471.777	5431
471.997	5515
472.216	5870
472.435	6944
472.654	6039
472.873	5499
473.092	5398
473.311	5329
473.53	5243
473.749	5425
473.968	5965
474.187	6993
474.406	6481
474.625	5568
474.844	5279
475.063	5189
475.282	5233
475.501	5252
475.72	5295
475.939	5342
476.158	5338
476.377	5427
476.596	5304
476.814	5555
477.033	5542
477.252	5696
477.471	5743
477.69	5874
477.908	5947
478.127	6051
478.346	6196
478.564	6268
478.783	6355
479.002	6472
479.22	6475
479.439	6633
479.658	6890
479.876	6865
480.095	7125
480.313	7487
480.532	7425
480.751	7412
480.969	7877
481.188	9755
481.406	9587
481.624	7642
481.843	7079
482.061	6739
482.28	6533
482.498	6337
482.717	6218
482.935	6181
483.153	6235
483.372	6164
483.59	6166
483.808	6145
484.027	6219
484.245	6215
484.463	6219
484.681	6337
484.9	6282
485.118	6438
485.336	6390
485.554	6525
485.772	6488
485.99	6536
486.209	6573
486.427	6575
486.645	6670
486.863	6717
487.081	6638
487.299	6673
487.517	6657
487.735	6580
487.953	6515
488.171	6651
488.389	6616
488.607	6672
488.825	6707
489.043	6680
489.261	6718
489.479	6816
489.696	6860
489.914	6877
490.132	7020
490.35	7182
490.568	7138
490.786	7338
491.003	7478
491.221	7644
491.439	7807
491.657	7947
491.874	7925
492.092	8024
492.31	8071
492.527	8232
492.745	8198
492.963	8304
493.18	8261
493.398	8377
493.615	8361
493.833	8261
494.05	8247
494.268	8242
494.485	8125
494.703	8195
494.92	8160
495.138	8033
495.355	8006
495.573	8113
495.79	8017
496.008	8083
496.225	8127
496.442	7947
496.66	8127
496.877	8077
497.094	8159
497.312	8298
497.529	8448
497.746	8673
497.963	8846
498.181	9215
498.398	9498
498.615	9829
498.832	10433
499.049	10817
499.267	11511
499.484	12205
499.701	12972
499.918	13671
500.135	14536
500.352	15039
500.569	15170
500.786	15079
501.003	14631
501.22	14018
501.437	13346
501.654	12543
501.871	11873
502.088	11153
502.305	10467
502.522	10000
502.739	9697
502.956	9118
503.172	8871
503.389	8607
503.606	8533
503.823	8441
504.04	8348
504.256	8359
504.473	8446
504.69	8518
504.907	8345
505.123	8009
505.34	7697
505.557	7593
505.773	7459
505.99	7353
506.207	7237
506.423	7244
506.64	7150
506.856	6952
507.073	6973
507.289	6881
507.506	6856
507.722	6988
507.939	7003
508.155	6676
508.372	6693
508.588	6579
508.805	6521
509.021	6676
509.238	6830
509.454	6776
509.67	6642
509.887	6538
510.103	6469
510.319	6659
510.536	7987
510.752	11919
510.968	7882
511.184	6354
511.401	6361
511.617	6387
511.833	6556
512.049	6459
512.265	6429
512.481	6360
512.698	6254
512.914	6202
513.13	6217
513.346	6095
513.562	6116
513.778	6088
513.994	6245
514.21	6316
514.426	6501
514.642	6874
514.858	6963
515.074	7462
515.29	8953
515.506	11930
515.721	8674
515.937	7127
516.153	6946
516.369	6829
516.585	6988
516.801	7049
517.016	7176
517.232	7464
517.448	7626
517.664	7755
517.879	7717
518.095	7705
518.311	7520
518.527	7311
518.742	6977
518.958	6773
519.173	6644
519.389	6544
519.605	6502
519.82	6341
520.036	6471
520.251	6527
520.467	6638
520.682	6613
520.898	6643
521.113	6737
521.329	7050
521.544	7786
521.76	9970
521.975	14424
522.19	11623
522.406	7485
522.621	6339
522.836	5956
523.052	5724
523.267	5631
523.482	5525
523.698	5489
523.913	5406
524.128	5294
524.343	5266
524.559	5193
524.774	5165
524.989	5126
525.204	5202
525.419	5228
525.634	5083
525.849	5073
526.064	4972
526.28	4955
526.495	4948
526.71	4863
526.925	4866
527.14	4935
527.355	4946
527.57	4877
527.785	4903
527.999	4901
528.214	4886
528.429	4887
528.644	4917
528.859	4874
529.074	4933
529.289	5110
529.503	5757
529.718	5395
529.933	5069
530.148	5050
530.363	4928
530.577	4913
530.792	4836
531.007	4816
531.221	4878
531.436	4839
531.651	4807
531.865	4816
532.08	4805
532.295	4774
532.509	4697
532.724	4753
532.938	4834
533.153	4750
533.367	4744
533.582	4772
533.796	4762
534.011	4779
534.225	4709
534.44	4690
534.654	4586
534.868	4644
535.083	4680
535.297	4657
535.511	4685
535.726	4686
535.94	4735
536.154	4626
536.369	4580
536.583	4470
536.797	4454
537.011	4461
537.225	4487
537.44	4404
537.654	4478
537.868	4401
538.082	4405
538.296	4449
538.51	4397
538.724	4444
538.938	4342
539.153	4409
539.367	4397
539.581	4433
539.795	4266
540.009	4321
540.222	4320
540.436	4416
540.65	4379
540.864	4408
541.078	4392
541.292	4371
541.506	4309
541.72	4257
541.934	4200
542.147	4239
