Data from Circ_2003_H10_HRD10591_00072.txt Node
Date: Wed Jan 03 10:37:17 EST 2024
User: Yrep
Spectrometer: HR+D1059
Trigger mode: 1
Integration Time (sec): 1.000000E-1
Scans to average: 1
Electric dark correction enabled: true
Nonlinearity correction enabled: false
Boxcar width: 0
XAxis mode: Wavelengths
Number of Pixels in Spectrum: 2048
>>>>>Begin Spectral Data<<<<<
223.165	-12.69
223.4	-12.69
223.635	-12.69
223.869	-12.69
224.104	-15.69
224.338	-9.69
224.573	-19.69
224.808	-5.69
225.042	-16.69
225.277	-9.69
225.511	-5.69
225.746	6.31
225.98	9.31
226.215	10.31
226.449	13.31
226.683	17.31
226.918	31.31
227.152	20.31
227.387	27.31
227.621	24.31
227.856	37.31
228.09	49.31
228.324	41.31
228.559	56.31
228.793	39.31
229.027	54.31
229.262	71.31
229.496	69.31
229.73	74.31
229.964	75.31
230.199	71.31
230.433	85.31
230.667	76.31
230.901	71.31
231.136	71.31
231.37	56.31
231.604	68.31
231.838	72.31
232.072	70.31
232.306	97.31
232.541	61.31
232.775	63.31
233.009	69.31
233.243	71.31
233.477	83.31
233.711	85.31
233.945	75.31
234.179	76.31
234.413	73.31
234.647	76.31
234.881	61.31
235.115	78.31
235.349	77.31
235.583	82.31
235.817	76.31
236.051	60.31
236.285	70.31
236.519	70.31
236.753	59.31
236.987	77.31
237.221	81.31
237.455	74.31
237.689	70.31
237.922	88.31
238.156	77.31
238.39	79.31
238.624	73.31
238.858	61.31
239.091	78.31
239.325	68.31
239.559	81.31
239.793	77.31
240.027	69.31
240.26	66.31
240.494	66.31
240.728	75.31
240.961	64.31
241.195	85.31
241.429	76.31
241.662	74.31
241.896	70.31
242.13	75.31
242.363	82.31
242.597	63.31
242.83	53.31
243.064	77.31
243.298	62.31
243.531	74.31
243.765	63.31
243.998	70.31
244.232	64.31
244.465	73.31
244.699	74.31
244.932	73.31
245.166	70.31
245.399	78.31
245.633	71.31
245.866	82.31
246.099	66.31
246.333	75.31
246.566	76.31
246.8	84.31
247.033	89.31
247.266	81.31
247.5	79.31
247.733	67.31
247.966	74.31
248.2	68.31
248.433	65.31
248.666	83.31
248.899	79.31
249.133	82.31
249.366	88.31
249.599	90.31
249.832	70.31
250.066	84.31
250.299	68.31
250.532	68.31
250.765	71.31
250.998	74.31
251.231	64.31
251.465	96.31
251.698	84.31
251.931	82.31
252.164	76.31
252.397	67.31
252.63	71.31
252.863	77.31
253.096	58.31
253.329	80.31
253.562	68.31
253.795	67.31
254.028	69.31
254.261	76.31
254.494	74.31
254.727	80.31
254.96	74.31
255.193	81.31
255.426	67.31
255.659	88.31
255.892	82.31
256.124	66.31
256.357	69.31
256.59	81.31
256.823	76.31
257.056	79.31
257.289	85.31
257.521	71.31
257.754	78.31
257.987	72.31
258.22	73.31
258.452	83.31
258.685	65.31
258.918	81.31
259.151	88.31
259.383	63.31
259.616	78.31
259.849	69.31
260.081	78.31
260.314	70.31
260.547	81.31
260.779	70.31
261.012	79.31
261.244	74.31
261.477	95.31
261.71	81.31
261.942	103.31
262.175	119.31
262.407	85.31
262.64	79.31
262.872	82.31
263.105	72.31
263.337	74.31
263.57	72.31
263.802	87.31
264.035	81.31
264.267	87.31
264.499	81.31
264.732	85.31
264.964	78.31
265.197	79.31
265.429	81.31
265.661	79.31
265.894	87.31
266.126	75.31
266.358	78.31
266.591	79.31
266.823	72.31
267.055	81.31
267.287	87.31
267.52	80.31
267.752	82.31
267.984	87.31
268.216	78.31
268.448	93.31
268.681	86.31
268.913	94.31
269.145	90.31
269.377	90.31
269.609	80.31
269.841	84.31
270.073	83.31
270.306	86.31
270.538	78.31
270.77	80.31
271.002	81.31
271.234	86.31
271.466	85.31
271.698	82.31
271.93	98.31
272.162	88.31
272.394	87.31
272.626	81.31
272.858	93.31
273.09	76.31
273.322	90.31
273.553	81.31
273.785	81.31
274.017	76.31
274.249	79.31
274.481	85.31
274.713	80.31
274.945	75.31
275.176	81.31
275.408	82.31
275.64	80.31
275.872	85.31
276.104	95.31
276.335	98.31
276.567	99.31
276.799	106.31
277.031	94.31
277.262	75.31
277.494	85.31
277.726	82.31
277.957	85.31
278.189	87.31
278.421	101.31
278.652	75.31
278.884	82.31
279.115	78.31
279.347	71.31
279.579	88.31
279.81	93.31
280.042	92.31
280.273	94.31
280.505	91.31
280.736	76.31
280.968	71.31
281.199	88.31
281.431	96.31
281.662	99.31
281.894	83.31
282.125	100.31
282.356	110.31
282.588	123.31
282.819	99.31
283.051	78.31
283.282	84.31
283.513	88.31
283.745	79.31
283.976	82.31
284.207	85.31
284.439	92.31
284.67	98.31
284.901	85.31
285.132	84.31
285.364	88.31
285.595	80.31
285.826	89.31
286.057	92.31
286.288	91.31
286.52	78.31
286.751	96.31
286.982	88.31
287.213	85.31
287.444	79.31
287.675	79.31
287.906	92.31
288.138	95.31
288.369	92.31
288.6	86.31
288.831	73.31
289.062	87.31
289.293	99.31
289.524	86.31
289.755	84.31
289.986	91.31
290.217	96.31
290.448	84.31
290.679	83.31
290.91	94.31
291.141	84.31
291.371	97.31
291.602	91.31
291.833	74.31
292.064	85.31
292.295	84.31
292.526	85.31
292.757	72.31
292.987	69.31
293.218	76.31
293.449	89.31
293.68	95.31
293.91	85.31
294.141	88.31
294.372	94.31
294.603	97.31
294.833	96.31
295.064	106.31
295.295	92.31
295.525	92.31
295.756	85.31
295.987	100.31
296.217	125.31
296.448	107.31
296.679	87.31
296.909	87.31
297.14	101.31
297.37	68.31
297.601	93.31
297.831	91.31
298.062	84.31
298.292	86.31
298.523	67.31
298.753	86.31
298.984	82.31
299.214	85.31
299.445	86.31
299.675	87.31
299.905	92.31
300.136	94.31
300.366	83.31
300.597	85.31
300.827	67.31
301.057	80.31
301.288	87.31
301.518	86.31
301.748	85.31
301.979	95.31
302.209	90.31
302.439	87.31
302.669	82.31
302.9	86.31
303.13	90.31
303.36	80.31
303.59	96.31
303.82	88.31
304.051	104.31
304.281	104.31
304.511	70.31
304.741	82.31
304.971	71.31
305.201	81.31
305.431	73.31
305.661	77.31
305.891	106.31
306.121	101.31
306.352	105.31
306.582	102.31
306.812	104.31
307.042	80.31
307.272	86.31
307.502	93.31
307.731	110.31
307.961	79.31
308.191	82.31
308.421	96.31
308.651	88.31
308.881	87.31
309.111	85.31
309.341	79.31
309.571	92.31
309.8	84.31
310.03	78.31
310.26	87.31
310.49	95.31
310.72	87.31
310.949	87.31
311.179	92.31
311.409	89.31
311.639	78.31
311.868	86.31
312.098	92.31
312.328	88.31
312.557	89.31
312.787	91.31
313.017	83.31
313.246	102.31
313.476	85.31
313.706	94.31
313.935	96.31
314.165	97.31
314.394	85.31
314.624	86.31
314.853	89.31
315.083	96.31
315.312	86.31
315.542	96.31
315.771	90.31
316.001	86.31
316.23	75.31
316.46	87.31
316.689	80.31
316.919	81.31
317.148	96.31
317.377	96.31
317.607	87.31
317.836	84.31
318.065	88.31
318.295	103.31
318.524	101.31
318.753	90.31
318.983	98.31
319.212	86.31
319.441	94.31
319.67	100.31
319.9	90.31
320.129	90.31
320.358	84.31
320.587	89.31
320.816	94.31
321.046	87.31
321.275	82.31
321.504	86.31
321.733	92.31
321.962	107.31
322.191	106.31
322.42	95.31
322.649	96.31
322.878	102.31
323.108	100.31
323.337	123.31
323.566	109.31
323.795	142.31
324.024	195.31
324.253	359.31
324.482	754.31
324.71	1523.31
324.939	2010.31
325.168	740.31
325.397	220.31
325.626	126.31
325.855	110.31
326.084	124.31
326.313	129.31
326.542	150.31
326.77	212.31
326.999	438.31
327.228	910.31
327.457	1617.31
327.686	1284.31
327.914	337.31
328.143	177.31
328.372	162.31
328.6	123.31
328.829	118.31
329.058	122.31
329.287	103.31
329.515	89.31
329.744	115.31
329.972	105.31
330.201	126.31
330.43	166.31
330.658	129.31
330.887	126.31
331.115	108.31
331.344	90.31
331.572	101.31
331.801	110.31
332.03	101.31
332.258	99.31
332.486	103.31
332.715	92.31
332.943	92.31
333.172	101.31
333.4	106.31
333.629	107.31
333.857	124.31
334.085	123.31
334.314	139.31
334.542	168.31
334.771	181.31
334.999	96.31
335.227	91.31
335.455	87.31
335.684	101.31
335.912	101.31
336.14	100.31
336.369	79.31
336.597	105.31
336.825	106.31
337.053	94.31
337.281	86.31
337.51	97.31
337.738	85.31
337.966	74.31
338.194	101.31
338.422	87.31
338.65	82.31
338.878	82.31
339.106	56.31
339.334	86.31
339.562	90.31
339.79	94.31
340.018	85.31
340.246	90.31
340.474	96.31
340.702	83.31
340.93	96.31
341.158	89.31
341.386	94.31
341.614	78.31
341.842	93.31
342.07	82.31
342.298	84.31
342.526	94.31
342.754	89.31
342.981	74.31
343.209	98.31
343.437	92.31
343.665	92.31
343.893	80.31
344.12	95.31
344.348	86.31
344.576	98.31
344.804	85.31
345.031	88.31
345.259	102.31
345.487	98.31
345.714	88.31
345.942	84.31
346.17	84.31
346.397	98.31
346.625	88.31
346.853	85.31
347.08	89.31
347.308	93.31
347.535	100.31
347.763	96.31
347.99	102.31
348.218	93.31
348.445	91.31
348.673	94.31
348.9	86.31
349.128	91.31
349.355	81.31
349.583	82.31
349.81	103.31
350.037	107.31
350.265	95.31
350.492	94.31
350.72	92.31
350.947	100.31
351.174	95.31
351.402	99.31
351.629	106.31
351.856	78.31
352.083	97.31
352.311	101.31
352.538	109.31
352.765	102.31
352.992	90.31
353.22	98.31
353.447	115.31
353.674	96.31
353.901	94.31
354.128	100.31
354.355	84.31
354.583	88.31
354.81	112.31
355.037	92.31
355.264	83.31
355.491	102.31
355.718	92.31
355.945	89.31
356.172	100.31
356.399	86.31
356.626	74.31
356.853	71.31
357.08	96.31
357.307	92.31
357.534	91.31
357.761	87.31
357.988	92.31
358.215	104.31
358.441	94.31
358.668	94.31
358.895	71.31
359.122	83.31
359.349	94.31
359.576	101.31
359.802	88.31
360.029	101.31
360.256	94.31
360.483	97.31
360.709	70.31
360.936	82.31
361.163	84.31
361.39	102.31
361.616	88.31
361.843	91.31
362.07	84.31
362.296	86.31
362.523	95.31
362.749	74.31
362.976	82.31
363.203	94.31
363.429	99.31
363.656	73.31
363.882	93.31
364.109	73.31
364.335	96.31
364.562	97.31
364.788	92.31
365.015	89.31
365.241	89.31
365.468	106.31
365.694	115.31
365.92	93.31
366.147	98.31
366.373	79.31
366.599	79.31
366.826	89.31
367.052	76.31
367.278	76.31
367.505	100.31
367.731	100.31
367.957	93.31
368.184	83.31
368.41	98.31
368.636	92.31
368.862	104.31
369.089	101.31
369.315	86.31
369.541	92.31
369.767	83.31
369.993	84.31
370.219	87.31
370.445	70.31
370.672	89.31
370.898	92.31
371.124	91.31
371.35	91.31
371.576	83.31
371.802	67.31
372.028	83.31
372.254	89.31
372.48	82.31
372.706	84.31
372.932	81.31
373.158	80.31
373.384	86.31
373.61	89.31
373.835	81.31
374.061	94.31
374.287	86.31
374.513	87.31
374.739	86.31
374.965	92.31
375.191	69.31
375.416	96.31
375.642	83.31
375.868	107.31
376.094	83.31
376.319	82.31
376.545	85.31
376.771	84.31
376.997	85.31
377.222	89.31
377.448	92.31
377.674	92.31
377.899	93.31
378.125	80.31
378.35	94.31
378.576	94.31
378.802	75.31
379.027	96.31
379.253	82.31
379.478	76.31
379.704	91.31
379.929	87.31
380.155	92.31
380.38	95.31
380.606	96.31
380.831	91.31
381.057	109.31
381.282	90.31
381.507	98.31
381.733	95.31
381.958	96.31
382.184	84.31
382.409	88.31
382.634	101.31
382.86	100.31
383.085	91.31
383.31	88.31
383.535	92.31
383.761	104.31
383.986	107.31
384.211	88.31
384.436	107.31
384.662	84.31
384.887	91.31
385.112	96.31
385.337	98.31
385.562	100.31
385.787	101.31
386.013	108.31
386.238	106.31
386.463	104.31
386.688	106.31
386.913	125.31
387.138	111.31
387.363	103.31
387.588	99.31
387.813	84.31
388.038	94.31
388.263	107.31
388.488	99.31
388.713	83.31
388.938	91.31
389.163	96.31
389.387	112.31
389.612	87.31
389.837	85.31
390.062	102.31
390.287	88.31
390.512	94.31
390.736	94.31
390.961	86.31
391.186	101.31
391.411	83.31
391.636	76.31
391.86	85.31
392.085	71.31
392.31	85.31
392.534	85.31
392.759	78.31
392.984	78.31
393.208	81.31
393.433	99.31
393.658	87.31
393.882	83.31
394.107	80.31
394.331	91.31
394.556	92.31
394.78	87.31
395.005	93.31
395.229	84.31
395.454	90.31
395.678	76.31
395.903	78.31
396.127	75.31
396.352	57.31
396.576	77.31
396.801	95.31
397.025	74.31
397.249	84.31
397.474	81.31
397.698	77.31
397.922	78.31
398.147	83.31
398.371	89.31
398.595	84.31
398.82	75.31
399.044	72.31
399.268	78.31
399.492	92.31
399.717	97.31
399.941	80.31
400.165	88.31
400.389	86.31
400.613	78.31
400.837	79.31
401.062	94.31
401.286	78.31
401.51	73.31
401.734	90.31
401.958	106.31
402.182	107.31
402.406	129.31
402.63	100.31
402.854	77.31
403.078	86.31
403.302	83.31
403.526	91.31
403.75	87.31
403.974	87.31
404.198	83.31
404.422	91.31
404.645	79.31
404.869	87.31
405.093	75.31
405.317	85.31
405.541	91.31
405.765	93.31
405.988	102.31
406.212	148.31
406.436	200.31
406.66	129.31
406.883	102.31
407.107	77.31
407.331	80.31
407.555	85.31
407.778	85.31
408.002	92.31
408.226	81.31
408.449	99.31
408.673	76.31
408.896	86.31
409.12	95.31
409.344	73.31
409.567	97.31
409.791	82.31
410.014	95.31
410.238	94.31
410.461	83.31
410.685	94.31
410.908	96.31
411.132	86.31
411.355	102.31
411.578	87.31
411.802	93.31
412.025	79.31
412.249	74.31
412.472	80.31
412.695	83.31
412.919	83.31
413.142	83.31
413.365	78.31
413.589	80.31
413.812	89.31
414.035	93.31
414.258	92.31
414.482	82.31
414.705	83.31
414.928	90.31
415.151	78.31
415.374	97.31
415.597	74.31
415.821	83.31
416.044	88.31
416.267	89.31
416.49	82.31
416.713	64.31
416.936	77.31
417.159	85.31
417.382	75.31
417.605	100.31
417.828	85.31
418.051	88.31
418.274	80.31
418.497	83.31
418.72	83.31
418.943	86.31
419.166	66.31
419.389	96.31
419.611	83.31
419.834	78.31
420.057	78.31
420.28	84.31
420.503	93.31
420.726	89.31
420.948	86.31
421.171	87.31
421.394	79.31
421.617	77.31
421.839	81.31
422.062	83.31
422.285	78.31
422.507	78.31
422.73	88.31
422.953	95.31
423.175	69.31
423.398	78.31
423.621	81.31
423.843	73.31
424.066	83.31
424.288	88.31
424.511	100.31
424.733	78.31
424.956	101.31
425.178	96.31
425.401	105.31
425.623	80.31
425.846	75.31
426.068	96.31
426.291	95.31
426.513	87.31
426.735	97.31
426.958	91.31
427.18	88.31
427.402	120.31
427.625	165.31
427.847	138.31
428.069	104.31
428.292	86.31
428.514	74.31
428.736	80.31
428.958	80.31
429.181	88.31
429.403	79.31
429.625	78.31
429.847	95.31
430.069	96.31
430.292	75.31
430.514	91.31
430.736	72.31
430.958	106.31
431.18	85.31
431.402	77.31
431.624	69.31
431.846	78.31
432.068	81.31
432.29	84.31
432.512	74.31
432.734	92.31
432.956	74.31
433.178	101.31
433.4	93.31
433.622	95.31
433.844	95.31
434.066	75.31
434.287	81.31
434.509	86.31
434.731	71.31
434.953	100.31
435.175	88.31
435.397	90.31
435.618	83.31
435.84	87.31
436.062	91.31
436.284	98.31
436.505	89.31
436.727	87.31
436.949	92.31
437.17	97.31
437.392	77.31
437.614	86.31
437.835	114.31
438.057	102.31
438.278	87.31
438.5	111.31
438.721	94.31
438.943	80.31
439.165	68.31
439.386	75.31
439.608	89.31
439.829	96.31
440.05	112.31
440.272	121.31
440.493	94.31
440.715	87.31
440.936	86.31
441.158	72.31
441.379	87.31
441.6	98.31
441.822	86.31
442.043	92.31
442.264	99.31
442.486	109.31
442.707	106.31
442.928	84.31
443.149	117.31
443.371	111.31
443.592	98.31
443.813	119.31
444.034	94.31
444.255	89.31
444.476	78.31
444.698	74.31
444.919	78.31
445.14	115.31
445.361	104.31
445.582	116.31
445.803	119.31
446.024	117.31
446.245	124.31
446.466	100.31
446.687	82.31
446.908	83.31
447.129	77.31
447.35	92.31
447.571	82.31
447.792	85.31
448.013	93.31
448.234	92.31
448.455	103.31
448.675	97.31
448.896	106.31
449.117	81.31
449.338	89.31
449.559	116.31
449.779	118.31
450	79.31
450.221	93.31
450.442	94.31
450.662	115.31
450.883	94.31
451.104	104.31
451.324	94.31
451.545	86.31
451.766	93.31
451.986	78.31
452.207	77.31
452.428	92.31
452.648	99.31
452.869	96.31
453.089	102.31
453.31	112.31
453.53	87.31
453.751	70.31
453.971	89.31
454.192	95.31
454.412	90.31
454.633	72.31
454.853	84.31
455.073	90.31
455.294	74.31
455.514	83.31
455.734	94.31
455.955	93.31
456.175	75.31
456.395	88.31
456.616	90.31
456.836	87.31
457.056	74.31
457.276	74.31
457.497	78.31
457.717	80.31
457.937	79.31
458.157	89.31
458.377	94.31
458.598	99.31
458.818	156.31
459.038	133.31
459.258	110.31
459.478	74.31
459.698	78.31
459.918	74.31
460.138	89.31
460.358	77.31
460.578	73.31
460.798	85.31
461.018	83.31
461.238	79.31
461.458	79.31
461.678	79.31
461.898	92.31
462.118	87.31
462.338	88.31
462.558	76.31
462.777	83.31
462.997	89.31
463.217	76.31
463.437	80.31
463.657	94.31
463.876	77.31
464.096	79.31
464.316	81.31
464.536	95.31
464.755	82.31
464.975	85.31
465.195	125.31
465.414	142.31
465.634	90.31
465.854	83.31
466.073	87.31
466.293	80.31
466.512	58.31
466.732	78.31
466.951	88.31
467.171	81.31
467.391	83.31
467.61	82.31
467.829	87.31
468.049	97.31
468.268	100.31
468.488	77.31
468.707	82.31
468.927	87.31
469.146	83.31
469.365	80.31
469.585	94.31
469.804	97.31
470.023	92.31
470.243	76.31
470.462	92.31
470.681	103.31
470.901	85.31
471.12	74.31
471.339	83.31
471.558	71.31
471.777	83.31
471.997	92.31
472.216	146.31
472.435	211.31
472.654	114.31
472.873	99.31
473.092	92.31
473.311	86.31
473.53	94.31
473.749	84.31
473.968	83.31
474.187	107.31
474.406	78.31
474.625	81.31
474.844	91.31
475.063	93.31
475.282	85.31
475.501	80.31
475.72	92.31
475.939	94.31
476.158	79.31
476.377	82.31
476.596	88.31
476.814	82.31
477.033	91.31
477.252	93.31
477.471	84.31
477.69	101.31
477.908	79.31
478.127	86.31
478.346	88.31
478.564	78.31
478.783	101.31
479.002	94.31
479.22	94.31
479.439	101.31
479.658	93.31
479.876	83.31
480.095	76.31
480.313	94.31
480.532	79.31
480.751	98.31
480.969	147.31
481.188	358.31
481.406	232.31
481.624	107.31
481.843	96.31
482.061	91.31
482.28	71.31
482.498	84.31
482.717	71.31
482.935	88.31
483.153	75.31
483.372	90.31
483.59	92.31
483.808	90.31
484.027	80.31
484.245	88.31
484.463	83.31
484.681	85.31
484.9	81.31
485.118	92.31
485.336	87.31
485.554	89.31
485.772	95.31
485.99	89.31
486.209	101.31
486.427	90.31
486.645	103.31
486.863	94.31
487.081	101.31
487.299	89.31
487.517	84.31
487.735	82.31
487.953	81.31
488.171	88.31
488.389	99.31
488.607	100.31
488.825	80.31
489.043	73.31
489.261	95.31
489.479	69.31
489.696	94.31
489.914	101.31
490.132	86.31
490.35	93.31
490.568	92.31
490.786	77.31
491.003	91.31
491.221	88.31
491.439	104.31
491.657	91.31
491.874	85.31
492.092	97.31
492.31	73.31
492.527	77.31
492.745	88.31
492.963	99.31
493.18	85.31
493.398	89.31
493.615	103.31
493.833	82.31
494.05	78.31
494.268	85.31
494.485	90.31
494.703	90.31
494.92	85.31
495.138	87.31
495.355	81.31
495.573	97.31
495.79	83.31
496.008	84.31
496.225	92.31
496.442	90.31
496.66	85.31
496.877	85.31
497.094	97.31
497.312	88.31
497.529	75.31
497.746	91.31
497.963	85.31
498.181	78.31
498.398	85.31
498.615	95.31
498.832	101.31
499.049	83.31
499.267	100.31
499.484	85.31
499.701	80.31
499.918	91.31
500.135	90.31
500.352	93.31
500.569	85.31
500.786	81.31
501.003	92.31
501.22	89.31
501.437	82.31
501.654	86.31
501.871	108.31
502.088	94.31
502.305	79.31
502.522	91.31
502.739	85.31
502.956	90.31
503.172	85.31
503.389	87.31
503.606	95.31
503.823	98.31
504.04	84.31
504.256	74.31
504.473	88.31
504.69	81.31
504.907	96.31
505.123	82.31
505.34	73.31
505.557	73.31
505.773	96.31
505.99	74.31
506.207	80.31
506.423	87.31
506.64	74.31
506.856	74.31
507.073	72.31
507.289	83.31
507.506	95.31
507.722	107.31
507.939	96.31
508.155	87.31
508.372	85.31
508.588	100.31
508.805	81.31
509.021	100.31
509.238	80.31
509.454	93.31
509.67	86.31
509.887	98.31
510.103	117.31
510.319	196.31
510.536	654.31
510.752	2142.31
510.968	620.31
511.184	156.31
511.401	111.31
511.617	105.31
511.833	80.31
512.049	91.31
512.265	96.31
512.481	83.31
512.698	89.31
512.914	88.31
513.13	96.31
513.346	97.31
513.562	88.31
513.778	100.31
513.994	99.31
514.21	101.31
514.426	96.31
514.642	112.31
514.858	120.31
515.074	152.31
515.29	387.31
515.506	1244.31
515.721	482.31
515.937	149.31
516.153	99.31
516.369	87.31
516.585	84.31
516.801	92.31
517.016	93.31
