Data from Circ_2003_H10_HRD10591_00074.txt Node
Date: Wed Jan 03 10:37:17 EST 2024
User: Yrep
Spectrometer: HR+D1059
Trigger mode: 1
Integration Time (sec): 1.000000E-1
Scans to average: 1
Electric dark correction enabled: true
Nonlinearity correction enabled: false
Boxcar width: 0
XAxis mode: Wavelengths
Number of Pixels in Spectrum: 2048
>>>>>Begin Spectral Data<<<<<
223.165	-0.12
223.4	-0.12
223.635	-0.12
223.869	-22.12
224.104	-25.12
224.338	-19.12
224.573	-22.12
224.808	-13.12
225.042	1.88
225.277	-12.12
225.511	-8.12
225.746	8.88
225.98	6.88
226.215	11.88
226.449	36.88
226.683	16.88
226.918	15.88
227.152	22.88
227.387	35.88
227.621	55.88
227.856	42.88
228.09	45.88
228.324	39.88
228.559	68.88
228.793	59.88
229.027	50.88
229.262	48.88
229.496	74.88
229.73	84.88
229.964	72.88
230.199	74.88
230.433	78.88
230.667	71.88
230.901	79.88
231.136	80.88
231.37	76.88
231.604	83.88
231.838	80.88
232.072	92.88
232.306	81.88
232.541	76.88
232.775	88.88
233.009	87.88
233.243	91.88
233.477	92.88
233.711	99.88
233.945	87.88
234.179	96.88
234.413	74.88
234.647	60.88
234.881	98.88
235.115	82.88
235.349	72.88
235.583	83.88
235.817	73.88
236.051	75.88
236.285	79.88
236.519	64.88
236.753	79.88
236.987	99.88
237.221	88.88
237.455	78.88
237.689	75.88
237.922	71.88
238.156	79.88
238.39	76.88
238.624	68.88
238.858	74.88
239.091	87.88
239.325	86.88
239.559	88.88
239.793	73.88
240.027	81.88
240.26	86.88
240.494	80.88
240.728	76.88
240.961	75.88
241.195	85.88
241.429	87.88
241.662	82.88
241.896	78.88
242.13	87.88
242.363	86.88
242.597	84.88
242.83	99.88
243.064	74.88
243.298	78.88
243.531	76.88
243.765	87.88
243.998	80.88
244.232	90.88
244.465	82.88
244.699	78.88
244.932	89.88
245.166	91.88
245.399	83.88
245.633	70.88
245.866	68.88
246.099	81.88
246.333	72.88
246.566	79.88
246.8	73.88
247.033	83.88
247.266	81.88
247.5	78.88
247.733	70.88
247.966	78.88
248.2	86.88
248.433	86.88
248.666	84.88
248.899	79.88
249.133	86.88
249.366	86.88
249.599	105.88
249.832	78.88
250.066	84.88
250.299	75.88
250.532	90.88
250.765	76.88
250.998	91.88
251.231	82.88
251.465	74.88
251.698	84.88
251.931	71.88
252.164	91.88
252.397	75.88
252.63	79.88
252.863	86.88
253.096	83.88
253.329	91.88
253.562	87.88
253.795	81.88
254.028	90.88
254.261	86.88
254.494	80.88
254.727	68.88
254.96	71.88
255.193	88.88
255.426	81.88
255.659	102.88
255.892	90.88
256.124	79.88
256.357	87.88
256.59	89.88
256.823	101.88
257.056	78.88
257.289	82.88
257.521	97.88
257.754	83.88
257.987	78.88
258.22	73.88
258.452	98.88
258.685	74.88
258.918	74.88
259.151	88.88
259.383	94.88
259.616	69.88
259.849	86.88
260.081	84.88
260.314	98.88
260.547	89.88
260.779	66.88
261.012	71.88
261.244	90.88
261.477	87.88
261.71	97.88
261.942	105.88
262.175	106.88
262.407	87.88
262.64	70.88
262.872	85.88
263.105	91.88
263.337	91.88
263.57	91.88
263.802	73.88
264.035	85.88
264.267	73.88
264.499	86.88
264.732	95.88
264.964	85.88
265.197	74.88
265.429	102.88
265.661	97.88
265.894	79.88
266.126	81.88
266.358	82.88
266.591	79.88
266.823	89.88
267.055	82.88
267.287	89.88
267.52	80.88
267.752	86.88
267.984	70.88
268.216	92.88
268.448	106.88
268.681	95.88
268.913	87.88
269.145	70.88
269.377	68.88
269.609	81.88
269.841	85.88
270.073	67.88
270.306	84.88
270.538	83.88
270.77	90.88
271.002	73.88
271.234	82.88
271.466	85.88
271.698	89.88
271.93	84.88
272.162	83.88
272.394	83.88
272.626	83.88
272.858	76.88
273.09	84.88
273.322	74.88
273.553	79.88
273.785	74.88
274.017	79.88
274.249	72.88
274.481	96.88
274.713	81.88
274.945	85.88
275.176	92.88
275.408	91.88
275.64	82.88
275.872	78.88
276.104	85.88
276.335	84.88
276.567	87.88
276.799	92.88
277.031	100.88
277.262	88.88
277.494	111.88
277.726	91.88
277.957	84.88
278.189	80.88
278.421	81.88
278.652	86.88
278.884	89.88
279.115	87.88
279.347	92.88
279.579	83.88
279.81	76.88
280.042	94.88
280.273	94.88
280.505	86.88
280.736	109.88
280.968	78.88
281.199	88.88
281.431	82.88
281.662	89.88
281.894	82.88
282.125	81.88
282.356	105.88
282.588	137.88
282.819	109.88
283.051	88.88
283.282	82.88
283.513	89.88
283.745	69.88
283.976	88.88
284.207	88.88
284.439	95.88
284.67	90.88
284.901	80.88
285.132	81.88
285.364	85.88
285.595	86.88
285.826	78.88
286.057	82.88
286.288	99.88
286.52	85.88
286.751	84.88
286.982	106.88
287.213	102.88
287.444	91.88
287.675	98.88
287.906	102.88
288.138	70.88
288.369	97.88
288.6	96.88
288.831	80.88
289.062	88.88
289.293	75.88
289.524	78.88
289.755	74.88
289.986	91.88
290.217	81.88
290.448	94.88
290.679	99.88
290.91	99.88
291.141	90.88
291.371	87.88
291.602	99.88
291.833	91.88
292.064	81.88
292.295	87.88
292.526	77.88
292.757	90.88
292.987	90.88
293.218	88.88
293.449	98.88
293.68	88.88
293.91	90.88
294.141	91.88
294.372	96.88
294.603	95.88
294.833	99.88
295.064	79.88
295.295	86.88
295.525	111.88
295.756	109.88
295.987	110.88
296.217	144.88
296.448	106.88
296.679	97.88
296.909	77.88
297.14	94.88
297.37	92.88
297.601	98.88
297.831	88.88
298.062	96.88
298.292	88.88
298.523	85.88
298.753	86.88
298.984	93.88
299.214	58.88
299.445	84.88
299.675	109.88
299.905	95.88
300.136	93.88
300.366	82.88
300.597	86.88
300.827	99.88
301.057	91.88
301.288	104.88
301.518	89.88
301.748	89.88
301.979	104.88
302.209	79.88
302.439	93.88
302.669	104.88
302.9	105.88
303.13	92.88
303.36	99.88
303.59	84.88
303.82	96.88
304.051	93.88
304.281	94.88
304.511	87.88
304.741	102.88
304.971	87.88
305.201	98.88
305.431	93.88
305.661	93.88
305.891	91.88
306.121	94.88
306.352	98.88
306.582	100.88
306.812	89.88
307.042	97.88
307.272	90.88
307.502	93.88
307.731	72.88
307.961	96.88
308.191	98.88
308.421	99.88
308.651	104.88
308.881	98.88
309.111	89.88
309.341	79.88
309.571	92.88
309.8	93.88
310.03	101.88
310.26	83.88
310.49	83.88
310.72	92.88
310.949	96.88
311.179	101.88
311.409	88.88
311.639	99.88
311.868	75.88
312.098	94.88
312.328	89.88
312.557	108.88
312.787	95.88
313.017	108.88
313.246	96.88
313.476	92.88
313.706	102.88
313.935	96.88
314.165	84.88
314.394	88.88
314.624	101.88
314.853	90.88
315.083	94.88
315.312	95.88
315.542	90.88
315.771	92.88
316.001	98.88
316.23	89.88
316.46	85.88
316.689	92.88
316.919	103.88
317.148	86.88
317.377	94.88
317.607	92.88
317.836	88.88
318.065	69.88
318.295	97.88
318.524	86.88
318.753	96.88
318.983	74.88
319.212	105.88
319.441	100.88
319.67	107.88
319.9	89.88
320.129	93.88
320.358	93.88
320.587	98.88
320.816	100.88
321.046	104.88
321.275	90.88
321.504	98.88
321.733	92.88
321.962	99.88
322.191	98.88
322.42	106.88
322.649	107.88
322.878	106.88
323.108	114.88
323.337	124.88
323.566	128.88
323.795	153.88
324.024	192.88
324.253	398.88
324.482	787.88
324.71	1680.88
324.939	2238.88
325.168	822.88
325.397	233.88
325.626	154.88
325.855	134.88
326.084	110.88
326.313	136.88
326.542	150.88
326.77	219.88
326.999	453.88
327.228	935.88
327.457	1716.88
327.686	1359.88
327.914	360.88
328.143	206.88
328.372	164.88
328.6	136.88
328.829	107.88
329.058	133.88
329.287	127.88
329.515	112.88
329.744	93.88
329.972	121.88
330.201	148.88
330.43	183.88
330.658	146.88
330.887	133.88
331.115	121.88
331.344	98.88
331.572	104.88
331.801	101.88
332.03	105.88
332.258	104.88
332.486	103.88
332.715	104.88
332.943	95.88
333.172	80.88
333.4	104.88
333.629	100.88
333.857	120.88
334.085	122.88
334.314	137.88
334.542	187.88
334.771	179.88
334.999	108.88
335.227	92.88
335.455	103.88
335.684	97.88
335.912	92.88
336.14	93.88
336.369	105.88
336.597	99.88
336.825	104.88
337.053	83.88
337.281	90.88
337.51	90.88
337.738	81.88
337.966	99.88
338.194	103.88
338.422	97.88
338.65	94.88
338.878	98.88
339.106	91.88
339.334	99.88
339.562	104.88
339.79	94.88
340.018	74.88
340.246	97.88
340.474	89.88
340.702	103.88
340.93	85.88
341.158	104.88
341.386	99.88
341.614	98.88
341.842	99.88
342.07	92.88
342.298	89.88
342.526	82.88
342.754	73.88
342.981	87.88
343.209	87.88
343.437	86.88
343.665	88.88
343.893	85.88
344.12	96.88
344.348	83.88
344.576	92.88
344.804	89.88
345.031	102.88
345.259	93.88
345.487	87.88
345.714	89.88
345.942	87.88
346.17	104.88
346.397	107.88
346.625	104.88
346.853	77.88
347.08	86.88
347.308	91.88
347.535	88.88
347.763	102.88
347.99	103.88
348.218	106.88
348.445	106.88
348.673	111.88
348.9	96.88
349.128	90.88
349.355	84.88
349.583	90.88
349.81	89.88
350.037	97.88
350.265	95.88
350.492	90.88
350.72	92.88
350.947	90.88
351.174	108.88
351.402	100.88
351.629	106.88
351.856	110.88
352.083	107.88
352.311	118.88
352.538	113.88
352.765	100.88
352.992	130.88
353.22	119.88
353.447	104.88
353.674	102.88
353.901	95.88
354.128	109.88
354.355	101.88
354.583	107.88
354.81	114.88
355.037	98.88
355.264	85.88
355.491	88.88
355.718	101.88
355.945	83.88
356.172	92.88
356.399	88.88
356.626	98.88
356.853	98.88
357.08	88.88
357.307	79.88
357.534	78.88
357.761	96.88
357.988	99.88
358.215	90.88
358.441	93.88
358.668	85.88
358.895	94.88
359.122	104.88
359.349	92.88
359.576	82.88
359.802	79.88
360.029	112.88
360.256	97.88
360.483	76.88
360.709	89.88
360.936	114.88
361.163	91.88
361.39	87.88
361.616	82.88
361.843	82.88
362.07	86.88
362.296	78.88
362.523	102.88
362.749	78.88
362.976	94.88
363.203	81.88
363.429	88.88
363.656	95.88
363.882	89.88
364.109	86.88
364.335	93.88
364.562	94.88
364.788	90.88
365.015	96.88
365.241	100.88
365.468	113.88
365.694	110.88
365.92	90.88
366.147	92.88
366.373	75.88
366.599	83.88
366.826	90.88
367.052	80.88
367.278	92.88
367.505	89.88
367.731	89.88
367.957	88.88
368.184	96.88
368.41	102.88
368.636	99.88
368.862	113.88
369.089	98.88
369.315	83.88
369.541	93.88
369.767	95.88
369.993	101.88
370.219	83.88
370.445	87.88
370.672	72.88
370.898	96.88
371.124	95.88
371.35	96.88
371.576	95.88
371.802	101.88
372.028	85.88
372.254	86.88
372.48	96.88
372.706	94.88
372.932	99.88
373.158	90.88
373.384	92.88
373.61	102.88
373.835	105.88
374.061	75.88
374.287	88.88
374.513	102.88
374.739	86.88
374.965	92.88
375.191	93.88
375.416	94.88
375.642	85.88
375.868	89.88
376.094	88.88
376.319	88.88
376.545	85.88
376.771	94.88
376.997	110.88
377.222	94.88
377.448	87.88
377.674	102.88
377.899	80.88
378.125	94.88
378.35	106.88
378.576	75.88
378.802	96.88
379.027	106.88
379.253	92.88
379.478	103.88
379.704	91.88
379.929	96.88
380.155	102.88
380.38	96.88
380.606	85.88
380.831	90.88
381.057	94.88
381.282	86.88
381.507	88.88
381.733	102.88
381.958	97.88
382.184	96.88
382.409	91.88
382.634	110.88
382.86	90.88
383.085	87.88
383.31	100.88
383.535	103.88
383.761	95.88
383.986	103.88
384.211	86.88
384.436	93.88
384.662	96.88
384.887	100.88
385.112	118.88
385.337	110.88
385.562	99.88
385.787	108.88
386.013	107.88
386.238	108.88
386.463	114.88
386.688	106.88
386.913	95.88
387.138	105.88
387.363	94.88
387.588	104.88
387.813	107.88
388.038	95.88
388.263	103.88
388.488	95.88
388.713	87.88
388.938	103.88
389.163	90.88
389.387	87.88
389.612	101.88
389.837	87.88
390.062	96.88
390.287	89.88
390.512	88.88
390.736	91.88
390.961	93.88
391.186	91.88
391.411	92.88
391.636	108.88
391.86	99.88
392.085	97.88
392.31	84.88
392.534	81.88
392.759	105.88
392.984	90.88
393.208	89.88
393.433	89.88
393.658	88.88
393.882	77.88
394.107	73.88
394.331	91.88
394.556	87.88
394.78	87.88
395.005	84.88
395.229	88.88
395.454	94.88
395.678	81.88
395.903	92.88
396.127	87.88
396.352	92.88
396.576	80.88
396.801	87.88
397.025	106.88
397.249	90.88
397.474	86.88
397.698	99.88
397.922	78.88
398.147	90.88
398.371	86.88
398.595	78.88
398.82	77.88
399.044	85.88
399.268	99.88
399.492	79.88
399.717	97.88
399.941	86.88
400.165	92.88
400.389	90.88
400.613	93.88
400.837	74.88
401.062	85.88
401.286	84.88
401.51	97.88
401.734	90.88
401.958	108.88
402.182	113.88
402.406	152.88
402.63	131.88
402.854	96.88
403.078	78.88
403.302	88.88
403.526	83.88
403.75	93.88
403.974	80.88
404.198	92.88
404.422	83.88
404.645	85.88
404.869	103.88
405.093	96.88
405.317	98.88
405.541	108.88
405.765	91.88
405.988	132.88
406.212	146.88
406.436	216.88
406.66	146.88
406.883	92.88
407.107	85.88
407.331	91.88
407.555	108.88
407.778	106.88
408.002	78.88
408.226	92.88
408.449	101.88
408.673	100.88
408.896	89.88
409.12	96.88
409.344	74.88
409.567	89.88
409.791	78.88
410.014	90.88
410.238	91.88
410.461	87.88
410.685	102.88
410.908	85.88
411.132	102.88
411.355	97.88
411.578	86.88
411.802	84.88
412.025	85.88
412.249	93.88
412.472	90.88
412.695	89.88
412.919	82.88
413.142	91.88
413.365	94.88
413.589	86.88
413.812	86.88
414.035	88.88
414.258	88.88
414.482	88.88
414.705	114.88
414.928	87.88
415.151	108.88
415.374	107.88
415.597	77.88
415.821	77.88
416.044	90.88
416.267	78.88
416.49	78.88
416.713	96.88
416.936	101.88
417.159	82.88
417.382	88.88
417.605	93.88
417.828	98.88
418.051	88.88
418.274	97.88
418.497	86.88
418.72	65.88
418.943	86.88
419.166	92.88
419.389	100.88
419.611	106.88
419.834	95.88
420.057	105.88
420.28	98.88
420.503	91.88
420.726	83.88
420.948	98.88
421.171	80.88
421.394	86.88
421.617	80.88
421.839	77.88
422.062	103.88
422.285	90.88
422.507	97.88
422.73	96.88
422.953	96.88
423.175	81.88
423.398	103.88
423.621	86.88
423.843	84.88
424.066	90.88
424.288	95.88
424.511	82.88
424.733	81.88
424.956	97.88
425.178	102.88
425.401	82.88
425.623	91.88
425.846	95.88
426.068	94.88
426.291	87.88
426.513	96.88
426.735	98.88
426.958	83.88
427.18	88.88
427.402	124.88
427.625	159.88
427.847	142.88
428.069	115.88
428.292	107.88
428.514	75.88
428.736	77.88
428.958	76.88
429.181	81.88
429.403	71.88
429.625	78.88
429.847	96.88
430.069	116.88
430.292	94.88
430.514	71.88
430.736	84.88
430.958	92.88
431.18	68.88
431.402	88.88
431.624	80.88
431.846	107.88
432.068	96.88
432.29	78.88
432.512	80.88
432.734	79.88
432.956	89.88
433.178	88.88
433.4	82.88
433.622	93.88
433.844	82.88
434.066	94.88
434.287	83.88
434.509	93.88
434.731	85.88
434.953	99.88
435.175	100.88
435.397	81.88
435.618	86.88
435.84	101.88
436.062	123.88
436.284	111.88
436.505	110.88
436.727	96.88
436.949	103.88
437.17	91.88
437.392	79.88
437.614	88.88
437.835	111.88
438.057	111.88
438.278	102.88
438.5	96.88
438.721	101.88
438.943	83.88
439.165	79.88
439.386	82.88
439.608	92.88
439.829	98.88
440.05	128.88
440.272	139.88
440.493	94.88
440.715	84.88
440.936	92.88
441.158	87.88
441.379	91.88
441.6	99.88
441.822	94.88
442.043	96.88
442.264	100.88
442.486	88.88
442.707	79.88
442.928	91.88
443.149	114.88
443.371	114.88
443.592	101.88
443.813	105.88
444.034	109.88
444.255	86.88
444.476	80.88
444.698	78.88
444.919	97.88
445.14	156.88
445.361	130.88
445.582	114.88
445.803	124.88
446.024	127.88
446.245	127.88
446.466	115.88
446.687	89.88
446.908	86.88
447.129	101.88
447.35	89.88
447.571	84.88
447.792	92.88
448.013	101.88
448.234	88.88
448.455	91.88
448.675	112.88
448.896	114.88
449.117	100.88
449.338	105.88
449.559	118.88
449.779	115.88
450	106.88
450.221	78.88
450.442	93.88
450.662	99.88
450.883	97.88
451.104	105.88
451.324	83.88
451.545	94.88
451.766	86.88
451.986	78.88
452.207	90.88
452.428	85.88
452.648	92.88
452.869	104.88
453.089	100.88
453.31	100.88
453.53	87.88
453.751	80.88
453.971	92.88
454.192	102.88
454.412	84.88
454.633	81.88
454.853	89.88
455.073	90.88
455.294	90.88
455.514	97.88
455.734	95.88
455.955	83.88
456.175	89.88
456.395	79.88
456.616	84.88
456.836	95.88
457.056	91.88
457.276	76.88
457.497	102.88
457.717	102.88
457.937	93.88
458.157	78.88
458.377	89.88
458.598	97.88
458.818	138.88
459.038	134.88
459.258	105.88
459.478	79.88
459.698	66.88
459.918	84.88
460.138	89.88
460.358	89.88
460.578	75.88
460.798	94.88
461.018	106.88
461.238	87.88
461.458	81.88
461.678	70.88
461.898	69.88
462.118	102.88
462.338	81.88
462.558	86.88
462.777	85.88
462.997	99.88
463.217	97.88
463.437	68.88
463.657	83.88
463.876	77.88
464.096	94.88
464.316	97.88
464.536	86.88
464.755	97.88
464.975	104.88
465.195	128.88
465.414	145.88
465.634	91.88
465.854	89.88
466.073	86.88
466.293	79.88
466.512	89.88
466.732	81.88
466.951	83.88
467.171	90.88
467.391	104.88
467.61	107.88
467.829	90.88
468.049	113.88
468.268	129.88
468.488	88.88
468.707	94.88
468.927	99.88
469.146	84.88
469.365	70.88
469.585	74.88
469.804	99.88
470.023	104.88
470.243	91.88
470.462	104.88
470.681	93.88
470.901	86.88
471.12	96.88
471.339	88.88
471.558	89.88
471.777	89.88
471.997	99.88
472.216	158.88
472.435	241.88
472.654	104.88
472.873	75.88
473.092	82.88
473.311	84.88
473.53	98.88
473.749	94.88
473.968	93.88
474.187	98.88
474.406	84.88
474.625	86.88
474.844	90.88
475.063	87.88
475.282	86.88
475.501	98.88
475.72	97.88
475.939	90.88
476.158	92.88
476.377	92.88
476.596	79.88
476.814	79.88
477.033	102.88
477.252	82.88
477.471	98.88
477.69	75.88
477.908	95.88
478.127	89.88
478.346	85.88
478.564	91.88
478.783	84.88
479.002	96.88
479.22	92.88
479.439	101.88
479.658	96.88
479.876	97.88
480.095	84.88
480.313	86.88
480.532	91.88
480.751	91.88
480.969	146.88
481.188	352.88
481.406	234.88
481.624	96.88
481.843	89.88
482.061	81.88
482.28	84.88
482.498	86.88
482.717	84.88
482.935	81.88
483.153	95.88
483.372	88.88
483.59	77.88
483.808	89.88
484.027	108.88
484.245	102.88
484.463	97.88
484.681	78.88
484.9	76.88
485.118	90.88
485.336	94.88
485.554	100.88
485.772	87.88
485.99	113.88
486.209	103.88
486.427	79.88
486.645	97.88
486.863	121.88
487.081	98.88
487.299	93.88
487.517	94.88
487.735	108.88
487.953	104.88
488.171	100.88
488.389	112.88
488.607	108.88
488.825	84.88
489.043	79.88
489.261	91.88
489.479	82.88
489.696	83.88
489.914	81.88
490.132	70.88
490.35	101.88
490.568	85.88
490.786	87.88
491.003	92.88
491.221	80.88
491.439	84.88
491.657	91.88
491.874	94.88
492.092	82.88
492.31	96.88
492.527	101.88
492.745	80.88
492.963	80.88
493.18	102.88
493.398	99.88
493.615	97.88
493.833	117.88
494.05	98.88
494.268	87.88
494.485	97.88
494.703	84.88
494.92	105.88
495.138	103.88
495.355	89.88
495.573	88.88
495.79	81.88
496.008	92.88
496.225	78.88
496.442	101.88
496.66	90.88
496.877	87.88
497.094	96.88
497.312	98.88
497.529	86.88
497.746	91.88
497.963	83.88
498.181	85.88
498.398	92.88
498.615	101.88
498.832	101.88
499.049	83.88
499.267	96.88
499.484	84.88
499.701	75.88
499.918	101.88
500.135	89.88
500.352	90.88
500.569	87.88
500.786	99.88
501.003	86.88
501.22	90.88
501.437	83.88
501.654	91.88
501.871	96.88
502.088	96.88
502.305	80.88
502.522	88.88
502.739	86.88
502.956	96.88
503.172	89.88
503.389	86.88
503.606	104.88
503.823	86.88
504.04	92.88
504.256	85.88
504.473	78.88
504.69	86.88
504.907	94.88
505.123	75.88
505.34	93.88
505.557	89.88
505.773	102.88
505.99	89.88
506.207	92.88
506.423	90.88
506.64	86.88
506.856	87.88
507.073	81.88
507.289	99.88
507.506	82.88
507.722	97.88
507.939	96.88
508.155	94.88
508.372	98.88
508.588	85.88
508.805	89.88
509.021	98.88
509.238	95.88
509.454	89.88
509.67	104.88
509.887	110.88
510.103	137.88
510.319	217.88
510.536	731.88
510.752	2352.88
510.968	652.88
511.184	167.88
511.401	120.88
511.617	99.88
511.833	95.88
512.049	87.88
512.265	92.88
512.481	83.88
512.698	84.88
512.914	90.88
513.13	87.88
513.346	97.88
513.562	98.88
513.778	97.88
513.994	95.88
514.21	98.88
514.426	116.88
514.642	111.88
514.858	103.88
515.074	148.88
515.29	405.88
515.506	1374.88
515.721	512.88
