Data from Circ_2003_H10_HRD10591_00081.txt Node
Date: Wed Jan 03 10:37:18 EST 2024
User: Yrep
Spectrometer: HR+D1059
Trigger mode: 1
Integration Time (sec): 1.000000E-1
Scans to average: 1
Electric dark correction enabled: true
Nonlinearity correction enabled: false
Boxcar width: 0
XAxis mode: Wavelengths
Number of Pixels in Spectrum: 2048
>>>>>Begin Spectral Data<<<<<
223.165	-31.56
223.4	-31.56
223.635	-31.56
223.869	-15.56
224.104	-13.56
224.338	-24.56
224.573	-12.56
224.808	-20.56
225.042	-4.56
225.277	-6.56
225.511	3.44
225.746	2.44
225.98	12.44
226.215	7.44
226.449	9.44
226.683	30.44
226.918	29.44
227.152	34.44
227.387	28.44
227.621	43.44
227.856	44.44
228.09	41.44
228.324	40.44
228.559	52.44
228.793	68.44
229.027	58.44
229.262	65.44
229.496	72.44
229.73	82.44
229.964	81.44
230.199	69.44
230.433	79.44
230.667	73.44
230.901	84.44
231.136	57.44
231.37	69.44
231.604	64.44
231.838	74.44
232.072	87.44
232.306	71.44
232.541	78.44
232.775	71.44
233.009	65.44
233.243	72.44
233.477	77.44
233.711	78.44
233.945	86.44
234.179	83.44
234.413	88.44
234.647	76.44
234.881	76.44
235.115	82.44
235.349	70.44
235.583	71.44
235.817	78.44
236.051	83.44
236.285	73.44
236.519	76.44
236.753	80.44
236.987	79.44
237.221	86.44
237.455	74.44
237.689	79.44
237.922	78.44
238.156	64.44
238.39	75.44
238.624	77.44
238.858	65.44
239.091	70.44
239.325	82.44
239.559	78.44
239.793	75.44
240.027	70.44
240.26	76.44
240.494	88.44
240.728	79.44
240.961	82.44
241.195	80.44
241.429	76.44
241.662	77.44
241.896	71.44
242.13	89.44
242.363	72.44
242.597	74.44
242.83	79.44
243.064	79.44
243.298	52.44
243.531	86.44
243.765	79.44
243.998	84.44
244.232	84.44
244.465	89.44
244.699	81.44
244.932	82.44
245.166	75.44
245.399	81.44
245.633	70.44
245.866	74.44
246.099	69.44
246.333	85.44
246.566	79.44
246.8	86.44
247.033	78.44
247.266	72.44
247.5	74.44
247.733	98.44
247.966	87.44
248.2	89.44
248.433	71.44
248.666	84.44
248.899	85.44
249.133	86.44
249.366	111.44
249.599	84.44
249.832	69.44
250.066	94.44
250.299	76.44
250.532	87.44
250.765	87.44
250.998	79.44
251.231	83.44
251.465	92.44
251.698	91.44
251.931	77.44
252.164	62.44
252.397	84.44
252.63	68.44
252.863	85.44
253.096	88.44
253.329	63.44
253.562	84.44
253.795	76.44
254.028	80.44
254.261	70.44
254.494	67.44
254.727	91.44
254.96	69.44
255.193	91.44
255.426	92.44
255.659	69.44
255.892	76.44
256.124	66.44
256.357	91.44
256.59	74.44
256.823	80.44
257.056	91.44
257.289	95.44
257.521	72.44
257.754	76.44
257.987	75.44
258.22	80.44
258.452	86.44
258.685	82.44
258.918	76.44
259.151	91.44
259.383	85.44
259.616	75.44
259.849	59.44
260.081	92.44
260.314	94.44
260.547	83.44
260.779	84.44
261.012	71.44
261.244	90.44
261.477	92.44
261.71	96.44
261.942	98.44
262.175	92.44
262.407	87.44
262.64	92.44
262.872	88.44
263.105	96.44
263.337	98.44
263.57	85.44
263.802	93.44
264.035	94.44
264.267	81.44
264.499	89.44
264.732	84.44
264.964	81.44
265.197	85.44
265.429	84.44
265.661	80.44
265.894	100.44
266.126	91.44
266.358	78.44
266.591	82.44
266.823	82.44
267.055	74.44
267.287	93.44
267.52	80.44
267.752	81.44
267.984	99.44
268.216	84.44
268.448	86.44
268.681	78.44
268.913	83.44
269.145	82.44
269.377	85.44
269.609	87.44
269.841	85.44
270.073	78.44
270.306	74.44
270.538	80.44
270.77	96.44
271.002	87.44
271.234	97.44
271.466	80.44
271.698	92.44
271.93	80.44
272.162	82.44
272.394	80.44
272.626	98.44
272.858	86.44
273.09	78.44
273.322	77.44
273.553	96.44
273.785	75.44
274.017	75.44
274.249	95.44
274.481	82.44
274.713	86.44
274.945	91.44
275.176	76.44
275.408	92.44
275.64	79.44
275.872	96.44
276.104	78.44
276.335	90.44
276.567	97.44
276.799	105.44
277.031	103.44
277.262	92.44
277.494	85.44
277.726	98.44
277.957	86.44
278.189	78.44
278.421	94.44
278.652	94.44
278.884	84.44
279.115	81.44
279.347	75.44
279.579	79.44
279.81	90.44
280.042	91.44
280.273	71.44
280.505	92.44
280.736	84.44
280.968	80.44
281.199	105.44
281.431	94.44
281.662	96.44
281.894	89.44
282.125	86.44
282.356	100.44
282.588	136.44
282.819	121.44
283.051	91.44
283.282	79.44
283.513	79.44
283.745	91.44
283.976	88.44
284.207	80.44
284.439	87.44
284.67	80.44
284.901	78.44
285.132	79.44
285.364	86.44
285.595	94.44
285.826	100.44
286.057	86.44
286.288	80.44
286.52	89.44
286.751	99.44
286.982	102.44
287.213	82.44
287.444	88.44
287.675	85.44
287.906	78.44
288.138	76.44
288.369	85.44
288.6	89.44
288.831	84.44
289.062	94.44
289.293	98.44
289.524	101.44
289.755	89.44
289.986	94.44
290.217	90.44
290.448	89.44
290.679	72.44
290.91	91.44
291.141	92.44
291.371	89.44
291.602	85.44
291.833	85.44
292.064	83.44
292.295	68.44
292.526	95.44
292.757	98.44
292.987	92.44
293.218	85.44
293.449	84.44
293.68	80.44
293.91	87.44
294.141	98.44
294.372	103.44
294.603	93.44
294.833	86.44
295.064	91.44
295.295	75.44
295.525	96.44
295.756	106.44
295.987	116.44
296.217	145.44
296.448	119.44
296.679	94.44
296.909	96.44
297.14	75.44
297.37	66.44
297.601	80.44
297.831	81.44
298.062	80.44
298.292	92.44
298.523	89.44
298.753	98.44
298.984	89.44
299.214	74.44
299.445	83.44
299.675	92.44
299.905	91.44
300.136	84.44
300.366	86.44
300.597	88.44
300.827	99.44
301.057	103.44
301.288	106.44
301.518	89.44
301.748	91.44
301.979	99.44
302.209	90.44
302.439	78.44
302.669	84.44
302.9	88.44
303.13	77.44
303.36	107.44
303.59	91.44
303.82	113.44
304.051	98.44
304.281	85.44
304.511	90.44
304.741	88.44
304.971	84.44
305.201	77.44
305.431	98.44
305.661	89.44
305.891	87.44
306.121	88.44
306.352	87.44
306.582	107.44
306.812	90.44
307.042	94.44
307.272	86.44
307.502	96.44
307.731	92.44
307.961	92.44
308.191	96.44
308.421	89.44
308.651	90.44
308.881	87.44
309.111	93.44
309.341	96.44
309.571	98.44
309.8	91.44
310.03	76.44
310.26	103.44
310.49	88.44
310.72	100.44
310.949	114.44
311.179	96.44
311.409	78.44
311.639	102.44
311.868	100.44
312.098	100.44
312.328	88.44
312.557	91.44
312.787	100.44
313.017	104.44
313.246	78.44
313.476	89.44
313.706	87.44
313.935	87.44
314.165	78.44
314.394	82.44
314.624	97.44
314.853	91.44
315.083	88.44
315.312	96.44
315.542	91.44
315.771	90.44
316.001	96.44
316.23	92.44
316.46	89.44
316.689	82.44
316.919	91.44
317.148	104.44
317.377	81.44
317.607	88.44
317.836	88.44
318.065	90.44
318.295	79.44
318.524	85.44
318.753	78.44
318.983	87.44
319.212	97.44
319.441	99.44
319.67	108.44
319.9	104.44
320.129	91.44
320.358	99.44
320.587	90.44
320.816	103.44
321.046	95.44
321.275	95.44
321.504	96.44
321.733	105.44
321.962	97.44
322.191	91.44
322.42	119.44
322.649	105.44
322.878	114.44
323.108	107.44
323.337	113.44
323.566	137.44
323.795	148.44
324.024	177.44
324.253	362.44
324.482	757.44
324.71	1562.44
324.939	2041.44
325.168	742.44
325.397	228.44
325.626	141.44
325.855	124.44
326.084	111.44
326.313	124.44
326.542	158.44
326.77	220.44
326.999	447.44
327.228	895.44
327.457	1611.44
327.686	1274.44
327.914	360.44
328.143	184.44
328.372	162.44
328.6	134.44
328.829	115.44
329.058	120.44
329.287	129.44
329.515	109.44
329.744	114.44
329.972	122.44
330.201	143.44
330.43	182.44
330.658	138.44
330.887	130.44
331.115	105.44
331.344	103.44
331.572	113.44
331.801	99.44
332.03	104.44
332.258	89.44
332.486	84.44
332.715	95.44
332.943	92.44
333.172	94.44
333.4	99.44
333.629	102.44
333.857	118.44
334.085	134.44
334.314	161.44
334.542	190.44
334.771	191.44
334.999	117.44
335.227	112.44
335.455	98.44
335.684	110.44
335.912	103.44
336.14	100.44
336.369	96.44
336.597	105.44
336.825	102.44
337.053	90.44
337.281	94.44
337.51	96.44
337.738	101.44
337.966	80.44
338.194	96.44
338.422	92.44
338.65	86.44
338.878	78.44
339.106	84.44
339.334	85.44
339.562	99.44
339.79	88.44
340.018	79.44
340.246	83.44
340.474	105.44
340.702	90.44
340.93	85.44
341.158	100.44
341.386	94.44
341.614	97.44
341.842	87.44
342.07	73.44
342.298	76.44
342.526	79.44
342.754	98.44
342.981	97.44
343.209	85.44
343.437	110.44
343.665	89.44
343.893	98.44
344.12	88.44
344.348	82.44
344.576	80.44
344.804	81.44
345.031	91.44
345.259	103.44
345.487	105.44
345.714	88.44
345.942	96.44
346.17	94.44
346.397	84.44
346.625	93.44
346.853	98.44
347.08	81.44
347.308	99.44
347.535	88.44
347.763	84.44
347.99	102.44
348.218	84.44
348.445	108.44
348.673	107.44
348.9	108.44
349.128	82.44
349.355	83.44
349.583	82.44
349.81	88.44
350.037	100.44
350.265	94.44
350.492	91.44
350.72	96.44
350.947	102.44
351.174	100.44
351.402	115.44
351.629	103.44
351.856	96.44
352.083	113.44
352.311	106.44
352.538	112.44
352.765	110.44
352.992	104.44
353.22	103.44
353.447	104.44
353.674	102.44
353.901	90.44
354.128	96.44
354.355	103.44
354.583	85.44
354.81	95.44
355.037	105.44
355.264	100.44
355.491	106.44
355.718	97.44
355.945	81.44
356.172	98.44
356.399	92.44
356.626	93.44
356.853	94.44
357.08	95.44
357.307	84.44
357.534	92.44
357.761	101.44
357.988	95.44
358.215	90.44
358.441	98.44
358.668	111.44
358.895	94.44
359.122	96.44
359.349	98.44
359.576	100.44
359.802	106.44
360.029	92.44
360.256	105.44
360.483	96.44
360.709	71.44
360.936	100.44
361.163	102.44
361.39	80.44
361.616	110.44
361.843	89.44
362.07	89.44
362.296	96.44
362.523	95.44
362.749	99.44
362.976	77.44
363.203	98.44
363.429	85.44
363.656	86.44
363.882	95.44
364.109	96.44
364.335	95.44
364.562	92.44
364.788	83.44
365.015	88.44
365.241	111.44
365.468	102.44
365.694	104.44
365.92	91.44
366.147	94.44
366.373	102.44
366.599	101.44
366.826	90.44
367.052	83.44
367.278	91.44
367.505	96.44
367.731	84.44
367.957	74.44
368.184	88.44
368.41	84.44
368.636	95.44
368.862	111.44
369.089	103.44
369.315	80.44
369.541	91.44
369.767	95.44
369.993	83.44
370.219	90.44
370.445	98.44
370.672	86.44
370.898	94.44
371.124	88.44
371.35	98.44
371.576	83.44
371.802	86.44
372.028	91.44
372.254	94.44
372.48	85.44
372.706	85.44
372.932	87.44
373.158	103.44
373.384	103.44
373.61	102.44
373.835	92.44
374.061	92.44
374.287	99.44
374.513	79.44
374.739	97.44
374.965	98.44
375.191	86.44
375.416	94.44
375.642	89.44
375.868	90.44
376.094	95.44
376.319	74.44
376.545	70.44
376.771	78.44
376.997	77.44
377.222	95.44
377.448	99.44
377.674	85.44
377.899	95.44
378.125	92.44
378.35	93.44
378.576	96.44
378.802	102.44
379.027	92.44
379.253	89.44
379.478	79.44
379.704	91.44
379.929	101.44
380.155	89.44
380.38	96.44
380.606	98.44
380.831	92.44
381.057	89.44
381.282	90.44
381.507	107.44
381.733	106.44
381.958	103.44
382.184	103.44
382.409	108.44
382.634	92.44
382.86	94.44
383.085	100.44
383.31	94.44
383.535	92.44
383.761	104.44
383.986	95.44
384.211	89.44
384.436	99.44
384.662	95.44
384.887	117.44
385.112	112.44
385.337	103.44
385.562	102.44
385.787	102.44
386.013	110.44
386.238	111.44
386.463	100.44
386.688	122.44
386.913	103.44
387.138	108.44
387.363	102.44
387.588	103.44
387.813	83.44
388.038	114.44
388.263	110.44
388.488	100.44
388.713	98.44
388.938	91.44
389.163	91.44
389.387	90.44
389.612	90.44
389.837	90.44
390.062	97.44
390.287	90.44
390.512	87.44
390.736	91.44
390.961	92.44
391.186	96.44
391.411	100.44
391.636	101.44
391.86	89.44
392.085	92.44
392.31	85.44
392.534	94.44
392.759	86.44
392.984	79.44
393.208	91.44
393.433	94.44
393.658	72.44
393.882	86.44
394.107	79.44
394.331	91.44
394.556	92.44
394.78	96.44
395.005	82.44
395.229	75.44
395.454	84.44
395.678	88.44
395.903	79.44
396.127	104.44
396.352	82.44
396.576	73.44
396.801	77.44
397.025	86.44
397.249	92.44
397.474	91.44
397.698	82.44
397.922	98.44
398.147	99.44
398.371	90.44
398.595	85.44
398.82	89.44
399.044	90.44
399.268	76.44
399.492	82.44
399.717	85.44
399.941	90.44
400.165	93.44
400.389	87.44
400.613	72.44
400.837	64.44
401.062	87.44
401.286	85.44
401.51	97.44
401.734	98.44
401.958	107.44
402.182	121.44
402.406	143.44
402.63	110.44
402.854	91.44
403.078	91.44
403.302	90.44
403.526	89.44
403.75	86.44
403.974	79.44
404.198	85.44
404.422	99.44
404.645	90.44
404.869	90.44
405.093	101.44
405.317	90.44
405.541	99.44
405.765	105.44
405.988	128.44
406.212	154.44
406.436	214.44
406.66	130.44
406.883	87.44
407.107	86.44
407.331	98.44
407.555	97.44
407.778	97.44
408.002	86.44
408.226	91.44
408.449	75.44
408.673	85.44
408.896	89.44
409.12	96.44
409.344	78.44
409.567	90.44
409.791	97.44
410.014	96.44
410.238	107.44
410.461	89.44
410.685	88.44
410.908	98.44
411.132	110.44
411.355	116.44
411.578	105.44
411.802	92.44
412.025	80.44
412.249	105.44
412.472	88.44
412.695	96.44
412.919	92.44
413.142	100.44
413.365	84.44
413.589	93.44
413.812	89.44
414.035	111.44
414.258	91.44
414.482	84.44
414.705	95.44
414.928	96.44
415.151	106.44
415.374	78.44
415.597	103.44
415.821	84.44
416.044	83.44
416.267	88.44
416.49	67.44
416.713	89.44
416.936	87.44
417.159	94.44
417.382	69.44
417.605	96.44
417.828	98.44
418.051	92.44
418.274	78.44
418.497	102.44
418.72	86.44
418.943	97.44
419.166	92.44
419.389	92.44
419.611	106.44
419.834	84.44
420.057	86.44
420.28	100.44
420.503	82.44
420.726	87.44
420.948	82.44
421.171	88.44
421.394	74.44
421.617	85.44
421.839	92.44
422.062	83.44
422.285	100.44
422.507	117.44
422.73	102.44
422.953	95.44
423.175	101.44
423.398	86.44
423.621	96.44
423.843	95.44
424.066	76.44
424.288	96.44
424.511	91.44
424.733	99.44
424.956	112.44
425.178	99.44
425.401	109.44
425.623	99.44
425.846	91.44
426.068	80.44
426.291	96.44
426.513	90.44
426.735	90.44
426.958	80.44
427.18	99.44
427.402	117.44
427.625	148.44
427.847	115.44
428.069	131.44
428.292	88.44
428.514	97.44
428.736	84.44
428.958	87.44
429.181	86.44
429.403	96.44
429.625	73.44
429.847	83.44
430.069	99.44
430.292	97.44
430.514	74.44
430.736	79.44
430.958	80.44
431.18	82.44
431.402	81.44
431.624	91.44
431.846	92.44
432.068	84.44
432.29	84.44
432.512	99.44
432.734	98.44
432.956	98.44
433.178	108.44
433.4	99.44
433.622	99.44
433.844	94.44
434.066	87.44
434.287	89.44
434.509	78.44
434.731	88.44
434.953	72.44
435.175	68.44
435.397	80.44
435.618	83.44
435.84	100.44
436.062	105.44
436.284	95.44
436.505	96.44
436.727	102.44
436.949	98.44
437.17	90.44
437.392	95.44
437.614	93.44
437.835	106.44
438.057	110.44
438.278	106.44
438.5	103.44
438.721	126.44
438.943	94.44
439.165	81.44
439.386	98.44
439.608	94.44
439.829	99.44
440.05	106.44
440.272	122.44
440.493	110.44
440.715	84.44
440.936	75.44
441.158	90.44
441.379	87.44
441.6	86.44
441.822	87.44
442.043	92.44
442.264	101.44
442.486	99.44
442.707	83.44
442.928	94.44
443.149	106.44
443.371	124.44
443.592	95.44
443.813	107.44
444.034	95.44
444.255	99.44
444.476	79.44
444.698	102.44
444.919	102.44
445.14	119.44
445.361	121.44
445.582	118.44
445.803	134.44
446.024	130.44
446.245	140.44
446.466	114.44
446.687	82.44
446.908	101.44
447.129	91.44
447.35	92.44
447.571	90.44
447.792	80.44
448.013	102.44
448.234	91.44
448.455	91.44
448.675	110.44
448.896	105.44
449.117	88.44
449.338	93.44
449.559	123.44
449.779	115.44
450	86.44
450.221	94.44
450.442	104.44
450.662	78.44
450.883	99.44
451.104	116.44
451.324	100.44
451.545	88.44
451.766	95.44
451.986	82.44
452.207	70.44
452.428	94.44
452.648	87.44
452.869	111.44
453.089	105.44
453.31	121.44
453.53	104.44
453.751	87.44
453.971	90.44
454.192	110.44
454.412	83.44
454.633	79.44
454.853	88.44
455.073	78.44
455.294	96.44
455.514	108.44
455.734	87.44
455.955	84.44
456.175	90.44
456.395	96.44
456.616	102.44
456.836	87.44
457.056	91.44
457.276	72.44
457.497	84.44
457.717	91.44
457.937	76.44
458.157	91.44
458.377	74.44
458.598	100.44
458.818	128.44
459.038	130.44
459.258	102.44
459.478	78.44
459.698	84.44
459.918	78.44
460.138	94.44
460.358	88.44
460.578	80.44
460.798	96.44
461.018	96.44
461.238	86.44
461.458	90.44
461.678	73.44
461.898	81.44
462.118	81.44
462.338	82.44
462.558	87.44
462.777	86.44
462.997	88.44
463.217	92.44
463.437	84.44
463.657	89.44
463.876	96.44
464.096	80.44
464.316	88.44
464.536	98.44
464.755	94.44
464.975	85.44
465.195	144.44
465.414	143.44
465.634	94.44
465.854	86.44
466.073	87.44
466.293	75.44
466.512	92.44
466.732	95.44
466.951	106.44
467.171	80.44
467.391	93.44
467.61	98.44
467.829	92.44
468.049	118.44
468.268	133.44
468.488	98.44
468.707	86.44
468.927	89.44
469.146	85.44
469.365	105.44
469.585	91.44
469.804	94.44
470.023	92.44
470.243	91.44
470.462	95.44
470.681	96.44
470.901	100.44
471.12	95.44
471.339	100.44
471.558	97.44
471.777	89.44
471.997	104.44
472.216	170.44
472.435	247.44
472.654	106.44
472.873	92.44
473.092	86.44
473.311	100.44
473.53	90.44
473.749	96.44
473.968	95.44
474.187	99.44
474.406	95.44
474.625	101.44
474.844	78.44
475.063	97.44
475.282	84.44
475.501	81.44
475.72	84.44
475.939	81.44
476.158	85.44
476.377	111.44
476.596	99.44
476.814	90.44
477.033	87.44
477.252	72.44
477.471	75.44
477.69	92.44
477.908	91.44
478.127	83.44
478.346	81.44
478.564	85.44
478.783	79.44
479.002	91.44
479.22	92.44
479.439	78.44
479.658	96.44
479.876	91.44
480.095	83.44
480.313	90.44
480.532	93.44
480.751	125.44
480.969	163.44
481.188	399.44
481.406	276.44
481.624	116.44
481.843	85.44
482.061	86.44
482.28	92.44
482.498	92.44
482.717	99.44
482.935	90.44
483.153	102.44
483.372	103.44
483.59	84.44
483.808	103.44
484.027	92.44
484.245	94.44
484.463	107.44
484.681	87.44
484.9	89.44
485.118	89.44
485.336	83.44
485.554	95.44
485.772	93.44
485.99	112.44
486.209	110.44
486.427	103.44
486.645	112.44
486.863	107.44
487.081	105.44
487.299	83.44
487.517	102.44
487.735	88.44
487.953	104.44
488.171	96.44
488.389	101.44
488.607	94.44
488.825	86.44
489.043	89.44
489.261	80.44
489.479	81.44
489.696	94.44
489.914	90.44
490.132	97.44
490.35	85.44
490.568	87.44
490.786	79.44
491.003	88.44
491.221	99.44
491.439	88.44
491.657	99.44
491.874	104.44
492.092	96.44
492.31	83.44
492.527	100.44
492.745	88.44
492.963	92.44
493.18	83.44
493.398	92.44
493.615	103.44
493.833	96.44
494.05	96.44
494.268	91.44
494.485	91.44
494.703	95.44
494.92	99.44
495.138	92.44
495.355	98.44
495.573	84.44
495.79	91.44
496.008	97.44
496.225	86.44
496.442	86.44
496.66	87.44
496.877	99.44
497.094	97.44
497.312	87.44
497.529	86.44
497.746	89.44
497.963	98.44
498.181	81.44
498.398	94.44
498.615	101.44
498.832	101.44
499.049	86.44
499.267	89.44
499.484	100.44
499.701	88.44
499.918	82.44
500.135	87.44
500.352	84.44
500.569	75.44
500.786	97.44
501.003	96.44
501.22	85.44
501.437	96.44
501.654	83.44
501.871	113.44
502.088	83.44
502.305	93.44
502.522	99.44
502.739	81.44
502.956	86.44
503.172	95.44
503.389	111.44
503.606	99.44
503.823	93.44
504.04	98.44
504.256	92.44
504.473	88.44
504.69	105.44
504.907	103.44
505.123	84.44
505.34	85.44
505.557	85.44
505.773	99.44
505.99	103.44
506.207	91.44
506.423	82.44
506.64	88.44
506.856	99.44
507.073	89.44
507.289	89.44
507.506	95.44
507.722	104.44
507.939	111.44
508.155	97.44
508.372	94.44
508.588	99.44
508.805	94.44
509.021	91.44
509.238	81.44
509.454	87.44
509.67	112.44
509.887	103.44
510.103	119.44
510.319	211.44
510.536	693.44
510.752	2182.44
510.968	626.44
511.184	149.44
511.401	112.44
511.617	119.44
511.833	102.44
512.049	91.44
512.265	104.44
512.481	107.44
512.698	85.44
512.914	74.44
513.13	77.44
513.346	96.44
513.562	100.44
513.778	99.44
513.994	85.44
514.21	103.44
514.426	120.44
514.642	108.44
514.858	110.44
515.074	155.44
515.29	378.44
515.506	1272.44
515.721	493.44
