Data from Circ_2003_H10_HRD10591_00033.txt Node
Date: Wed Jan 03 10:37:09 EST 2024
User: Yrep
Spectrometer: HR+D1059
Trigger mode: 1
Integration Time (sec): 1.000000E-1
Scans to average: 1
Electric dark correction enabled: true
Nonlinearity correction enabled: false
Boxcar width: 0
XAxis mode: Wavelengths
Number of Pixels in Spectrum: 2048
>>>>>Begin Spectral Data<<<<<
223.165	-12.56
223.4	-12.56
223.635	-12.56
223.869	-6.56
224.104	-17.56
224.338	-8.56
224.573	-38.56
224.808	-9.56
225.042	-4.56
225.277	-5.56
225.511	11.44
225.746	-9.56
225.98	7.44
226.215	14.44
226.449	18.44
226.683	12.44
226.918	19.44
227.152	29.44
227.387	25.44
227.621	32.44
227.856	39.44
228.09	33.44
228.324	49.44
228.559	51.44
228.793	140.44
229.027	427.44
229.262	504.44
229.496	564.44
229.73	772.44
229.964	779.44
230.199	524.44
230.433	449.44
230.667	460.44
230.901	432.44
231.136	420.44
231.37	432.44
231.604	444.44
231.838	430.44
232.072	453.44
232.306	447.44
232.541	449.44
232.775	473.44
233.009	462.44
233.243	477.44
233.477	462.44
233.711	471.44
233.945	498.44
234.179	503.44
234.413	477.44
234.647	498.44
234.881	493.44
235.115	526.44
235.349	520.44
235.583	551.44
235.817	594.44
236.051	618.44
236.285	606.44
236.519	583.44
236.753	672.44
236.987	877.44
237.221	1345.44
237.455	1457.44
237.689	881.44
237.922	727.44
238.156	690.44
238.39	666.44
238.624	617.44
238.858	606.44
239.091	617.44
239.325	630.44
239.559	650.44
239.793	673.44
240.027	739.44
240.26	866.44
240.494	931.44
240.728	926.44
240.961	886.44
241.195	795.44
241.429	770.44
241.662	723.44
241.896	739.44
242.13	730.44
242.363	760.44
242.597	774.44
242.83	794.44
243.064	781.44
243.298	796.44
243.531	806.44
243.765	817.44
243.998	782.44
244.232	821.44
244.465	856.44
244.699	854.44
244.932	890.44
245.166	838.44
245.399	848.44
245.633	882.44
245.866	893.44
246.099	900.44
246.333	926.44
246.566	930.44
246.8	921.44
247.033	974.44
247.266	1001.44
247.5	1047.44
247.733	1097.44
247.966	1119.44
248.2	1115.44
248.433	1096.44
248.666	1166.44
248.899	1264.44
249.133	1390.44
249.366	1384.44
249.599	1235.44
249.832	1150.44
250.066	1161.44
250.299	1207.44
250.532	1265.44
250.765	1488.44
250.998	1660.44
251.231	1569.44
251.465	1423.44
251.698	1358.44
251.931	1331.44
252.164	1364.44
252.397	1343.44
252.63	1412.44
252.863	1497.44
253.096	1612.44
253.329	1639.44
253.562	1582.44
253.795	1494.44
254.028	1490.44
254.261	1541.44
254.494	1767.44
254.727	2101.44
254.96	2145.44
255.193	1875.44
255.426	1661.44
255.659	1538.44
255.892	1548.44
256.124	1582.44
256.357	1533.44
256.59	1532.44
256.823	1438.44
257.056	1450.44
257.289	1493.44
257.521	1492.44
257.754	1519.44
257.987	1464.44
258.22	1484.44
258.452	1505.44
258.685	1541.44
258.918	1491.44
259.151	1540.44
259.383	1641.44
259.616	1660.44
259.849	1705.44
260.081	1870.44
260.314	2021.44
260.547	2006.44
260.779	1821.44
261.012	1716.44
261.244	1632.44
261.477	1679.44
261.71	1636.44
261.942	1660.44
262.175	1714.44
262.407	1700.44
262.64	1607.44
262.872	1618.44
263.105	1608.44
263.337	1607.44
263.57	1629.44
263.802	1620.44
264.035	1585.44
264.267	1643.44
264.499	1606.44
264.732	1647.44
264.964	1647.44
265.197	1645.44
265.429	1697.44
265.661	1661.44
265.894	1677.44
266.126	1698.44
266.358	1760.44
266.591	1718.44
266.823	1808.44
267.055	1812.44
267.287	1799.44
267.52	1766.44
267.752	1824.44
267.984	1807.44
268.216	1849.44
268.448	1848.44
268.681	2025.44
268.913	2038.44
269.145	2275.44
269.377	2333.44
269.609	2258.44
269.841	2197.44
270.073	2312.44
270.306	2552.44
270.538	2728.44
270.77	2613.44
271.002	2441.44
271.234	2422.44
271.466	2529.44
271.698	2695.44
271.93	2698.44
272.162	2684.44
272.394	2606.44
272.626	2464.44
272.858	2305.44
273.09	2228.44
273.322	2208.44
273.553	2189.44
273.785	2148.44
274.017	2203.44
274.249	2221.44
274.481	2192.44
274.713	2198.44
274.945	2229.44
275.176	2240.44
275.408	2225.44
275.64	2218.44
275.872	2175.44
276.104	2270.44
276.335	2294.44
276.567	2341.44
276.799	2464.44
277.031	2766.44
277.262	2817.44
277.494	2708.44
277.726	2531.44
277.957	2449.44
278.189	2354.44
278.421	2334.44
278.652	2318.44
278.884	2304.44
279.115	2329.44
279.347	2328.44
279.579	2377.44
279.81	2330.44
280.042	2315.44
280.273	2308.44
280.505	2334.44
280.736	2386.44
280.968	2394.44
281.199	2370.44
281.431	2416.44
281.662	2384.44
281.894	2447.44
282.125	2480.44
282.356	2636.44
282.588	2784.44
282.819	2602.44
283.051	2514.44
283.282	2464.44
283.513	2528.44
283.745	2554.44
283.976	2569.44
284.207	2590.44
284.439	2584.44
284.67	2522.44
284.901	2590.44
285.132	2602.44
285.364	2533.44
285.595	2557.44
285.826	2521.44
286.057	2624.44
286.288	2618.44
286.52	2612.44
286.751	2626.44
286.982	2690.44
287.213	2650.44
287.444	2706.44
287.675	2715.44
287.906	2835.44
288.138	2921.44
288.369	2868.44
288.6	2873.44
288.831	2871.44
289.062	2798.44
289.293	2755.44
289.524	2750.44
289.755	2784.44
289.986	2762.44
290.217	2769.44
290.448	2784.44
290.679	2788.44
290.91	2766.44
291.141	2825.44
291.371	2737.44
291.602	2783.44
291.833	2826.44
292.064	2784.44
292.295	2768.44
292.526	2828.44
292.757	2806.44
292.987	2797.44
293.218	2780.44
293.449	2856.44
293.68	2816.44
293.91	2785.44
294.141	2790.44
294.372	2781.44
294.603	2831.44
294.833	2814.44
295.064	2854.44
295.295	2851.44
295.525	2880.44
295.756	2916.44
295.987	3004.44
296.217	3179.44
296.448	3037.44
296.679	2960.44
296.909	2894.44
297.14	2886.44
297.37	2949.44
297.601	3010.44
297.831	3053.44
298.062	3064.44
298.292	3044.44
298.523	3082.44
298.753	3120.44
298.984	3036.44
299.214	3085.44
299.445	3032.44
299.675	3039.44
299.905	3089.44
300.136	3103.44
300.366	3094.44
300.597	3140.44
300.827	3283.44
301.057	3352.44
301.288	3345.44
301.518	3308.44
301.748	3311.44
301.979	3383.44
302.209	3381.44
302.439	3349.44
302.669	3308.44
302.9	3268.44
303.13	3239.44
303.36	3289.44
303.59	3325.44
303.82	3404.44
304.051	3342.44
304.281	3285.44
304.511	3270.44
304.741	3190.44
304.971	3296.44
305.201	3212.44
305.431	3247.44
305.661	3262.44
305.891	3253.44
306.121	3255.44
306.352	3338.44
306.582	3329.44
306.812	3215.44
307.042	3238.44
307.272	3281.44
307.502	3239.44
307.731	3276.44
307.961	3241.44
308.191	3237.44
308.421	3279.44
308.651	3306.44
308.881	3294.44
309.111	3330.44
309.341	3342.44
309.571	3421.44
309.8	3475.44
310.03	3550.44
310.26	3594.44
310.49	3572.44
310.72	3682.44
310.949	3757.44
311.179	3700.44
311.409	3603.44
311.639	3597.44
311.868	3600.44
312.098	3620.44
312.328	3698.44
312.557	3877.44
312.787	3882.44
313.017	3858.44
313.246	3781.44
313.476	3660.44
313.706	3770.44
313.935	3829.44
314.165	3948.44
314.394	3966.44
314.624	3912.44
314.853	3761.44
315.083	3771.44
315.312	3732.44
315.542	3702.44
315.771	3648.44
316.001	3656.44
316.23	3653.44
316.46	3645.44
316.689	3685.44
316.919	3714.44
317.148	3719.44
317.377	3726.44
317.607	3709.44
317.836	3650.44
318.065	3659.44
318.295	3640.44
318.524	3650.44
318.753	3667.44
318.983	3644.44
319.212	3650.44
319.441	3673.44
319.67	3706.44
319.9	3675.44
320.129	3638.44
320.358	3692.44
320.587	3676.44
320.816	3778.44
321.046	3795.44
321.275	3800.44
321.504	3846.44
321.733	3845.44
321.962	3906.44
322.191	3942.44
322.42	4141.44
322.649	4132.44
322.878	4272.44
323.108	4299.44
323.337	4512.44
323.566	4716.44
323.795	4978.44
324.024	5591.44
324.253	7356.44
324.482	11093.44
324.71	15340.44
324.939	15610.44
325.168	13009.44
325.397	6638.44
325.626	5317.44
325.855	4930.44
326.084	4829.44
326.313	4718.44
326.542	4876.44
326.77	5494.44
326.999	6975.44
327.228	10403.44
327.457	14403.44
327.686	13631.44
327.914	7378.44
328.143	5818.44
328.372	5482.44
328.6	5242.44
328.829	5186.44
329.058	5354.44
329.287	5321.44
329.515	5033.44
329.744	4819.44
329.972	4874.44
330.201	4956.44
330.43	5236.44
330.658	5428.44
330.887	5737.44
331.115	5328.44
331.344	4968.44
331.572	4925.44
331.801	4932.44
332.03	5006.44
332.258	4896.44
332.486	4882.44
332.715	4995.44
332.943	5140.44
333.172	5281.44
333.4	5490.44
333.629	5579.44
333.857	5657.44
334.085	5651.44
334.314	5532.44
334.542	5545.44
334.771	5554.44
334.999	5267.44
335.227	5228.44
335.455	5130.44
335.684	5016.44
335.912	5025.44
336.14	4885.44
336.369	4999.44
336.597	4992.44
336.825	4896.44
337.053	4798.44
337.281	4691.44
337.51	4656.44
337.738	4694.44
337.966	4711.44
338.194	4670.44
338.422	4619.44
338.65	4553.44
338.878	4537.44
339.106	4447.44
339.334	4519.44
339.562	4479.44
339.79	4357.44
340.018	4427.44
340.246	4454.44
340.474	4435.44
340.702	4447.44
340.93	4390.44
341.158	4335.44
341.386	4360.44
341.614	4409.44
341.842	4332.44
342.07	4323.44
342.298	4329.44
342.526	4256.44
342.754	4278.44
342.981	4311.44
343.209	4432.44
343.437	4670.44
343.665	4945.44
343.893	5111.44
344.12	5101.44
344.348	4908.44
344.576	4750.44
344.804	4674.44
345.031	4614.44
345.259	4548.44
345.487	4431.44
345.714	4323.44
345.942	4212.44
346.17	4228.44
346.397	4220.44
346.625	4184.44
346.853	4170.44
347.08	4169.44
347.308	4252.44
347.535	4314.44
347.763	4338.44
347.99	4273.44
348.218	4257.44
348.445	4273.44
348.673	4269.44
348.9	4145.44
349.128	4073.44
349.355	4064.44
349.583	4094.44
349.81	4057.44
350.037	3988.44
350.265	4074.44
350.492	4080.44
350.72	4077.44
350.947	4089.44
351.174	4200.44
351.402	4198.44
351.629	4112.44
351.856	4179.44
352.083	4309.44
352.311	4238.44
352.538	4225.44
352.765	4167.44
352.992	4191.44
353.22	4179.44
353.447	4043.44
353.674	4070.44
353.901	4031.44
354.128	3951.44
354.355	3896.44
354.583	3942.44
354.81	3990.44
355.037	3899.44
355.264	3914.44
355.491	3980.44
355.718	3951.44
355.945	3908.44
356.172	3939.44
356.399	3926.44
356.626	3912.44
356.853	3960.44
357.08	3853.44
357.307	3898.44
357.534	3930.44
357.761	3913.44
357.988	3958.44
358.215	3927.44
358.441	3988.44
358.668	4025.44
358.895	4069.44
359.122	4125.44
359.349	4136.44
359.576	4271.44
359.802	4451.44
360.029	4628.44
360.256	4617.44
360.483	4408.44
360.709	4228.44
360.936	4204.44
361.163	4180.44
361.39	4224.44
361.616	4166.44
361.843	4195.44
362.07	4212.44
362.296	4199.44
362.523	4165.44
362.749	4134.44
362.976	4120.44
363.203	4072.44
363.429	3986.44
363.656	4008.44
363.882	4070.44
364.109	4009.44
364.335	4002.44
364.562	3989.44
364.788	4006.44
365.015	4019.44
365.241	4025.44
365.468	4063.44
365.694	4140.44
365.92	4058.44
366.147	4046.44
366.373	4047.44
366.599	4003.44
366.826	4021.44
367.052	3982.44
367.278	4089.44
367.505	4064.44
367.731	4054.44
367.957	4116.44
368.184	4088.44
368.41	4171.44
368.636	4273.44
368.862	4256.44
369.089	4180.44
369.315	4102.44
369.541	4131.44
369.767	4151.44
369.993	4164.44
370.219	4192.44
370.445	4197.44
370.672	4225.44
370.898	4195.44
371.124	4287.44
371.35	4297.44
371.576	4295.44
371.802	4254.44
372.028	4249.44
372.254	4262.44
372.48	4343.44
372.706	4497.44
372.932	4515.44
373.158	4448.44
373.384	4310.44
373.61	4333.44
373.835	4336.44
374.061	4374.44
374.287	4404.44
374.513	4502.44
374.739	4581.44
374.965	4688.44
375.191	4742.44
375.416	4638.44
375.642	4553.44
375.868	4455.44
376.094	4408.44
376.319	4387.44
376.545	4409.44
376.771	4364.44
376.997	4313.44
377.222	4313.44
377.448	4272.44
377.674	4258.44
377.899	4249.44
378.125	4295.44
378.35	4260.44
378.576	4238.44
378.802	4236.44
379.027	4305.44
379.253	4282.44
379.478	4245.44
379.704	4251.44
379.929	4309.44
380.155	4334.44
380.38	4310.44
380.606	4344.44
380.831	4320.44
381.057	4335.44
381.282	4378.44
381.507	4374.44
381.733	4388.44
381.958	4410.44
382.184	4467.44
382.409	4526.44
382.634	4575.44
382.86	4526.44
383.085	4604.44
383.31	4700.44
383.535	4737.44
383.761	4778.44
383.986	4884.44
384.211	4933.44
384.436	5017.44
384.662	5059.44
384.887	5147.44
385.112	5134.44
385.337	5245.44
385.562	5203.44
385.787	5303.44
386.013	5320.44
386.238	5380.44
386.463	5260.44
386.688	5274.44
386.913	5137.44
387.138	5160.44
387.363	5116.44
387.588	5085.44
387.813	5172.44
388.038	5088.44
388.263	5182.44
388.488	5195.44
388.713	5184.44
388.938	5134.44
389.163	5105.44
389.387	5109.44
389.612	5116.44
389.837	5129.44
390.062	5034.44
390.287	5148.44
390.512	5116.44
390.736	5165.44
390.961	5238.44
391.186	5281.44
391.411	5505.44
391.636	5586.44
391.86	5676.44
392.085	5820.44
392.31	5714.44
392.534	5556.44
392.759	5506.44
392.984	5420.44
393.208	5340.44
393.433	5338.44
393.658	5371.44
393.882	5357.44
394.107	5402.44
394.331	5432.44
394.556	5415.44
394.78	5536.44
395.005	5493.44
395.229	5582.44
395.454	5737.44
395.678	5864.44
395.903	5824.44
396.127	5845.44
396.352	5647.44
396.576	5461.44
396.801	5484.44
397.025	5521.44
397.249	5698.44
397.474	5751.44
397.698	5811.44
397.922	5912.44
398.147	6117.44
398.371	6162.44
398.595	6293.44
398.82	6549.44
399.044	7144.44
399.268	7937.44
399.492	8979.44
399.717	9682.44
399.941	9330.44
400.165	8754.44
400.389	8110.44
400.613	7270.44
400.837	6820.44
401.062	6675.44
401.286	6525.44
401.51	6476.44
401.734	6446.44
401.958	6635.44
402.182	6715.44
402.406	6804.44
402.63	6861.44
402.854	7014.44
403.078	7101.44
403.302	7242.44
403.526	7331.44
403.75	7388.44
403.974	7466.44
404.198	7404.44
404.422	7460.44
404.645	7467.44
404.869	7363.44
405.093	7593.44
405.317	7688.44
405.541	7660.44
405.765	7316.44
405.988	7271.44
406.212	7447.44
406.436	7620.44
406.66	7731.44
406.883	7745.44
407.107	8356.44
407.331	8865.44
407.555	9373.44
407.778	9054.44
408.002	8393.44
408.226	7896.44
408.449	7848.44
408.673	7658.44
408.896	7758.44
409.12	7917.44
409.344	7512.44
409.567	7084.44
409.791	7161.44
410.014	7019.44
410.238	6937.44
410.461	6972.44
410.685	7088.44
410.908	7181.44
411.132	7322.44
411.355	7370.44
411.578	7005.44
411.802	6722.44
412.025	6758.44
412.249	6857.44
412.472	6989.44
412.695	7008.44
412.919	6595.44
413.142	6591.44
413.365	6407.44
413.589	6505.44
413.812	6291.44
414.035	6308.44
414.258	6372.44
414.482	6391.44
414.705	6437.44
414.928	6388.44
415.151	6440.44
415.374	6445.44
415.597	6302.44
415.821	6194.44
416.044	6238.44
416.267	6299.44
416.49	6215.44
416.713	6255.44
416.936	6334.44
417.159	6296.44
417.382	6326.44
417.605	6381.44
417.828	6437.44
418.051	6639.44
418.274	6490.44
418.497	6392.44
418.72	6554.44
418.943	6489.44
419.166	6829.44
419.389	7216.44
419.611	7093.44
419.834	6968.44
420.057	6816.44
420.28	6630.44
420.503	6485.44
420.726	6463.44
420.948	6667.44
421.171	7037.44
421.394	7014.44
421.617	6518.44
421.839	6530.44
422.062	6591.44
422.285	6763.44
422.507	7420.44
422.73	7956.44
422.953	7371.44
423.175	7022.44
423.398	6999.44
423.621	6989.44
423.843	7307.44
424.066	7204.44
424.288	7125.44
424.511	7350.44
424.733	7773.44
424.956	8127.44
425.178	7714.44
425.401	8023.44
425.623	7812.44
425.846	6804.44
426.068	6678.44
426.291	6548.44
426.513	6592.44
426.735	6589.44
426.958	7124.44
427.18	7887.44
427.402	8949.44
427.625	8981.44
427.847	7666.44
428.069	6840.44
428.292	6480.44
428.514	6086.44
428.736	5950.44
428.958	5941.44
429.181	5771.44
429.403	5715.44
429.625	5934.44
429.847	6295.44
430.069	6869.44
430.292	6397.44
430.514	5856.44
430.736	5813.44
430.958	5750.44
431.18	5637.44
431.402	5643.44
431.624	5756.44
431.846	5776.44
432.068	5738.44
432.29	5876.44
432.512	5727.44
432.734	5887.44
432.956	5749.44
433.178	5879.44
433.4	5785.44
433.622	5756.44
433.844	5734.44
434.066	5751.44
434.287	5855.44
434.509	6132.44
434.731	6364.44
434.953	6461.44
435.175	6611.44
435.397	6698.44
435.618	6615.44
435.84	7000.44
436.062	7817.44
436.284	7804.44
436.505	6590.44
436.727	6200.44
436.949	5982.44
437.17	5858.44
437.392	5900.44
437.614	5986.44
437.835	6351.44
438.057	7394.44
438.278	7908.44
438.5	7852.44
438.721	8610.44
438.943	7681.44
439.165	6367.44
439.386	6203.44
439.608	6244.44
439.829	6449.44
440.05	6670.44
440.272	7012.44
440.493	6465.44
440.715	6134.44
440.936	6156.44
441.158	6123.44
441.379	6273.44
441.6	6632.44
441.822	6803.44
442.043	7316.44
442.264	8022.44
442.486	7773.44
442.707	6871.44
442.928	6764.44
443.149	6916.44
443.371	7151.44
443.592	7713.44
443.813	8673.44
444.034	8555.44
444.255	7534.44
444.476	7402.44
444.698	7529.44
444.919	7645.44
445.14	7377.44
445.361	7262.44
445.582	7469.44
445.803	8020.44
446.024	8633.44
446.245	8195.44
446.466	7422.44
446.687	6472.44
446.908	6144.44
447.129	5798.44
447.35	5636.44
447.571	5582.44
447.792	5508.44
448.013	5617.44
448.234	5879.44
448.455	6497.44
448.675	7655.44
448.896	8097.44
449.117	6718.44
449.338	7012.44
449.559	8220.44
449.779	8327.44
450	6380.44
450.221	5764.44
450.442	5548.44
450.662	5508.44
450.883	5557.44
451.104	5634.44
451.324	5464.44
451.545	5313.44
451.766	5223.44
451.986	5125.44
452.207	5029.44
452.428	5073.44
452.648	5082.44
452.869	5154.44
453.089	5180.44
453.31	5262.44
453.53	5109.44
453.751	4992.44
453.971	5067.44
454.192	5120.44
454.412	4988.44
454.633	4912.44
454.853	4852.44
455.073	4943.44
455.294	5369.44
455.514	5804.44
455.734	5405.44
455.955	4804.44
456.175	4714.44
456.395	4606.44
456.616	4623.44
456.836	4640.44
457.056	4670.44
457.276	4553.44
457.497	4770.44
457.717	4744.44
457.937	4807.44
458.157	4879.44
458.377	4977.44
458.598	5314.44
458.818	5909.44
459.038	6720.44
459.258	6701.44
459.478	5954.44
459.698	5842.44
459.918	5871.44
460.138	6084.44
460.358	6298.44
460.578	6316.44
460.798	6393.44
461.018	6415.44
461.238	6319.44
461.458	6238.44
461.678	6206.44
461.898	6408.44
462.118	6420.44
462.338	6774.44
462.558	6836.44
462.777	7174.44
462.997	7799.44
463.217	8170.44
463.437	7996.44
463.657	7386.44
463.876	7198.44
464.096	7205.44
464.316	7221.44
464.536	7175.44
464.755	6985.44
464.975	6874.44
465.195	7021.44
465.414	7088.44
465.634	6196.44
465.854	5875.44
466.073	5610.44
466.293	5463.44
466.512	5337.44
466.732	5236.44
466.951	5212.44
467.171	5231.44
467.391	5274.44
467.61	5404.44
467.829	5337.44
468.049	5298.44
468.268	5073.44
468.488	5046.44
468.707	5016.44
468.927	5022.44
469.146	4962.44
469.365	5067.44
469.585	5148.44
469.804	5308.44
470.023	5427.44
470.243	5445.44
470.462	5480.44
470.681	5686.44
470.901	5488.44
471.12	5312.44
471.339	5328.44
471.558	5317.44
471.777	5204.44
471.997	5145.44
472.216	5106.44
472.435	5160.44
472.654	5075.44
472.873	4940.44
473.092	4965.44
473.311	4920.44
473.53	4998.44
473.749	5125.44
473.968	5768.44
474.187	6679.44
474.406	6239.44
474.625	5308.44
474.844	5074.44
475.063	4941.44
475.282	5101.44
475.501	5056.44
475.72	5105.44
475.939	5124.44
476.158	5161.44
476.377	5218.44
476.596	5233.44
476.814	5372.44
477.033	5428.44
477.252	5403.44
477.471	5578.44
477.69	5593.44
477.908	5781.44
478.127	5944.44
478.346	5941.44
478.564	6074.44
478.783	6291.44
479.002	6308.44
479.22	6287.44
479.439	6387.44
479.658	6509.44
479.876	6625.44
480.095	6809.44
480.313	7188.44
480.532	7128.44
480.751	6954.44
480.969	6884.44
481.188	6947.44
481.406	6669.44
481.624	6379.44
481.843	6233.44
482.061	6108.44
482.28	5978.44
482.498	5912.44
482.717	5914.44
482.935	5854.44
483.153	5809.44
483.372	5873.44
483.59	5854.44
483.808	5927.44
484.027	5898.44
484.245	5968.44
484.463	5935.44
484.681	6055.44
484.9	6123.44
485.118	6196.44
485.336	6214.44
485.554	6270.44
485.772	6231.44
485.99	6302.44
486.209	6192.44
486.427	6396.44
486.645	6414.44
486.863	6572.44
487.081	6405.44
487.299	6340.44
487.517	6393.44
487.735	6334.44
487.953	6233.44
