Data from Circ_2003_H10_HRD10591_00018.txt Node
Date: Wed Jan 03 10:37:06 EST 2024
User: Yrep
Spectrometer: HR+D1059
Trigger mode: 1
Integration Time (sec): 1.000000E-1
Scans to average: 1
Electric dark correction enabled: true
Nonlinearity correction enabled: false
Boxcar width: 0
XAxis mode: Wavelengths
Number of Pixels in Spectrum: 2048
>>>>>Begin Spectral Data<<<<<
223.165	-27
223.4	-27
223.635	-27
223.869	-14
224.104	-19
224.338	-19
224.573	-28
224.808	-6
225.042	-2
225.277	2
225.511	-6
225.746	14
225.98	3
226.215	4
226.449	24
226.683	25
226.918	25
227.152	24
227.387	32
227.621	40
227.856	50
228.09	39
228.324	48
228.559	64
228.793	62
229.027	66
229.262	70
229.496	67
229.73	72
229.964	80
230.199	79
230.433	69
230.667	74
230.901	83
231.136	84
231.37	80
231.604	83
231.838	70
232.072	65
232.306	72
232.541	84
232.775	83
233.009	83
233.243	66
233.477	84
233.711	74
233.945	81
234.179	78
234.413	84
234.647	81
234.881	74
235.115	83
235.349	81
235.583	80
235.817	65
236.051	62
236.285	89
236.519	75
236.753	78
236.987	93
237.221	78
237.455	75
237.689	73
237.922	68
238.156	71
238.39	82
238.624	73
238.858	79
239.091	80
239.325	73
239.559	79
239.793	78
240.027	72
240.26	79
240.494	99
240.728	79
240.961	68
241.195	83
241.429	74
241.662	71
241.896	64
242.13	86
242.363	66
242.597	76
242.83	73
243.064	55
243.298	77
243.531	77
243.765	77
243.998	86
244.232	89
244.465	96
244.699	98
244.932	84
245.166	66
245.399	89
245.633	82
245.866	76
246.099	71
246.333	73
246.566	77
246.8	100
247.033	81
247.266	74
247.5	78
247.733	76
247.966	81
248.2	94
248.433	84
248.666	74
248.899	79
249.133	84
249.366	88
249.599	98
249.832	99
250.066	87
250.299	93
250.532	77
250.765	78
250.998	75
251.231	89
251.465	83
251.698	84
251.931	80
252.164	78
252.397	88
252.63	71
252.863	84
253.096	69
253.329	83
253.562	77
253.795	87
254.028	86
254.261	82
254.494	69
254.727	80
254.96	84
255.193	82
255.426	87
255.659	70
255.892	81
256.124	84
256.357	84
256.59	61
256.823	91
257.056	77
257.289	85
257.521	80
257.754	91
257.987	81
258.22	87
258.452	91
258.685	82
258.918	87
259.151	77
259.383	72
259.616	66
259.849	75
260.081	73
260.314	71
260.547	82
260.779	83
261.012	72
261.244	80
261.477	87
261.71	96
261.942	115
262.175	107
262.407	93
262.64	83
262.872	79
263.105	69
263.337	82
263.57	73
263.802	85
264.035	75
264.267	77
264.499	87
264.732	79
264.964	78
265.197	79
265.429	80
265.661	79
265.894	80
266.126	68
266.358	69
266.591	69
266.823	78
267.055	98
267.287	80
267.52	93
267.752	81
267.984	79
268.216	83
268.448	86
268.681	82
268.913	83
269.145	94
269.377	86
269.609	88
269.841	103
270.073	88
270.306	82
270.538	102
270.77	81
271.002	71
271.234	74
271.466	94
271.698	85
271.93	79
272.162	78
272.394	74
272.626	85
272.858	79
273.09	71
273.322	69
273.553	64
273.785	87
274.017	92
274.249	91
274.481	77
274.713	85
274.945	73
275.176	93
275.408	95
275.64	97
275.872	86
276.104	92
276.335	80
276.567	97
276.799	124
277.031	106
277.262	79
277.494	80
277.726	87
277.957	80
278.189	79
278.421	62
278.652	84
278.884	83
279.115	86
279.347	82
279.579	79
279.81	75
280.042	72
280.273	74
280.505	85
280.736	91
280.968	77
281.199	87
281.431	83
281.662	73
281.894	94
282.125	84
282.356	112
282.588	140
282.819	116
283.051	84
283.282	90
283.513	95
283.745	84
283.976	102
284.207	93
284.439	83
284.67	81
284.901	98
285.132	90
285.364	83
285.595	88
285.826	87
286.057	82
286.288	81
286.52	72
286.751	71
286.982	78
287.213	90
287.444	83
287.675	78
287.906	90
288.138	80
288.369	101
288.6	90
288.831	88
289.062	85
289.293	70
289.524	77
289.755	96
289.986	70
290.217	90
290.448	102
290.679	81
290.91	96
291.141	87
291.371	88
291.602	76
291.833	82
292.064	75
292.295	81
292.526	77
292.757	88
292.987	82
293.218	84
293.449	81
293.68	81
293.91	98
294.141	90
294.372	79
294.603	77
294.833	86
295.064	99
295.295	90
295.525	92
295.756	80
295.987	102
296.217	112
296.448	116
296.679	83
296.909	74
297.14	78
297.37	83
297.601	85
297.831	96
298.062	84
298.292	90
298.523	72
298.753	84
298.984	86
299.214	94
299.445	79
299.675	86
299.905	80
300.136	87
300.366	71
300.597	86
300.827	93
301.057	107
301.288	98
301.518	89
301.748	90
301.979	108
302.209	82
302.439	97
302.669	93
302.9	87
303.13	90
303.36	104
303.59	107
303.82	102
304.051	94
304.281	90
304.511	97
304.741	97
304.971	91
305.201	105
305.431	79
305.661	95
305.891	78
306.121	82
306.352	83
306.582	109
306.812	102
307.042	89
307.272	82
307.502	84
307.731	100
307.961	93
308.191	94
308.421	90
308.651	104
308.881	86
309.111	80
309.341	91
309.571	90
309.8	83
310.03	76
310.26	103
310.49	99
310.72	94
310.949	98
311.179	90
311.409	89
311.639	84
311.868	81
312.098	81
312.328	88
312.557	89
312.787	89
313.017	80
313.246	89
313.476	97
313.706	95
313.935	78
314.165	92
314.394	96
314.624	95
314.853	100
315.083	95
315.312	74
315.542	85
315.771	70
316.001	93
316.23	94
316.46	85
316.689	82
316.919	96
317.148	91
317.377	96
317.607	92
317.836	81
318.065	82
318.295	96
318.524	90
318.753	94
318.983	84
319.212	102
319.441	93
319.67	94
319.9	95
320.129	90
320.358	89
320.587	102
320.816	94
321.046	113
321.275	91
321.504	102
321.733	95
321.962	104
322.191	97
322.42	105
322.649	100
322.878	91
323.108	102
323.337	109
323.566	127
323.795	152
324.024	218
324.253	389
324.482	815
324.71	1692
324.939	2188
325.168	793
325.397	241
325.626	139
325.855	120
326.084	109
326.313	143
326.542	153
326.77	226
326.999	461
327.228	932
327.457	1717
327.686	1380
327.914	381
328.143	190
328.372	133
328.6	116
328.829	125
329.058	122
329.287	119
329.515	111
329.744	117
329.972	79
330.201	103
330.43	111
330.658	137
330.887	132
331.115	110
331.344	108
331.572	92
331.801	112
332.03	105
332.258	86
332.486	103
332.715	90
332.943	89
333.172	89
333.4	100
333.629	93
333.857	105
334.085	105
334.314	94
334.542	95
334.771	98
334.999	100
335.227	91
335.455	94
335.684	83
335.912	95
336.14	90
336.369	100
336.597	101
336.825	100
337.053	86
337.281	87
337.51	86
337.738	78
337.966	90
338.194	93
338.422	86
338.65	96
338.878	98
339.106	93
339.334	87
339.562	83
339.79	85
340.018	88
340.246	82
340.474	90
340.702	77
340.93	96
341.158	82
341.386	88
341.614	95
341.842	87
342.07	89
342.298	88
342.526	87
342.754	83
342.981	105
343.209	93
343.437	98
343.665	81
343.893	93
344.12	94
344.348	88
344.576	79
344.804	92
345.031	93
345.259	89
345.487	87
345.714	82
345.942	92
346.17	80
346.397	97
346.625	88
346.853	95
347.08	93
347.308	94
347.535	92
347.763	86
347.99	97
348.218	106
348.445	110
348.673	90
348.9	95
349.128	101
349.355	96
349.583	82
349.81	97
350.037	92
350.265	94
350.492	97
350.72	94
350.947	90
351.174	100
351.402	112
351.629	92
351.856	94
352.083	100
352.311	113
352.538	105
352.765	108
352.992	118
353.22	125
353.447	86
353.674	90
353.901	95
354.128	95
354.355	98
354.583	107
354.81	83
355.037	98
355.264	103
355.491	76
355.718	82
355.945	98
356.172	94
356.399	105
356.626	119
356.853	111
357.08	88
357.307	87
357.534	90
357.761	100
357.988	103
358.215	114
358.441	103
358.668	83
358.895	97
359.122	96
359.349	98
359.576	84
359.802	94
360.029	103
360.256	101
360.483	97
360.709	85
360.936	89
361.163	90
361.39	90
361.616	107
361.843	82
362.07	92
362.296	99
362.523	83
362.749	79
362.976	89
363.203	81
363.429	91
363.656	104
363.882	93
364.109	105
364.335	92
364.562	84
364.788	83
365.015	93
365.241	105
365.468	101
365.694	80
365.92	86
366.147	84
366.373	87
366.599	82
366.826	74
367.052	80
367.278	92
367.505	87
367.731	97
367.957	108
368.184	98
368.41	87
368.636	100
368.862	108
369.089	93
369.315	104
369.541	87
369.767	89
369.993	90
370.219	88
370.445	83
370.672	100
370.898	95
371.124	89
371.35	93
371.576	92
371.802	94
372.028	96
372.254	90
372.48	101
372.706	95
372.932	95
373.158	89
373.384	91
373.61	94
373.835	86
374.061	79
374.287	97
374.513	100
374.739	100
374.965	89
375.191	98
375.416	86
375.642	94
375.868	90
376.094	104
376.319	87
376.545	87
376.771	97
376.997	102
377.222	100
377.448	102
377.674	96
377.899	92
378.125	86
378.35	98
378.576	89
378.802	82
379.027	89
379.253	85
379.478	91
379.704	103
379.929	96
380.155	95
380.38	104
380.606	104
380.831	103
381.057	106
381.282	106
381.507	101
381.733	102
381.958	101
382.184	108
382.409	110
382.634	113
382.86	97
383.085	112
383.31	117
383.535	96
383.761	113
383.986	109
384.211	102
384.436	116
384.662	123
384.887	115
385.112	126
385.337	125
385.562	129
385.787	116
386.013	126
386.238	123
386.463	114
386.688	121
386.913	110
387.138	126
387.363	97
387.588	104
387.813	102
388.038	123
388.263	132
388.488	134
388.713	105
388.938	95
389.163	98
389.387	96
389.612	100
389.837	76
390.062	97
390.287	79
390.512	90
390.736	88
390.961	86
391.186	112
391.411	96
391.636	78
391.86	87
392.085	80
392.31	91
392.534	80
392.759	86
392.984	83
393.208	93
393.433	110
393.658	101
393.882	89
394.107	89
394.331	89
394.556	87
394.78	84
395.005	79
395.229	86
395.454	89
395.678	87
395.903	101
396.127	96
396.352	78
396.576	96
396.801	90
397.025	97
397.249	94
397.474	79
397.698	81
397.922	84
398.147	78
398.371	89
398.595	86
398.82	87
399.044	83
399.268	81
399.492	93
399.717	93
399.941	77
400.165	81
400.389	86
400.613	92
400.837	84
401.062	90
401.286	85
401.51	98
401.734	80
401.958	100
402.182	124
402.406	141
402.63	97
402.854	86
403.078	87
403.302	77
403.526	96
403.75	92
403.974	91
404.198	84
404.422	79
404.645	94
404.869	90
405.093	101
405.317	87
405.541	94
405.765	88
405.988	107
406.212	148
406.436	207
406.66	138
406.883	96
407.107	100
407.331	94
407.555	95
407.778	94
408.002	90
408.226	80
408.449	81
408.673	89
408.896	87
409.12	93
409.344	95
409.567	93
409.791	107
410.014	108
410.238	87
410.461	86
410.685	81
410.908	103
411.132	110
411.355	100
411.578	98
411.802	85
412.025	74
412.249	97
412.472	81
412.695	86
412.919	87
413.142	81
413.365	75
413.589	78
413.812	82
414.035	94
414.258	80
414.482	86
414.705	89
414.928	100
415.151	81
415.374	87
415.597	98
415.821	87
416.044	84
416.267	102
416.49	89
416.713	65
416.936	77
417.159	78
417.382	90
417.605	75
417.828	96
418.051	94
418.274	81
418.497	85
418.72	88
418.943	94
419.166	77
419.389	75
419.611	75
419.834	97
420.057	93
420.28	96
420.503	96
420.726	84
420.948	89
421.171	89
421.394	101
421.617	87
421.839	82
422.062	78
422.285	89
422.507	109
422.73	104
422.953	83
423.175	93
423.398	80
423.621	97
423.843	84
424.066	74
424.288	84
424.511	88
424.733	92
424.956	107
425.178	89
425.401	101
425.623	95
425.846	81
426.068	90
426.291	115
426.513	98
426.735	86
426.958	102
427.18	103
427.402	125
427.625	138
427.847	125
428.069	96
428.292	103
428.514	90
428.736	80
428.958	84
429.181	87
429.403	86
429.625	77
429.847	99
430.069	92
430.292	95
430.514	72
430.736	85
430.958	86
431.18	93
431.402	93
431.624	81
431.846	82
432.068	93
432.29	87
432.512	64
432.734	65
432.956	81
433.178	91
433.4	88
433.622	99
433.844	88
434.066	103
434.287	102
434.509	90
434.731	87
434.953	87
435.175	83
435.397	96
435.618	93
435.84	98
436.062	104
436.284	116
436.505	111
436.727	102
436.949	96
437.17	76
437.392	87
437.614	86
437.835	98
438.057	111
438.278	113
438.5	118
438.721	116
438.943	100
439.165	85
439.386	79
439.608	94
439.829	92
440.05	126
440.272	135
440.493	90
440.715	91
440.936	83
441.158	86
441.379	98
441.6	93
441.822	89
442.043	94
442.264	99
442.486	92
442.707	81
442.928	98
443.149	124
443.371	120
443.592	102
443.813	108
444.034	87
444.255	99
444.476	90
444.698	90
444.919	97
445.14	124
445.361	128
445.582	116
445.803	125
446.024	126
446.245	119
446.466	103
446.687	95
446.908	91
447.129	88
447.35	92
447.571	86
447.792	94
448.013	104
448.234	105
448.455	85
448.675	99
448.896	105
449.117	106
449.338	93
449.559	124
449.779	124
450	107
450.221	76
450.442	88
450.662	81
450.883	100
451.104	106
451.324	95
451.545	82
451.766	78
451.986	91
452.207	80
452.428	85
452.648	87
452.869	90
453.089	106
453.31	116
453.53	95
453.751	88
453.971	108
454.192	111
454.412	81
454.633	73
454.853	78
455.073	80
455.294	75
455.514	95
455.734	82
455.955	88
456.175	83
456.395	86
456.616	85
456.836	75
457.056	81
457.276	89
457.497	81
457.717	84
457.937	81
458.157	89
458.377	96
458.598	83
458.818	134
459.038	145
459.258	105
459.478	86
459.698	89
459.918	82
460.138	81
460.358	74
460.578	89
460.798	89
461.018	82
461.238	81
461.458	95
461.678	77
461.898	74
462.118	89
462.338	84
462.558	86
462.777	73
462.997	90
463.217	95
463.437	86
463.657	92
463.876	93
464.096	79
464.316	92
464.536	97
464.755	86
464.975	114
465.195	154
465.414	136
465.634	99
465.854	91
466.073	98
466.293	95
466.512	92
466.732	95
466.951	99
467.171	88
467.391	88
467.61	89
467.829	102
468.049	90
468.268	81
468.488	68
468.707	87
468.927	76
469.146	80
469.365	74
469.585	81
469.804	90
470.023	93
470.243	99
470.462	98
470.681	110
470.901	84
471.12	74
471.339	84
471.558	95
471.777	91
471.997	90
472.216	100
472.435	94
472.654	93
472.873	80
473.092	85
473.311	94
473.53	91
473.749	85
473.968	99
474.187	93
474.406	88
474.625	101
474.844	85
475.063	79
475.282	86
475.501	82
475.72	88
475.939	80
476.158	79
476.377	81
476.596	83
476.814	88
477.033	88
477.252	73
477.471	80
477.69	94
477.908	86
478.127	99
478.346	89
478.564	88
478.783	100
479.002	96
479.22	82
479.439	89
479.658	109
479.876	89
480.095	88
480.313	84
480.532	81
480.751	88
480.969	84
481.188	105
481.406	85
481.624	97
481.843	79
482.061	81
482.28	83
482.498	79
482.717	82
482.935	84
483.153	90
483.372	97
483.59	86
483.808	81
484.027	95
484.245	86
484.463	88
484.681	89
484.9	87
485.118	94
485.336	93
485.554	100
485.772	95
485.99	104
486.209	98
486.427	103
486.645	106
486.863	108
487.081	88
487.299	93
487.517	100
487.735	90
487.953	95
488.171	104
488.389	80
488.607	91
488.825	98
489.043	89
489.261	87
489.479	95
489.696	112
489.914	80
490.132	87
490.35	76
490.568	96
490.786	86
491.003	94
491.221	79
491.439	90
491.657	103
491.874	83
492.092	90
492.31	95
492.527	87
492.745	92
492.963	97
493.18	88
493.398	89
493.615	84
493.833	87
494.05	87
494.268	83
494.485	77
494.703	91
494.92	91
495.138	102
495.355	95
495.573	97
495.79	91
496.008	95
496.225	102
496.442	87
496.66	69
496.877	77
497.094	88
497.312	94
497.529	96
497.746	96
497.963	91
498.181	90
498.398	87
498.615	105
498.832	99
499.049	83
499.267	86
499.484	94
499.701	94
499.918	85
500.135	96
500.352	89
500.569	94
500.786	80
501.003	87
501.22	85
501.437	93
501.654	105
501.871	109
502.088	87
502.305	92
502.522	81
502.739	106
502.956	84
503.172	101
503.389	86
503.606	107
503.823	99
504.04	88
504.256	87
504.473	83
504.69	106
504.907	88
505.123	89
505.34	94
505.557	92
505.773	85
505.99	97
506.207	93
506.423	91
506.64	93
506.856	80
507.073	104
507.289	102
507.506	103
507.722	97
507.939	100
508.155	100
508.372	94
508.588	94
508.805	98
509.021	98
509.238	88
509.454	99
509.67	98
509.887	97
510.103	120
510.319	193
510.536	701
510.752	2204
510.968	600
511.184	155
511.401	119
511.617	95
511.833	89
512.049	85
512.265	88
512.481	89
512.698	96
512.914	90
513.13	90
513.346	100
513.562	96
513.778	104
513.994	82
514.21	100
514.426	105
514.642	123
514.858	116
515.074	151
515.29	396
515.506	1254
515.721	471
515.937	140
516.153	102
516.369	100
516.585	77
516.801	74
517.016	105
517.232	94
517.448	101
517.664	99
517.879	94
518.095	100
518.311	89
518.527	93
518.742	86
518.958	93
519.173	100
519.389	102
519.605	96
519.82	91
520.036	89
520.251	106
520.467	110
520.682	98
520.898	86
521.113	110
521.329	106
521.544	169
521.76	475
521.975	2026
522.19	1252
522.406	285
522.621	123
522.836	100
523.052	98
523.267	83
523.482	92
523.698	108
523.913	101
524.128	88
524.343	92
524.559	84
524.774	93
524.989	92
525.204	104
525.419	85
525.634	89
525.849	81
526.064	91
526.28	85
526.495	85
526.71	89
526.925	102
527.14	96
527.355	86
527.57	76
527.785	104
527.999	94
528.214	94
528.429	104
528.644	102
528.859	97
529.074	93
529.289	106
529.503	158
529.718	100
529.933	90
530.148	98
530.363	93
530.577	93
530.792	85
531.007	84
531.221	81
531.436	71
531.651	96
531.865	88
532.08	101
532.295	91
532.509	88
532.724	93
532.938	89
533.153	92
533.367	99
533.582	94
533.796	89
534.011	104
534.225	94
534.44	96
534.654	87
534.868	90
535.083	84
535.297	82
535.511	103
535.726	87
535.94	97
536.154	88
536.369	81
536.583	72
536.797	84
537.011	69
537.225	79
537.44	84
537.654	98
537.868	94
538.082	84
538.296	97
538.51	74
538.724	93
538.938	95
539.153	89
539.367	96
539.581	84
539.795	87
540.009	100
540.222	90
540.436	97
540.65	75
540.864	89
541.078	77
541.292	100
541.506	101
541.72	98
541.934	86
542.147	77
542.361	86
542.575	80
542.789	92
543.002	83
543.216	97
543.43	82
543.644	95
543.857	90
544.071	82
544.285	103
544.498	103
544.712	80
544.925	82
545.139	81
545.352	85
545.566	96
545.779	92
545.993	82
546.206	84
546.42	93
546.633	93
546.847	81
547.06	84
547.274	89
547.487	88
547.7	78
547.914	80
548.127	89
548.34	86
548.554	80
548.767	80
548.98	78
549.193	82
549.407	87
549.62	90
549.833	83
550.046	94
550.259	93
550.473	83
550.686	88
550.899	93
551.112	98
551.325	78
551.538	92
551.751	92
551.964	95
552.177	99
552.39	97
552.603	86
552.816	94
553.029	91
553.242	100
553.455	87
553.667	95
553.88	92
554.093	83
554.306	97
554.519	92
554.732	102
554.944	79
555.157	90
555.37	93
555.583	86
555.795	89
556.008	87
556.221	96
556.433	95
556.646	85
556.859	88
557.071	103
557.284	103
557.496	95
557.709	98
557.921	90
558.134	90
558.346	81
558.559	81
558.771	84
558.984	76
559.196	84
559.409	84
559.621	84
559.833	89
560.046	89
560.258	81
560.47	94
560.683	85
560.895	77
561.107	108
561.32	88
561.532	96
561.744	102
561.956	90
562.168	102
562.381	81
562.593	95
562.805	97
563.017	95
563.229	91
563.441	90
563.653	95
563.865	95
564.077	80
564.289	89
564.501	97
564.713	104
564.925	86
565.137	84
565.349	93
565.561	95
565.773	108
565.985	84
566.197	90
566.408	86
566.62	96
566.832	96
567.044	92
567.255	89
567.467	101
567.679	90
567.891	94
568.102	94
568.314	79
568.526	86
568.737	74
568.949	82
569.161	87
569.372	92
569.584	83
569.795	78
570.007	120
570.218	222
570.43	134
570.641	88
570.853	85
571.064	105
571.276	96
571.487	88
571.698	83
571.91	80
572.121	89
572.333	71
572.544	86
572.755	71
572.966	101
573.178	88
573.389	90
573.6	94
573.811	75
574.023	88
574.234	81
574.445	85
574.656	100
574.867	104
575.078	86
575.289	88
575.501	103
575.712	78
575.923	82
576.134	78
576.345	98
576.556	84
576.767	100
576.978	97
577.188	87
577.399	91
577.61	85
577.821	98
578.032	113
578.243	255
578.454	728
578.665	225
578.875	94
579.086	90
579.297	84
579.508	90
579.718	94
579.929	103
580.14	88
580.35	91
580.561	92
580.772	100
580.982	65
581.193	92
581.403	88
581.614	101
581.825	91
582.035	85
582.246	95
582.456	79
582.667	75
582.877	69
583.087	94
583.298	84
583.508	86
583.719	87
583.929	95
584.139	86
584.35	87
584.56	97
584.77	83
