Data from Circ_2003_H10_HRD10591_00005.txt Node
Date: Wed Jan 03 10:37:03 EST 2024
User: Yrep
Spectrometer: HR+D1059
Trigger mode: 1
Integration Time (sec): 1.000000E-1
Scans to average: 1
Electric dark correction enabled: true
Nonlinearity correction enabled: false
Boxcar width: 0
XAxis mode: Wavelengths
Number of Pixels in Spectrum: 2048
>>>>>Begin Spectral Data<<<<<
223.165	-16.62
223.4	-16.62
223.635	-16.62
223.869	-24.62
224.104	-7.62
224.338	-3.62
224.573	-7.62
224.808	-6.62
225.042	-6.62
225.277	-10.62
225.511	-8.62
225.746	7.38
225.98	10.38
226.215	10.38
226.449	3.38
226.683	15.38
226.918	17.38
227.152	28.38
227.387	38.38
227.621	30.38
227.856	41.38
228.09	38.38
228.324	47.38
228.559	68.38
228.793	153.38
229.027	403.38
229.262	495.38
229.496	558.38
229.73	724.38
229.964	751.38
230.199	494.38
230.433	433.38
230.667	446.38
230.901	434.38
231.136	433.38
231.37	410.38
231.604	431.38
231.838	431.38
232.072	422.38
232.306	443.38
232.541	438.38
232.775	442.38
233.009	440.38
233.243	450.38
233.477	448.38
233.711	472.38
233.945	465.38
234.179	482.38
234.413	486.38
234.647	473.38
234.881	476.38
235.115	476.38
235.349	520.38
235.583	531.38
235.817	553.38
236.051	609.38
236.285	556.38
236.519	562.38
236.753	639.38
236.987	824.38
237.221	1222.38
237.455	1333.38
237.689	818.38
237.922	683.38
238.156	672.38
238.39	625.38
238.624	613.38
238.858	621.38
239.091	610.38
239.325	617.38
239.559	629.38
239.793	661.38
240.027	705.38
240.26	831.38
240.494	853.38
240.728	878.38
240.961	839.38
241.195	759.38
241.429	734.38
241.662	703.38
241.896	737.38
242.13	720.38
242.363	723.38
242.597	750.38
242.83	760.38
243.064	763.38
243.298	766.38
243.531	781.38
243.765	796.38
243.998	809.38
244.232	798.38
244.465	809.38
244.699	840.38
244.932	841.38
245.166	842.38
245.399	848.38
245.633	840.38
245.866	857.38
246.099	875.38
246.333	897.38
246.566	888.38
246.8	897.38
247.033	955.38
247.266	967.38
247.5	1031.38
247.733	1067.38
247.966	1075.38
248.2	1100.38
248.433	1082.38
248.666	1119.38
248.899	1231.38
249.133	1332.38
249.366	1288.38
249.599	1226.38
249.832	1125.38
250.066	1128.38
250.299	1153.38
250.532	1231.38
250.765	1366.38
250.998	1555.38
251.231	1505.38
251.465	1407.38
251.698	1327.38
251.931	1271.38
252.164	1282.38
252.397	1327.38
252.63	1356.38
252.863	1386.38
253.096	1509.38
253.329	1609.38
253.562	1544.38
253.795	1444.38
254.028	1458.38
254.261	1498.38
254.494	1653.38
254.727	1989.38
254.96	2074.38
255.193	1778.38
255.426	1609.38
255.659	1506.38
255.892	1469.38
256.124	1437.38
256.357	1402.38
256.59	1397.38
256.823	1370.38
257.056	1383.38
257.289	1389.38
257.521	1463.38
257.754	1449.38
257.987	1441.38
258.22	1400.38
258.452	1462.38
258.685	1423.38
258.918	1449.38
259.151	1510.38
259.383	1559.38
259.616	1564.38
259.849	1658.38
260.081	1785.38
260.314	1949.38
260.547	1900.38
260.779	1693.38
261.012	1637.38
261.244	1625.38
261.477	1551.38
261.71	1594.38
261.942	1650.38
262.175	1607.38
262.407	1585.38
262.64	1563.38
262.872	1556.38
263.105	1541.38
263.337	1543.38
263.57	1574.38
263.802	1560.38
264.035	1585.38
264.267	1583.38
264.499	1579.38
264.732	1608.38
264.964	1597.38
265.197	1620.38
265.429	1635.38
265.661	1608.38
265.894	1632.38
266.126	1652.38
266.358	1659.38
266.591	1676.38
266.823	1759.38
267.055	1775.38
267.287	1764.38
267.52	1730.38
267.752	1777.38
267.984	1759.38
268.216	1800.38
268.448	1823.38
268.681	1881.38
268.913	1985.38
269.145	2166.38
269.377	2237.38
269.609	2148.38
269.841	2086.38
270.073	2225.38
270.306	2426.38
270.538	2601.38
270.77	2477.38
271.002	2324.38
271.234	2315.38
271.466	2404.38
271.698	2550.38
271.93	2565.38
272.162	2520.38
272.394	2449.38
272.626	2320.38
272.858	2261.38
273.09	2161.38
273.322	2111.38
273.553	2098.38
273.785	2087.38
274.017	2120.38
274.249	2115.38
274.481	2131.38
274.713	2168.38
274.945	2116.38
275.176	2138.38
275.408	2161.38
275.64	2134.38
275.872	2162.38
276.104	2163.38
276.335	2203.38
276.567	2315.38
276.799	2422.38
277.031	2630.38
277.262	2614.38
277.494	2553.38
277.726	2422.38
277.957	2365.38
278.189	2308.38
278.421	2280.38
278.652	2262.38
278.884	2265.38
279.115	2255.38
279.347	2282.38
279.579	2303.38
279.81	2277.38
280.042	2243.38
280.273	2258.38
280.505	2317.38
280.736	2314.38
280.968	2276.38
281.199	2318.38
281.431	2369.38
281.662	2372.38
281.894	2341.38
282.125	2409.38
282.356	2585.38
282.588	2673.38
282.819	2507.38
283.051	2421.38
283.282	2380.38
283.513	2449.38
283.745	2493.38
283.976	2549.38
284.207	2530.38
284.439	2530.38
284.67	2524.38
284.901	2532.38
285.132	2534.38
285.364	2512.38
285.595	2550.38
285.826	2541.38
286.057	2570.38
286.288	2567.38
286.52	2569.38
286.751	2570.38
286.982	2567.38
287.213	2606.38
287.444	2628.38
287.675	2701.38
287.906	2759.38
288.138	2842.38
288.369	2808.38
288.6	2798.38
288.831	2742.38
289.062	2714.38
289.293	2751.38
289.524	2683.38
289.755	2685.38
289.986	2716.38
290.217	2726.38
290.448	2683.38
290.679	2722.38
290.91	2718.38
291.141	2664.38
291.371	2697.38
291.602	2693.38
291.833	2711.38
292.064	2719.38
292.295	2725.38
292.526	2694.38
292.757	2707.38
292.987	2662.38
293.218	2722.38
293.449	2745.38
293.68	2717.38
293.91	2726.38
294.141	2729.38
294.372	2715.38
294.603	2731.38
294.833	2737.38
295.064	2747.38
295.295	2845.38
295.525	2773.38
295.756	2838.38
295.987	2903.38
296.217	3026.38
296.448	2968.38
296.679	2874.38
296.909	2851.38
297.14	2880.38
297.37	2944.38
297.601	2921.38
297.831	2931.38
298.062	2953.38
298.292	2937.38
298.523	2983.38
298.753	3017.38
298.984	2972.38
299.214	3009.38
299.445	2962.38
299.675	2991.38
299.905	3002.38
300.136	2966.38
300.366	2980.38
300.597	3070.38
300.827	3202.38
301.057	3239.38
301.288	3241.38
301.518	3189.38
301.748	3227.38
301.979	3252.38
302.209	3208.38
302.439	3184.38
302.669	3248.38
302.9	3183.38
303.13	3167.38
303.36	3167.38
303.59	3251.38
303.82	3253.38
304.051	3245.38
304.281	3219.38
304.511	3138.38
304.741	3183.38
304.971	3192.38
305.201	3151.38
305.431	3165.38
305.661	3214.38
305.891	3149.38
306.121	3138.38
306.352	3232.38
306.582	3217.38
306.812	3108.38
307.042	3137.38
307.272	3098.38
307.502	3149.38
307.731	3180.38
307.961	3169.38
308.191	3130.38
308.421	3160.38
308.651	3234.38
308.881	3197.38
309.111	3189.38
309.341	3280.38
309.571	3309.38
309.8	3347.38
310.03	3447.38
310.26	3433.38
310.49	3433.38
310.72	3528.38
310.949	3575.38
311.179	3575.38
311.409	3454.38
311.639	3523.38
311.868	3530.38
312.098	3524.38
312.328	3563.38
312.557	3676.38
312.787	3767.38
313.017	3675.38
313.246	3607.38
313.476	3610.38
313.706	3608.38
313.935	3734.38
314.165	3769.38
314.394	3809.38
314.624	3686.38
314.853	3669.38
315.083	3626.38
315.312	3619.38
315.542	3603.38
315.771	3505.38
316.001	3529.38
316.23	3565.38
316.46	3536.38
316.689	3626.38
316.919	3597.38
317.148	3641.38
317.377	3621.38
317.607	3569.38
317.836	3578.38
318.065	3506.38
318.295	3564.38
318.524	3544.38
318.753	3505.38
318.983	3544.38
319.212	3545.38
319.441	3617.38
319.67	3614.38
319.9	3572.38
320.129	3595.38
320.358	3594.38
320.587	3571.38
320.816	3623.38
321.046	3701.38
321.275	3644.38
321.504	3727.38
321.733	3750.38
321.962	3773.38
322.191	3807.38
322.42	3885.38
322.649	3936.38
322.878	4045.38
323.108	4074.38
323.337	4241.38
323.566	4354.38
323.795	4673.38
324.024	5101.38
324.253	6591.38
324.482	9620.38
324.71	14161.38
324.939	15611.38
325.168	10831.38
325.397	5996.38
325.626	4888.38
325.855	4609.38
326.084	4568.38
326.313	4541.38
326.542	4675.38
326.77	5177.38
326.999	6416.38
327.228	9133.38
327.457	13137.38
327.686	12215.38
327.914	6683.38
328.143	5389.38
328.372	5057.38
328.6	4835.38
328.829	4830.38
329.058	4959.38
329.287	4933.38
329.515	4646.38
329.744	4547.38
329.972	4521.38
330.201	4598.38
330.43	4785.38
330.658	5051.38
330.887	5273.38
331.115	4957.38
331.344	4695.38
331.572	4632.38
331.801	4704.38
332.03	4729.38
332.258	4783.38
332.486	4773.38
332.715	4871.38
332.943	4992.38
333.172	5133.38
333.4	5255.38
333.629	5392.38
333.857	5426.38
334.085	5383.38
334.314	5219.38
334.542	5163.38
334.771	5119.38
334.999	5077.38
335.227	4997.38
335.455	4919.38
335.684	4869.38
335.912	4818.38
336.14	4736.38
336.369	4734.38
336.597	4815.38
336.825	4773.38
337.053	4693.38
337.281	4631.38
337.51	4519.38
337.738	4534.38
337.966	4542.38
338.194	4475.38
338.422	4392.38
338.65	4325.38
338.878	4402.38
339.106	4405.38
339.334	4350.38
339.562	4266.38
339.79	4258.38
340.018	4233.38
340.246	4238.38
340.474	4288.38
340.702	4237.38
340.93	4317.38
341.158	4276.38
341.386	4298.38
341.614	4240.38
341.842	4229.38
342.07	4178.38
342.298	4118.38
342.526	4202.38
342.754	4126.38
342.981	4161.38
343.209	4280.38
343.437	4498.38
343.665	4781.38
343.893	5015.38
344.12	5029.38
344.348	4842.38
344.576	4668.38
344.804	4615.38
345.031	4431.38
345.259	4453.38
345.487	4290.38
345.714	4217.38
345.942	4143.38
346.17	4026.38
346.397	4091.38
346.625	4104.38
346.853	4072.38
347.08	4012.38
347.308	4080.38
347.535	4138.38
347.763	4072.38
347.99	4143.38
348.218	4153.38
348.445	4156.38
348.673	4090.38
348.9	4021.38
349.128	3993.38
349.355	3982.38
349.583	3943.38
349.81	3863.38
350.037	3862.38
350.265	3862.38
350.492	3899.38
350.72	3889.38
350.947	3938.38
351.174	3992.38
351.402	4093.38
351.629	3992.38
351.856	4028.38
352.083	4038.38
352.311	4043.38
352.538	4073.38
352.765	4056.38
352.992	4017.38
353.22	3941.38
353.447	3938.38
353.674	3953.38
353.901	3846.38
354.128	3871.38
354.355	3901.38
354.583	3879.38
354.81	3845.38
355.037	3848.38
355.264	3840.38
355.491	3792.38
355.718	3833.38
355.945	3858.38
356.172	3865.38
356.399	3853.38
356.626	3901.38
356.853	3859.38
357.08	3834.38
357.307	3948.38
357.534	3767.38
357.761	3865.38
357.988	3887.38
358.215	3820.38
358.441	3913.38
358.668	3874.38
358.895	3998.38
359.122	3930.38
359.349	4047.38
359.576	4137.38
359.802	4223.38
360.029	4443.38
360.256	4344.38
360.483	4145.38
360.709	4107.38
360.936	4055.38
361.163	4032.38
361.39	4050.38
361.616	4074.38
361.843	4047.38
362.07	4007.38
362.296	4048.38
362.523	4012.38
362.749	4010.38
362.976	4033.38
363.203	3989.38
363.429	3925.38
363.656	3989.38
363.882	3929.38
364.109	3912.38
364.335	3914.38
364.562	3876.38
364.788	3954.38
365.015	3909.38
365.241	3885.38
365.468	3899.38
365.694	4000.38
365.92	3949.38
366.147	3925.38
366.373	3903.38
366.599	3963.38
366.826	3908.38
367.052	3856.38
367.278	3941.38
367.505	3941.38
367.731	3940.38
367.957	3890.38
368.184	3974.38
368.41	4007.38
368.636	4138.38
368.862	4168.38
369.089	4050.38
369.315	3995.38
369.541	4069.38
369.767	4046.38
369.993	4075.38
370.219	4075.38
370.445	4115.38
370.672	4133.38
370.898	4065.38
371.124	4145.38
371.35	4203.38
371.576	4134.38
371.802	4129.38
372.028	4154.38
372.254	4209.38
372.48	4236.38
372.706	4362.38
372.932	4312.38
373.158	4292.38
373.384	4223.38
373.61	4218.38
373.835	4274.38
374.061	4247.38
374.287	4351.38
374.513	4456.38
374.739	4482.38
374.965	4661.38
375.191	4684.38
375.416	4518.38
375.642	4420.38
375.868	4363.38
376.094	4327.38
376.319	4291.38
376.545	4285.38
376.771	4247.38
376.997	4194.38
377.222	4194.38
377.448	4225.38
377.674	4203.38
377.899	4136.38
378.125	4214.38
378.35	4168.38
378.576	4206.38
378.802	4196.38
379.027	4201.38
379.253	4242.38
379.478	4190.38
379.704	4159.38
379.929	4275.38
380.155	4195.38
380.38	4182.38
380.606	4207.38
380.831	4251.38
381.057	4289.38
381.282	4271.38
381.507	4263.38
381.733	4365.38
381.958	4310.38
382.184	4414.38
382.409	4409.38
382.634	4479.38
382.86	4495.38
383.085	4599.38
383.31	4562.38
383.535	4723.38
383.761	4748.38
383.986	4801.38
384.211	4883.38
384.436	5013.38
384.662	5026.38
384.887	5106.38
385.112	5097.38
385.337	5211.38
385.562	5191.38
385.787	5153.38
386.013	5190.38
386.238	5321.38
386.463	5191.38
386.688	5151.38
386.913	5087.38
387.138	5095.38
387.363	5128.38
387.588	4976.38
387.813	5107.38
388.038	5042.38
388.263	5157.38
388.488	5104.38
388.713	5117.38
388.938	5027.38
389.163	4994.38
389.387	5009.38
389.612	4990.38
389.837	4956.38
390.062	4933.38
390.287	4987.38
390.512	5013.38
390.736	5014.38
390.961	5177.38
391.186	5206.38
391.411	5355.38
391.636	5551.38
391.86	5607.38
392.085	5690.38
392.31	5457.38
392.534	5441.38
392.759	5414.38
392.984	5238.38
393.208	5337.38
393.433	5352.38
393.658	5301.38
393.882	5226.38
394.107	5248.38
394.331	5248.38
394.556	5347.38
394.78	5350.38
395.005	5460.38
395.229	5343.38
395.454	5617.38
395.678	5723.38
395.903	5624.38
396.127	5713.38
396.352	5565.38
396.576	5284.38
396.801	5360.38
397.025	5490.38
397.249	5547.38
397.474	5700.38
397.698	5655.38
397.922	5780.38
398.147	5897.38
398.371	6068.38
398.595	6156.38
398.82	6472.38
399.044	7005.38
399.268	7717.38
399.492	8842.38
399.717	9510.38
399.941	9207.38
400.165	8529.38
400.389	7866.38
400.613	7108.38
400.837	6683.38
401.062	6524.38
401.286	6424.38
401.51	6352.38
401.734	6243.38
401.958	6470.38
402.182	6519.38
402.406	6620.38
402.63	6772.38
402.854	6851.38
403.078	6865.38
403.302	7010.38
403.526	7155.38
403.75	7250.38
403.974	7263.38
404.198	7266.38
404.422	7339.38
404.645	7227.38
404.869	7120.38
405.093	7240.38
405.317	7299.38
405.541	7255.38
405.765	7028.38
405.988	6989.38
406.212	7145.38
406.436	7374.38
406.66	7532.38
406.883	7479.38
407.107	8066.38
407.331	8570.38
407.555	9036.38
407.778	8689.38
408.002	8025.38
408.226	7653.38
408.449	7615.38
408.673	7504.38
408.896	7609.38
409.12	7651.38
409.344	7286.38
409.567	6971.38
409.791	7008.38
410.014	6811.38
410.238	6793.38
410.461	6805.38
410.685	6879.38
410.908	6928.38
411.132	7096.38
411.355	7124.38
411.578	6825.38
411.802	6549.38
412.025	6562.38
412.249	6569.38
412.472	6522.38
412.695	6390.38
412.919	6225.38
413.142	6278.38
413.365	6285.38
413.589	6318.38
413.812	6262.38
414.035	6143.38
414.258	6237.38
414.482	6250.38
414.705	6325.38
414.928	6268.38
415.151	6289.38
415.374	6192.38
415.597	6206.38
415.821	6095.38
416.044	6097.38
416.267	6100.38
416.49	6075.38
416.713	6024.38
416.936	6202.38
417.159	6211.38
417.382	6161.38
417.605	6178.38
417.828	6336.38
418.051	6458.38
418.274	6424.38
418.497	6256.38
418.72	6381.38
418.943	6397.38
419.166	6737.38
419.389	7053.38
419.611	6869.38
419.834	6707.38
420.057	6628.38
420.28	6437.38
420.503	6215.38
420.726	6338.38
420.948	6414.38
421.171	6801.38
421.394	6867.38
421.617	6355.38
421.839	6298.38
422.062	6475.38
422.285	6634.38
422.507	7165.38
422.73	7605.38
422.953	7109.38
423.175	6841.38
423.398	6841.38
423.621	6842.38
423.843	7057.38
424.066	6991.38
424.288	6917.38
424.511	7131.38
424.733	7507.38
424.956	7901.38
425.178	7485.38
425.401	7575.38
425.623	7382.38
425.846	6550.38
426.068	6484.38
426.291	6394.38
426.513	6358.38
426.735	6441.38
426.958	6867.38
427.18	7515.38
427.402	8501.38
427.625	8499.38
427.847	7224.38
428.069	6534.38
428.292	6139.38
428.514	5956.38
428.736	5748.38
428.958	5853.38
429.181	5641.38
429.403	5650.38
429.625	5829.38
429.847	6081.38
430.069	6656.38
430.292	6081.38
430.514	5683.38
430.736	5644.38
430.958	5620.38
431.18	5521.38
431.402	5514.38
431.624	5541.38
431.846	5558.38
432.068	5542.38
432.29	5730.38
432.512	5614.38
432.734	5655.38
432.956	5563.38
433.178	5631.38
433.4	5680.38
433.622	5610.38
433.844	5673.38
434.066	5658.38
434.287	5647.38
434.509	5931.38
434.731	6175.38
434.953	6300.38
435.175	6440.38
435.397	6502.38
435.618	6438.38
435.84	6781.38
436.062	7515.38
436.284	7396.38
436.505	6277.38
436.727	6041.38
436.949	5699.38
437.17	5720.38
437.392	5609.38
437.614	5733.38
437.835	6086.38
438.057	6953.38
438.278	7513.38
438.5	7561.38
438.721	8244.38
438.943	7226.38
439.165	6166.38
439.386	6003.38
439.608	5990.38
439.829	6098.38
440.05	6385.38
440.272	6802.38
440.493	6184.38
440.715	5966.38
440.936	5874.38
441.158	5948.38
441.379	6108.38
441.6	6344.38
441.822	6588.38
442.043	6978.38
442.264	7699.38
442.486	7461.38
442.707	6717.38
442.928	6476.38
443.149	6713.38
443.371	6850.38
443.592	7373.38
443.813	8261.38
444.034	8216.38
444.255	7254.38
444.476	7197.38
444.698	7349.38
444.919	7458.38
445.14	7277.38
445.361	7035.38
445.582	7091.38
445.803	7580.38
446.024	8186.38
446.245	7844.38
446.466	7082.38
446.687	6191.38
446.908	5890.38
447.129	5625.38
447.35	5519.38
447.571	5424.38
447.792	5354.38
448.013	5489.38
448.234	5681.38
448.455	6248.38
448.675	7324.38
448.896	7776.38
449.117	6427.38
449.338	6548.38
449.559	7802.38
449.779	7907.38
450	6184.38
450.221	5566.38
450.442	5343.38
450.662	5279.38
450.883	5368.38
451.104	5400.38
451.324	5331.38
451.545	5171.38
451.766	5088.38
451.986	4912.38
452.207	4886.38
452.428	4900.38
452.648	4891.38
452.869	4907.38
453.089	4970.38
453.31	5092.38
453.53	4955.38
453.751	4857.38
453.971	4872.38
454.192	4955.38
454.412	4824.38
454.633	4807.38
454.853	4816.38
455.073	4814.38
455.294	5147.38
455.514	5586.38
455.734	5146.38
455.955	4672.38
456.175	4575.38
456.395	4501.38
456.616	4480.38
456.836	4516.38
457.056	4507.38
457.276	4432.38
457.497	4570.38
457.717	4614.38
457.937	4592.38
458.157	4694.38
458.377	4777.38
458.598	5064.38
458.818	5709.38
459.038	6352.38
459.258	6327.38
459.478	5751.38
459.698	5680.38
459.918	5780.38
460.138	5919.38
460.358	6120.38
460.578	6148.38
460.798	6187.38
461.018	6219.38
461.238	6057.38
461.458	6154.38
461.678	6121.38
461.898	6209.38
462.118	6328.38
462.338	6613.38
462.558	6779.38
462.777	7061.38
462.997	7637.38
463.217	8018.38
463.437	7823.38
463.657	7190.38
463.876	7026.38
464.096	7061.38
464.316	7040.38
464.536	7086.38
464.755	6862.38
464.975	6669.38
465.195	6689.38
465.414	6686.38
465.634	6072.38
465.854	5654.38
466.073	5551.38
466.293	5466.38
466.512	5266.38
466.732	5095.38
466.951	5086.38
467.171	5129.38
467.391	5251.38
467.61	5228.38
467.829	5125.38
468.049	5053.38
468.268	4925.38
468.488	4856.38
468.707	4872.38
468.927	4875.38
469.146	4821.38
469.365	4960.38
469.585	4991.38
469.804	5162.38
470.023	5221.38
470.243	5281.38
470.462	5362.38
470.681	5432.38
470.901	5350.38
471.12	5207.38
471.339	5119.38
471.558	5163.38
471.777	5061.38
471.997	5002.38
472.216	4922.38
472.435	4904.38
472.654	4847.38
472.873	4754.38
473.092	4842.38
473.311	4817.38
473.53	4778.38
473.749	5025.38
473.968	5496.38
474.187	6363.38
474.406	5907.38
474.625	5128.38
474.844	4866.38
475.063	4891.38
475.282	4939.38
475.501	4948.38
475.72	4995.38
475.939	5040.38
476.158	5031.38
476.377	5050.38
476.596	5071.38
476.814	5232.38
477.033	5229.38
477.252	5397.38
477.471	5423.38
477.69	5540.38
477.908	5614.38
478.127	5762.38
478.346	5865.38
478.564	5930.38
478.783	6011.38
479.002	6191.38
479.22	6167.38
479.439	6295.38
479.658	6316.38
479.876	6442.38
480.095	6645.38
480.313	6964.38
480.532	6932.38
480.751	6778.38
480.969	6541.38
481.188	6374.38
481.406	6255.38
481.624	6099.38
481.843	5841.38
482.061	5831.38
482.28	5779.38
482.498	5759.38
482.717	5672.38
482.935	5769.38
483.153	5709.38
483.372	5665.38
483.59	5667.38
483.808	5747.38
484.027	5709.38
484.245	5734.38
484.463	5843.38
484.681	5863.38
484.9	5960.38
485.118	5931.38
485.336	6123.38
485.554	6115.38
485.772	6154.38
485.99	6154.38
486.209	6146.38
486.427	6225.38
486.645	6285.38
486.863	6266.38
487.081	6159.38
487.299	6249.38
487.517	6212.38
487.735	6104.38
487.953	6124.38
