Data from Circ_2003_H10_HRD10591_00078.txt Node
Date: Wed Jan 03 10:37:18 EST 2024
User: Yrep
Spectrometer: HR+D1059
Trigger mode: 1
Integration Time (sec): 1.000000E-1
Scans to average: 1
Electric dark correction enabled: true
Nonlinearity correction enabled: false
Boxcar width: 0
XAxis mode: Wavelengths
Number of Pixels in Spectrum: 2048
>>>>>Begin Spectral Data<<<<<
223.165	-18.5
223.4	-18.5
223.635	-18.5
223.869	-10.5
224.104	-13.5
224.338	-9.5
224.573	-20.5
224.808	-15.5
225.042	-3.5
225.277	-17.5
225.511	-6.5
225.746	6.5
225.98	10.5
226.215	14.5
226.449	11.5
226.683	10.5
226.918	27.5
227.152	34.5
227.387	45.5
227.621	40.5
227.856	47.5
228.09	53.5
228.324	49.5
228.559	57.5
228.793	65.5
229.027	73.5
229.262	94.5
229.496	84.5
229.73	76.5
229.964	85.5
230.199	73.5
230.433	72.5
230.667	73.5
230.901	103.5
231.136	74.5
231.37	78.5
231.604	93.5
231.838	58.5
232.072	85.5
232.306	88.5
232.541	93.5
232.775	76.5
233.009	83.5
233.243	90.5
233.477	94.5
233.711	87.5
233.945	88.5
234.179	90.5
234.413	87.5
234.647	85.5
234.881	92.5
235.115	88.5
235.349	73.5
235.583	83.5
235.817	67.5
236.051	75.5
236.285	76.5
236.519	90.5
236.753	75.5
236.987	84.5
237.221	93.5
237.455	100.5
237.689	69.5
237.922	81.5
238.156	89.5
238.39	69.5
238.624	79.5
238.858	78.5
239.091	74.5
239.325	73.5
239.559	81.5
239.793	63.5
240.027	86.5
240.26	75.5
240.494	87.5
240.728	80.5
240.961	81.5
241.195	73.5
241.429	75.5
241.662	76.5
241.896	91.5
242.13	86.5
242.363	74.5
242.597	73.5
242.83	80.5
243.064	84.5
243.298	84.5
243.531	92.5
243.765	67.5
243.998	81.5
244.232	98.5
244.465	85.5
244.699	80.5
244.932	81.5
245.166	82.5
245.399	85.5
245.633	81.5
245.866	82.5
246.099	75.5
246.333	92.5
246.566	75.5
246.8	67.5
247.033	67.5
247.266	67.5
247.5	75.5
247.733	79.5
247.966	69.5
248.2	68.5
248.433	83.5
248.666	69.5
248.899	86.5
249.133	98.5
249.366	101.5
249.599	101.5
249.832	89.5
250.066	82.5
250.299	87.5
250.532	83.5
250.765	93.5
250.998	74.5
251.231	90.5
251.465	84.5
251.698	94.5
251.931	71.5
252.164	76.5
252.397	72.5
252.63	76.5
252.863	94.5
253.096	88.5
253.329	76.5
253.562	61.5
253.795	76.5
254.028	95.5
254.261	71.5
254.494	79.5
254.727	68.5
254.96	88.5
255.193	93.5
255.426	86.5
255.659	84.5
255.892	86.5
256.124	79.5
256.357	74.5
256.59	82.5
256.823	78.5
257.056	71.5
257.289	81.5
257.521	82.5
257.754	85.5
257.987	77.5
258.22	100.5
258.452	85.5
258.685	84.5
258.918	85.5
259.151	104.5
259.383	82.5
259.616	77.5
259.849	86.5
260.081	80.5
260.314	79.5
260.547	71.5
260.779	81.5
261.012	77.5
261.244	81.5
261.477	98.5
261.71	98.5
261.942	102.5
262.175	99.5
262.407	89.5
262.64	86.5
262.872	93.5
263.105	91.5
263.337	72.5
263.57	88.5
263.802	92.5
264.035	38.5
264.267	85.5
264.499	85.5
264.732	95.5
264.964	87.5
265.197	90.5
265.429	96.5
265.661	82.5
265.894	91.5
266.126	88.5
266.358	87.5
266.591	85.5
266.823	86.5
267.055	93.5
267.287	85.5
267.52	70.5
267.752	78.5
267.984	80.5
268.216	83.5
268.448	88.5
268.681	80.5
268.913	108.5
269.145	87.5
269.377	93.5
269.609	81.5
269.841	94.5
270.073	96.5
270.306	85.5
270.538	92.5
270.77	93.5
271.002	104.5
271.234	68.5
271.466	95.5
271.698	80.5
271.93	91.5
272.162	88.5
272.394	84.5
272.626	86.5
272.858	99.5
273.09	89.5
273.322	93.5
273.553	86.5
273.785	83.5
274.017	94.5
274.249	89.5
274.481	83.5
274.713	83.5
274.945	95.5
275.176	98.5
275.408	110.5
275.64	92.5
275.872	82.5
276.104	89.5
276.335	88.5
276.567	96.5
276.799	107.5
277.031	98.5
277.262	95.5
277.494	93.5
277.726	85.5
277.957	87.5
278.189	90.5
278.421	90.5
278.652	83.5
278.884	92.5
279.115	82.5
279.347	91.5
279.579	78.5
279.81	89.5
280.042	85.5
280.273	103.5
280.505	101.5
280.736	94.5
280.968	94.5
281.199	84.5
281.431	82.5
281.662	79.5
281.894	88.5
282.125	99.5
282.356	120.5
282.588	141.5
282.819	111.5
283.051	106.5
283.282	95.5
283.513	100.5
283.745	94.5
283.976	76.5
284.207	101.5
284.439	85.5
284.67	92.5
284.901	107.5
285.132	92.5
285.364	78.5
285.595	86.5
285.826	86.5
286.057	89.5
286.288	79.5
286.52	92.5
286.751	83.5
286.982	80.5
287.213	92.5
287.444	91.5
287.675	106.5
287.906	102.5
288.138	88.5
288.369	102.5
288.6	94.5
288.831	90.5
289.062	87.5
289.293	88.5
289.524	81.5
289.755	84.5
289.986	81.5
290.217	85.5
290.448	104.5
290.679	84.5
290.91	84.5
291.141	91.5
291.371	91.5
291.602	94.5
291.833	76.5
292.064	100.5
292.295	81.5
292.526	103.5
292.757	89.5
292.987	86.5
293.218	100.5
293.449	92.5
293.68	88.5
293.91	106.5
294.141	85.5
294.372	88.5
294.603	89.5
294.833	93.5
295.064	76.5
295.295	86.5
295.525	93.5
295.756	107.5
295.987	110.5
296.217	150.5
296.448	141.5
296.679	97.5
296.909	99.5
297.14	114.5
297.37	93.5
297.601	100.5
297.831	89.5
298.062	77.5
298.292	92.5
298.523	90.5
298.753	89.5
298.984	86.5
299.214	96.5
299.445	80.5
299.675	106.5
299.905	90.5
300.136	88.5
300.366	86.5
300.597	80.5
300.827	84.5
301.057	91.5
301.288	109.5
301.518	97.5
301.748	97.5
301.979	88.5
302.209	90.5
302.439	100.5
302.669	93.5
302.9	82.5
303.13	96.5
303.36	93.5
303.59	99.5
303.82	105.5
304.051	108.5
304.281	81.5
304.511	98.5
304.741	102.5
304.971	99.5
305.201	84.5
305.431	94.5
305.661	90.5
305.891	90.5
306.121	96.5
306.352	100.5
306.582	107.5
306.812	105.5
307.042	102.5
307.272	80.5
307.502	105.5
307.731	116.5
307.961	94.5
308.191	95.5
308.421	90.5
308.651	93.5
308.881	107.5
309.111	92.5
309.341	106.5
309.571	105.5
309.8	91.5
310.03	93.5
310.26	101.5
310.49	93.5
310.72	104.5
310.949	100.5
311.179	106.5
311.409	93.5
311.639	110.5
311.868	96.5
312.098	89.5
312.328	85.5
312.557	102.5
312.787	99.5
313.017	113.5
313.246	97.5
313.476	79.5
313.706	94.5
313.935	90.5
314.165	100.5
314.394	97.5
314.624	106.5
314.853	104.5
315.083	105.5
315.312	101.5
315.542	96.5
315.771	104.5
316.001	96.5
316.23	104.5
316.46	81.5
316.689	84.5
316.919	95.5
317.148	92.5
317.377	105.5
317.607	93.5
317.836	96.5
318.065	103.5
318.295	93.5
318.524	107.5
318.753	98.5
318.983	92.5
319.212	98.5
319.441	120.5
319.67	100.5
319.9	115.5
320.129	94.5
320.358	93.5
320.587	95.5
320.816	88.5
321.046	108.5
321.275	98.5
321.504	100.5
321.733	92.5
321.962	111.5
322.191	105.5
322.42	91.5
322.649	119.5
322.878	125.5
323.108	130.5
323.337	118.5
323.566	133.5
323.795	162.5
324.024	205.5
324.253	424.5
324.482	926.5
324.71	1845.5
324.939	2476.5
325.168	883.5
325.397	276.5
325.626	167.5
325.855	148.5
326.084	115.5
326.313	133.5
326.542	164.5
326.77	253.5
326.999	513.5
327.228	1028.5
327.457	1882.5
327.686	1502.5
327.914	412.5
328.143	219.5
328.372	173.5
328.6	128.5
328.829	115.5
329.058	123.5
329.287	125.5
329.515	123.5
329.744	105.5
329.972	130.5
330.201	164.5
330.43	200.5
330.658	143.5
330.887	148.5
331.115	119.5
331.344	108.5
331.572	115.5
331.801	116.5
332.03	113.5
332.258	99.5
332.486	106.5
332.715	110.5
332.943	93.5
333.172	99.5
333.4	115.5
333.629	106.5
333.857	135.5
334.085	136.5
334.314	149.5
334.542	243.5
334.771	210.5
334.999	133.5
335.227	116.5
335.455	87.5
335.684	114.5
335.912	105.5
336.14	96.5
336.369	106.5
336.597	96.5
336.825	102.5
337.053	94.5
337.281	100.5
337.51	108.5
337.738	101.5
337.966	93.5
338.194	86.5
338.422	108.5
338.65	95.5
338.878	91.5
339.106	100.5
339.334	97.5
339.562	99.5
339.79	100.5
340.018	89.5
340.246	92.5
340.474	88.5
340.702	107.5
340.93	92.5
341.158	94.5
341.386	101.5
341.614	111.5
341.842	95.5
342.07	85.5
342.298	87.5
342.526	98.5
342.754	89.5
342.981	95.5
343.209	86.5
343.437	106.5
343.665	94.5
343.893	91.5
344.12	84.5
344.348	91.5
344.576	92.5
344.804	103.5
345.031	97.5
345.259	102.5
345.487	98.5
345.714	90.5
345.942	94.5
346.17	100.5
346.397	91.5
346.625	91.5
346.853	88.5
347.08	91.5
347.308	104.5
347.535	92.5
347.763	98.5
347.99	107.5
348.218	113.5
348.445	106.5
348.673	89.5
348.9	109.5
349.128	87.5
349.355	95.5
349.583	102.5
349.81	106.5
350.037	86.5
350.265	93.5
350.492	99.5
350.72	98.5
350.947	100.5
351.174	102.5
351.402	90.5
351.629	106.5
351.856	98.5
352.083	113.5
352.311	115.5
352.538	121.5
352.765	114.5
352.992	123.5
353.22	109.5
353.447	100.5
353.674	97.5
353.901	84.5
354.128	99.5
354.355	98.5
354.583	96.5
354.81	92.5
355.037	86.5
355.264	91.5
355.491	92.5
355.718	78.5
355.945	98.5
356.172	80.5
356.399	102.5
356.626	91.5
356.853	88.5
357.08	100.5
357.307	86.5
357.534	99.5
357.761	108.5
357.988	105.5
358.215	99.5
358.441	100.5
358.668	93.5
358.895	92.5
359.122	91.5
359.349	93.5
359.576	72.5
359.802	88.5
360.029	105.5
360.256	117.5
360.483	96.5
360.709	91.5
360.936	81.5
361.163	93.5
361.39	88.5
361.616	106.5
361.843	93.5
362.07	86.5
362.296	92.5
362.523	89.5
362.749	85.5
362.976	83.5
363.203	92.5
363.429	86.5
363.656	92.5
363.882	82.5
364.109	91.5
364.335	104.5
364.562	91.5
364.788	100.5
365.015	107.5
365.241	99.5
365.468	107.5
365.694	98.5
365.92	97.5
366.147	97.5
366.373	89.5
366.599	104.5
366.826	90.5
367.052	89.5
367.278	93.5
367.505	98.5
367.731	102.5
367.957	90.5
368.184	106.5
368.41	99.5
368.636	119.5
368.862	113.5
369.089	102.5
369.315	97.5
369.541	93.5
369.767	93.5
369.993	83.5
370.219	97.5
370.445	94.5
370.672	101.5
370.898	96.5
371.124	89.5
371.35	77.5
371.576	93.5
371.802	89.5
372.028	87.5
372.254	99.5
372.48	90.5
372.706	78.5
372.932	78.5
373.158	74.5
373.384	83.5
373.61	94.5
373.835	97.5
374.061	78.5
374.287	91.5
374.513	97.5
374.739	105.5
374.965	84.5
375.191	81.5
375.416	101.5
375.642	92.5
375.868	79.5
376.094	77.5
376.319	87.5
376.545	85.5
376.771	91.5
376.997	91.5
377.222	93.5
377.448	94.5
377.674	95.5
377.899	89.5
378.125	90.5
378.35	106.5
378.576	90.5
378.802	79.5
379.027	91.5
379.253	82.5
379.478	87.5
379.704	101.5
379.929	93.5
380.155	100.5
380.38	100.5
380.606	87.5
380.831	94.5
381.057	96.5
381.282	107.5
381.507	93.5
381.733	100.5
381.958	96.5
382.184	95.5
382.409	93.5
382.634	125.5
382.86	115.5
383.085	88.5
383.31	93.5
383.535	109.5
383.761	107.5
383.986	112.5
384.211	83.5
384.436	102.5
384.662	108.5
384.887	99.5
385.112	119.5
385.337	106.5
385.562	103.5
385.787	102.5
386.013	120.5
386.238	117.5
386.463	112.5
386.688	110.5
386.913	108.5
387.138	115.5
387.363	104.5
387.588	105.5
387.813	108.5
388.038	94.5
388.263	109.5
388.488	106.5
388.713	94.5
388.938	100.5
389.163	92.5
389.387	92.5
389.612	92.5
389.837	84.5
390.062	86.5
390.287	109.5
390.512	98.5
390.736	101.5
390.961	100.5
391.186	87.5
391.411	102.5
391.636	94.5
391.86	81.5
392.085	86.5
392.31	86.5
392.534	84.5
392.759	90.5
392.984	78.5
393.208	82.5
393.433	91.5
393.658	92.5
393.882	83.5
394.107	74.5
394.331	91.5
394.556	86.5
394.78	94.5
395.005	93.5
395.229	98.5
395.454	91.5
395.678	97.5
395.903	95.5
396.127	112.5
396.352	99.5
396.576	96.5
396.801	85.5
397.025	87.5
397.249	93.5
397.474	88.5
397.698	93.5
397.922	94.5
398.147	81.5
398.371	105.5
398.595	100.5
398.82	88.5
399.044	85.5
399.268	90.5
399.492	92.5
399.717	82.5
399.941	88.5
400.165	102.5
400.389	86.5
400.613	87.5
400.837	92.5
401.062	84.5
401.286	102.5
401.51	100.5
401.734	93.5
401.958	112.5
402.182	134.5
402.406	160.5
402.63	112.5
402.854	98.5
403.078	100.5
403.302	99.5
403.526	99.5
403.75	82.5
403.974	89.5
404.198	85.5
404.422	100.5
404.645	102.5
404.869	95.5
405.093	101.5
405.317	107.5
405.541	112.5
405.765	106.5
405.988	120.5
406.212	184.5
406.436	212.5
406.66	146.5
406.883	101.5
407.107	94.5
407.331	97.5
407.555	111.5
407.778	96.5
408.002	86.5
408.226	83.5
408.449	100.5
408.673	85.5
408.896	96.5
409.12	82.5
409.344	71.5
409.567	101.5
409.791	94.5
410.014	89.5
410.238	100.5
410.461	89.5
410.685	88.5
410.908	110.5
411.132	103.5
411.355	112.5
411.578	107.5
411.802	96.5
412.025	121.5
412.249	91.5
412.472	93.5
412.695	82.5
412.919	94.5
413.142	86.5
413.365	92.5
413.589	100.5
413.812	100.5
414.035	97.5
414.258	95.5
414.482	97.5
414.705	96.5
414.928	98.5
415.151	89.5
415.374	96.5
415.597	90.5
415.821	95.5
416.044	98.5
416.267	96.5
416.49	89.5
416.713	102.5
416.936	88.5
417.159	90.5
417.382	94.5
417.605	84.5
417.828	93.5
418.051	94.5
418.274	90.5
418.497	89.5
418.72	91.5
418.943	93.5
419.166	98.5
419.389	84.5
419.611	103.5
419.834	94.5
420.057	85.5
420.28	101.5
420.503	95.5
420.726	86.5
420.948	97.5
421.171	84.5
421.394	104.5
421.617	96.5
421.839	89.5
422.062	89.5
422.285	98.5
422.507	98.5
422.73	101.5
422.953	84.5
423.175	99.5
423.398	101.5
423.621	94.5
423.843	84.5
424.066	84.5
424.288	83.5
424.511	109.5
424.733	106.5
424.956	112.5
425.178	110.5
425.401	104.5
425.623	110.5
425.846	90.5
426.068	91.5
426.291	98.5
426.513	101.5
426.735	93.5
426.958	94.5
427.18	104.5
427.402	152.5
427.625	175.5
427.847	150.5
428.069	113.5
428.292	91.5
428.514	99.5
428.736	88.5
428.958	81.5
429.181	82.5
429.403	89.5
429.625	86.5
429.847	91.5
430.069	99.5
430.292	101.5
430.514	83.5
430.736	86.5
430.958	92.5
431.18	86.5
431.402	78.5
431.624	71.5
431.846	79.5
432.068	82.5
432.29	100.5
432.512	112.5
432.734	92.5
432.956	98.5
433.178	93.5
433.4	103.5
433.622	92.5
433.844	98.5
434.066	88.5
434.287	94.5
434.509	77.5
434.731	86.5
434.953	97.5
435.175	105.5
435.397	101.5
435.618	93.5
435.84	105.5
436.062	121.5
436.284	120.5
436.505	105.5
436.727	111.5
436.949	92.5
437.17	100.5
437.392	84.5
437.614	83.5
437.835	97.5
438.057	118.5
438.278	107.5
438.5	119.5
438.721	124.5
438.943	105.5
439.165	87.5
439.386	81.5
439.608	97.5
439.829	93.5
440.05	130.5
440.272	147.5
440.493	101.5
440.715	96.5
440.936	103.5
441.158	103.5
441.379	93.5
441.6	104.5
441.822	92.5
442.043	93.5
442.264	114.5
442.486	100.5
442.707	98.5
442.928	109.5
443.149	109.5
443.371	115.5
443.592	110.5
443.813	109.5
444.034	99.5
444.255	92.5
444.476	90.5
444.698	88.5
444.919	81.5
445.14	133.5
445.361	131.5
445.582	128.5
445.803	144.5
446.024	141.5
446.245	135.5
446.466	114.5
446.687	86.5
446.908	90.5
447.129	89.5
447.35	102.5
447.571	93.5
447.792	100.5
448.013	97.5
448.234	100.5
448.455	97.5
448.675	112.5
448.896	114.5
449.117	101.5
449.338	98.5
449.559	132.5
449.779	137.5
450	102.5
450.221	100.5
450.442	94.5
450.662	89.5
450.883	113.5
451.104	103.5
451.324	99.5
451.545	105.5
451.766	98.5
451.986	99.5
452.207	102.5
452.428	105.5
452.648	109.5
452.869	108.5
453.089	102.5
453.31	128.5
453.53	103.5
453.751	103.5
453.971	99.5
454.192	110.5
454.412	102.5
454.633	93.5
454.853	84.5
455.073	101.5
455.294	85.5
455.514	92.5
455.734	105.5
455.955	83.5
456.175	87.5
456.395	94.5
456.616	88.5
456.836	92.5
457.056	94.5
457.276	83.5
457.497	92.5
457.717	78.5
457.937	93.5
458.157	90.5
458.377	93.5
458.598	105.5
458.818	152.5
459.038	157.5
459.258	105.5
459.478	92.5
459.698	96.5
459.918	87.5
460.138	93.5
460.358	89.5
460.578	81.5
460.798	93.5
461.018	90.5
461.238	87.5
461.458	71.5
461.678	82.5
461.898	81.5
462.118	97.5
462.338	93.5
462.558	91.5
462.777	86.5
462.997	91.5
463.217	84.5
463.437	94.5
463.657	89.5
463.876	98.5
464.096	96.5
464.316	113.5
464.536	83.5
464.755	99.5
464.975	103.5
465.195	168.5
465.414	158.5
465.634	98.5
465.854	99.5
466.073	70.5
466.293	76.5
466.512	96.5
466.732	105.5
466.951	76.5
467.171	94.5
467.391	92.5
467.61	99.5
467.829	101.5
468.049	128.5
468.268	152.5
468.488	97.5
468.707	92.5
468.927	84.5
469.146	86.5
469.365	83.5
469.585	80.5
469.804	99.5
470.023	88.5
470.243	95.5
470.462	112.5
470.681	106.5
470.901	82.5
471.12	75.5
471.339	86.5
471.558	82.5
471.777	101.5
471.997	102.5
472.216	167.5
472.435	263.5
472.654	116.5
472.873	101.5
473.092	91.5
473.311	98.5
473.53	87.5
473.749	100.5
473.968	97.5
474.187	82.5
474.406	104.5
474.625	94.5
474.844	83.5
475.063	96.5
475.282	94.5
475.501	87.5
475.72	93.5
475.939	98.5
476.158	88.5
476.377	88.5
476.596	96.5
476.814	96.5
477.033	101.5
477.252	81.5
477.471	81.5
477.69	93.5
477.908	88.5
478.127	85.5
478.346	88.5
478.564	90.5
478.783	115.5
479.002	104.5
479.22	107.5
479.439	97.5
479.658	103.5
479.876	100.5
480.095	88.5
480.313	96.5
480.532	88.5
480.751	105.5
480.969	164.5
481.188	421.5
481.406	270.5
481.624	106.5
481.843	98.5
482.061	89.5
482.28	101.5
482.498	82.5
482.717	83.5
482.935	104.5
483.153	96.5
483.372	103.5
483.59	100.5
483.808	88.5
484.027	90.5
484.245	101.5
484.463	94.5
484.681	92.5
484.9	85.5
485.118	106.5
485.336	95.5
485.554	104.5
485.772	108.5
485.99	110.5
486.209	97.5
486.427	106.5
486.645	107.5
486.863	110.5
487.081	94.5
487.299	91.5
487.517	103.5
487.735	95.5
487.953	98.5
488.171	103.5
488.389	90.5
488.607	100.5
488.825	86.5
489.043	84.5
489.261	97.5
489.479	90.5
489.696	88.5
489.914	91.5
490.132	83.5
490.35	100.5
490.568	98.5
490.786	86.5
491.003	80.5
491.221	105.5
491.439	94.5
491.657	100.5
491.874	94.5
492.092	95.5
492.31	90.5
492.527	96.5
492.745	89.5
492.963	93.5
493.18	89.5
493.398	94.5
493.615	96.5
493.833	109.5
494.05	77.5
494.268	100.5
494.485	108.5
494.703	98.5
494.92	101.5
495.138	92.5
495.355	87.5
495.573	99.5
495.79	76.5
496.008	93.5
496.225	97.5
496.442	97.5
496.66	101.5
496.877	86.5
497.094	91.5
497.312	94.5
497.529	91.5
497.746	102.5
497.963	102.5
498.181	96.5
498.398	91.5
498.615	101.5
498.832	103.5
499.049	88.5
499.267	97.5
499.484	94.5
499.701	95.5
499.918	86.5
500.135	96.5
500.352	91.5
500.569	92.5
500.786	97.5
501.003	91.5
501.22	76.5
501.437	82.5
501.654	97.5
501.871	109.5
502.088	90.5
502.305	88.5
502.522	80.5
502.739	85.5
502.956	94.5
503.172	93.5
503.389	97.5
503.606	103.5
503.823	108.5
504.04	92.5
504.256	83.5
504.473	87.5
504.69	107.5
504.907	99.5
505.123	81.5
505.34	94.5
505.557	100.5
505.773	112.5
505.99	94.5
506.207	93.5
506.423	91.5
506.64	100.5
506.856	91.5
507.073	86.5
507.289	96.5
507.506	101.5
507.722	117.5
507.939	116.5
508.155	106.5
508.372	100.5
508.588	97.5
508.805	101.5
509.021	103.5
509.238	97.5
509.454	97.5
509.67	110.5
509.887	122.5
510.103	142.5
510.319	218.5
510.536	821.5
510.752	2653.5
510.968	735.5
511.184	173.5
511.401	122.5
511.617	112.5
511.833	103.5
512.049	90.5
512.265	93.5
512.481	105.5
512.698	93.5
512.914	106.5
513.13	85.5
513.346	96.5
513.562	92.5
513.778	93.5
513.994	112.5
514.21	107.5
514.426	125.5
514.642	142.5
514.858	144.5
515.074	158.5
515.29	466.5
515.506	1562.5
515.721	589.5
515.937	165.5
516.153	118.5
516.369	109.5
516.585	99.5
516.801	93.5
517.016	88.5
517.232	98.5
517.448	103.5
517.664	82.5
517.879	99.5
518.095	105.5
518.311	93.5
518.527	83.5
518.742	98.5
518.958	92.5
519.173	95.5
519.389	90.5
519.605	97.5
519.82	109.5
520.036	103.5
520.251	136.5
520.467	119.5
520.682	93.5
520.898	108.5
521.113	121.5
521.329	125.5
521.544	216.5
521.76	596.5
521.975	2614.5
522.19	1597.5
522.406	346.5
522.621	140.5
522.836	105.5
523.052	103.5
523.267	101.5
523.482	94.5
523.698	100.5
523.913	123.5
524.128	104.5
524.343	101.5
524.559	85.5
524.774	93.5
524.989	109.5
525.204	106.5
525.419	93.5
525.634	93.5
525.849	101.5
526.064	73.5
526.28	93.5
526.495	85.5
526.71	87.5
526.925	105.5
527.14	83.5
527.355	89.5
527.57	101.5
527.785	99.5
527.999	90.5
528.214	97.5
528.429	112.5
528.644	97.5
528.859	80.5
529.074	87.5
529.289	132.5
529.503	170.5
529.718	91.5
529.933	98.5
530.148	95.5
530.363	87.5
530.577	91.5
530.792	88.5
531.007	84.5
531.221	105.5
531.436	98.5
531.651	88.5
531.865	92.5
532.08	113.5
532.295	94.5
532.509	80.5
532.724	90.5
532.938	100.5
533.153	107.5
533.367	100.5
