Data from Circ_2003_H10_HRD10591_00030.txt Node
Date: Wed Jan 03 10:37:08 EST 2024
User: Yrep
Spectrometer: HR+D1059
Trigger mode: 1
Integration Time (sec): 1.000000E-1
Scans to average: 1
Electric dark correction enabled: true
Nonlinearity correction enabled: false
Boxcar width: 0
XAxis mode: Wavelengths
Number of Pixels in Spectrum: 2048
>>>>>Begin Spectral Data<<<<<
223.165	-10.69
223.4	-10.69
223.635	-10.69
223.869	-20.69
224.104	-31.69
224.338	-20.69
224.573	-26.69
224.808	-12.69
225.042	6.31
225.277	-12.69
225.511	10.31
225.746	12.31
225.98	-1.69
226.215	14.31
226.449	13.31
226.683	25.31
226.918	31.31
227.152	24.31
227.387	35.31
227.621	38.31
227.856	53.31
228.09	36.31
228.324	38.31
228.559	61.31
228.793	46.31
229.027	64.31
229.262	67.31
229.496	73.31
229.73	94.31
229.964	74.31
230.199	80.31
230.433	70.31
230.667	98.31
230.901	79.31
231.136	90.31
231.37	66.31
231.604	65.31
231.838	77.31
232.072	81.31
232.306	85.31
232.541	75.31
232.775	67.31
233.009	73.31
233.243	79.31
233.477	86.31
233.711	89.31
233.945	88.31
234.179	83.31
234.413	70.31
234.647	99.31
234.881	74.31
235.115	84.31
235.349	80.31
235.583	88.31
235.817	91.31
236.051	72.31
236.285	62.31
236.519	81.31
236.753	61.31
236.987	77.31
237.221	81.31
237.455	72.31
237.689	80.31
237.922	81.31
238.156	79.31
238.39	79.31
238.624	74.31
238.858	67.31
239.091	83.31
239.325	74.31
239.559	89.31
239.793	60.31
240.027	96.31
240.26	76.31
240.494	62.31
240.728	81.31
240.961	92.31
241.195	78.31
241.429	71.31
241.662	66.31
241.896	69.31
242.13	85.31
242.363	85.31
242.597	87.31
242.83	73.31
243.064	59.31
243.298	82.31
243.531	67.31
243.765	80.31
243.998	78.31
244.232	82.31
244.465	75.31
244.699	78.31
244.932	78.31
245.166	79.31
245.399	73.31
245.633	80.31
245.866	80.31
246.099	77.31
246.333	81.31
246.566	76.31
246.8	69.31
247.033	73.31
247.266	72.31
247.5	81.31
247.733	77.31
247.966	73.31
248.2	83.31
248.433	81.31
248.666	90.31
248.899	87.31
249.133	77.31
249.366	106.31
249.599	96.31
249.832	70.31
250.066	76.31
250.299	85.31
250.532	74.31
250.765	82.31
250.998	83.31
251.231	73.31
251.465	84.31
251.698	77.31
251.931	71.31
252.164	83.31
252.397	78.31
252.63	86.31
252.863	87.31
253.096	72.31
253.329	70.31
253.562	74.31
253.795	79.31
254.028	86.31
254.261	95.31
254.494	87.31
254.727	84.31
254.96	84.31
255.193	86.31
255.426	81.31
255.659	81.31
255.892	84.31
256.124	74.31
256.357	84.31
256.59	92.31
256.823	77.31
257.056	73.31
257.289	74.31
257.521	84.31
257.754	69.31
257.987	73.31
258.22	84.31
258.452	84.31
258.685	79.31
258.918	73.31
259.151	78.31
259.383	77.31
259.616	92.31
259.849	85.31
260.081	77.31
260.314	87.31
260.547	85.31
260.779	82.31
261.012	85.31
261.244	88.31
261.477	101.31
261.71	91.31
261.942	102.31
262.175	115.31
262.407	90.31
262.64	76.31
262.872	77.31
263.105	75.31
263.337	79.31
263.57	81.31
263.802	69.31
264.035	70.31
264.267	89.31
264.499	78.31
264.732	81.31
264.964	89.31
265.197	77.31
265.429	78.31
265.661	89.31
265.894	66.31
266.126	97.31
266.358	86.31
266.591	88.31
266.823	85.31
267.055	81.31
267.287	83.31
267.52	86.31
267.752	83.31
267.984	82.31
268.216	82.31
268.448	72.31
268.681	70.31
268.913	87.31
269.145	88.31
269.377	90.31
269.609	83.31
269.841	89.31
270.073	89.31
270.306	91.31
270.538	83.31
270.77	82.31
271.002	90.31
271.234	96.31
271.466	86.31
271.698	96.31
271.93	78.31
272.162	97.31
272.394	86.31
272.626	84.31
272.858	87.31
273.09	86.31
273.322	91.31
273.553	80.31
273.785	83.31
274.017	101.31
274.249	88.31
274.481	74.31
274.713	77.31
274.945	87.31
275.176	85.31
275.408	87.31
275.64	88.31
275.872	98.31
276.104	88.31
276.335	93.31
276.567	98.31
276.799	103.31
277.031	97.31
277.262	72.31
277.494	88.31
277.726	80.31
277.957	90.31
278.189	85.31
278.421	93.31
278.652	80.31
278.884	89.31
279.115	89.31
279.347	89.31
279.579	89.31
279.81	90.31
280.042	95.31
280.273	77.31
280.505	95.31
280.736	84.31
280.968	81.31
281.199	73.31
281.431	82.31
281.662	79.31
281.894	88.31
282.125	98.31
282.356	114.31
282.588	149.31
282.819	113.31
283.051	89.31
283.282	80.31
283.513	94.31
283.745	95.31
283.976	93.31
284.207	86.31
284.439	83.31
284.67	105.31
284.901	88.31
285.132	91.31
285.364	91.31
285.595	81.31
285.826	80.31
286.057	92.31
286.288	87.31
286.52	89.31
286.751	90.31
286.982	88.31
287.213	76.31
287.444	93.31
287.675	88.31
287.906	85.31
288.138	93.31
288.369	90.31
288.6	87.31
288.831	112.31
289.062	94.31
289.293	76.31
289.524	80.31
289.755	85.31
289.986	75.31
290.217	93.31
290.448	86.31
290.679	85.31
290.91	86.31
291.141	91.31
291.371	80.31
291.602	82.31
291.833	101.31
292.064	81.31
292.295	94.31
292.526	89.31
292.757	89.31
292.987	94.31
293.218	91.31
293.449	86.31
293.68	80.31
293.91	90.31
294.141	88.31
294.372	83.31
294.603	96.31
294.833	97.31
295.064	101.31
295.295	87.31
295.525	71.31
295.756	110.31
295.987	106.31
296.217	142.31
296.448	125.31
296.679	102.31
296.909	96.31
297.14	88.31
297.37	102.31
297.601	90.31
297.831	78.31
298.062	83.31
298.292	98.31
298.523	78.31
298.753	87.31
298.984	88.31
299.214	81.31
299.445	90.31
299.675	85.31
299.905	93.31
300.136	94.31
300.366	91.31
300.597	86.31
300.827	80.31
301.057	81.31
301.288	109.31
301.518	98.31
301.748	87.31
301.979	109.31
302.209	85.31
302.439	88.31
302.669	92.31
302.9	96.31
303.13	103.31
303.36	90.31
303.59	108.31
303.82	112.31
304.051	95.31
304.281	90.31
304.511	86.31
304.741	81.31
304.971	83.31
305.201	100.31
305.431	91.31
305.661	98.31
305.891	93.31
306.121	93.31
306.352	106.31
306.582	114.31
306.812	97.31
307.042	85.31
307.272	86.31
307.502	97.31
307.731	109.31
307.961	82.31
308.191	89.31
308.421	87.31
308.651	96.31
308.881	102.31
309.111	107.31
309.341	93.31
309.571	99.31
309.8	88.31
310.03	111.31
310.26	87.31
310.49	85.31
310.72	97.31
310.949	87.31
311.179	69.31
311.409	90.31
311.639	93.31
311.868	96.31
312.098	91.31
312.328	100.31
312.557	94.31
312.787	88.31
313.017	99.31
313.246	101.31
313.476	94.31
313.706	90.31
313.935	103.31
314.165	89.31
314.394	100.31
314.624	111.31
314.853	96.31
315.083	93.31
315.312	94.31
315.542	97.31
315.771	86.31
316.001	102.31
316.23	75.31
316.46	93.31
316.689	85.31
316.919	87.31
317.148	101.31
317.377	98.31
317.607	88.31
317.836	93.31
318.065	90.31
318.295	91.31
318.524	88.31
318.753	89.31
318.983	91.31
319.212	106.31
319.441	113.31
319.67	115.31
319.9	100.31
320.129	95.31
320.358	112.31
320.587	93.31
320.816	88.31
321.046	100.31
321.275	96.31
321.504	93.31
321.733	111.31
321.962	91.31
322.191	97.31
322.42	97.31
322.649	116.31
322.878	105.31
323.108	117.31
323.337	125.31
323.566	138.31
323.795	165.31
324.024	223.31
324.253	449.31
324.482	916.31
324.71	1897.31
324.939	2459.31
325.168	871.31
325.397	262.31
325.626	157.31
325.855	144.31
326.084	131.31
326.313	123.31
326.542	159.31
326.77	248.31
326.999	503.31
327.228	1025.31
327.457	1912.31
327.686	1517.31
327.914	420.31
328.143	205.31
328.372	157.31
328.6	130.31
328.829	102.31
329.058	121.31
329.287	139.31
329.515	103.31
329.744	102.31
329.972	115.31
330.201	109.31
330.43	118.31
330.658	116.31
330.887	138.31
331.115	127.31
331.344	103.31
331.572	112.31
331.801	112.31
332.03	110.31
332.258	101.31
332.486	109.31
332.715	84.31
332.943	91.31
333.172	101.31
333.4	112.31
333.629	112.31
333.857	115.31
334.085	113.31
334.314	99.31
334.542	107.31
334.771	104.31
334.999	88.31
335.227	82.31
335.455	95.31
335.684	99.31
335.912	96.31
336.14	110.31
336.369	105.31
336.597	102.31
336.825	88.31
337.053	110.31
337.281	85.31
337.51	95.31
337.738	93.31
337.966	93.31
338.194	96.31
338.422	81.31
338.65	94.31
338.878	87.31
339.106	88.31
339.334	96.31
339.562	92.31
339.79	88.31
340.018	97.31
340.246	89.31
340.474	106.31
340.702	99.31
340.93	101.31
341.158	94.31
341.386	99.31
341.614	97.31
341.842	97.31
342.07	88.31
342.298	89.31
342.526	107.31
342.754	94.31
342.981	82.31
343.209	89.31
343.437	104.31
343.665	105.31
343.893	87.31
344.12	93.31
344.348	103.31
344.576	90.31
344.804	107.31
345.031	103.31
345.259	102.31
345.487	94.31
345.714	91.31
345.942	95.31
346.17	81.31
346.397	99.31
346.625	104.31
346.853	95.31
347.08	94.31
347.308	99.31
347.535	96.31
347.763	98.31
347.99	89.31
348.218	115.31
348.445	112.31
348.673	101.31
348.9	87.31
349.128	103.31
349.355	103.31
349.583	94.31
349.81	103.31
350.037	93.31
350.265	93.31
350.492	97.31
350.72	104.31
350.947	97.31
351.174	119.31
351.402	110.31
351.629	110.31
351.856	116.31
352.083	97.31
352.311	110.31
352.538	113.31
352.765	116.31
352.992	111.31
353.22	113.31
353.447	119.31
353.674	83.31
353.901	103.31
354.128	95.31
354.355	107.31
354.583	96.31
354.81	99.31
355.037	99.31
355.264	91.31
355.491	91.31
355.718	91.31
355.945	89.31
356.172	107.31
356.399	104.31
356.626	90.31
356.853	107.31
357.08	90.31
357.307	105.31
357.534	105.31
357.761	89.31
357.988	101.31
358.215	109.31
358.441	113.31
358.668	97.31
358.895	97.31
359.122	103.31
359.349	104.31
359.576	106.31
359.802	98.31
360.029	121.31
360.256	121.31
360.483	109.31
360.709	83.31
360.936	97.31
361.163	86.31
361.39	88.31
361.616	85.31
361.843	94.31
362.07	93.31
362.296	82.31
362.523	90.31
362.749	95.31
362.976	86.31
363.203	91.31
363.429	94.31
363.656	90.31
363.882	91.31
364.109	95.31
364.335	82.31
364.562	92.31
364.788	69.31
365.015	102.31
365.241	98.31
365.468	97.31
365.694	91.31
365.92	98.31
366.147	89.31
366.373	98.31
366.599	79.31
366.826	89.31
367.052	88.31
367.278	93.31
367.505	101.31
367.731	92.31
367.957	79.31
368.184	88.31
368.41	92.31
368.636	121.31
368.862	117.31
369.089	114.31
369.315	90.31
369.541	83.31
369.767	98.31
369.993	94.31
370.219	94.31
370.445	96.31
370.672	91.31
370.898	91.31
371.124	102.31
371.35	82.31
371.576	83.31
371.802	89.31
372.028	92.31
372.254	85.31
372.48	84.31
372.706	101.31
372.932	94.31
373.158	83.31
373.384	91.31
373.61	79.31
373.835	91.31
374.061	92.31
374.287	96.31
374.513	92.31
374.739	87.31
374.965	88.31
375.191	80.31
375.416	83.31
375.642	98.31
375.868	104.31
376.094	80.31
376.319	93.31
376.545	106.31
376.771	87.31
376.997	95.31
377.222	95.31
377.448	101.31
377.674	107.31
377.899	99.31
378.125	95.31
378.35	90.31
378.576	97.31
378.802	88.31
379.027	114.31
379.253	102.31
379.478	89.31
379.704	95.31
379.929	91.31
380.155	94.31
380.38	94.31
380.606	107.31
380.831	92.31
381.057	99.31
381.282	101.31
381.507	98.31
381.733	101.31
381.958	95.31
382.184	118.31
382.409	109.31
382.634	114.31
382.86	98.31
383.085	114.31
383.31	96.31
383.535	102.31
383.761	105.31
383.986	96.31
384.211	107.31
384.436	108.31
384.662	106.31
384.887	121.31
385.112	98.31
385.337	116.31
385.562	112.31
385.787	123.31
386.013	122.31
386.238	126.31
386.463	134.31
386.688	130.31
386.913	100.31
387.138	120.31
387.363	119.31
387.588	111.31
387.813	112.31
388.038	102.31
388.263	129.31
388.488	112.31
388.713	101.31
388.938	94.31
389.163	102.31
389.387	100.31
389.612	89.31
389.837	96.31
390.062	103.31
390.287	97.31
390.512	101.31
390.736	93.31
390.961	85.31
391.186	91.31
391.411	103.31
391.636	98.31
391.86	90.31
392.085	87.31
392.31	78.31
392.534	97.31
392.759	91.31
392.984	89.31
393.208	92.31
393.433	115.31
393.658	100.31
393.882	97.31
394.107	95.31
394.331	80.31
394.556	77.31
394.78	105.31
395.005	91.31
395.229	91.31
395.454	86.31
395.678	76.31
395.903	87.31
396.127	86.31
396.352	91.31
396.576	89.31
396.801	107.31
397.025	95.31
397.249	86.31
397.474	83.31
397.698	89.31
397.922	81.31
398.147	99.31
398.371	95.31
398.595	102.31
398.82	75.31
399.044	82.31
399.268	95.31
399.492	95.31
399.717	85.31
399.941	94.31
400.165	91.31
400.389	89.31
400.613	78.31
400.837	79.31
401.062	87.31
401.286	82.31
401.51	99.31
401.734	78.31
401.958	99.31
402.182	119.31
402.406	161.31
402.63	126.31
402.854	96.31
403.078	97.31
403.302	77.31
403.526	90.31
403.75	89.31
403.974	94.31
404.198	82.31
404.422	81.31
404.645	98.31
404.869	98.31
405.093	93.31
405.317	94.31
405.541	101.31
405.765	103.31
405.988	129.31
406.212	181.31
406.436	255.31
406.66	154.31
406.883	101.31
407.107	99.31
407.331	110.31
407.555	100.31
407.778	100.31
408.002	86.31
408.226	80.31
408.449	74.31
408.673	85.31
408.896	97.31
409.12	91.31
409.344	87.31
409.567	79.31
409.791	99.31
410.014	92.31
410.238	86.31
410.461	87.31
410.685	104.31
410.908	93.31
411.132	103.31
411.355	107.31
411.578	85.31
411.802	92.31
412.025	104.31
412.249	96.31
412.472	79.31
412.695	96.31
412.919	96.31
413.142	87.31
413.365	99.31
413.589	100.31
413.812	101.31
414.035	93.31
414.258	89.31
414.482	95.31
414.705	96.31
414.928	95.31
415.151	92.31
415.374	89.31
415.597	91.31
415.821	85.31
416.044	101.31
416.267	74.31
416.49	89.31
416.713	102.31
416.936	98.31
417.159	92.31
417.382	93.31
417.605	93.31
417.828	106.31
418.051	109.31
418.274	99.31
418.497	90.31
418.72	85.31
418.943	104.31
419.166	85.31
419.389	87.31
419.611	93.31
419.834	98.31
420.057	109.31
420.28	86.31
420.503	101.31
420.726	95.31
420.948	88.31
421.171	85.31
421.394	98.31
421.617	94.31
421.839	93.31
422.062	94.31
422.285	87.31
422.507	101.31
422.73	105.31
422.953	91.31
423.175	96.31
423.398	95.31
423.621	79.31
423.843	87.31
424.066	83.31
424.288	84.31
424.511	96.31
424.733	100.31
424.956	117.31
425.178	100.31
425.401	93.31
425.623	95.31
425.846	95.31
426.068	95.31
426.291	94.31
426.513	86.31
426.735	88.31
426.958	91.31
427.18	91.31
427.402	142.31
427.625	181.31
427.847	135.31
428.069	118.31
428.292	99.31
428.514	80.31
428.736	95.31
428.958	89.31
429.181	73.31
429.403	73.31
429.625	87.31
429.847	84.31
430.069	107.31
430.292	89.31
430.514	79.31
430.736	90.31
430.958	85.31
431.18	83.31
431.402	82.31
431.624	87.31
431.846	97.31
432.068	97.31
432.29	85.31
432.512	83.31
432.734	81.31
432.956	94.31
433.178	101.31
433.4	97.31
433.622	91.31
433.844	88.31
434.066	93.31
434.287	90.31
434.509	84.31
434.731	95.31
434.953	81.31
435.175	89.31
435.397	95.31
435.618	99.31
435.84	105.31
436.062	113.31
436.284	118.31
436.505	97.31
436.727	110.31
436.949	91.31
437.17	86.31
437.392	71.31
437.614	100.31
437.835	99.31
438.057	119.31
438.278	109.31
438.5	114.31
438.721	104.31
438.943	99.31
439.165	100.31
439.386	90.31
439.608	87.31
439.829	115.31
440.05	130.31
440.272	148.31
440.493	99.31
440.715	79.31
440.936	91.31
441.158	93.31
441.379	72.31
441.6	96.31
441.822	108.31
442.043	84.31
442.264	104.31
442.486	108.31
442.707	83.31
442.928	109.31
443.149	125.31
443.371	141.31
443.592	121.31
443.813	111.31
444.034	106.31
444.255	85.31
444.476	85.31
444.698	94.31
444.919	87.31
445.14	134.31
445.361	127.31
445.582	120.31
445.803	155.31
446.024	139.31
446.245	141.31
446.466	101.31
446.687	90.31
446.908	85.31
447.129	79.31
447.35	92.31
447.571	89.31
447.792	97.31
448.013	95.31
448.234	97.31
448.455	116.31
448.675	127.31
448.896	114.31
449.117	92.31
449.338	107.31
449.559	129.31
449.779	125.31
450	96.31
450.221	91.31
450.442	84.31
450.662	82.31
450.883	97.31
451.104	114.31
451.324	101.31
451.545	83.31
451.766	105.31
451.986	83.31
452.207	87.31
452.428	97.31
452.648	96.31
452.869	114.31
453.089	115.31
453.31	112.31
453.53	96.31
453.751	83.31
453.971	113.31
454.192	116.31
454.412	95.31
454.633	83.31
454.853	80.31
455.073	82.31
455.294	87.31
455.514	97.31
455.734	74.31
455.955	79.31
456.175	97.31
456.395	86.31
456.616	102.31
456.836	91.31
457.056	96.31
457.276	77.31
457.497	72.31
457.717	81.31
457.937	76.31
458.157	97.31
458.377	82.31
458.598	100.31
458.818	149.31
459.038	171.31
459.258	113.31
459.478	99.31
459.698	90.31
459.918	82.31
460.138	83.31
460.358	83.31
460.578	79.31
460.798	91.31
461.018	78.31
461.238	89.31
461.458	97.31
461.678	91.31
461.898	99.31
462.118	85.31
462.338	93.31
462.558	75.31
462.777	85.31
462.997	85.31
463.217	82.31
463.437	91.31
463.657	92.31
463.876	86.31
464.096	98.31
464.316	106.31
464.536	104.31
464.755	97.31
464.975	108.31
465.195	163.31
465.414	145.31
465.634	97.31
465.854	92.31
466.073	70.31
466.293	80.31
466.512	72.31
466.732	83.31
466.951	92.31
467.171	93.31
467.391	94.31
467.61	119.31
467.829	103.31
468.049	100.31
468.268	102.31
468.488	91.31
468.707	81.31
468.927	82.31
469.146	87.31
469.365	81.31
469.585	86.31
469.804	111.31
470.023	110.31
470.243	97.31
470.462	96.31
470.681	107.31
470.901	82.31
471.12	82.31
471.339	88.31
471.558	80.31
471.777	73.31
471.997	89.31
472.216	97.31
472.435	107.31
472.654	91.31
472.873	88.31
473.092	78.31
473.311	88.31
473.53	93.31
473.749	95.31
473.968	103.31
474.187	101.31
474.406	89.31
474.625	80.31
474.844	87.31
475.063	96.31
475.282	78.31
475.501	81.31
475.72	90.31
475.939	74.31
476.158	87.31
476.377	93.31
476.596	87.31
476.814	89.31
477.033	101.31
477.252	83.31
477.471	84.31
477.69	88.31
477.908	89.31
478.127	82.31
478.346	80.31
478.564	83.31
478.783	94.31
479.002	91.31
479.22	93.31
479.439	110.31
479.658	124.31
479.876	93.31
480.095	97.31
480.313	94.31
480.532	86.31
480.751	85.31
480.969	106.31
481.188	118.31
481.406	122.31
481.624	94.31
481.843	101.31
482.061	100.31
482.28	91.31
482.498	78.31
482.717	77.31
482.935	78.31
483.153	84.31
483.372	97.31
483.59	97.31
483.808	89.31
484.027	84.31
484.245	100.31
484.463	86.31
484.681	105.31
484.9	93.31
485.118	89.31
485.336	108.31
485.554	96.31
485.772	95.31
485.99	99.31
486.209	106.31
486.427	114.31
486.645	104.31
486.863	109.31
487.081	108.31
487.299	81.31
487.517	88.31
487.735	106.31
487.953	95.31
488.171	92.31
488.389	97.31
488.607	94.31
488.825	94.31
489.043	86.31
489.261	81.31
489.479	91.31
489.696	92.31
489.914	95.31
490.132	93.31
490.35	94.31
490.568	89.31
490.786	95.31
491.003	104.31
491.221	100.31
491.439	95.31
491.657	87.31
491.874	89.31
492.092	77.31
492.31	86.31
492.527	79.31
492.745	95.31
492.963	87.31
493.18	88.31
493.398	93.31
493.615	93.31
493.833	99.31
494.05	89.31
494.268	80.31
494.485	96.31
494.703	88.31
494.92	86.31
495.138	80.31
495.355	96.31
495.573	98.31
495.79	85.31
496.008	89.31
496.225	82.31
496.442	100.31
496.66	92.31
496.877	79.31
497.094	78.31
497.312	78.31
497.529	85.31
497.746	94.31
497.963	86.31
498.181	101.31
498.398	105.31
498.615	117.31
498.832	105.31
499.049	94.31
499.267	87.31
499.484	84.31
499.701	103.31
499.918	89.31
500.135	87.31
500.352	81.31
500.569	84.31
500.786	87.31
501.003	96.31
501.22	72.31
501.437	91.31
501.654	92.31
501.871	112.31
502.088	101.31
502.305	83.31
502.522	69.31
502.739	92.31
502.956	96.31
503.172	85.31
503.389	85.31
503.606	96.31
503.823	98.31
504.04	98.31
504.256	98.31
504.473	80.31
504.69	87.31
504.907	88.31
505.123	71.31
505.34	91.31
505.557	91.31
505.773	98.31
505.99	79.31
506.207	90.31
506.423	92.31
506.64	110.31
506.856	82.31
507.073	80.31
507.289	84.31
507.506	102.31
507.722	108.31
507.939	97.31
508.155	95.31
508.372	103.31
508.588	102.31
508.805	93.31
509.021	94.31
509.238	98.31
509.454	101.31
509.67	105.31
509.887	103.31
510.103	134.31
510.319	237.31
510.536	876.31
510.752	2864.31
510.968	790.31
511.184	169.31
511.401	118.31
511.617	78.31
511.833	98.31
512.049	92.31
512.265	94.31
512.481	96.31
512.698	90.31
512.914	87.31
513.13	101.31
513.346	77.31
513.562	97.31
513.778	114.31
513.994	98.31
514.21	112.31
514.426	113.31
514.642	130.31
514.858	127.31
515.074	180.31
