Data from Circ_2003_H10_HRD10591_00032.txt Node
Date: Wed Jan 03 10:37:09 EST 2024
User: Yrep
Spectrometer: HR+D1059
Trigger mode: 1
Integration Time (sec): 1.000000E-1
Scans to average: 1
Electric dark correction enabled: true
Nonlinearity correction enabled: false
Boxcar width: 0
XAxis mode: Wavelengths
Number of Pixels in Spectrum: 2048
>>>>>Begin Spectral Data<<<<<
223.165	-18.38
223.4	-18.38
223.635	-18.38
223.869	-24.38
224.104	-24.38
224.338	-15.38
224.573	-2.38
224.808	-2.38
225.042	-5.38
225.277	-8.38
225.511	-3.38
225.746	-10.38
225.98	14.62
226.215	10.62
226.449	7.62
226.683	20.62
226.918	22.62
227.152	38.62
227.387	40.62
227.621	41.62
227.856	54.62
228.09	55.62
228.324	59.62
228.559	55.62
228.793	57.62
229.027	62.62
229.262	64.62
229.496	76.62
229.73	87.62
229.964	77.62
230.199	80.62
230.433	86.62
230.667	86.62
230.901	83.62
231.136	74.62
231.37	78.62
231.604	83.62
231.838	86.62
232.072	80.62
232.306	95.62
232.541	83.62
232.775	72.62
233.009	85.62
233.243	68.62
233.477	70.62
233.711	70.62
233.945	76.62
234.179	84.62
234.413	72.62
234.647	87.62
234.881	82.62
235.115	75.62
235.349	68.62
235.583	72.62
235.817	87.62
236.051	84.62
236.285	84.62
236.519	82.62
236.753	87.62
236.987	86.62
237.221	83.62
237.455	68.62
237.689	81.62
237.922	71.62
238.156	76.62
238.39	80.62
238.624	74.62
238.858	79.62
239.091	83.62
239.325	74.62
239.559	81.62
239.793	78.62
240.027	81.62
240.26	75.62
240.494	75.62
240.728	75.62
240.961	78.62
241.195	85.62
241.429	75.62
241.662	80.62
241.896	85.62
242.13	85.62
242.363	89.62
242.597	78.62
242.83	90.62
243.064	94.62
243.298	82.62
243.531	57.62
243.765	75.62
243.998	80.62
244.232	85.62
244.465	76.62
244.699	76.62
244.932	78.62
245.166	90.62
245.399	86.62
245.633	69.62
245.866	82.62
246.099	78.62
246.333	79.62
246.566	73.62
246.8	75.62
247.033	84.62
247.266	76.62
247.5	89.62
247.733	73.62
247.966	81.62
248.2	82.62
248.433	87.62
248.666	84.62
248.899	100.62
249.133	88.62
249.366	88.62
249.599	113.62
249.832	77.62
250.066	82.62
250.299	72.62
250.532	61.62
250.765	66.62
250.998	88.62
251.231	86.62
251.465	81.62
251.698	81.62
251.931	85.62
252.164	80.62
252.397	89.62
252.63	84.62
252.863	93.62
253.096	89.62
253.329	83.62
253.562	69.62
253.795	74.62
254.028	81.62
254.261	70.62
254.494	75.62
254.727	75.62
254.96	90.62
255.193	93.62
255.426	88.62
255.659	85.62
255.892	94.62
256.124	83.62
256.357	92.62
256.59	89.62
256.823	83.62
257.056	90.62
257.289	78.62
257.521	68.62
257.754	76.62
257.987	94.62
258.22	89.62
258.452	93.62
258.685	82.62
258.918	88.62
259.151	80.62
259.383	77.62
259.616	76.62
259.849	85.62
260.081	88.62
260.314	76.62
260.547	90.62
260.779	95.62
261.012	97.62
261.244	94.62
261.477	94.62
261.71	83.62
261.942	89.62
262.175	108.62
262.407	88.62
262.64	83.62
262.872	86.62
263.105	96.62
263.337	84.62
263.57	78.62
263.802	82.62
264.035	94.62
264.267	82.62
264.499	110.62
264.732	84.62
264.964	84.62
265.197	80.62
265.429	99.62
265.661	82.62
265.894	86.62
266.126	98.62
266.358	88.62
266.591	82.62
266.823	78.62
267.055	89.62
267.287	98.62
267.52	70.62
267.752	68.62
267.984	81.62
268.216	79.62
268.448	99.62
268.681	86.62
268.913	93.62
269.145	93.62
269.377	87.62
269.609	90.62
269.841	91.62
270.073	74.62
270.306	73.62
270.538	93.62
270.77	86.62
271.002	73.62
271.234	83.62
271.466	88.62
271.698	91.62
271.93	93.62
272.162	88.62
272.394	88.62
272.626	100.62
272.858	89.62
273.09	97.62
273.322	98.62
273.553	71.62
273.785	72.62
274.017	95.62
274.249	77.62
274.481	81.62
274.713	86.62
274.945	89.62
275.176	80.62
275.408	89.62
275.64	87.62
275.872	81.62
276.104	89.62
276.335	98.62
276.567	101.62
276.799	95.62
277.031	113.62
277.262	96.62
277.494	88.62
277.726	94.62
277.957	90.62
278.189	81.62
278.421	94.62
278.652	88.62
278.884	97.62
279.115	77.62
279.347	77.62
279.579	98.62
279.81	95.62
280.042	92.62
280.273	74.62
280.505	93.62
280.736	101.62
280.968	93.62
281.199	87.62
281.431	85.62
281.662	84.62
281.894	82.62
282.125	93.62
282.356	113.62
282.588	145.62
282.819	123.62
283.051	102.62
283.282	90.62
283.513	90.62
283.745	96.62
283.976	100.62
284.207	87.62
284.439	93.62
284.67	83.62
284.901	80.62
285.132	85.62
285.364	92.62
285.595	85.62
285.826	91.62
286.057	92.62
286.288	90.62
286.52	79.62
286.751	105.62
286.982	86.62
287.213	86.62
287.444	99.62
287.675	92.62
287.906	102.62
288.138	96.62
288.369	101.62
288.6	92.62
288.831	87.62
289.062	88.62
289.293	93.62
289.524	92.62
289.755	77.62
289.986	80.62
290.217	94.62
290.448	81.62
290.679	93.62
290.91	95.62
291.141	86.62
291.371	85.62
291.602	89.62
291.833	84.62
292.064	105.62
292.295	96.62
292.526	93.62
292.757	96.62
292.987	97.62
293.218	80.62
293.449	93.62
293.68	81.62
293.91	78.62
294.141	85.62
294.372	97.62
294.603	92.62
294.833	106.62
295.064	109.62
295.295	95.62
295.525	108.62
295.756	109.62
295.987	112.62
296.217	133.62
296.448	119.62
296.679	95.62
296.909	91.62
297.14	97.62
297.37	74.62
297.601	86.62
297.831	88.62
298.062	83.62
298.292	99.62
298.523	95.62
298.753	92.62
298.984	93.62
299.214	98.62
299.445	102.62
299.675	102.62
299.905	92.62
300.136	95.62
300.366	101.62
300.597	84.62
300.827	87.62
301.057	116.62
301.288	91.62
301.518	109.62
301.748	96.62
301.979	112.62
302.209	94.62
302.439	93.62
302.669	97.62
302.9	102.62
303.13	92.62
303.36	106.62
303.59	108.62
303.82	109.62
304.051	90.62
304.281	88.62
304.511	89.62
304.741	96.62
304.971	80.62
305.201	93.62
305.431	92.62
305.661	86.62
305.891	72.62
306.121	91.62
306.352	109.62
306.582	90.62
306.812	102.62
307.042	86.62
307.272	84.62
307.502	94.62
307.731	105.62
307.961	93.62
308.191	88.62
308.421	109.62
308.651	83.62
308.881	77.62
309.111	84.62
309.341	90.62
309.571	92.62
309.8	109.62
310.03	84.62
310.26	98.62
310.49	107.62
310.72	93.62
310.949	100.62
311.179	112.62
311.409	97.62
311.639	99.62
311.868	96.62
312.098	99.62
312.328	87.62
312.557	111.62
312.787	94.62
313.017	115.62
313.246	108.62
313.476	103.62
313.706	95.62
313.935	92.62
314.165	109.62
314.394	94.62
314.624	102.62
314.853	94.62
315.083	83.62
315.312	111.62
315.542	100.62
315.771	109.62
316.001	100.62
316.23	92.62
316.46	85.62
316.689	86.62
316.919	92.62
317.148	98.62
317.377	105.62
317.607	102.62
317.836	109.62
318.065	94.62
318.295	104.62
318.524	96.62
318.753	93.62
318.983	90.62
319.212	93.62
319.441	113.62
319.67	105.62
319.9	90.62
320.129	102.62
320.358	108.62
320.587	103.62
320.816	102.62
321.046	105.62
321.275	108.62
321.504	98.62
321.733	89.62
321.962	100.62
322.191	112.62
322.42	119.62
322.649	115.62
322.878	120.62
323.108	130.62
323.337	130.62
323.566	144.62
323.795	161.62
324.024	215.62
324.253	422.62
324.482	861.62
324.71	1834.62
324.939	2406.62
325.168	873.62
325.397	266.62
325.626	156.62
325.855	134.62
326.084	130.62
326.313	140.62
326.542	158.62
326.77	248.62
326.999	476.62
327.228	1037.62
327.457	1852.62
327.686	1456.62
327.914	403.62
328.143	204.62
328.372	168.62
328.6	144.62
328.829	109.62
329.058	132.62
329.287	115.62
329.515	105.62
329.744	84.62
329.972	113.62
330.201	101.62
330.43	121.62
330.658	122.62
330.887	131.62
331.115	123.62
331.344	108.62
331.572	108.62
331.801	104.62
332.03	95.62
332.258	103.62
332.486	96.62
332.715	89.62
332.943	110.62
333.172	92.62
333.4	109.62
333.629	105.62
333.857	106.62
334.085	106.62
334.314	97.62
334.542	109.62
334.771	121.62
334.999	112.62
335.227	103.62
335.455	103.62
335.684	100.62
335.912	105.62
336.14	112.62
336.369	108.62
336.597	108.62
336.825	104.62
337.053	105.62
337.281	90.62
337.51	94.62
337.738	92.62
337.966	105.62
338.194	99.62
338.422	93.62
338.65	104.62
338.878	92.62
339.106	93.62
339.334	96.62
339.562	85.62
339.79	84.62
340.018	114.62
340.246	112.62
340.474	86.62
340.702	99.62
340.93	89.62
341.158	103.62
341.386	102.62
341.614	91.62
341.842	96.62
342.07	93.62
342.298	88.62
342.526	90.62
342.754	100.62
342.981	91.62
343.209	76.62
343.437	116.62
343.665	87.62
343.893	94.62
344.12	81.62
344.348	100.62
344.576	100.62
344.804	98.62
345.031	88.62
345.259	96.62
345.487	101.62
345.714	89.62
345.942	97.62
346.17	90.62
346.397	102.62
346.625	109.62
346.853	88.62
347.08	85.62
347.308	87.62
347.535	94.62
347.763	101.62
347.99	107.62
348.218	107.62
348.445	99.62
348.673	102.62
348.9	85.62
349.128	98.62
349.355	93.62
349.583	95.62
349.81	86.62
350.037	107.62
350.265	99.62
350.492	92.62
350.72	93.62
350.947	115.62
351.174	106.62
351.402	109.62
351.629	109.62
351.856	105.62
352.083	95.62
352.311	90.62
352.538	108.62
352.765	96.62
352.992	119.62
353.22	117.62
353.447	97.62
353.674	105.62
353.901	104.62
354.128	92.62
354.355	98.62
354.583	105.62
354.81	89.62
355.037	106.62
355.264	81.62
355.491	96.62
355.718	101.62
355.945	93.62
356.172	94.62
356.399	91.62
356.626	90.62
356.853	84.62
357.08	105.62
357.307	90.62
357.534	106.62
357.761	90.62
357.988	95.62
358.215	101.62
358.441	98.62
358.668	97.62
358.895	94.62
359.122	92.62
359.349	97.62
359.576	96.62
359.802	93.62
360.029	107.62
360.256	114.62
360.483	90.62
360.709	94.62
360.936	98.62
361.163	91.62
361.39	100.62
361.616	109.62
361.843	84.62
362.07	102.62
362.296	110.62
362.523	93.62
362.749	98.62
362.976	85.62
363.203	99.62
363.429	91.62
363.656	80.62
363.882	94.62
364.109	90.62
364.335	91.62
364.562	98.62
364.788	94.62
365.015	87.62
365.241	117.62
365.468	100.62
365.694	114.62
365.92	109.62
366.147	102.62
366.373	97.62
366.599	98.62
366.826	93.62
367.052	108.62
367.278	92.62
367.505	86.62
367.731	95.62
367.957	87.62
368.184	96.62
368.41	113.62
368.636	126.62
368.862	130.62
369.089	105.62
369.315	104.62
369.541	93.62
369.767	93.62
369.993	90.62
370.219	98.62
370.445	91.62
370.672	97.62
370.898	86.62
371.124	95.62
371.35	86.62
371.576	99.62
371.802	95.62
372.028	107.62
372.254	83.62
372.48	92.62
372.706	107.62
372.932	86.62
373.158	91.62
373.384	93.62
373.61	94.62
373.835	90.62
374.061	90.62
374.287	86.62
374.513	96.62
374.739	83.62
374.965	95.62
375.191	100.62
375.416	94.62
375.642	91.62
375.868	85.62
376.094	100.62
376.319	99.62
376.545	97.62
376.771	98.62
376.997	73.62
377.222	98.62
377.448	106.62
377.674	94.62
377.899	103.62
378.125	86.62
378.35	90.62
378.576	84.62
378.802	103.62
379.027	94.62
379.253	106.62
379.478	97.62
379.704	93.62
379.929	91.62
380.155	98.62
380.38	107.62
380.606	109.62
380.831	109.62
381.057	111.62
381.282	103.62
381.507	95.62
381.733	105.62
381.958	102.62
382.184	104.62
382.409	107.62
382.634	118.62
382.86	111.62
383.085	111.62
383.31	108.62
383.535	108.62
383.761	105.62
383.986	103.62
384.211	106.62
384.436	112.62
384.662	106.62
384.887	110.62
385.112	120.62
385.337	114.62
385.562	132.62
385.787	121.62
386.013	129.62
386.238	141.62
386.463	118.62
386.688	104.62
386.913	120.62
387.138	118.62
387.363	110.62
387.588	117.62
387.813	101.62
388.038	115.62
388.263	117.62
388.488	131.62
388.713	109.62
388.938	107.62
389.163	99.62
389.387	105.62
389.612	92.62
389.837	102.62
390.062	101.62
390.287	100.62
390.512	88.62
390.736	89.62
390.961	94.62
391.186	94.62
391.411	82.62
391.636	89.62
391.86	88.62
392.085	83.62
392.31	96.62
392.534	94.62
392.759	83.62
392.984	95.62
393.208	92.62
393.433	98.62
393.658	92.62
393.882	94.62
394.107	99.62
394.331	89.62
394.556	90.62
394.78	85.62
395.005	82.62
395.229	82.62
395.454	92.62
395.678	96.62
395.903	83.62
396.127	85.62
396.352	86.62
396.576	102.62
396.801	95.62
397.025	96.62
397.249	94.62
397.474	90.62
397.698	75.62
397.922	91.62
398.147	102.62
398.371	93.62
398.595	88.62
398.82	87.62
399.044	93.62
399.268	90.62
399.492	86.62
399.717	88.62
399.941	104.62
400.165	100.62
400.389	82.62
400.613	83.62
400.837	104.62
401.062	87.62
401.286	77.62
401.51	98.62
401.734	83.62
401.958	105.62
402.182	142.62
402.406	168.62
402.63	108.62
402.854	95.62
403.078	98.62
403.302	90.62
403.526	94.62
403.75	91.62
403.974	87.62
404.198	95.62
404.422	89.62
404.645	98.62
404.869	92.62
405.093	116.62
405.317	111.62
405.541	102.62
405.765	112.62
405.988	125.62
406.212	184.62
406.436	209.62
406.66	150.62
406.883	114.62
407.107	101.62
407.331	105.62
407.555	96.62
407.778	101.62
408.002	93.62
408.226	100.62
408.449	81.62
408.673	95.62
408.896	109.62
409.12	102.62
409.344	92.62
409.567	98.62
409.791	95.62
410.014	92.62
410.238	98.62
410.461	92.62
410.685	106.62
410.908	105.62
411.132	109.62
411.355	109.62
411.578	93.62
411.802	93.62
412.025	93.62
412.249	87.62
412.472	104.62
412.695	123.62
412.919	106.62
413.142	91.62
413.365	103.62
413.589	84.62
413.812	96.62
414.035	92.62
414.258	106.62
414.482	101.62
414.705	93.62
414.928	88.62
415.151	97.62
415.374	90.62
415.597	91.62
415.821	98.62
416.044	79.62
416.267	101.62
416.49	80.62
416.713	92.62
416.936	87.62
417.159	84.62
417.382	100.62
417.605	97.62
417.828	103.62
418.051	88.62
418.274	94.62
418.497	98.62
418.72	99.62
418.943	95.62
419.166	98.62
419.389	85.62
419.611	94.62
419.834	111.62
420.057	101.62
420.28	87.62
420.503	93.62
420.726	98.62
420.948	92.62
421.171	78.62
421.394	109.62
421.617	102.62
421.839	104.62
422.062	99.62
422.285	105.62
422.507	104.62
422.73	92.62
422.953	92.62
423.175	89.62
423.398	81.62
423.621	67.62
423.843	73.62
424.066	81.62
424.288	85.62
424.511	82.62
424.733	112.62
424.956	103.62
425.178	113.62
425.401	109.62
425.623	100.62
425.846	94.62
426.068	96.62
426.291	98.62
426.513	92.62
426.735	94.62
426.958	109.62
427.18	111.62
427.402	139.62
427.625	167.62
427.847	152.62
428.069	109.62
428.292	93.62
428.514	123.62
428.736	93.62
428.958	108.62
429.181	100.62
429.403	85.62
429.625	113.62
429.847	94.62
430.069	96.62
430.292	91.62
430.514	87.62
430.736	94.62
430.958	92.62
431.18	91.62
431.402	91.62
431.624	85.62
431.846	102.62
432.068	82.62
432.29	84.62
432.512	86.62
432.734	91.62
432.956	90.62
433.178	106.62
433.4	84.62
433.622	89.62
433.844	97.62
434.066	93.62
434.287	100.62
434.509	97.62
434.731	105.62
434.953	89.62
435.175	91.62
435.397	90.62
435.618	104.62
435.84	102.62
436.062	100.62
436.284	105.62
436.505	107.62
436.727	95.62
436.949	92.62
437.17	83.62
437.392	85.62
437.614	86.62
437.835	112.62
438.057	107.62
438.278	104.62
438.5	106.62
438.721	130.62
438.943	116.62
439.165	91.62
439.386	94.62
439.608	100.62
439.829	98.62
440.05	129.62
440.272	147.62
440.493	104.62
440.715	92.62
440.936	88.62
441.158	85.62
441.379	92.62
441.6	85.62
441.822	102.62
442.043	110.62
442.264	91.62
442.486	105.62
442.707	115.62
442.928	96.62
443.149	132.62
443.371	141.62
443.592	109.62
443.813	122.62
444.034	109.62
444.255	115.62
444.476	96.62
444.698	90.62
444.919	104.62
445.14	137.62
445.361	136.62
445.582	114.62
445.803	128.62
446.024	137.62
446.245	140.62
446.466	129.62
446.687	91.62
446.908	98.62
447.129	94.62
447.35	99.62
447.571	95.62
447.792	99.62
448.013	97.62
448.234	94.62
448.455	105.62
448.675	133.62
448.896	117.62
449.117	109.62
449.338	111.62
449.559	124.62
449.779	130.62
450	101.62
450.221	81.62
450.442	100.62
450.662	84.62
450.883	119.62
451.104	112.62
451.324	101.62
451.545	94.62
451.766	94.62
451.986	89.62
452.207	79.62
452.428	85.62
452.648	102.62
452.869	114.62
453.089	114.62
453.31	119.62
453.53	84.62
453.751	85.62
453.971	109.62
454.192	97.62
454.412	92.62
454.633	89.62
454.853	101.62
455.073	89.62
455.294	100.62
455.514	111.62
455.734	94.62
455.955	92.62
456.175	83.62
456.395	87.62
456.616	100.62
456.836	89.62
457.056	91.62
457.276	98.62
457.497	84.62
457.717	86.62
457.937	107.62
458.157	94.62
458.377	104.62
458.598	107.62
458.818	150.62
459.038	164.62
459.258	117.62
459.478	104.62
459.698	108.62
459.918	99.62
460.138	85.62
460.358	83.62
460.578	81.62
460.798	81.62
461.018	93.62
461.238	98.62
461.458	103.62
461.678	99.62
461.898	91.62
462.118	92.62
462.338	104.62
462.558	78.62
462.777	84.62
462.997	101.62
463.217	91.62
463.437	91.62
463.657	84.62
463.876	85.62
464.096	83.62
464.316	81.62
464.536	100.62
464.755	110.62
464.975	110.62
465.195	163.62
465.414	158.62
465.634	104.62
465.854	109.62
466.073	85.62
466.293	86.62
466.512	76.62
466.732	85.62
466.951	90.62
467.171	91.62
467.391	91.62
467.61	101.62
467.829	101.62
468.049	93.62
468.268	92.62
468.488	93.62
468.707	95.62
468.927	95.62
469.146	92.62
469.365	86.62
469.585	103.62
469.804	91.62
470.023	92.62
470.243	90.62
470.462	101.62
470.681	112.62
470.901	80.62
471.12	93.62
471.339	88.62
471.558	92.62
471.777	86.62
471.997	76.62
472.216	93.62
472.435	109.62
472.654	89.62
472.873	89.62
473.092	90.62
473.311	96.62
473.53	85.62
473.749	87.62
473.968	85.62
474.187	96.62
474.406	108.62
474.625	79.62
474.844	92.62
475.063	96.62
475.282	88.62
475.501	84.62
475.72	96.62
475.939	106.62
476.158	98.62
476.377	84.62
476.596	93.62
476.814	85.62
477.033	85.62
477.252	78.62
477.471	80.62
477.69	92.62
477.908	89.62
478.127	88.62
478.346	90.62
478.564	82.62
478.783	92.62
479.002	88.62
479.22	88.62
479.439	98.62
479.658	105.62
479.876	102.62
480.095	75.62
480.313	98.62
480.532	96.62
480.751	84.62
480.969	102.62
481.188	148.62
481.406	126.62
481.624	104.62
481.843	87.62
482.061	88.62
482.28	93.62
482.498	88.62
482.717	98.62
482.935	71.62
483.153	84.62
483.372	96.62
483.59	93.62
483.808	106.62
484.027	95.62
484.245	79.62
484.463	110.62
484.681	106.62
484.9	107.62
485.118	89.62
485.336	90.62
485.554	105.62
485.772	95.62
485.99	114.62
486.209	112.62
486.427	94.62
486.645	115.62
486.863	113.62
487.081	93.62
487.299	113.62
487.517	95.62
487.735	98.62
487.953	109.62
488.171	94.62
488.389	86.62
488.607	93.62
488.825	102.62
489.043	80.62
489.261	91.62
489.479	86.62
489.696	100.62
489.914	102.62
490.132	95.62
490.35	86.62
490.568	94.62
490.786	101.62
491.003	94.62
491.221	99.62
491.439	97.62
491.657	98.62
491.874	98.62
492.092	93.62
492.31	95.62
492.527	93.62
492.745	92.62
492.963	88.62
493.18	88.62
493.398	69.62
493.615	88.62
493.833	106.62
494.05	88.62
494.268	97.62
494.485	91.62
494.703	88.62
494.92	93.62
495.138	83.62
495.355	100.62
495.573	104.62
495.79	98.62
496.008	77.62
496.225	93.62
496.442	97.62
496.66	92.62
496.877	99.62
497.094	84.62
497.312	105.62
497.529	89.62
497.746	78.62
497.963	85.62
498.181	80.62
498.398	97.62
498.615	123.62
498.832	118.62
499.049	101.62
499.267	100.62
499.484	88.62
499.701	82.62
499.918	86.62
500.135	93.62
500.352	91.62
500.569	83.62
500.786	87.62
501.003	102.62
501.22	101.62
501.437	92.62
501.654	99.62
501.871	111.62
502.088	92.62
502.305	85.62
502.522	85.62
502.739	99.62
502.956	94.62
503.172	89.62
503.389	105.62
503.606	114.62
503.823	96.62
504.04	89.62
504.256	108.62
504.473	95.62
504.69	103.62
504.907	96.62
505.123	87.62
505.34	79.62
505.557	85.62
505.773	92.62
505.99	104.62
506.207	104.62
506.423	87.62
506.64	97.62
506.856	101.62
507.073	73.62
507.289	86.62
507.506	94.62
507.722	114.62
507.939	119.62
508.155	96.62
508.372	95.62
508.588	100.62
508.805	101.62
509.021	100.62
509.238	104.62
509.454	102.62
509.67	110.62
509.887	104.62
510.103	130.62
510.319	216.62
510.536	817.62
510.752	2614.62
510.968	734.62
511.184	166.62
511.401	107.62
511.617	107.62
511.833	97.62
512.049	83.62
512.265	89.62
512.481	93.62
512.698	89.62
512.914	99.62
513.13	94.62
513.346	101.62
513.562	84.62
513.778	98.62
513.994	94.62
