Data from Circ_2003_H10_HRD10591_00051.txt Node
Date: Wed Jan 03 10:37:12 EST 2024
User: Yrep
Spectrometer: HR+D1059
Trigger mode: 1
Integration Time (sec): 1.000000E-1
Scans to average: 1
Electric dark correction enabled: true
Nonlinearity correction enabled: false
Boxcar width: 0
XAxis mode: Wavelengths
Number of Pixels in Spectrum: 2048
>>>>>Begin Spectral Data<<<<<
223.165	-15.06
223.4	-15.06
223.635	-15.06
223.869	-21.06
224.104	-26.06
224.338	-11.06
224.573	-27.06
224.808	-7.06
225.042	1.94
225.277	-7.06
225.511	-16.06
225.746	8.94
225.98	9.94
226.215	14.94
226.449	19.94
226.683	24.94
226.918	19.94
227.152	29.94
227.387	35.94
227.621	36.94
227.856	48.94
228.09	39.94
228.324	44.94
228.559	52.94
228.793	157.94
229.027	425.94
229.262	494.94
229.496	597.94
229.73	770.94
229.964	777.94
230.199	572.94
230.433	485.94
230.667	464.94
230.901	434.94
231.136	429.94
231.37	435.94
231.604	454.94
231.838	452.94
232.072	455.94
232.306	484.94
232.541	460.94
232.775	468.94
233.009	467.94
233.243	473.94
233.477	473.94
233.711	439.94
233.945	485.94
234.179	517.94
234.413	495.94
234.647	513.94
234.881	541.94
235.115	515.94
235.349	510.94
235.583	546.94
235.817	591.94
236.051	629.94
236.285	582.94
236.519	630.94
236.753	688.94
236.987	899.94
237.221	1335.94
237.455	1430.94
237.689	869.94
237.922	729.94
238.156	712.94
238.39	680.94
238.624	649.94
238.858	648.94
239.091	636.94
239.325	638.94
239.559	672.94
239.793	705.94
240.027	733.94
240.26	905.94
240.494	951.94
240.728	967.94
240.961	885.94
241.195	793.94
241.429	762.94
241.662	751.94
241.896	758.94
242.13	773.94
242.363	752.94
242.597	789.94
242.83	793.94
243.064	809.94
243.298	816.94
243.531	832.94
243.765	838.94
243.998	850.94
244.232	833.94
244.465	872.94
244.699	871.94
244.932	880.94
245.166	876.94
245.399	866.94
245.633	878.94
245.866	914.94
246.099	899.94
246.333	962.94
246.566	955.94
246.8	943.94
247.033	1008.94
247.266	1069.94
247.5	1096.94
247.733	1131.94
247.966	1143.94
248.2	1102.94
248.433	1117.94
248.666	1179.94
248.899	1299.94
249.133	1398.94
249.366	1401.94
249.599	1315.94
249.832	1205.94
250.066	1222.94
250.299	1319.94
250.532	1432.94
250.765	1596.94
250.998	1725.94
251.231	1628.94
251.465	1492.94
251.698	1409.94
251.931	1379.94
252.164	1356.94
252.397	1432.94
252.63	1438.94
252.863	1542.94
253.096	1622.94
253.329	1726.94
253.562	1607.94
253.795	1527.94
254.028	1534.94
254.261	1631.94
254.494	1793.94
254.727	2151.94
254.96	2218.94
255.193	1927.94
255.426	1739.94
255.659	1717.94
255.892	1751.94
256.124	1858.94
256.357	1811.94
256.59	1660.94
256.823	1593.94
257.056	1559.94
257.289	1513.94
257.521	1567.94
257.754	1544.94
257.987	1560.94
258.22	1544.94
258.452	1535.94
258.685	1561.94
258.918	1561.94
259.151	1581.94
259.383	1671.94
259.616	1668.94
259.849	1743.94
260.081	1861.94
260.314	2062.94
260.547	1964.94
260.779	1847.94
261.012	1752.94
261.244	1713.94
261.477	1681.94
261.71	1678.94
261.942	1751.94
262.175	1752.94
262.407	1718.94
262.64	1593.94
262.872	1628.94
263.105	1687.94
263.337	1637.94
263.57	1683.94
263.802	1692.94
264.035	1663.94
264.267	1679.94
264.499	1659.94
264.732	1696.94
264.964	1663.94
265.197	1726.94
265.429	1715.94
265.661	1674.94
265.894	1750.94
266.126	1740.94
266.358	1745.94
266.591	1781.94
266.823	1885.94
267.055	1847.94
267.287	1849.94
267.52	1819.94
267.752	1853.94
267.984	1888.94
268.216	1904.94
268.448	1941.94
268.681	2010.94
268.913	2142.94
269.145	2325.94
269.377	2326.94
269.609	2290.94
269.841	2299.94
270.073	2341.94
270.306	2651.94
270.538	2775.94
270.77	2602.94
271.002	2487.94
271.234	2461.94
271.466	2585.94
271.698	2715.94
271.93	2733.94
272.162	2706.94
272.394	2668.94
272.626	2511.94
272.858	2341.94
273.09	2285.94
273.322	2237.94
273.553	2232.94
273.785	2202.94
274.017	2264.94
274.249	2277.94
274.481	2243.94
274.713	2296.94
274.945	2267.94
275.176	2283.94
275.408	2244.94
275.64	2259.94
275.872	2292.94
276.104	2293.94
276.335	2326.94
276.567	2474.94
276.799	2586.94
277.031	2798.94
277.262	2894.94
277.494	2807.94
277.726	2629.94
277.957	2476.94
278.189	2466.94
278.421	2457.94
278.652	2363.94
278.884	2406.94
279.115	2381.94
279.347	2420.94
279.579	2352.94
279.81	2405.94
280.042	2424.94
280.273	2446.94
280.505	2453.94
280.736	2424.94
280.968	2431.94
281.199	2420.94
281.431	2454.94
281.662	2483.94
281.894	2482.94
282.125	2481.94
282.356	2681.94
282.588	2813.94
282.819	2749.94
283.051	2527.94
283.282	2542.94
283.513	2575.94
283.745	2567.94
283.976	2659.94
284.207	2672.94
284.439	2629.94
284.67	2582.94
284.901	2680.94
285.132	2659.94
285.364	2662.94
285.595	2616.94
285.826	2647.94
286.057	2678.94
286.288	2707.94
286.52	2723.94
286.751	2691.94
286.982	2731.94
287.213	2744.94
287.444	2776.94
287.675	2847.94
287.906	2880.94
288.138	2941.94
288.369	2931.94
288.6	2910.94
288.831	2868.94
289.062	2837.94
289.293	2857.94
289.524	2833.94
289.755	2833.94
289.986	2850.94
290.217	2816.94
290.448	2781.94
290.679	2799.94
290.91	2812.94
291.141	2815.94
291.371	2805.94
291.602	2856.94
291.833	2867.94
292.064	2861.94
292.295	2868.94
292.526	2848.94
292.757	2867.94
292.987	2866.94
293.218	2870.94
293.449	2940.94
293.68	2867.94
293.91	2882.94
294.141	2888.94
294.372	2883.94
294.603	2884.94
294.833	2936.94
295.064	2872.94
295.295	2940.94
295.525	2957.94
295.756	2950.94
295.987	3017.94
296.217	3227.94
296.448	3106.94
296.679	3000.94
296.909	2975.94
297.14	3037.94
297.37	3051.94
297.601	3095.94
297.831	3021.94
298.062	3044.94
298.292	3054.94
298.523	3120.94
298.753	3138.94
298.984	3127.94
299.214	3097.94
299.445	3150.94
299.675	3190.94
299.905	3200.94
300.136	3142.94
300.366	3184.94
300.597	3222.94
300.827	3288.94
301.057	3384.94
301.288	3391.94
301.518	3325.94
301.748	3387.94
301.979	3447.94
302.209	3421.94
302.439	3491.94
302.669	3361.94
302.9	3395.94
303.13	3371.94
303.36	3410.94
303.59	3365.94
303.82	3460.94
304.051	3372.94
304.281	3403.94
304.511	3336.94
304.741	3351.94
304.971	3374.94
305.201	3351.94
305.431	3280.94
305.661	3339.94
305.891	3325.94
306.121	3311.94
306.352	3363.94
306.582	3309.94
306.812	3232.94
307.042	3350.94
307.272	3355.94
307.502	3341.94
307.731	3353.94
307.961	3336.94
308.191	3318.94
308.421	3335.94
308.651	3364.94
308.881	3327.94
309.111	3409.94
309.341	3440.94
309.571	3494.94
309.8	3565.94
310.03	3606.94
310.26	3671.94
310.49	3643.94
310.72	3769.94
310.949	3827.94
311.179	3747.94
311.409	3649.94
311.639	3734.94
311.868	3701.94
312.098	3756.94
312.328	3810.94
312.557	3886.94
312.787	3999.94
313.017	3906.94
313.246	3834.94
313.476	3781.94
313.706	3780.94
313.935	3928.94
314.165	3948.94
314.394	3992.94
314.624	3991.94
314.853	3837.94
315.083	3831.94
315.312	3800.94
315.542	3811.94
315.771	3768.94
316.001	3697.94
316.23	3686.94
316.46	3781.94
316.689	3769.94
316.919	3839.94
317.148	3888.94
317.377	3821.94
317.607	3770.94
317.836	3822.94
318.065	3745.94
318.295	3725.94
318.524	3733.94
318.753	3731.94
318.983	3698.94
319.212	3768.94
319.441	3820.94
319.67	3845.94
319.9	3802.94
320.129	3797.94
320.358	3781.94
320.587	3805.94
320.816	3894.94
321.046	3909.94
321.275	3924.94
321.504	3902.94
321.733	3917.94
321.962	4055.94
322.191	4090.94
322.42	4163.94
322.649	4222.94
322.878	4279.94
323.108	4444.94
323.337	4644.94
323.566	4815.94
323.795	5176.94
324.024	5708.94
324.253	7597.94
324.482	11233.94
324.71	15377.94
324.939	15609.94
325.168	13211.94
325.397	6852.94
325.626	5366.94
325.855	5011.94
326.084	4923.94
326.313	4863.94
326.542	5066.94
326.77	5779.94
326.999	7275.94
327.228	10626.94
327.457	14505.94
327.686	13724.94
327.914	7495.94
328.143	6126.94
328.372	5824.94
328.6	5474.94
328.829	5413.94
329.058	5543.94
329.287	5482.94
329.515	5183.94
329.744	5104.94
329.972	5236.94
330.201	5432.94
330.43	5791.94
330.658	5880.94
330.887	5975.94
331.115	5511.94
331.344	5095.94
331.572	5042.94
331.801	5163.94
332.03	5173.94
332.258	5107.94
332.486	5070.94
332.715	5259.94
332.943	5400.94
333.172	5540.94
333.4	5726.94
333.629	5813.94
333.857	6017.94
334.085	6003.94
334.314	6174.94
334.542	6370.94
334.771	6322.94
334.999	5705.94
335.227	5467.94
335.455	5386.94
335.684	5259.94
335.912	5137.94
336.14	5077.94
336.369	5081.94
336.597	5112.94
336.825	5043.94
337.053	4982.94
337.281	4874.94
337.51	4801.94
337.738	4859.94
337.966	4797.94
338.194	4840.94
338.422	4759.94
338.65	4634.94
338.878	4587.94
339.106	4615.94
339.334	4563.94
339.562	4497.94
339.79	4463.94
340.018	4498.94
340.246	4492.94
340.474	4552.94
340.702	4517.94
340.93	4436.94
341.158	4493.94
341.386	4499.94
341.614	4540.94
341.842	4434.94
342.07	4392.94
342.298	4449.94
342.526	4387.94
342.754	4354.94
342.981	4380.94
343.209	4469.94
343.437	4728.94
343.665	4984.94
343.893	5255.94
344.12	5315.94
344.348	5087.94
344.576	4877.94
344.804	4820.94
345.031	4726.94
345.259	4655.94
345.487	4557.94
345.714	4551.94
345.942	4319.94
346.17	4293.94
346.397	4262.94
346.625	4313.94
346.853	4297.94
347.08	4227.94
347.308	4282.94
347.535	4419.94
347.763	4396.94
347.99	4369.94
348.218	4374.94
348.445	4393.94
348.673	4363.94
348.9	4204.94
349.128	4186.94
349.355	4158.94
349.583	4107.94
349.81	4160.94
350.037	4115.94
350.265	4103.94
350.492	4156.94
350.72	4132.94
350.947	4204.94
351.174	4228.94
351.402	4262.94
351.629	4279.94
351.856	4240.94
352.083	4383.94
352.311	4323.94
352.538	4333.94
352.765	4301.94
352.992	4274.94
353.22	4162.94
353.447	4185.94
353.674	4127.94
353.901	4055.94
354.128	4053.94
354.355	4088.94
354.583	4057.94
354.81	4088.94
355.037	4067.94
355.264	4077.94
355.491	4013.94
355.718	3999.94
355.945	4018.94
356.172	4052.94
356.399	4020.94
356.626	4005.94
356.853	4079.94
357.08	4018.94
357.307	4044.94
357.534	4031.94
357.761	4108.94
357.988	4102.94
358.215	4014.94
358.441	4100.94
358.668	4101.94
358.895	4185.94
359.122	4162.94
359.349	4293.94
359.576	4360.94
359.802	4581.94
360.029	4734.94
360.256	4651.94
360.483	4451.94
360.709	4289.94
360.936	4327.94
361.163	4297.94
361.39	4279.94
361.616	4335.94
361.843	4285.94
362.07	4281.94
362.296	4298.94
362.523	4255.94
362.749	4280.94
362.976	4197.94
363.203	4148.94
363.429	4132.94
363.656	4166.94
363.882	4146.94
364.109	4115.94
364.335	4187.94
364.562	4065.94
364.788	4149.94
365.015	4142.94
365.241	4195.94
365.468	4119.94
365.694	4216.94
365.92	4196.94
366.147	4150.94
366.373	4054.94
366.599	4117.94
366.826	4084.94
367.052	4096.94
367.278	4125.94
367.505	4124.94
367.731	4198.94
367.957	4127.94
368.184	4207.94
368.41	4276.94
368.636	4339.94
368.862	4382.94
369.089	4228.94
369.315	4182.94
369.541	4194.94
369.767	4281.94
369.993	4231.94
370.219	4269.94
370.445	4250.94
370.672	4352.94
370.898	4330.94
371.124	4355.94
371.35	4379.94
371.576	4296.94
371.802	4413.94
372.028	4319.94
372.254	4440.94
372.48	4382.94
372.706	4528.94
372.932	4577.94
373.158	4531.94
373.384	4479.94
373.61	4410.94
373.835	4418.94
374.061	4453.94
374.287	4522.94
374.513	4555.94
374.739	4715.94
374.965	4815.94
375.191	4905.94
375.416	4706.94
375.642	4619.94
375.868	4593.94
376.094	4467.94
376.319	4485.94
376.545	4451.94
376.771	4473.94
376.997	4439.94
377.222	4372.94
377.448	4361.94
377.674	4429.94
377.899	4387.94
378.125	4382.94
378.35	4319.94
378.576	4315.94
378.802	4360.94
379.027	4350.94
379.253	4398.94
379.478	4366.94
379.704	4336.94
379.929	4303.94
380.155	4378.94
380.38	4357.94
380.606	4479.94
380.831	4398.94
381.057	4456.94
381.282	4434.94
381.507	4466.94
381.733	4445.94
381.958	4539.94
382.184	4647.94
382.409	4596.94
382.634	4696.94
382.86	4691.94
383.085	4676.94
383.31	4808.94
383.535	4856.94
383.761	4942.94
383.986	5008.94
384.211	5046.94
384.436	5131.94
384.662	5269.94
384.887	5319.94
385.112	5286.94
385.337	5314.94
385.562	5293.94
385.787	5347.94
386.013	5345.94
386.238	5466.94
386.463	5487.94
386.688	5394.94
386.913	5257.94
387.138	5315.94
387.363	5283.94
387.588	5215.94
387.813	5315.94
388.038	5228.94
388.263	5269.94
388.488	5283.94
388.713	5263.94
388.938	5277.94
389.163	5267.94
389.387	5264.94
389.612	5150.94
389.837	5193.94
390.062	5160.94
390.287	5181.94
390.512	5256.94
390.736	5243.94
390.961	5369.94
391.186	5455.94
391.411	5635.94
391.636	5709.94
391.86	5888.94
392.085	5939.94
392.31	5809.94
392.534	5718.94
392.759	5557.94
392.984	5553.94
393.208	5505.94
393.433	5481.94
393.658	5493.94
393.882	5501.94
394.107	5516.94
394.331	5504.94
394.556	5600.94
394.78	5603.94
395.005	5620.94
395.229	5622.94
395.454	5862.94
395.678	5992.94
395.903	5935.94
396.127	6028.94
396.352	5871.94
396.576	5612.94
396.801	5594.94
397.025	5636.94
397.249	5759.94
397.474	5955.94
397.698	6063.94
397.922	6046.94
398.147	6151.94
398.371	6328.94
398.595	6335.94
398.82	6670.94
399.044	7321.94
399.268	8059.94
399.492	9309.94
399.717	9903.94
399.941	9539.94
400.165	9006.94
400.389	8319.94
400.613	7578.94
400.837	7012.94
401.062	6843.94
401.286	6702.94
401.51	6613.94
401.734	6675.94
401.958	6789.94
402.182	6901.94
402.406	7028.94
402.63	7100.94
402.854	7220.94
403.078	7236.94
403.302	7437.94
403.526	7574.94
403.75	7480.94
403.974	7656.94
404.198	7615.94
404.422	7716.94
404.645	7684.94
404.869	7634.94
405.093	7921.94
405.317	8142.94
405.541	8143.94
405.765	7616.94
405.988	7483.94
406.212	7572.94
406.436	7780.94
406.66	7943.94
406.883	7965.94
407.107	8560.94
407.331	9103.94
407.555	9633.94
407.778	9221.94
408.002	8425.94
408.226	8055.94
408.449	7911.94
408.673	7803.94
408.896	8035.94
409.12	8139.94
409.344	7595.94
409.567	7282.94
409.791	7346.94
410.014	7176.94
410.238	7137.94
410.461	7205.94
410.685	7235.94
410.908	7188.94
411.132	7520.94
411.355	7562.94
411.578	7158.94
411.802	6923.94
412.025	6935.94
412.249	7134.94
412.472	7391.94
412.695	7564.94
412.919	7041.94
413.142	6822.94
413.365	6736.94
413.589	6736.94
413.812	6580.94
414.035	6460.94
414.258	6515.94
414.482	6604.94
414.705	6681.94
414.928	6673.94
415.151	6674.94
415.374	6565.94
415.597	6450.94
415.821	6456.94
416.044	6401.94
416.267	6356.94
416.49	6373.94
416.713	6324.94
416.936	6480.94
417.159	6461.94
417.382	6507.94
417.605	6492.94
417.828	6687.94
418.051	6797.94
418.274	6661.94
418.497	6537.94
418.72	6802.94
418.943	6749.94
419.166	7021.94
419.389	7458.94
419.611	7375.94
419.834	7076.94
420.057	7075.94
420.28	6851.94
420.503	6879.94
420.726	6735.94
420.948	6881.94
421.171	7212.94
421.394	7141.94
421.617	6752.94
421.839	6681.94
422.062	6824.94
422.285	6935.94
422.507	7605.94
422.73	8123.94
422.953	7451.94
423.175	7120.94
423.398	7205.94
423.621	7179.94
423.843	7473.94
424.066	7432.94
424.288	7319.94
424.511	7507.94
424.733	7997.94
424.956	8359.94
425.178	7907.94
425.401	8020.94
425.623	7958.94
425.846	6985.94
426.068	6771.94
426.291	6699.94
426.513	6751.94
426.735	6738.94
426.958	7255.94
427.18	8045.94
427.402	9196.94
427.625	9287.94
427.847	8001.94
428.069	7284.94
428.292	6614.94
428.514	6305.94
428.736	6130.94
428.958	6060.94
429.181	5930.94
429.403	5902.94
429.625	6136.94
429.847	6465.94
430.069	6960.94
430.292	6488.94
430.514	5976.94
430.736	6008.94
430.958	5859.94
431.18	5807.94
431.402	5830.94
431.624	5836.94
431.846	5891.94
432.068	5809.94
432.29	5965.94
432.512	5891.94
432.734	5921.94
432.956	5873.94
433.178	6005.94
433.4	5957.94
433.622	5799.94
433.844	5947.94
434.066	5930.94
434.287	5984.94
434.509	6182.94
434.731	6418.94
434.953	6622.94
435.175	6808.94
435.397	6830.94
435.618	6830.94
435.84	7155.94
436.062	8059.94
436.284	7827.94
436.505	6664.94
436.727	6392.94
436.949	6149.94
437.17	6071.94
437.392	5914.94
437.614	6079.94
437.835	6440.94
438.057	7487.94
438.278	8104.94
438.5	8016.94
438.721	8869.94
438.943	7694.94
439.165	6528.94
439.386	6357.94
439.608	6376.94
439.829	6505.94
440.05	6807.94
440.272	7176.94
440.493	6599.94
440.715	6264.94
440.936	6332.94
441.158	6262.94
441.379	6339.94
441.6	6800.94
441.822	7029.94
442.043	7493.94
442.264	8217.94
442.486	7951.94
442.707	7028.94
442.928	6904.94
443.149	7057.94
443.371	7294.94
443.592	7858.94
443.813	8899.94
444.034	8739.94
444.255	7639.94
444.476	7467.94
444.698	7704.94
444.919	7828.94
445.14	7551.94
445.361	7405.94
445.582	7555.94
445.803	8173.94
446.024	8781.94
446.245	8425.94
446.466	7507.94
446.687	6555.94
446.908	6242.94
447.129	5959.94
447.35	5743.94
447.571	5843.94
447.792	5671.94
448.013	5781.94
448.234	5977.94
448.455	6643.94
448.675	7873.94
448.896	8289.94
449.117	6927.94
449.338	7075.94
449.559	8369.94
449.779	8463.94
450	6563.94
450.221	5877.94
450.442	5685.94
450.662	5559.94
450.883	5633.94
451.104	5807.94
451.324	5649.94
451.545	5423.94
451.766	5312.94
451.986	5228.94
452.207	5141.94
452.428	5135.94
452.648	5176.94
452.869	5216.94
453.089	5217.94
453.31	5411.94
453.53	5237.94
453.751	5067.94
453.971	5169.94
454.192	5286.94
454.412	5102.94
454.633	5025.94
454.853	5025.94
455.073	5043.94
455.294	5452.94
455.514	6009.94
455.734	5480.94
455.955	4948.94
456.175	4796.94
456.395	4771.94
456.616	4749.94
456.836	4735.94
457.056	4711.94
457.276	4680.94
457.497	4820.94
457.717	4831.94
457.937	4873.94
458.157	4972.94
458.377	5086.94
458.598	5333.94
458.818	6131.94
459.038	6908.94
459.258	6836.94
459.478	6062.94
459.698	5955.94
459.918	6004.94
460.138	6249.94
460.358	6455.94
460.578	6492.94
460.798	6547.94
461.018	6527.94
461.238	6314.94
461.458	6356.94
461.678	6362.94
461.898	6514.94
462.118	6574.94
462.338	6931.94
462.558	7073.94
462.777	7350.94
462.997	7901.94
463.217	8394.94
463.437	8125.94
463.657	7507.94
463.876	7274.94
464.096	7307.94
464.316	7366.94
464.536	7392.94
464.755	7180.94
464.975	7043.94
465.195	7213.94
465.414	7219.94
465.634	6499.94
465.854	6089.94
466.073	5814.94
466.293	5621.94
466.512	5492.94
466.732	5362.94
466.951	5381.94
467.171	5352.94
467.391	5413.94
467.61	5521.94
467.829	5489.94
468.049	5414.94
468.268	5334.94
468.488	5167.94
468.707	5116.94
468.927	5148.94
469.146	5113.94
469.365	5252.94
469.585	5187.94
469.804	5453.94
470.023	5610.94
470.243	5597.94
470.462	5648.94
470.681	5782.94
470.901	5566.94
471.12	5532.94
471.339	5478.94
471.558	5434.94
471.777	5351.94
471.997	5280.94
472.216	5405.94
472.435	5667.94
472.654	5391.94
472.873	5186.94
473.092	5131.94
473.311	5129.94
473.53	5160.94
473.749	5347.94
473.968	5802.94
474.187	6837.94
474.406	6400.94
474.625	5482.94
474.844	5120.94
475.063	5193.94
475.282	5138.94
475.501	5230.94
475.72	5269.94
475.939	5311.94
476.158	5330.94
476.377	5375.94
476.596	5279.94
476.814	5437.94
477.033	5475.94
477.252	5599.94
477.471	5732.94
477.69	5819.94
477.908	5939.94
478.127	6017.94
478.346	6162.94
478.564	6195.94
478.783	6294.94
479.002	6439.94
479.22	6452.94
479.439	6589.94
479.658	6718.94
479.876	6766.94
480.095	6952.94
480.313	7412.94
480.532	7313.94
480.751	7187.94
480.969	7224.94
481.188	7755.94
481.406	7576.94
481.624	6820.94
481.843	6533.94
482.061	6340.94
482.28	6256.94
482.498	6133.94
482.717	6043.94
482.935	6114.94
483.153	6043.94
483.372	6046.94
483.59	6111.94
483.808	6014.94
484.027	6075.94
484.245	6129.94
484.463	6182.94
484.681	6295.94
484.9	6324.94
485.118	6352.94
485.336	6345.94
485.554	6337.94
485.772	6541.94
485.99	6489.94
486.209	6508.94
486.427	6538.94
486.645	6576.94
486.863	6701.94
487.081	6677.94
487.299	6584.94
487.517	6498.94
487.735	6487.94
487.953	6491.94
