Data from Circ_2003_H10_HRD10591_00058.txt Node
Date: Wed Jan 03 10:37:14 EST 2024
User: Yrep
Spectrometer: HR+D1059
Trigger mode: 1
Integration Time (sec): 1.000000E-1
Scans to average: 1
Electric dark correction enabled: true
Nonlinearity correction enabled: false
Boxcar width: 0
XAxis mode: Wavelengths
Number of Pixels in Spectrum: 2048
>>>>>Begin Spectral Data<<<<<
223.165	-24.19
223.4	-24.19
223.635	-24.19
223.869	-19.19
224.104	-25.19
224.338	-9.19
224.573	-10.19
224.808	-22.19
225.042	-27.19
225.277	3.81
225.511	12.81
225.746	11.81
225.98	7.81
226.215	11.81
226.449	5.81
226.683	21.81
226.918	27.81
227.152	33.81
227.387	30.81
227.621	24.81
227.856	35.81
228.09	33.81
228.324	54.81
228.559	42.81
228.793	55.81
229.027	77.81
229.262	64.81
229.496	87.81
229.73	91.81
229.964	83.81
230.199	70.81
230.433	66.81
230.667	87.81
230.901	78.81
231.136	81.81
231.37	75.81
231.604	88.81
231.838	66.81
232.072	65.81
232.306	79.81
232.541	57.81
232.775	76.81
233.009	76.81
233.243	81.81
233.477	80.81
233.711	84.81
233.945	68.81
234.179	71.81
234.413	72.81
234.647	68.81
234.881	84.81
235.115	76.81
235.349	69.81
235.583	84.81
235.817	60.81
236.051	71.81
236.285	71.81
236.519	71.81
236.753	77.81
236.987	87.81
237.221	79.81
237.455	93.81
237.689	88.81
237.922	74.81
238.156	68.81
238.39	68.81
238.624	72.81
238.858	91.81
239.091	67.81
239.325	72.81
239.559	76.81
239.793	75.81
240.027	71.81
240.26	74.81
240.494	88.81
240.728	70.81
240.961	75.81
241.195	90.81
241.429	75.81
241.662	69.81
241.896	72.81
242.13	71.81
242.363	73.81
242.597	83.81
242.83	80.81
243.064	71.81
243.298	68.81
243.531	75.81
243.765	81.81
243.998	72.81
244.232	87.81
244.465	75.81
244.699	74.81
244.932	59.81
245.166	82.81
245.399	74.81
245.633	70.81
245.866	72.81
246.099	72.81
246.333	60.81
246.566	72.81
246.8	77.81
247.033	69.81
247.266	68.81
247.5	76.81
247.733	81.81
247.966	85.81
248.2	81.81
248.433	71.81
248.666	76.81
248.899	78.81
249.133	89.81
249.366	95.81
249.599	84.81
249.832	76.81
250.066	85.81
250.299	79.81
250.532	83.81
250.765	63.81
250.998	88.81
251.231	69.81
251.465	78.81
251.698	80.81
251.931	67.81
252.164	61.81
252.397	78.81
252.63	78.81
252.863	69.81
253.096	83.81
253.329	90.81
253.562	76.81
253.795	87.81
254.028	75.81
254.261	68.81
254.494	70.81
254.727	86.81
254.96	76.81
255.193	88.81
255.426	82.81
255.659	83.81
255.892	81.81
256.124	65.81
256.357	71.81
256.59	74.81
256.823	85.81
257.056	84.81
257.289	89.81
257.521	89.81
257.754	80.81
257.987	81.81
258.22	74.81
258.452	79.81
258.685	84.81
258.918	80.81
259.151	69.81
259.383	70.81
259.616	68.81
259.849	75.81
260.081	88.81
260.314	79.81
260.547	93.81
260.779	75.81
261.012	83.81
261.244	86.81
261.477	84.81
261.71	83.81
261.942	107.81
262.175	107.81
262.407	76.81
262.64	83.81
262.872	69.81
263.105	86.81
263.337	86.81
263.57	83.81
263.802	82.81
264.035	89.81
264.267	75.81
264.499	84.81
264.732	79.81
264.964	75.81
265.197	67.81
265.429	90.81
265.661	86.81
265.894	72.81
266.126	79.81
266.358	67.81
266.591	93.81
266.823	72.81
267.055	69.81
267.287	75.81
267.52	91.81
267.752	76.81
267.984	76.81
268.216	75.81
268.448	89.81
268.681	73.81
268.913	84.81
269.145	83.81
269.377	80.81
269.609	94.81
269.841	92.81
270.073	93.81
270.306	68.81
270.538	84.81
270.77	84.81
271.002	99.81
271.234	90.81
271.466	88.81
271.698	80.81
271.93	77.81
272.162	88.81
272.394	74.81
272.626	77.81
272.858	80.81
273.09	97.81
273.322	94.81
273.553	73.81
273.785	89.81
274.017	86.81
274.249	77.81
274.481	95.81
274.713	86.81
274.945	82.81
275.176	76.81
275.408	94.81
275.64	96.81
275.872	77.81
276.104	78.81
276.335	71.81
276.567	100.81
276.799	90.81
277.031	105.81
277.262	106.81
277.494	93.81
277.726	94.81
277.957	71.81
278.189	80.81
278.421	81.81
278.652	86.81
278.884	83.81
279.115	73.81
279.347	94.81
279.579	95.81
279.81	69.81
280.042	71.81
280.273	87.81
280.505	72.81
280.736	95.81
280.968	83.81
281.199	82.81
281.431	100.81
281.662	92.81
281.894	81.81
282.125	110.81
282.356	104.81
282.588	117.81
282.819	108.81
283.051	84.81
283.282	78.81
283.513	79.81
283.745	87.81
283.976	99.81
284.207	86.81
284.439	83.81
284.67	74.81
284.901	81.81
285.132	92.81
285.364	76.81
285.595	99.81
285.826	89.81
286.057	91.81
286.288	77.81
286.52	85.81
286.751	87.81
286.982	78.81
287.213	83.81
287.444	79.81
287.675	84.81
287.906	94.81
288.138	97.81
288.369	96.81
288.6	80.81
288.831	99.81
289.062	79.81
289.293	92.81
289.524	95.81
289.755	81.81
289.986	78.81
290.217	98.81
290.448	77.81
290.679	87.81
290.91	80.81
291.141	69.81
291.371	87.81
291.602	90.81
291.833	95.81
292.064	77.81
292.295	98.81
292.526	80.81
292.757	83.81
292.987	96.81
293.218	85.81
293.449	83.81
293.68	72.81
293.91	97.81
294.141	97.81
294.372	95.81
294.603	89.81
294.833	86.81
295.064	88.81
295.295	111.81
295.525	97.81
295.756	108.81
295.987	96.81
296.217	123.81
296.448	130.81
296.679	88.81
296.909	90.81
297.14	82.81
297.37	83.81
297.601	83.81
297.831	101.81
298.062	86.81
298.292	87.81
298.523	102.81
298.753	86.81
298.984	89.81
299.214	85.81
299.445	94.81
299.675	95.81
299.905	109.81
300.136	88.81
300.366	88.81
300.597	73.81
300.827	86.81
301.057	89.81
301.288	90.81
301.518	89.81
301.748	79.81
301.979	97.81
302.209	95.81
302.439	85.81
302.669	76.81
302.9	77.81
303.13	96.81
303.36	92.81
303.59	97.81
303.82	90.81
304.051	93.81
304.281	93.81
304.511	80.81
304.741	79.81
304.971	83.81
305.201	88.81
305.431	83.81
305.661	89.81
305.891	83.81
306.121	93.81
306.352	97.81
306.582	100.81
306.812	89.81
307.042	87.81
307.272	89.81
307.502	95.81
307.731	98.81
307.961	86.81
308.191	84.81
308.421	89.81
308.651	94.81
308.881	93.81
309.111	93.81
309.341	93.81
309.571	89.81
309.8	83.81
310.03	94.81
310.26	71.81
310.49	104.81
310.72	88.81
310.949	91.81
311.179	100.81
311.409	92.81
311.639	96.81
311.868	89.81
312.098	95.81
312.328	93.81
312.557	92.81
312.787	94.81
313.017	94.81
313.246	91.81
313.476	98.81
313.706	83.81
313.935	87.81
314.165	97.81
314.394	84.81
314.624	86.81
314.853	87.81
315.083	87.81
315.312	97.81
315.542	80.81
315.771	93.81
316.001	89.81
316.23	90.81
316.46	89.81
316.689	85.81
316.919	99.81
317.148	88.81
317.377	101.81
317.607	79.81
317.836	86.81
318.065	88.81
318.295	95.81
318.524	91.81
318.753	87.81
318.983	93.81
319.212	96.81
319.441	92.81
319.67	97.81
319.9	102.81
320.129	108.81
320.358	93.81
320.587	85.81
320.816	98.81
321.046	103.81
321.275	109.81
321.504	94.81
321.733	99.81
321.962	101.81
322.191	101.81
322.42	93.81
322.649	100.81
322.878	109.81
323.108	103.81
323.337	98.81
323.566	138.81
323.795	152.81
324.024	214.81
324.253	393.81
324.482	814.81
324.71	1696.81
324.939	2235.81
325.168	834.81
325.397	222.81
325.626	152.81
325.855	133.81
326.084	122.81
326.313	124.81
326.542	142.81
326.77	240.81
326.999	474.81
327.228	975.81
327.457	1736.81
327.686	1372.81
327.914	371.81
328.143	181.81
328.372	130.81
328.6	113.81
328.829	115.81
329.058	115.81
329.287	130.81
329.515	110.81
329.744	107.81
329.972	110.81
330.201	132.81
330.43	135.81
330.658	133.81
330.887	140.81
331.115	110.81
331.344	93.81
331.572	104.81
331.801	92.81
332.03	101.81
332.258	92.81
332.486	79.81
332.715	89.81
332.943	92.81
333.172	95.81
333.4	96.81
333.629	105.81
333.857	102.81
334.085	115.81
334.314	117.81
334.542	162.81
334.771	156.81
334.999	102.81
335.227	87.81
335.455	98.81
335.684	99.81
335.912	100.81
336.14	92.81
336.369	99.81
336.597	97.81
336.825	71.81
337.053	91.81
337.281	88.81
337.51	96.81
337.738	86.81
337.966	95.81
338.194	86.81
338.422	74.81
338.65	85.81
338.878	87.81
339.106	82.81
339.334	93.81
339.562	88.81
339.79	92.81
340.018	80.81
340.246	86.81
340.474	99.81
340.702	85.81
340.93	80.81
341.158	95.81
341.386	99.81
341.614	73.81
341.842	86.81
342.07	84.81
342.298	93.81
342.526	101.81
342.754	85.81
342.981	89.81
343.209	89.81
343.437	101.81
343.665	81.81
343.893	92.81
344.12	97.81
344.348	84.81
344.576	83.81
344.804	94.81
345.031	88.81
345.259	97.81
345.487	92.81
345.714	93.81
345.942	97.81
346.17	83.81
346.397	87.81
346.625	91.81
346.853	80.81
347.08	89.81
347.308	90.81
347.535	109.81
347.763	89.81
347.99	65.81
348.218	95.81
348.445	84.81
348.673	87.81
348.9	107.81
349.128	103.81
349.355	81.81
349.583	101.81
349.81	92.81
350.037	93.81
350.265	103.81
350.492	84.81
350.72	100.81
350.947	104.81
351.174	120.81
351.402	98.81
351.629	94.81
351.856	85.81
352.083	96.81
352.311	81.81
352.538	103.81
352.765	105.81
352.992	116.81
353.22	107.81
353.447	109.81
353.674	92.81
353.901	92.81
354.128	93.81
354.355	103.81
354.583	82.81
354.81	91.81
355.037	93.81
355.264	96.81
355.491	94.81
355.718	91.81
355.945	92.81
356.172	97.81
356.399	92.81
356.626	107.81
356.853	85.81
357.08	88.81
357.307	95.81
357.534	95.81
357.761	83.81
357.988	91.81
358.215	93.81
358.441	86.81
358.668	100.81
358.895	85.81
359.122	84.81
359.349	86.81
359.576	72.81
359.802	93.81
360.029	116.81
360.256	109.81
360.483	93.81
360.709	88.81
360.936	92.81
361.163	89.81
361.39	77.81
361.616	80.81
361.843	75.81
362.07	84.81
362.296	94.81
362.523	85.81
362.749	91.81
362.976	92.81
363.203	101.81
363.429	86.81
363.656	85.81
363.882	78.81
364.109	94.81
364.335	83.81
364.562	94.81
364.788	92.81
365.015	89.81
365.241	95.81
365.468	102.81
365.694	95.81
365.92	74.81
366.147	87.81
366.373	86.81
366.599	96.81
366.826	82.81
367.052	77.81
367.278	89.81
367.505	80.81
367.731	76.81
367.957	88.81
368.184	97.81
368.41	94.81
368.636	102.81
368.862	100.81
369.089	105.81
369.315	92.81
369.541	90.81
369.767	85.81
369.993	95.81
370.219	84.81
370.445	89.81
370.672	88.81
370.898	88.81
371.124	80.81
371.35	86.81
371.576	95.81
371.802	81.81
372.028	77.81
372.254	86.81
372.48	92.81
372.706	88.81
372.932	94.81
373.158	85.81
373.384	92.81
373.61	88.81
373.835	88.81
374.061	97.81
374.287	91.81
374.513	105.81
374.739	96.81
374.965	80.81
375.191	101.81
375.416	89.81
375.642	91.81
375.868	102.81
376.094	95.81
376.319	82.81
376.545	84.81
376.771	76.81
376.997	93.81
377.222	85.81
377.448	89.81
377.674	97.81
377.899	86.81
378.125	78.81
378.35	84.81
378.576	73.81
378.802	91.81
379.027	99.81
379.253	83.81
379.478	84.81
379.704	86.81
379.929	91.81
380.155	91.81
380.38	101.81
380.606	96.81
380.831	94.81
381.057	88.81
381.282	90.81
381.507	86.81
381.733	93.81
381.958	86.81
382.184	99.81
382.409	79.81
382.634	105.81
382.86	105.81
383.085	100.81
383.31	95.81
383.535	89.81
383.761	101.81
383.986	98.81
384.211	86.81
384.436	98.81
384.662	94.81
384.887	102.81
385.112	104.81
385.337	97.81
385.562	95.81
385.787	100.81
386.013	115.81
386.238	117.81
386.463	94.81
386.688	114.81
386.913	109.81
387.138	94.81
387.363	84.81
387.588	95.81
387.813	85.81
388.038	118.81
388.263	95.81
388.488	116.81
388.713	95.81
388.938	78.81
389.163	101.81
389.387	72.81
389.612	88.81
389.837	85.81
390.062	80.81
390.287	78.81
390.512	103.81
390.736	89.81
390.961	103.81
391.186	87.81
391.411	99.81
391.636	86.81
391.86	104.81
392.085	89.81
392.31	89.81
392.534	93.81
392.759	87.81
392.984	80.81
393.208	95.81
393.433	83.81
393.658	73.81
393.882	93.81
394.107	73.81
394.331	99.81
394.556	81.81
394.78	98.81
395.005	95.81
395.229	96.81
395.454	70.81
395.678	76.81
395.903	88.81
396.127	87.81
396.352	77.81
396.576	79.81
396.801	87.81
397.025	76.81
397.249	82.81
397.474	83.81
397.698	87.81
397.922	91.81
398.147	90.81
398.371	96.81
398.595	99.81
398.82	91.81
399.044	82.81
399.268	96.81
399.492	79.81
399.717	86.81
399.941	84.81
400.165	97.81
400.389	82.81
400.613	79.81
400.837	89.81
401.062	87.81
401.286	85.81
401.51	81.81
401.734	105.81
401.958	101.81
402.182	107.81
402.406	145.81
402.63	108.81
402.854	95.81
403.078	80.81
403.302	74.81
403.526	92.81
403.75	83.81
403.974	98.81
404.198	89.81
404.422	86.81
404.645	77.81
404.869	92.81
405.093	103.81
405.317	100.81
405.541	91.81
405.765	89.81
405.988	107.81
406.212	171.81
406.436	184.81
406.66	136.81
406.883	96.81
407.107	89.81
407.331	94.81
407.555	95.81
407.778	97.81
408.002	92.81
408.226	88.81
408.449	87.81
408.673	80.81
408.896	96.81
409.12	93.81
409.344	89.81
409.567	76.81
409.791	81.81
410.014	89.81
410.238	109.81
410.461	91.81
410.685	94.81
410.908	93.81
411.132	107.81
411.355	108.81
411.578	93.81
411.802	80.81
412.025	81.81
412.249	94.81
412.472	87.81
412.695	97.81
412.919	99.81
413.142	83.81
413.365	76.81
413.589	80.81
413.812	94.81
414.035	86.81
414.258	83.81
414.482	89.81
414.705	87.81
414.928	80.81
415.151	94.81
415.374	85.81
415.597	84.81
415.821	87.81
416.044	97.81
416.267	86.81
416.49	85.81
416.713	90.81
416.936	82.81
417.159	73.81
417.382	72.81
417.605	88.81
417.828	91.81
418.051	84.81
418.274	86.81
418.497	79.81
418.72	92.81
418.943	93.81
419.166	86.81
419.389	79.81
419.611	89.81
419.834	91.81
420.057	81.81
420.28	84.81
420.503	80.81
420.726	76.81
420.948	78.81
421.171	93.81
421.394	92.81
421.617	95.81
421.839	78.81
422.062	79.81
422.285	101.81
422.507	98.81
422.73	92.81
422.953	78.81
423.175	89.81
423.398	91.81
423.621	81.81
423.843	88.81
424.066	92.81
424.288	89.81
424.511	95.81
424.733	105.81
424.956	93.81
425.178	99.81
425.401	108.81
425.623	95.81
425.846	85.81
426.068	94.81
426.291	79.81
426.513	86.81
426.735	81.81
426.958	100.81
427.18	90.81
427.402	114.81
427.625	157.81
427.847	128.81
428.069	116.81
428.292	84.81
428.514	82.81
428.736	81.81
428.958	86.81
429.181	75.81
429.403	89.81
429.625	86.81
429.847	87.81
430.069	87.81
430.292	82.81
430.514	88.81
430.736	82.81
430.958	83.81
431.18	86.81
431.402	84.81
431.624	72.81
431.846	98.81
432.068	89.81
432.29	75.81
432.512	86.81
432.734	91.81
432.956	100.81
433.178	99.81
433.4	93.81
433.622	108.81
433.844	87.81
434.066	92.81
434.287	84.81
434.509	72.81
434.731	95.81
434.953	92.81
435.175	91.81
435.397	100.81
435.618	89.81
435.84	85.81
436.062	110.81
436.284	107.81
436.505	104.81
436.727	105.81
436.949	87.81
437.17	87.81
437.392	83.81
437.614	88.81
437.835	93.81
438.057	104.81
438.278	108.81
438.5	87.81
438.721	117.81
438.943	97.81
439.165	90.81
439.386	81.81
439.608	96.81
439.829	92.81
440.05	125.81
440.272	143.81
440.493	107.81
440.715	89.81
440.936	77.81
441.158	88.81
441.379	101.81
441.6	86.81
441.822	87.81
442.043	85.81
442.264	87.81
442.486	89.81
442.707	84.81
442.928	105.81
443.149	125.81
443.371	109.81
443.592	111.81
443.813	116.81
444.034	109.81
444.255	91.81
444.476	92.81
444.698	93.81
444.919	80.81
445.14	132.81
445.361	116.81
445.582	101.81
445.803	119.81
446.024	118.81
446.245	127.81
446.466	105.81
446.687	80.81
446.908	87.81
447.129	103.81
447.35	76.81
447.571	91.81
447.792	92.81
448.013	95.81
448.234	101.81
448.455	93.81
448.675	110.81
448.896	105.81
449.117	96.81
449.338	97.81
449.559	102.81
449.779	124.81
450	86.81
450.221	83.81
450.442	88.81
450.662	87.81
450.883	106.81
451.104	107.81
451.324	88.81
451.545	87.81
451.766	106.81
451.986	83.81
452.207	76.81
452.428	94.81
452.648	87.81
452.869	88.81
453.089	111.81
453.31	99.81
453.53	105.81
453.751	93.81
453.971	108.81
454.192	95.81
454.412	118.81
454.633	81.81
454.853	91.81
455.073	89.81
455.294	84.81
455.514	89.81
455.734	90.81
455.955	91.81
456.175	80.81
456.395	76.81
456.616	83.81
456.836	88.81
457.056	82.81
457.276	87.81
457.497	86.81
457.717	91.81
457.937	104.81
458.157	92.81
458.377	78.81
458.598	85.81
458.818	138.81
459.038	147.81
459.258	132.81
459.478	92.81
459.698	85.81
459.918	83.81
460.138	87.81
460.358	73.81
460.578	78.81
460.798	70.81
461.018	90.81
461.238	73.81
461.458	84.81
461.678	71.81
461.898	82.81
462.118	92.81
462.338	81.81
462.558	91.81
462.777	85.81
462.997	75.81
463.217	76.81
463.437	99.81
463.657	96.81
463.876	94.81
464.096	95.81
464.316	89.81
464.536	87.81
464.755	104.81
464.975	97.81
465.195	146.81
465.414	141.81
465.634	88.81
465.854	93.81
466.073	86.81
466.293	100.81
466.512	88.81
466.732	93.81
466.951	97.81
467.171	88.81
467.391	85.81
467.61	105.81
467.829	110.81
468.049	101.81
468.268	90.81
468.488	98.81
468.707	79.81
468.927	79.81
469.146	88.81
469.365	85.81
469.585	72.81
469.804	87.81
470.023	96.81
470.243	95.81
470.462	99.81
470.681	109.81
470.901	80.81
471.12	76.81
471.339	81.81
471.558	86.81
471.777	89.81
471.997	93.81
472.216	124.81
472.435	167.81
472.654	91.81
472.873	94.81
473.092	82.81
473.311	101.81
473.53	80.81
473.749	78.81
473.968	109.81
474.187	92.81
474.406	99.81
474.625	96.81
474.844	80.81
475.063	82.81
475.282	85.81
475.501	86.81
475.72	97.81
475.939	71.81
476.158	75.81
476.377	87.81
476.596	88.81
476.814	97.81
477.033	100.81
477.252	98.81
477.471	107.81
477.69	98.81
477.908	81.81
478.127	87.81
478.346	76.81
478.564	78.81
478.783	95.81
479.002	85.81
479.22	100.81
479.439	101.81
479.658	91.81
479.876	81.81
480.095	93.81
480.313	98.81
480.532	94.81
480.751	101.81
480.969	133.81
481.188	265.81
481.406	191.81
481.624	102.81
481.843	87.81
482.061	86.81
482.28	86.81
482.498	86.81
482.717	87.81
482.935	92.81
483.153	80.81
483.372	82.81
483.59	80.81
483.808	84.81
484.027	89.81
484.245	88.81
484.463	89.81
484.681	101.81
484.9	91.81
485.118	98.81
485.336	91.81
485.554	93.81
485.772	95.81
485.99	108.81
486.209	86.81
486.427	107.81
486.645	122.81
486.863	114.81
487.081	97.81
487.299	97.81
487.517	98.81
487.735	90.81
487.953	81.81
488.171	88.81
488.389	80.81
488.607	104.81
488.825	81.81
489.043	90.81
489.261	89.81
489.479	97.81
489.696	79.81
489.914	100.81
490.132	87.81
490.35	95.81
490.568	93.81
490.786	72.81
491.003	77.81
491.221	101.81
491.439	77.81
491.657	78.81
491.874	93.81
492.092	95.81
492.31	83.81
492.527	77.81
492.745	78.81
492.963	95.81
493.18	87.81
493.398	88.81
493.615	96.81
493.833	93.81
494.05	92.81
494.268	89.81
494.485	99.81
494.703	88.81
494.92	93.81
495.138	70.81
495.355	83.81
495.573	80.81
495.79	89.81
496.008	106.81
496.225	89.81
496.442	97.81
496.66	102.81
496.877	81.81
497.094	93.81
497.312	84.81
497.529	81.81
497.746	92.81
497.963	79.81
498.181	91.81
498.398	65.81
498.615	106.81
498.832	86.81
499.049	100.81
499.267	89.81
499.484	87.81
499.701	102.81
499.918	94.81
500.135	83.81
500.352	88.81
500.569	80.81
500.786	88.81
501.003	71.81
501.22	80.81
501.437	85.81
501.654	79.81
501.871	93.81
502.088	81.81
502.305	77.81
502.522	83.81
502.739	101.81
502.956	88.81
503.172	94.81
503.389	93.81
503.606	102.81
503.823	95.81
504.04	76.81
504.256	99.81
504.473	82.81
504.69	63.81
504.907	89.81
505.123	78.81
505.34	79.81
505.557	93.81
505.773	95.81
505.99	91.81
506.207	88.81
506.423	72.81
506.64	86.81
506.856	83.81
507.073	90.81
507.289	80.81
507.506	104.81
507.722	99.81
507.939	109.81
508.155	92.81
508.372	100.81
508.588	86.81
508.805	99.81
509.021	73.81
509.238	94.81
509.454	89.81
509.67	103.81
509.887	96.81
510.103	129.81
510.319	207.81
510.536	733.81
510.752	2310.81
510.968	658.81
511.184	168.81
511.401	110.81
511.617	84.81
511.833	83.81
512.049	87.81
512.265	94.81
512.481	89.81
512.698	72.81
512.914	87.81
513.13	81.81
513.346	97.81
513.562	95.81
513.778	93.81
513.994	84.81
514.21	101.81
514.426	127.81
514.642	123.81
514.858	113.81
515.074	160.81
515.29	408.81
515.506	1352.81
515.721	502.81
515.937	143.81
516.153	101.81
516.369	109.81
516.585	89.81
