Data from Circ_2003_H10_HRD10591_00094.txt Node
Date: Wed Jan 03 10:37:21 EST 2024
User: Yrep
Spectrometer: HR+D1059
Trigger mode: 1
Integration Time (sec): 1.000000E-1
Scans to average: 1
Electric dark correction enabled: true
Nonlinearity correction enabled: false
Boxcar width: 0
XAxis mode: Wavelengths
Number of Pixels in Spectrum: 2048
>>>>>Begin Spectral Data<<<<<
223.165	-7.06
223.4	-7.06
223.635	-7.06
223.869	-18.06
224.104	-27.06
224.338	-20.06
224.573	-13.06
224.808	-10.06
225.042	3.94
225.277	-8.06
225.511	-2.06
225.746	8.94
225.98	1.94
226.215	7.94
226.449	19.94
226.683	11.94
226.918	26.94
227.152	23.94
227.387	39.94
227.621	29.94
227.856	44.94
228.09	55.94
228.324	55.94
228.559	57.94
228.793	60.94
229.027	71.94
229.262	66.94
229.496	91.94
229.73	83.94
229.964	79.94
230.199	72.94
230.433	84.94
230.667	81.94
230.901	87.94
231.136	69.94
231.37	79.94
231.604	81.94
231.838	79.94
232.072	74.94
232.306	93.94
232.541	74.94
232.775	81.94
233.009	71.94
233.243	81.94
233.477	75.94
233.711	89.94
233.945	84.94
234.179	81.94
234.413	93.94
234.647	88.94
234.881	89.94
235.115	103.94
235.349	90.94
235.583	72.94
235.817	82.94
236.051	86.94
236.285	63.94
236.519	69.94
236.753	64.94
236.987	80.94
237.221	81.94
237.455	77.94
237.689	71.94
237.922	71.94
238.156	76.94
238.39	64.94
238.624	71.94
238.858	77.94
239.091	58.94
239.325	69.94
239.559	87.94
239.793	86.94
240.027	86.94
240.26	84.94
240.494	83.94
240.728	69.94
240.961	79.94
241.195	73.94
241.429	99.94
241.662	89.94
241.896	73.94
242.13	67.94
242.363	75.94
242.597	81.94
242.83	78.94
243.064	80.94
243.298	84.94
243.531	85.94
243.765	85.94
243.998	79.94
244.232	84.94
244.465	79.94
244.699	76.94
244.932	82.94
245.166	78.94
245.399	86.94
245.633	85.94
245.866	77.94
246.099	93.94
246.333	63.94
246.566	81.94
246.8	97.94
247.033	80.94
247.266	80.94
247.5	79.94
247.733	95.94
247.966	76.94
248.2	92.94
248.433	84.94
248.666	84.94
248.899	81.94
249.133	76.94
249.366	86.94
249.599	95.94
249.832	91.94
250.066	92.94
250.299	87.94
250.532	90.94
250.765	83.94
250.998	75.94
251.231	66.94
251.465	75.94
251.698	81.94
251.931	83.94
252.164	71.94
252.397	74.94
252.63	85.94
252.863	68.94
253.096	77.94
253.329	88.94
253.562	80.94
253.795	82.94
254.028	76.94
254.261	66.94
254.494	83.94
254.727	87.94
254.96	85.94
255.193	89.94
255.426	86.94
255.659	92.94
255.892	99.94
256.124	76.94
256.357	83.94
256.59	83.94
256.823	74.94
257.056	85.94
257.289	82.94
257.521	88.94
257.754	78.94
257.987	85.94
258.22	85.94
258.452	80.94
258.685	66.94
258.918	77.94
259.151	82.94
259.383	75.94
259.616	86.94
259.849	88.94
260.081	73.94
260.314	92.94
260.547	82.94
260.779	83.94
261.012	77.94
261.244	81.94
261.477	90.94
261.71	98.94
261.942	103.94
262.175	102.94
262.407	108.94
262.64	80.94
262.872	83.94
263.105	76.94
263.337	70.94
263.57	73.94
263.802	79.94
264.035	71.94
264.267	88.94
264.499	91.94
264.732	89.94
264.964	81.94
265.197	87.94
265.429	74.94
265.661	77.94
265.894	76.94
266.126	84.94
266.358	71.94
266.591	86.94
266.823	98.94
267.055	92.94
267.287	85.94
267.52	82.94
267.752	82.94
267.984	83.94
268.216	76.94
268.448	80.94
268.681	81.94
268.913	76.94
269.145	92.94
269.377	87.94
269.609	93.94
269.841	69.94
270.073	95.94
270.306	81.94
270.538	98.94
270.77	87.94
271.002	79.94
271.234	88.94
271.466	93.94
271.698	87.94
271.93	86.94
272.162	77.94
272.394	99.94
272.626	93.94
272.858	96.94
273.09	90.94
273.322	108.94
273.553	84.94
273.785	86.94
274.017	92.94
274.249	79.94
274.481	89.94
274.713	88.94
274.945	87.94
275.176	84.94
275.408	93.94
275.64	101.94
275.872	100.94
276.104	88.94
276.335	90.94
276.567	95.94
276.799	100.94
277.031	101.94
277.262	93.94
277.494	100.94
277.726	96.94
277.957	90.94
278.189	93.94
278.421	88.94
278.652	87.94
278.884	81.94
279.115	92.94
279.347	90.94
279.579	93.94
279.81	93.94
280.042	97.94
280.273	95.94
280.505	84.94
280.736	91.94
280.968	87.94
281.199	96.94
281.431	96.94
281.662	80.94
281.894	91.94
282.125	99.94
282.356	120.94
282.588	119.94
282.819	101.94
283.051	100.94
283.282	87.94
283.513	79.94
283.745	84.94
283.976	87.94
284.207	88.94
284.439	108.94
284.67	79.94
284.901	91.94
285.132	82.94
285.364	90.94
285.595	90.94
285.826	93.94
286.057	74.94
286.288	81.94
286.52	84.94
286.751	76.94
286.982	76.94
287.213	90.94
287.444	79.94
287.675	76.94
287.906	89.94
288.138	94.94
288.369	91.94
288.6	87.94
288.831	79.94
289.062	101.94
289.293	95.94
289.524	92.94
289.755	93.94
289.986	101.94
290.217	97.94
290.448	87.94
290.679	88.94
290.91	85.94
291.141	93.94
291.371	102.94
291.602	94.94
291.833	76.94
292.064	88.94
292.295	102.94
292.526	88.94
292.757	88.94
292.987	87.94
293.218	99.94
293.449	91.94
293.68	100.94
293.91	87.94
294.141	83.94
294.372	76.94
294.603	92.94
294.833	91.94
295.064	86.94
295.295	86.94
295.525	86.94
295.756	85.94
295.987	113.94
296.217	122.94
296.448	104.94
296.679	92.94
296.909	96.94
297.14	101.94
297.37	89.94
297.601	90.94
297.831	102.94
298.062	96.94
298.292	92.94
298.523	95.94
298.753	88.94
298.984	111.94
299.214	97.94
299.445	92.94
299.675	85.94
299.905	93.94
300.136	87.94
300.366	93.94
300.597	93.94
300.827	98.94
301.057	106.94
301.288	109.94
301.518	91.94
301.748	86.94
301.979	112.94
302.209	81.94
302.439	90.94
302.669	92.94
302.9	93.94
303.13	85.94
303.36	101.94
303.59	90.94
303.82	107.94
304.051	90.94
304.281	98.94
304.511	83.94
304.741	85.94
304.971	95.94
305.201	99.94
305.431	98.94
305.661	96.94
305.891	96.94
306.121	85.94
306.352	115.94
306.582	99.94
306.812	101.94
307.042	79.94
307.272	96.94
307.502	103.94
307.731	90.94
307.961	105.94
308.191	99.94
308.421	87.94
308.651	83.94
308.881	85.94
309.111	89.94
309.341	85.94
309.571	102.94
309.8	101.94
310.03	84.94
310.26	85.94
310.49	100.94
310.72	103.94
310.949	102.94
311.179	101.94
311.409	98.94
311.639	105.94
311.868	102.94
312.098	88.94
312.328	89.94
312.557	90.94
312.787	102.94
313.017	99.94
313.246	99.94
313.476	94.94
313.706	90.94
313.935	98.94
314.165	111.94
314.394	106.94
314.624	91.94
314.853	103.94
315.083	92.94
315.312	86.94
315.542	107.94
315.771	75.94
316.001	106.94
316.23	80.94
316.46	88.94
316.689	90.94
316.919	85.94
317.148	83.94
317.377	92.94
317.607	114.94
317.836	103.94
318.065	98.94
318.295	92.94
318.524	83.94
318.753	97.94
318.983	101.94
319.212	94.94
319.441	98.94
319.67	106.94
319.9	89.94
320.129	102.94
320.358	91.94
320.587	93.94
320.816	112.94
321.046	105.94
321.275	91.94
321.504	89.94
321.733	102.94
321.962	95.94
322.191	99.94
322.42	104.94
322.649	100.94
322.878	121.94
323.108	108.94
323.337	111.94
323.566	127.94
323.795	142.94
324.024	196.94
324.253	379.94
324.482	777.94
324.71	1658.94
324.939	2144.94
325.168	770.94
325.397	238.94
325.626	133.94
325.855	128.94
326.084	121.94
326.313	132.94
326.542	147.94
326.77	220.94
326.999	419.94
327.228	931.94
327.457	1671.94
327.686	1332.94
327.914	355.94
328.143	202.94
328.372	175.94
328.6	142.94
328.829	124.94
329.058	122.94
329.287	112.94
329.515	106.94
329.744	101.94
329.972	144.94
330.201	163.94
330.43	180.94
330.658	139.94
330.887	149.94
331.115	110.94
331.344	106.94
331.572	108.94
331.801	104.94
332.03	102.94
332.258	88.94
332.486	76.94
332.715	99.94
332.943	97.94
333.172	98.94
333.4	93.94
333.629	114.94
333.857	100.94
334.085	133.94
334.314	149.94
334.542	215.94
334.771	194.94
334.999	122.94
335.227	109.94
335.455	102.94
335.684	103.94
335.912	102.94
336.14	111.94
336.369	103.94
336.597	106.94
336.825	94.94
337.053	96.94
337.281	98.94
337.51	93.94
337.738	96.94
337.966	96.94
338.194	94.94
338.422	101.94
338.65	107.94
338.878	79.94
339.106	90.94
339.334	95.94
339.562	78.94
339.79	95.94
340.018	107.94
340.246	94.94
340.474	99.94
340.702	109.94
340.93	85.94
341.158	100.94
341.386	89.94
341.614	90.94
341.842	99.94
342.07	91.94
342.298	112.94
342.526	83.94
342.754	90.94
342.981	95.94
343.209	82.94
343.437	102.94
343.665	89.94
343.893	88.94
344.12	93.94
344.348	91.94
344.576	95.94
344.804	105.94
345.031	96.94
345.259	102.94
345.487	96.94
345.714	94.94
345.942	90.94
346.17	99.94
346.397	99.94
346.625	89.94
346.853	79.94
347.08	83.94
347.308	99.94
347.535	107.94
347.763	93.94
347.99	90.94
348.218	113.94
348.445	101.94
348.673	94.94
348.9	88.94
349.128	91.94
349.355	85.94
349.583	108.94
349.81	93.94
350.037	103.94
350.265	84.94
350.492	97.94
350.72	92.94
350.947	91.94
351.174	104.94
351.402	106.94
351.629	87.94
351.856	105.94
352.083	110.94
352.311	117.94
352.538	113.94
352.765	98.94
352.992	108.94
353.22	93.94
353.447	103.94
353.674	92.94
353.901	90.94
354.128	105.94
354.355	99.94
354.583	111.94
354.81	100.94
355.037	100.94
355.264	92.94
355.491	92.94
355.718	88.94
355.945	92.94
356.172	84.94
356.399	98.94
356.626	105.94
356.853	93.94
357.08	93.94
357.307	95.94
357.534	86.94
357.761	81.94
357.988	102.94
358.215	94.94
358.441	103.94
358.668	92.94
358.895	99.94
359.122	102.94
359.349	90.94
359.576	81.94
359.802	105.94
360.029	101.94
360.256	102.94
360.483	103.94
360.709	95.94
360.936	89.94
361.163	84.94
361.39	99.94
361.616	91.94
361.843	90.94
362.07	87.94
362.296	106.94
362.523	102.94
362.749	100.94
362.976	93.94
363.203	81.94
363.429	89.94
363.656	96.94
363.882	94.94
364.109	91.94
364.335	95.94
364.562	102.94
364.788	84.94
365.015	99.94
365.241	105.94
365.468	104.94
365.694	91.94
365.92	92.94
366.147	100.94
366.373	90.94
366.599	93.94
366.826	83.94
367.052	84.94
367.278	84.94
367.505	100.94
367.731	87.94
367.957	88.94
368.184	90.94
368.41	115.94
368.636	97.94
368.862	118.94
369.089	110.94
369.315	91.94
369.541	87.94
369.767	93.94
369.993	88.94
370.219	83.94
370.445	80.94
370.672	85.94
370.898	82.94
371.124	91.94
371.35	99.94
371.576	93.94
371.802	91.94
372.028	93.94
372.254	89.94
372.48	86.94
372.706	105.94
372.932	89.94
373.158	86.94
373.384	86.94
373.61	88.94
373.835	87.94
374.061	93.94
374.287	96.94
374.513	93.94
374.739	97.94
374.965	91.94
375.191	106.94
375.416	84.94
375.642	84.94
375.868	92.94
376.094	86.94
376.319	88.94
376.545	87.94
376.771	73.94
376.997	87.94
377.222	90.94
377.448	83.94
377.674	92.94
377.899	112.94
378.125	91.94
378.35	96.94
378.576	97.94
378.802	98.94
379.027	94.94
379.253	90.94
379.478	102.94
379.704	82.94
379.929	93.94
380.155	108.94
380.38	85.94
380.606	99.94
380.831	99.94
381.057	108.94
381.282	103.94
381.507	98.94
381.733	108.94
381.958	112.94
382.184	96.94
382.409	100.94
382.634	100.94
382.86	99.94
383.085	103.94
383.31	100.94
383.535	112.94
383.761	104.94
383.986	110.94
384.211	101.94
384.436	100.94
384.662	96.94
384.887	107.94
385.112	89.94
385.337	99.94
385.562	107.94
385.787	108.94
386.013	115.94
386.238	113.94
386.463	102.94
386.688	108.94
386.913	106.94
387.138	106.94
387.363	106.94
387.588	103.94
387.813	105.94
388.038	109.94
388.263	122.94
388.488	101.94
388.713	108.94
388.938	91.94
389.163	101.94
389.387	71.94
389.612	94.94
389.837	105.94
390.062	105.94
390.287	80.94
390.512	97.94
390.736	92.94
390.961	84.94
391.186	104.94
391.411	105.94
391.636	91.94
391.86	74.94
392.085	82.94
392.31	94.94
392.534	87.94
392.759	104.94
392.984	81.94
393.208	95.94
393.433	99.94
393.658	90.94
393.882	65.94
394.107	98.94
394.331	83.94
394.556	91.94
394.78	81.94
395.005	85.94
395.229	96.94
395.454	84.94
395.678	80.94
395.903	97.94
396.127	87.94
396.352	96.94
396.576	80.94
396.801	93.94
397.025	90.94
397.249	98.94
397.474	110.94
397.698	110.94
397.922	86.94
398.147	91.94
398.371	91.94
398.595	76.94
398.82	96.94
399.044	87.94
399.268	95.94
399.492	77.94
399.717	74.94
399.941	88.94
400.165	97.94
400.389	96.94
400.613	90.94
400.837	110.94
401.062	80.94
401.286	92.94
401.51	88.94
401.734	94.94
401.958	91.94
402.182	101.94
402.406	150.94
402.63	121.94
402.854	90.94
403.078	84.94
403.302	91.94
403.526	79.94
403.75	79.94
403.974	93.94
404.198	90.94
404.422	89.94
404.645	88.94
404.869	82.94
405.093	107.94
405.317	101.94
405.541	91.94
405.765	105.94
405.988	105.94
406.212	146.94
406.436	193.94
406.66	131.94
406.883	90.94
407.107	93.94
407.331	82.94
407.555	79.94
407.778	104.94
408.002	92.94
408.226	92.94
408.449	76.94
408.673	91.94
408.896	104.94
409.12	93.94
409.344	98.94
409.567	87.94
409.791	96.94
410.014	96.94
410.238	99.94
410.461	100.94
410.685	99.94
410.908	100.94
411.132	100.94
411.355	87.94
411.578	87.94
411.802	84.94
412.025	90.94
412.249	101.94
412.472	99.94
412.695	113.94
412.919	98.94
413.142	105.94
413.365	88.94
413.589	87.94
413.812	98.94
414.035	100.94
414.258	92.94
414.482	103.94
414.705	95.94
414.928	92.94
415.151	93.94
415.374	99.94
415.597	86.94
415.821	90.94
416.044	100.94
416.267	93.94
416.49	87.94
416.713	99.94
416.936	85.94
417.159	84.94
417.382	88.94
417.605	90.94
417.828	105.94
418.051	91.94
418.274	72.94
418.497	74.94
418.72	79.94
418.943	84.94
419.166	101.94
419.389	88.94
419.611	88.94
419.834	96.94
420.057	96.94
420.28	82.94
420.503	76.94
420.726	89.94
420.948	92.94
421.171	99.94
421.394	91.94
421.617	94.94
421.839	83.94
422.062	93.94
422.285	77.94
422.507	91.94
422.73	87.94
422.953	82.94
423.175	91.94
423.398	88.94
423.621	91.94
423.843	90.94
424.066	103.94
424.288	85.94
424.511	102.94
424.733	107.94
424.956	104.94
425.178	112.94
425.401	105.94
425.623	100.94
425.846	96.94
426.068	90.94
426.291	90.94
426.513	101.94
426.735	87.94
426.958	90.94
427.18	127.94
427.402	135.94
427.625	146.94
427.847	135.94
428.069	143.94
428.292	97.94
428.514	99.94
428.736	99.94
428.958	88.94
429.181	83.94
429.403	88.94
429.625	88.94
429.847	91.94
430.069	99.94
430.292	89.94
430.514	78.94
430.736	73.94
430.958	91.94
431.18	85.94
431.402	75.94
431.624	87.94
431.846	93.94
432.068	94.94
432.29	85.94
432.512	94.94
432.734	89.94
432.956	98.94
433.178	95.94
433.4	113.94
433.622	81.94
433.844	90.94
434.066	97.94
434.287	96.94
434.509	86.94
434.731	92.94
434.953	102.94
435.175	100.94
435.397	91.94
435.618	104.94
435.84	87.94
436.062	120.94
436.284	111.94
436.505	115.94
436.727	105.94
436.949	98.94
437.17	104.94
437.392	79.94
437.614	104.94
437.835	87.94
438.057	103.94
438.278	113.94
438.5	96.94
438.721	106.94
438.943	99.94
439.165	83.94
439.386	86.94
439.608	97.94
439.829	96.94
440.05	116.94
440.272	138.94
440.493	106.94
440.715	84.94
440.936	99.94
441.158	81.94
441.379	90.94
441.6	89.94
441.822	102.94
442.043	91.94
442.264	104.94
442.486	92.94
442.707	87.94
442.928	101.94
443.149	117.94
443.371	114.94
443.592	102.94
443.813	113.94
444.034	113.94
444.255	100.94
444.476	82.94
444.698	88.94
444.919	103.94
445.14	146.94
445.361	121.94
445.582	108.94
445.803	128.94
446.024	128.94
446.245	137.94
446.466	123.94
446.687	91.94
446.908	92.94
447.129	102.94
447.35	84.94
447.571	100.94
447.792	103.94
448.013	89.94
448.234	111.94
448.455	96.94
448.675	107.94
448.896	117.94
449.117	79.94
449.338	96.94
449.559	133.94
449.779	122.94
450	85.94
450.221	89.94
450.442	98.94
450.662	84.94
450.883	91.94
451.104	112.94
451.324	106.94
451.545	86.94
451.766	84.94
451.986	83.94
452.207	88.94
452.428	100.94
452.648	115.94
452.869	114.94
453.089	119.94
453.31	122.94
453.53	90.94
453.751	86.94
453.971	90.94
454.192	111.94
454.412	99.94
454.633	88.94
454.853	97.94
455.073	105.94
455.294	91.94
455.514	90.94
455.734	86.94
455.955	94.94
456.175	83.94
456.395	86.94
456.616	91.94
456.836	89.94
457.056	97.94
457.276	73.94
457.497	75.94
457.717	104.94
457.937	84.94
458.157	86.94
458.377	91.94
458.598	91.94
458.818	129.94
459.038	132.94
459.258	117.94
459.478	81.94
459.698	96.94
459.918	88.94
460.138	97.94
460.358	103.94
460.578	82.94
460.798	89.94
461.018	90.94
461.238	82.94
461.458	92.94
461.678	83.94
461.898	108.94
462.118	89.94
462.338	99.94
462.558	90.94
462.777	66.94
462.997	83.94
463.217	76.94
463.437	87.94
463.657	91.94
463.876	92.94
464.096	90.94
464.316	79.94
464.536	88.94
464.755	92.94
464.975	99.94
465.195	141.94
465.414	138.94
465.634	96.94
465.854	83.94
466.073	83.94
466.293	91.94
466.512	89.94
466.732	83.94
466.951	93.94
467.171	93.94
467.391	86.94
467.61	111.94
467.829	106.94
468.049	126.94
468.268	135.94
468.488	105.94
468.707	91.94
468.927	92.94
469.146	90.94
469.365	91.94
469.585	85.94
469.804	90.94
470.023	97.94
470.243	100.94
470.462	87.94
470.681	100.94
470.901	91.94
471.12	88.94
471.339	84.94
471.558	83.94
471.777	82.94
471.997	96.94
472.216	175.94
472.435	264.94
472.654	127.94
472.873	91.94
473.092	102.94
473.311	86.94
473.53	80.94
473.749	101.94
473.968	94.94
474.187	102.94
474.406	127.94
474.625	83.94
474.844	97.94
475.063	88.94
475.282	100.94
475.501	87.94
475.72	88.94
475.939	100.94
476.158	80.94
476.377	92.94
476.596	88.94
476.814	96.94
477.033	98.94
477.252	83.94
477.471	98.94
477.69	85.94
477.908	76.94
478.127	96.94
478.346	88.94
478.564	85.94
478.783	93.94
479.002	97.94
479.22	92.94
479.439	101.94
479.658	104.94
479.876	89.94
480.095	84.94
480.313	83.94
480.532	90.94
480.751	119.94
480.969	181.94
481.188	419.94
481.406	269.94
481.624	107.94
481.843	99.94
482.061	97.94
482.28	79.94
482.498	88.94
482.717	84.94
482.935	83.94
483.153	96.94
483.372	91.94
483.59	90.94
483.808	75.94
484.027	89.94
484.245	99.94
484.463	99.94
484.681	94.94
484.9	102.94
485.118	91.94
485.336	81.94
485.554	107.94
485.772	86.94
485.99	105.94
486.209	97.94
486.427	115.94
486.645	99.94
486.863	96.94
487.081	109.94
487.299	99.94
487.517	104.94
487.735	109.94
487.953	108.94
488.171	90.94
488.389	94.94
488.607	92.94
488.825	92.94
489.043	103.94
489.261	89.94
489.479	90.94
489.696	83.94
489.914	88.94
490.132	93.94
490.35	99.94
490.568	88.94
490.786	86.94
491.003	89.94
491.221	103.94
491.439	98.94
491.657	96.94
491.874	89.94
492.092	99.94
492.31	91.94
492.527	86.94
492.745	93.94
492.963	96.94
493.18	101.94
493.398	86.94
493.615	102.94
493.833	90.94
494.05	97.94
494.268	88.94
494.485	87.94
494.703	95.94
494.92	90.94
495.138	88.94
495.355	81.94
495.573	86.94
495.79	95.94
496.008	94.94
496.225	87.94
496.442	91.94
496.66	99.94
496.877	91.94
497.094	102.94
497.312	91.94
497.529	103.94
497.746	89.94
497.963	93.94
498.181	87.94
498.398	80.94
498.615	108.94
498.832	105.94
499.049	82.94
499.267	80.94
499.484	90.94
499.701	94.94
499.918	92.94
500.135	93.94
500.352	96.94
500.569	97.94
500.786	104.94
501.003	90.94
501.22	97.94
501.437	90.94
501.654	86.94
501.871	112.94
502.088	86.94
502.305	93.94
502.522	98.94
502.739	92.94
502.956	77.94
503.172	99.94
503.389	86.94
503.606	99.94
503.823	109.94
504.04	98.94
504.256	87.94
504.473	94.94
504.69	86.94
504.907	84.94
505.123	91.94
505.34	83.94
505.557	87.94
505.773	74.94
505.99	106.94
506.207	97.94
506.423	110.94
506.64	105.94
506.856	105.94
507.073	95.94
507.289	83.94
507.506	80.94
507.722	97.94
507.939	112.94
508.155	99.94
508.372	91.94
508.588	87.94
508.805	87.94
509.021	96.94
509.238	103.94
509.454	95.94
509.67	99.94
509.887	104.94
510.103	136.94
510.319	205.94
510.536	697.94
510.752	2218.94
510.968	617.94
511.184	137.94
511.401	117.94
511.617	108.94
511.833	86.94
512.049	106.94
512.265	106.94
512.481	90.94
512.698	94.94
512.914	90.94
513.13	94.94
513.346	101.94
513.562	100.94
513.778	91.94
513.994	95.94
514.21	96.94
514.426	127.94
514.642	125.94
514.858	120.94
515.074	165.94
