Data from Circ_2003_H10_HRD10591_00025.txt Node
Date: Wed Jan 03 10:37:07 EST 2024
User: Yrep
Spectrometer: HR+D1059
Trigger mode: 1
Integration Time (sec): 1.000000E-1
Scans to average: 1
Electric dark correction enabled: true
Nonlinearity correction enabled: false
Boxcar width: 0
XAxis mode: Wavelengths
Number of Pixels in Spectrum: 2048
>>>>>Begin Spectral Data<<<<<
223.165	-30.31
223.4	-30.31
223.635	-30.31
223.869	-14.31
224.104	-33.31
224.338	-15.31
224.573	-6.31
224.808	-16.31
225.042	-2.31
225.277	-8.31
225.511	4.69
225.746	12.69
225.98	3.69
226.215	3.69
226.449	28.69
226.683	15.69
226.918	33.69
227.152	23.69
227.387	31.69
227.621	35.69
227.856	46.69
228.09	39.69
228.324	41.69
228.559	72.69
228.793	53.69
229.027	81.69
229.262	68.69
229.496	60.69
229.73	90.69
229.964	82.69
230.199	73.69
230.433	70.69
230.667	70.69
230.901	83.69
231.136	77.69
231.37	65.69
231.604	78.69
231.838	83.69
232.072	91.69
232.306	73.69
232.541	84.69
232.775	80.69
233.009	87.69
233.243	98.69
233.477	88.69
233.711	90.69
233.945	82.69
234.179	70.69
234.413	75.69
234.647	90.69
234.881	77.69
235.115	81.69
235.349	80.69
235.583	91.69
235.817	76.69
236.051	79.69
236.285	85.69
236.519	80.69
236.753	85.69
236.987	90.69
237.221	86.69
237.455	75.69
237.689	75.69
237.922	80.69
238.156	77.69
238.39	79.69
238.624	79.69
238.858	77.69
239.091	83.69
239.325	88.69
239.559	101.69
239.793	81.69
240.027	66.69
240.26	65.69
240.494	69.69
240.728	58.69
240.961	64.69
241.195	71.69
241.429	73.69
241.662	67.69
241.896	83.69
242.13	60.69
242.363	73.69
242.597	77.69
242.83	67.69
243.064	72.69
243.298	69.69
243.531	81.69
243.765	86.69
243.998	71.69
244.232	87.69
244.465	80.69
244.699	75.69
244.932	70.69
245.166	85.69
245.399	86.69
245.633	71.69
245.866	86.69
246.099	70.69
246.333	90.69
246.566	77.69
246.8	78.69
247.033	59.69
247.266	77.69
247.5	65.69
247.733	73.69
247.966	78.69
248.2	81.69
248.433	85.69
248.666	76.69
248.899	80.69
249.133	91.69
249.366	99.69
249.599	85.69
249.832	68.69
250.066	79.69
250.299	93.69
250.532	73.69
250.765	87.69
250.998	86.69
251.231	79.69
251.465	88.69
251.698	95.69
251.931	79.69
252.164	84.69
252.397	86.69
252.63	91.69
252.863	94.69
253.096	83.69
253.329	86.69
253.562	78.69
253.795	88.69
254.028	84.69
254.261	77.69
254.494	69.69
254.727	74.69
254.96	82.69
255.193	86.69
255.426	78.69
255.659	66.69
255.892	91.69
256.124	93.69
256.357	66.69
256.59	77.69
256.823	81.69
257.056	79.69
257.289	87.69
257.521	83.69
257.754	85.69
257.987	89.69
258.22	79.69
258.452	67.69
258.685	74.69
258.918	90.69
259.151	83.69
259.383	78.69
259.616	79.69
259.849	90.69
260.081	94.69
260.314	84.69
260.547	85.69
260.779	77.69
261.012	77.69
261.244	84.69
261.477	79.69
261.71	88.69
261.942	115.69
262.175	100.69
262.407	91.69
262.64	81.69
262.872	90.69
263.105	75.69
263.337	86.69
263.57	89.69
263.802	85.69
264.035	78.69
264.267	82.69
264.499	82.69
264.732	84.69
264.964	62.69
265.197	81.69
265.429	78.69
265.661	69.69
265.894	79.69
266.126	86.69
266.358	87.69
266.591	73.69
266.823	87.69
267.055	93.69
267.287	88.69
267.52	73.69
267.752	79.69
267.984	85.69
268.216	82.69
268.448	71.69
268.681	77.69
268.913	91.69
269.145	81.69
269.377	78.69
269.609	85.69
269.841	83.69
270.073	82.69
270.306	85.69
270.538	94.69
270.77	85.69
271.002	81.69
271.234	78.69
271.466	83.69
271.698	83.69
271.93	92.69
272.162	86.69
272.394	75.69
272.626	89.69
272.858	88.69
273.09	74.69
273.322	82.69
273.553	75.69
273.785	78.69
274.017	72.69
274.249	85.69
274.481	94.69
274.713	99.69
274.945	87.69
275.176	87.69
275.408	91.69
275.64	74.69
275.872	85.69
276.104	91.69
276.335	84.69
276.567	81.69
276.799	101.69
277.031	109.69
277.262	94.69
277.494	74.69
277.726	86.69
277.957	91.69
278.189	95.69
278.421	81.69
278.652	81.69
278.884	82.69
279.115	88.69
279.347	79.69
279.579	77.69
279.81	80.69
280.042	81.69
280.273	81.69
280.505	106.69
280.736	76.69
280.968	91.69
281.199	81.69
281.431	88.69
281.662	99.69
281.894	99.69
282.125	96.69
282.356	104.69
282.588	111.69
282.819	99.69
283.051	83.69
283.282	79.69
283.513	89.69
283.745	93.69
283.976	75.69
284.207	79.69
284.439	82.69
284.67	91.69
284.901	95.69
285.132	98.69
285.364	89.69
285.595	86.69
285.826	77.69
286.057	93.69
286.288	85.69
286.52	90.69
286.751	89.69
286.982	72.69
287.213	88.69
287.444	89.69
287.675	94.69
287.906	95.69
288.138	92.69
288.369	78.69
288.6	87.69
288.831	77.69
289.062	89.69
289.293	97.69
289.524	81.69
289.755	99.69
289.986	84.69
290.217	101.69
290.448	75.69
290.679	88.69
290.91	86.69
291.141	87.69
291.371	86.69
291.602	90.69
291.833	83.69
292.064	80.69
292.295	86.69
292.526	82.69
292.757	88.69
292.987	83.69
293.218	73.69
293.449	90.69
293.68	88.69
293.91	78.69
294.141	93.69
294.372	94.69
294.603	87.69
294.833	94.69
295.064	86.69
295.295	90.69
295.525	96.69
295.756	105.69
295.987	116.69
296.217	140.69
296.448	111.69
296.679	94.69
296.909	87.69
297.14	95.69
297.37	71.69
297.601	97.69
297.831	91.69
298.062	79.69
298.292	69.69
298.523	102.69
298.753	83.69
298.984	79.69
299.214	67.69
299.445	92.69
299.675	88.69
299.905	104.69
300.136	88.69
300.366	89.69
300.597	83.69
300.827	96.69
301.057	91.69
301.288	85.69
301.518	97.69
301.748	95.69
301.979	100.69
302.209	88.69
302.439	78.69
302.669	84.69
302.9	88.69
303.13	86.69
303.36	92.69
303.59	96.69
303.82	113.69
304.051	94.69
304.281	87.69
304.511	100.69
304.741	88.69
304.971	105.69
305.201	97.69
305.431	95.69
305.661	87.69
305.891	89.69
306.121	111.69
306.352	103.69
306.582	94.69
306.812	97.69
307.042	78.69
307.272	107.69
307.502	91.69
307.731	86.69
307.961	81.69
308.191	100.69
308.421	90.69
308.651	86.69
308.881	83.69
309.111	91.69
309.341	100.69
309.571	96.69
309.8	109.69
310.03	107.69
310.26	97.69
310.49	101.69
310.72	99.69
310.949	92.69
311.179	100.69
311.409	89.69
311.639	93.69
311.868	87.69
312.098	97.69
312.328	91.69
312.557	106.69
312.787	95.69
313.017	107.69
313.246	102.69
313.476	92.69
313.706	101.69
313.935	95.69
314.165	84.69
314.394	97.69
314.624	90.69
314.853	98.69
315.083	91.69
315.312	102.69
315.542	87.69
315.771	78.69
316.001	83.69
316.23	94.69
316.46	82.69
316.689	96.69
316.919	90.69
317.148	86.69
317.377	87.69
317.607	96.69
317.836	84.69
318.065	101.69
318.295	94.69
318.524	89.69
318.753	88.69
318.983	93.69
319.212	94.69
319.441	100.69
319.67	113.69
319.9	114.69
320.129	84.69
320.358	93.69
320.587	97.69
320.816	88.69
321.046	90.69
321.275	95.69
321.504	114.69
321.733	82.69
321.962	77.69
322.191	98.69
322.42	105.69
322.649	102.69
322.878	102.69
323.108	127.69
323.337	106.69
323.566	119.69
323.795	136.69
324.024	197.69
324.253	368.69
324.482	753.69
324.71	1485.69
324.939	1981.69
325.168	730.69
325.397	225.69
325.626	135.69
325.855	125.69
326.084	139.69
326.313	121.69
326.542	150.69
326.77	222.69
326.999	417.69
327.228	857.69
327.457	1547.69
327.686	1195.69
327.914	337.69
328.143	176.69
328.372	129.69
328.6	137.69
328.829	106.69
329.058	109.69
329.287	113.69
329.515	97.69
329.744	101.69
329.972	101.69
330.201	94.69
330.43	118.69
330.658	112.69
330.887	136.69
331.115	106.69
331.344	104.69
331.572	94.69
331.801	97.69
332.03	82.69
332.258	102.69
332.486	97.69
332.715	93.69
332.943	71.69
333.172	105.69
333.4	101.69
333.629	95.69
333.857	106.69
334.085	98.69
334.314	107.69
334.542	81.69
334.771	94.69
334.999	88.69
335.227	99.69
335.455	93.69
335.684	94.69
335.912	94.69
336.14	86.69
336.369	100.69
336.597	97.69
336.825	77.69
337.053	103.69
337.281	103.69
337.51	89.69
337.738	95.69
337.966	84.69
338.194	90.69
338.422	106.69
338.65	117.69
338.878	86.69
339.106	91.69
339.334	87.69
339.562	80.69
339.79	78.69
340.018	99.69
340.246	75.69
340.474	87.69
340.702	85.69
340.93	82.69
341.158	81.69
341.386	93.69
341.614	91.69
341.842	89.69
342.07	90.69
342.298	94.69
342.526	96.69
342.754	97.69
342.981	93.69
343.209	86.69
343.437	101.69
343.665	90.69
343.893	88.69
344.12	84.69
344.348	77.69
344.576	87.69
344.804	85.69
345.031	97.69
345.259	100.69
345.487	99.69
345.714	97.69
345.942	116.69
346.17	87.69
346.397	95.69
346.625	97.69
346.853	102.69
347.08	81.69
347.308	96.69
347.535	106.69
347.763	90.69
347.99	109.69
348.218	104.69
348.445	102.69
348.673	83.69
348.9	81.69
349.128	87.69
349.355	90.69
349.583	93.69
349.81	95.69
350.037	81.69
350.265	101.69
350.492	78.69
350.72	91.69
350.947	97.69
351.174	105.69
351.402	92.69
351.629	95.69
351.856	92.69
352.083	111.69
352.311	99.69
352.538	81.69
352.765	105.69
352.992	117.69
353.22	100.69
353.447	101.69
353.674	95.69
353.901	101.69
354.128	88.69
354.355	82.69
354.583	86.69
354.81	115.69
355.037	111.69
355.264	94.69
355.491	101.69
355.718	95.69
355.945	111.69
356.172	101.69
356.399	104.69
356.626	101.69
356.853	93.69
357.08	97.69
357.307	96.69
357.534	86.69
357.761	95.69
357.988	97.69
358.215	78.69
358.441	99.69
358.668	94.69
358.895	91.69
359.122	98.69
359.349	96.69
359.576	84.69
359.802	97.69
360.029	115.69
360.256	97.69
360.483	91.69
360.709	101.69
360.936	102.69
361.163	76.69
361.39	99.69
361.616	89.69
361.843	95.69
362.07	98.69
362.296	83.69
362.523	101.69
362.749	94.69
362.976	77.69
363.203	83.69
363.429	89.69
363.656	94.69
363.882	71.69
364.109	91.69
364.335	91.69
364.562	97.69
364.788	89.69
365.015	80.69
365.241	95.69
365.468	102.69
365.694	100.69
365.92	87.69
366.147	85.69
366.373	90.69
366.599	92.69
366.826	83.69
367.052	96.69
367.278	107.69
367.505	90.69
367.731	86.69
367.957	80.69
368.184	80.69
368.41	87.69
368.636	103.69
368.862	112.69
369.089	98.69
369.315	88.69
369.541	90.69
369.767	85.69
369.993	90.69
370.219	86.69
370.445	90.69
370.672	81.69
370.898	89.69
371.124	94.69
371.35	86.69
371.576	83.69
371.802	82.69
372.028	98.69
372.254	85.69
372.48	94.69
372.706	87.69
372.932	80.69
373.158	113.69
373.384	83.69
373.61	83.69
373.835	84.69
374.061	90.69
374.287	96.69
374.513	91.69
374.739	97.69
374.965	99.69
375.191	96.69
375.416	96.69
375.642	85.69
375.868	98.69
376.094	98.69
376.319	87.69
376.545	101.69
376.771	79.69
376.997	99.69
377.222	87.69
377.448	99.69
377.674	89.69
377.899	85.69
378.125	104.69
378.35	90.69
378.576	91.69
378.802	98.69
379.027	92.69
379.253	99.69
379.478	95.69
379.704	85.69
379.929	101.69
380.155	93.69
380.38	97.69
380.606	92.69
380.831	112.69
381.057	98.69
381.282	97.69
381.507	99.69
381.733	83.69
381.958	96.69
382.184	92.69
382.409	92.69
382.634	100.69
382.86	99.69
383.085	106.69
383.31	101.69
383.535	114.69
383.761	119.69
383.986	125.69
384.211	95.69
384.436	89.69
384.662	115.69
384.887	126.69
385.112	123.69
385.337	129.69
385.562	121.69
385.787	137.69
386.013	127.69
386.238	121.69
386.463	126.69
386.688	129.69
386.913	110.69
387.138	135.69
387.363	95.69
387.588	114.69
387.813	126.69
388.038	116.69
388.263	126.69
388.488	122.69
388.713	86.69
388.938	97.69
389.163	91.69
389.387	110.69
389.612	104.69
389.837	91.69
390.062	81.69
390.287	94.69
390.512	101.69
390.736	102.69
390.961	92.69
391.186	102.69
391.411	93.69
391.636	100.69
391.86	77.69
392.085	100.69
392.31	82.69
392.534	87.69
392.759	95.69
392.984	89.69
393.208	100.69
393.433	113.69
393.658	97.69
393.882	96.69
394.107	95.69
394.331	80.69
394.556	90.69
394.78	98.69
395.005	88.69
395.229	75.69
395.454	92.69
395.678	100.69
395.903	86.69
396.127	102.69
396.352	90.69
396.576	93.69
396.801	92.69
397.025	82.69
397.249	98.69
397.474	93.69
397.698	82.69
397.922	88.69
398.147	81.69
398.371	78.69
398.595	96.69
398.82	82.69
399.044	84.69
399.268	91.69
399.492	81.69
399.717	85.69
399.941	96.69
400.165	82.69
400.389	97.69
400.613	103.69
400.837	96.69
401.062	72.69
401.286	92.69
401.51	97.69
401.734	80.69
401.958	85.69
402.182	121.69
402.406	139.69
402.63	98.69
402.854	95.69
403.078	97.69
403.302	86.69
403.526	94.69
403.75	102.69
403.974	89.69
404.198	101.69
404.422	79.69
404.645	95.69
404.869	79.69
405.093	97.69
405.317	100.69
405.541	96.69
405.765	102.69
405.988	105.69
406.212	153.69
406.436	203.69
406.66	141.69
406.883	90.69
407.107	78.69
407.331	85.69
407.555	97.69
407.778	97.69
408.002	70.69
408.226	91.69
408.449	91.69
408.673	85.69
408.896	87.69
409.12	98.69
409.344	78.69
409.567	101.69
409.791	91.69
410.014	92.69
410.238	106.69
410.461	100.69
410.685	83.69
410.908	91.69
411.132	106.69
411.355	84.69
411.578	82.69
411.802	83.69
412.025	84.69
412.249	85.69
412.472	89.69
412.695	82.69
412.919	95.69
413.142	91.69
413.365	83.69
413.589	97.69
413.812	91.69
414.035	83.69
414.258	88.69
414.482	91.69
414.705	80.69
414.928	85.69
415.151	76.69
415.374	97.69
415.597	103.69
415.821	90.69
416.044	97.69
416.267	84.69
416.49	91.69
416.713	84.69
416.936	107.69
417.159	86.69
417.382	88.69
417.605	75.69
417.828	92.69
418.051	91.69
418.274	102.69
418.497	97.69
418.72	97.69
418.943	88.69
419.166	89.69
419.389	96.69
419.611	101.69
419.834	88.69
420.057	101.69
420.28	79.69
420.503	88.69
420.726	87.69
420.948	101.69
421.171	94.69
421.394	88.69
421.617	81.69
421.839	105.69
422.062	100.69
422.285	91.69
422.507	77.69
422.73	109.69
422.953	76.69
423.175	97.69
423.398	97.69
423.621	93.69
423.843	88.69
424.066	89.69
424.288	70.69
424.511	81.69
424.733	79.69
424.956	111.69
425.178	105.69
425.401	101.69
425.623	85.69
425.846	85.69
426.068	105.69
426.291	97.69
426.513	85.69
426.735	76.69
426.958	95.69
427.18	102.69
427.402	125.69
427.625	148.69
427.847	127.69
428.069	97.69
428.292	90.69
428.514	102.69
428.736	90.69
428.958	99.69
429.181	86.69
429.403	90.69
429.625	81.69
429.847	88.69
430.069	87.69
430.292	83.69
430.514	85.69
430.736	97.69
430.958	88.69
431.18	83.69
431.402	97.69
431.624	81.69
431.846	93.69
432.068	86.69
432.29	75.69
432.512	82.69
432.734	79.69
432.956	81.69
433.178	99.69
433.4	100.69
433.622	81.69
433.844	76.69
434.066	83.69
434.287	95.69
434.509	95.69
434.731	99.69
434.953	91.69
435.175	98.69
435.397	91.69
435.618	94.69
435.84	91.69
436.062	105.69
436.284	103.69
436.505	99.69
436.727	103.69
436.949	102.69
437.17	89.69
437.392	96.69
437.614	85.69
437.835	102.69
438.057	136.69
438.278	100.69
438.5	95.69
438.721	106.69
438.943	85.69
439.165	75.69
439.386	95.69
439.608	91.69
439.829	97.69
440.05	126.69
440.272	139.69
440.493	107.69
440.715	79.69
440.936	78.69
441.158	87.69
441.379	94.69
441.6	93.69
441.822	91.69
442.043	91.69
442.264	107.69
442.486	100.69
442.707	96.69
442.928	92.69
443.149	111.69
443.371	112.69
443.592	97.69
443.813	104.69
444.034	87.69
444.255	89.69
444.476	88.69
444.698	101.69
444.919	98.69
445.14	114.69
445.361	137.69
445.582	120.69
445.803	122.69
446.024	127.69
446.245	133.69
446.466	99.69
446.687	91.69
446.908	85.69
447.129	93.69
447.35	83.69
447.571	93.69
447.792	85.69
448.013	85.69
448.234	96.69
448.455	97.69
448.675	111.69
448.896	101.69
449.117	90.69
449.338	96.69
449.559	119.69
449.779	135.69
450	88.69
450.221	79.69
450.442	86.69
450.662	98.69
450.883	109.69
451.104	102.69
451.324	73.69
451.545	85.69
451.766	83.69
451.986	91.69
452.207	86.69
452.428	78.69
452.648	82.69
452.869	103.69
453.089	109.69
453.31	110.69
453.53	86.69
453.751	93.69
453.971	85.69
454.192	97.69
454.412	83.69
454.633	91.69
454.853	85.69
455.073	90.69
455.294	83.69
455.514	93.69
455.734	79.69
455.955	89.69
456.175	83.69
456.395	82.69
456.616	89.69
456.836	83.69
457.056	78.69
457.276	69.69
457.497	97.69
457.717	94.69
457.937	101.69
458.157	92.69
458.377	96.69
458.598	112.69
458.818	127.69
459.038	138.69
459.258	90.69
459.478	79.69
459.698	96.69
459.918	90.69
460.138	86.69
460.358	91.69
460.578	93.69
460.798	102.69
461.018	90.69
461.238	87.69
461.458	90.69
461.678	85.69
461.898	87.69
462.118	85.69
462.338	96.69
462.558	95.69
462.777	97.69
462.997	90.69
463.217	71.69
463.437	79.69
463.657	88.69
463.876	102.69
464.096	88.69
464.316	85.69
464.536	102.69
464.755	82.69
464.975	101.69
465.195	155.69
465.414	152.69
465.634	93.69
465.854	111.69
466.073	88.69
466.293	85.69
466.512	89.69
466.732	88.69
466.951	85.69
467.171	93.69
467.391	82.69
467.61	89.69
467.829	84.69
468.049	85.69
468.268	86.69
468.488	82.69
468.707	83.69
468.927	78.69
469.146	90.69
469.365	74.69
469.585	98.69
469.804	99.69
470.023	93.69
470.243	80.69
470.462	86.69
470.681	102.69
470.901	95.69
471.12	93.69
471.339	93.69
471.558	83.69
471.777	81.69
471.997	89.69
472.216	97.69
472.435	100.69
472.654	87.69
472.873	93.69
473.092	92.69
473.311	102.69
473.53	87.69
473.749	100.69
473.968	87.69
474.187	89.69
474.406	82.69
474.625	89.69
474.844	89.69
475.063	94.69
475.282	80.69
475.501	72.69
475.72	97.69
475.939	88.69
476.158	73.69
476.377	94.69
476.596	97.69
476.814	97.69
477.033	97.69
477.252	97.69
477.471	91.69
477.69	90.69
477.908	74.69
478.127	80.69
478.346	100.69
478.564	79.69
478.783	91.69
479.002	82.69
479.22	91.69
479.439	96.69
479.658	78.69
479.876	90.69
480.095	70.69
480.313	88.69
480.532	104.69
480.751	92.69
480.969	96.69
481.188	129.69
481.406	104.69
481.624	84.69
481.843	95.69
482.061	91.69
482.28	94.69
482.498	95.69
482.717	99.69
482.935	95.69
483.153	94.69
483.372	83.69
483.59	96.69
483.808	85.69
484.027	85.69
484.245	103.69
484.463	94.69
484.681	99.69
484.9	92.69
485.118	88.69
485.336	90.69
485.554	94.69
485.772	97.69
485.99	104.69
486.209	118.69
486.427	108.69
486.645	106.69
486.863	108.69
487.081	104.69
487.299	97.69
487.517	80.69
487.735	90.69
487.953	93.69
488.171	107.69
488.389	95.69
488.607	89.69
488.825	97.69
489.043	91.69
489.261	90.69
489.479	97.69
489.696	95.69
489.914	95.69
490.132	99.69
490.35	84.69
490.568	108.69
490.786	90.69
491.003	95.69
491.221	102.69
491.439	89.69
491.657	83.69
491.874	89.69
492.092	97.69
492.31	100.69
492.527	97.69
492.745	79.69
492.963	85.69
493.18	101.69
493.398	86.69
493.615	103.69
493.833	94.69
494.05	90.69
494.268	83.69
494.485	98.69
494.703	102.69
494.92	93.69
495.138	86.69
495.355	82.69
495.573	90.69
495.79	83.69
496.008	107.69
496.225	92.69
496.442	81.69
496.66	92.69
496.877	91.69
497.094	80.69
497.312	78.69
497.529	100.69
497.746	102.69
497.963	88.69
498.181	100.69
498.398	86.69
498.615	112.69
498.832	118.69
499.049	88.69
499.267	111.69
499.484	84.69
499.701	91.69
499.918	112.69
500.135	80.69
500.352	90.69
500.569	97.69
500.786	88.69
501.003	102.69
501.22	104.69
501.437	93.69
501.654	90.69
501.871	91.69
502.088	98.69
502.305	85.69
502.522	69.69
502.739	89.69
502.956	83.69
503.172	97.69
503.389	97.69
503.606	89.69
503.823	102.69
504.04	89.69
504.256	98.69
504.473	95.69
504.69	89.69
504.907	88.69
505.123	94.69
505.34	97.69
505.557	99.69
505.773	89.69
505.99	91.69
506.207	81.69
506.423	95.69
506.64	86.69
506.856	90.69
507.073	96.69
507.289	92.69
507.506	97.69
507.722	106.69
507.939	106.69
508.155	88.69
508.372	89.69
508.588	105.69
508.805	79.69
509.021	88.69
509.238	94.69
509.454	104.69
509.67	90.69
509.887	111.69
510.103	129.69
510.319	207.69
510.536	705.69
510.752	2143.69
510.968	623.69
511.184	151.69
511.401	93.69
511.617	99.69
511.833	98.69
512.049	91.69
512.265	95.69
512.481	87.69
512.698	87.69
512.914	87.69
513.13	91.69
513.346	88.69
513.562	92.69
513.778	104.69
513.994	97.69
514.21	91.69
514.426	92.69
514.642	114.69
514.858	108.69
515.074	145.69
515.29	380.69
515.506	1264.69
515.721	465.69
515.937	140.69
