Data from Circ_2003_H10_HRD10591_00071.txt Node
Date: Wed Jan 03 10:37:16 EST 2024
User: Yrep
Spectrometer: HR+D1059
Trigger mode: 1
Integration Time (sec): 1.000000E-1
Scans to average: 1
Electric dark correction enabled: true
Nonlinearity correction enabled: false
Boxcar width: 0
XAxis mode: Wavelengths
Number of Pixels in Spectrum: 2048
>>>>>Begin Spectral Data<<<<<
223.165	-7.75
223.4	-7.75
223.635	-7.75
223.869	-14.75
224.104	-18.75
224.338	-29.75
224.573	-14.75
224.808	-14.75
225.042	-7.75
225.277	-7.75
225.511	3.25
225.746	10.25
225.98	6.25
226.215	9.25
226.449	18.25
226.683	20.25
226.918	20.25
227.152	28.25
227.387	38.25
227.621	29.25
227.856	46.25
228.09	26.25
228.324	53.25
228.559	53.25
228.793	155.25
229.027	418.25
229.262	508.25
229.496	577.25
229.73	728.25
229.964	738.25
230.199	519.25
230.433	469.25
230.667	434.25
230.901	456.25
231.136	416.25
231.37	427.25
231.604	433.25
231.838	444.25
232.072	459.25
232.306	458.25
232.541	471.25
232.775	456.25
233.009	484.25
233.243	478.25
233.477	476.25
233.711	466.25
233.945	493.25
234.179	490.25
234.413	478.25
234.647	484.25
234.881	512.25
235.115	509.25
235.349	527.25
235.583	554.25
235.817	561.25
236.051	614.25
236.285	595.25
236.519	588.25
236.753	686.25
236.987	890.25
237.221	1297.25
237.455	1389.25
237.689	852.25
237.922	700.25
238.156	685.25
238.39	662.25
238.624	633.25
238.858	649.25
239.091	638.25
239.325	661.25
239.559	658.25
239.793	684.25
240.027	749.25
240.26	860.25
240.494	896.25
240.728	889.25
240.961	878.25
241.195	820.25
241.429	769.25
241.662	738.25
241.896	744.25
242.13	745.25
242.363	794.25
242.597	775.25
242.83	786.25
243.064	806.25
243.298	814.25
243.531	820.25
243.765	833.25
243.998	840.25
244.232	840.25
244.465	868.25
244.699	871.25
244.932	883.25
245.166	866.25
245.399	912.25
245.633	909.25
245.866	909.25
246.099	909.25
246.333	954.25
246.566	918.25
246.8	942.25
247.033	976.25
247.266	999.25
247.5	1081.25
247.733	1122.25
247.966	1111.25
248.2	1124.25
248.433	1156.25
248.666	1157.25
248.899	1288.25
249.133	1401.25
249.366	1381.25
249.599	1313.25
249.832	1225.25
250.066	1263.25
250.299	1369.25
250.532	1573.25
250.765	1693.25
250.998	1764.25
251.231	1644.25
251.465	1468.25
251.698	1432.25
251.931	1374.25
252.164	1358.25
252.397	1431.25
252.63	1446.25
252.863	1505.25
253.096	1644.25
253.329	1705.25
253.562	1564.25
253.795	1545.25
254.028	1522.25
254.261	1564.25
254.494	1802.25
254.727	2040.25
254.96	2129.25
255.193	1891.25
255.426	1766.25
255.659	1743.25
255.892	1941.25
256.124	2167.25
256.357	2056.25
256.59	1792.25
256.823	1663.25
257.056	1602.25
257.289	1578.25
257.521	1584.25
257.754	1538.25
257.987	1532.25
258.22	1513.25
258.452	1557.25
258.685	1524.25
258.918	1560.25
259.151	1582.25
259.383	1673.25
259.616	1671.25
259.849	1729.25
260.081	1852.25
260.314	2047.25
260.547	1958.25
260.779	1811.25
261.012	1720.25
261.244	1720.25
261.477	1682.25
261.71	1660.25
261.942	1706.25
262.175	1747.25
262.407	1708.25
262.64	1667.25
262.872	1631.25
263.105	1652.25
263.337	1630.25
263.57	1642.25
263.802	1657.25
264.035	1637.25
264.267	1645.25
264.499	1664.25
264.732	1695.25
264.964	1663.25
265.197	1690.25
265.429	1688.25
265.661	1705.25
265.894	1712.25
266.126	1720.25
266.358	1704.25
266.591	1780.25
266.823	1815.25
267.055	1829.25
267.287	1859.25
267.52	1806.25
267.752	1847.25
267.984	1876.25
268.216	1894.25
268.448	1897.25
268.681	2007.25
268.913	2104.25
269.145	2228.25
269.377	2322.25
269.609	2242.25
269.841	2237.25
270.073	2324.25
270.306	2588.25
270.538	2724.25
270.77	2597.25
271.002	2467.25
271.234	2381.25
271.466	2523.25
271.698	2758.25
271.93	2677.25
272.162	2664.25
272.394	2629.25
272.626	2477.25
272.858	2330.25
273.09	2257.25
273.322	2265.25
273.553	2192.25
273.785	2197.25
274.017	2208.25
274.249	2241.25
274.481	2218.25
274.713	2292.25
274.945	2305.25
275.176	2244.25
275.408	2244.25
275.64	2248.25
275.872	2209.25
276.104	2328.25
276.335	2308.25
276.567	2409.25
276.799	2517.25
277.031	2769.25
277.262	2896.25
277.494	2743.25
277.726	2641.25
277.957	2457.25
278.189	2402.25
278.421	2383.25
278.652	2352.25
278.884	2390.25
279.115	2401.25
279.347	2368.25
279.579	2375.25
279.81	2411.25
280.042	2418.25
280.273	2476.25
280.505	2414.25
280.736	2434.25
280.968	2399.25
281.199	2436.25
281.431	2478.25
281.662	2470.25
281.894	2469.25
282.125	2536.25
282.356	2689.25
282.588	2777.25
282.819	2677.25
283.051	2572.25
283.282	2522.25
283.513	2614.25
283.745	2602.25
283.976	2631.25
284.207	2650.25
284.439	2642.25
284.67	2622.25
284.901	2644.25
285.132	2670.25
285.364	2604.25
285.595	2651.25
285.826	2649.25
286.057	2655.25
286.288	2648.25
286.52	2671.25
286.751	2709.25
286.982	2728.25
287.213	2691.25
287.444	2752.25
287.675	2842.25
287.906	2844.25
288.138	2953.25
288.369	2947.25
288.6	2917.25
288.831	2873.25
289.062	2856.25
289.293	2823.25
289.524	2820.25
289.755	2799.25
289.986	2832.25
290.217	2845.25
290.448	2843.25
290.679	2798.25
290.91	2812.25
291.141	2836.25
291.371	2797.25
291.602	2854.25
291.833	2759.25
292.064	2848.25
292.295	2793.25
292.526	2851.25
292.757	2844.25
292.987	2806.25
293.218	2802.25
293.449	2899.25
293.68	2842.25
293.91	2828.25
294.141	2889.25
294.372	2830.25
294.603	2921.25
294.833	2871.25
295.064	2870.25
295.295	2896.25
295.525	2906.25
295.756	2987.25
295.987	3004.25
296.217	3181.25
296.448	3175.25
296.679	2992.25
296.909	2990.25
297.14	2960.25
297.37	3050.25
297.601	3054.25
297.831	3052.25
298.062	3048.25
298.292	3066.25
298.523	3090.25
298.753	3118.25
298.984	3148.25
299.214	3082.25
299.445	3084.25
299.675	3158.25
299.905	3208.25
300.136	3177.25
300.366	3151.25
300.597	3198.25
300.827	3310.25
301.057	3364.25
301.288	3433.25
301.518	3346.25
301.748	3366.25
301.979	3422.25
302.209	3374.25
302.439	3424.25
302.669	3381.25
302.9	3366.25
303.13	3302.25
303.36	3387.25
303.59	3448.25
303.82	3449.25
304.051	3361.25
304.281	3345.25
304.511	3298.25
304.741	3296.25
304.971	3331.25
305.201	3301.25
305.431	3279.25
305.661	3281.25
305.891	3284.25
306.121	3314.25
306.352	3374.25
306.582	3340.25
306.812	3256.25
307.042	3306.25
307.272	3348.25
307.502	3298.25
307.731	3313.25
307.961	3363.25
308.191	3376.25
308.421	3308.25
308.651	3338.25
308.881	3330.25
309.111	3413.25
309.341	3393.25
309.571	3532.25
309.8	3527.25
310.03	3613.25
310.26	3618.25
310.49	3581.25
310.72	3725.25
310.949	3805.25
311.179	3760.25
311.409	3708.25
311.639	3680.25
311.868	3686.25
312.098	3697.25
312.328	3817.25
312.557	3872.25
312.787	3989.25
313.017	3878.25
313.246	3816.25
313.476	3756.25
313.706	3831.25
313.935	3842.25
314.165	3968.25
314.394	3893.25
314.624	3897.25
314.853	3875.25
315.083	3796.25
315.312	3823.25
315.542	3810.25
315.771	3742.25
316.001	3664.25
316.23	3793.25
316.46	3749.25
316.689	3793.25
316.919	3698.25
317.148	3793.25
317.377	3814.25
317.607	3800.25
317.836	3739.25
318.065	3711.25
318.295	3762.25
318.524	3706.25
318.753	3719.25
318.983	3705.25
319.212	3636.25
319.441	3745.25
319.67	3776.25
319.9	3692.25
320.129	3712.25
320.358	3782.25
320.587	3809.25
320.816	3839.25
321.046	3923.25
321.275	3814.25
321.504	3871.25
321.733	3936.25
321.962	3977.25
322.191	4081.25
322.42	4226.25
322.649	4240.25
322.878	4276.25
323.108	4360.25
323.337	4577.25
323.566	4774.25
323.795	5020.25
324.024	5670.25
324.253	7199.25
324.482	10852.25
324.71	15028.25
324.939	15610.25
325.168	12640.25
325.397	6654.25
325.626	5326.25
325.855	4969.25
326.084	4837.25
326.313	4865.25
326.542	5061.25
326.77	5628.25
326.999	7134.25
327.228	10183.25
327.457	14124.25
327.686	13377.25
327.914	7473.25
328.143	6223.25
328.372	5924.25
328.6	5479.25
328.829	5430.25
329.058	5597.25
329.287	5513.25
329.515	5282.25
329.744	5244.25
329.972	5433.25
330.201	6024.25
330.43	6310.25
330.658	6094.25
330.887	6069.25
331.115	5554.25
331.344	5224.25
331.572	5068.25
331.801	5171.25
332.03	5160.25
332.258	5100.25
332.486	5170.25
332.715	5292.25
332.943	5429.25
333.172	5616.25
333.4	5751.25
333.629	5933.25
333.857	6208.25
334.085	6482.25
334.314	6886.25
334.542	7335.25
334.771	7094.25
334.999	6023.25
335.227	5584.25
335.455	5462.25
335.684	5251.25
335.912	5210.25
336.14	5138.25
336.369	5042.25
336.597	5160.25
336.825	5041.25
337.053	4960.25
337.281	4894.25
337.51	4852.25
337.738	4809.25
337.966	4793.25
338.194	4783.25
338.422	4693.25
338.65	4620.25
338.878	4534.25
339.106	4569.25
339.334	4620.25
339.562	4524.25
339.79	4461.25
340.018	4437.25
340.246	4417.25
340.474	4464.25
340.702	4431.25
340.93	4509.25
341.158	4498.25
341.386	4472.25
341.614	4484.25
341.842	4449.25
342.07	4388.25
342.298	4440.25
342.526	4360.25
342.754	4368.25
342.981	4440.25
343.209	4512.25
343.437	4676.25
343.665	5043.25
343.893	5281.25
344.12	5295.25
344.348	5094.25
344.576	4757.25
344.804	4727.25
345.031	4642.25
345.259	4616.25
345.487	4478.25
345.714	4454.25
345.942	4325.25
346.17	4245.25
346.397	4266.25
346.625	4267.25
346.853	4241.25
347.08	4211.25
347.308	4306.25
347.535	4365.25
347.763	4384.25
347.99	4324.25
348.218	4373.25
348.445	4360.25
348.673	4357.25
348.9	4162.25
349.128	4174.25
349.355	4120.25
349.583	4142.25
349.81	4065.25
350.037	4140.25
350.265	4118.25
350.492	4121.25
350.72	4081.25
350.947	4160.25
351.174	4238.25
351.402	4265.25
351.629	4203.25
351.856	4241.25
352.083	4284.25
352.311	4242.25
352.538	4249.25
352.765	4239.25
352.992	4170.25
353.22	4172.25
353.447	4152.25
353.674	4073.25
353.901	4030.25
354.128	4016.25
354.355	4031.25
354.583	4005.25
354.81	4032.25
355.037	4052.25
355.264	4000.25
355.491	4022.25
355.718	4017.25
355.945	3989.25
356.172	4048.25
356.399	4030.25
356.626	4031.25
356.853	4003.25
357.08	3994.25
357.307	3985.25
357.534	4014.25
357.761	4012.25
357.988	4044.25
358.215	4079.25
358.441	4045.25
358.668	4088.25
358.895	4094.25
359.122	4174.25
359.349	4235.25
359.576	4341.25
359.802	4545.25
360.029	4655.25
360.256	4673.25
360.483	4466.25
360.709	4316.25
360.936	4250.25
361.163	4276.25
361.39	4284.25
361.616	4284.25
361.843	4206.25
362.07	4242.25
362.296	4241.25
362.523	4214.25
362.749	4199.25
362.976	4171.25
363.203	4145.25
363.429	4159.25
363.656	4159.25
363.882	4136.25
364.109	4073.25
364.335	4062.25
364.562	4128.25
364.788	4119.25
365.015	4108.25
365.241	4116.25
365.468	4114.25
365.694	4161.25
365.92	4168.25
366.147	4073.25
366.373	4153.25
366.599	4133.25
366.826	4058.25
367.052	4046.25
367.278	4132.25
367.505	4149.25
367.731	4090.25
367.957	4092.25
368.184	4120.25
368.41	4216.25
368.636	4332.25
368.862	4273.25
369.089	4204.25
369.315	4215.25
369.541	4164.25
369.767	4238.25
369.993	4236.25
370.219	4247.25
370.445	4271.25
370.672	4302.25
370.898	4281.25
371.124	4321.25
371.35	4388.25
371.576	4310.25
371.802	4284.25
372.028	4310.25
372.254	4356.25
372.48	4420.25
372.706	4541.25
372.932	4530.25
373.158	4489.25
373.384	4472.25
373.61	4377.25
373.835	4438.25
374.061	4475.25
374.287	4528.25
374.513	4549.25
374.739	4684.25
374.965	4833.25
375.191	4844.25
375.416	4756.25
375.642	4612.25
375.868	4550.25
376.094	4527.25
376.319	4469.25
376.545	4390.25
376.771	4402.25
376.997	4388.25
377.222	4375.25
377.448	4387.25
377.674	4352.25
377.899	4377.25
378.125	4375.25
378.35	4315.25
378.576	4351.25
378.802	4264.25
379.027	4346.25
379.253	4301.25
379.478	4284.25
379.704	4336.25
379.929	4382.25
380.155	4355.25
380.38	4350.25
380.606	4439.25
380.831	4313.25
381.057	4373.25
381.282	4359.25
381.507	4362.25
381.733	4428.25
381.958	4443.25
382.184	4530.25
382.409	4561.25
382.634	4611.25
382.86	4601.25
383.085	4632.25
383.31	4790.25
383.535	4818.25
383.761	4829.25
383.986	4936.25
384.211	5069.25
384.436	5108.25
384.662	5157.25
384.887	5207.25
385.112	5266.25
385.337	5335.25
385.562	5278.25
385.787	5347.25
386.013	5372.25
386.238	5406.25
386.463	5423.25
386.688	5323.25
386.913	5280.25
387.138	5202.25
387.363	5210.25
387.588	5174.25
387.813	5189.25
388.038	5181.25
388.263	5283.25
388.488	5263.25
388.713	5245.25
388.938	5181.25
389.163	5167.25
389.387	5196.25
389.612	5159.25
389.837	5168.25
390.062	5077.25
390.287	5179.25
390.512	5206.25
390.736	5221.25
390.961	5319.25
391.186	5419.25
391.411	5549.25
391.636	5705.25
391.86	5800.25
392.085	5822.25
392.31	5787.25
392.534	5600.25
392.759	5570.25
392.984	5449.25
393.208	5417.25
393.433	5492.25
393.658	5339.25
393.882	5491.25
394.107	5513.25
394.331	5477.25
394.556	5542.25
394.78	5596.25
395.005	5580.25
395.229	5649.25
395.454	5795.25
395.678	5846.25
395.903	5936.25
396.127	5910.25
396.352	5762.25
396.576	5572.25
396.801	5561.25
397.025	5660.25
397.249	5763.25
397.474	5848.25
397.698	5876.25
397.922	6052.25
398.147	6158.25
398.371	6257.25
398.595	6359.25
398.82	6708.25
399.044	7245.25
399.268	8057.25
399.492	9133.25
399.717	9806.25
399.941	9431.25
400.165	8815.25
400.389	8130.25
400.613	7359.25
400.837	6873.25
401.062	6711.25
401.286	6635.25
401.51	6696.25
401.734	6618.25
401.958	6803.25
402.182	6746.25
402.406	6888.25
402.63	6939.25
402.854	7096.25
403.078	7180.25
403.302	7304.25
403.526	7442.25
403.75	7448.25
403.974	7612.25
404.198	7569.25
404.422	7745.25
404.645	7656.25
404.869	7744.25
405.093	7981.25
405.317	8290.25
405.541	8306.25
405.765	7659.25
405.988	7460.25
406.212	7546.25
406.436	7594.25
406.66	7814.25
406.883	7832.25
407.107	8457.25
407.331	8934.25
407.555	9337.25
407.778	9084.25
408.002	8382.25
408.226	8032.25
408.449	7904.25
408.673	7688.25
408.896	7901.25
409.12	8012.25
409.344	7586.25
409.567	7268.25
409.791	7243.25
410.014	7230.25
410.238	7109.25
410.461	7161.25
410.685	7204.25
410.908	7132.25
411.132	7411.25
411.355	7388.25
411.578	7089.25
411.802	6867.25
412.025	7081.25
412.249	7267.25
412.472	7614.25
412.695	7766.25
412.919	7221.25
413.142	6960.25
413.365	6814.25
413.589	6880.25
413.812	6563.25
414.035	6469.25
414.258	6550.25
414.482	6622.25
414.705	6697.25
414.928	6519.25
415.151	6553.25
415.374	6515.25
415.597	6436.25
415.821	6374.25
416.044	6395.25
416.267	6390.25
416.49	6365.25
416.713	6339.25
416.936	6391.25
417.159	6411.25
417.382	6482.25
417.605	6445.25
417.828	6640.25
418.051	6752.25
418.274	6638.25
418.497	6582.25
418.72	6652.25
418.943	6653.25
419.166	6965.25
419.389	7452.25
419.611	7235.25
419.834	7136.25
420.057	7102.25
420.28	7037.25
420.503	6853.25
420.726	6874.25
420.948	6879.25
421.171	7144.25
421.394	7178.25
421.617	6686.25
421.839	6659.25
422.062	6741.25
422.285	6904.25
422.507	7544.25
422.73	8038.25
422.953	7391.25
423.175	6972.25
423.398	7096.25
423.621	7116.25
423.843	7303.25
424.066	7227.25
424.288	7221.25
424.511	7429.25
424.733	7851.25
424.956	8280.25
425.178	7794.25
425.401	7928.25
425.623	7702.25
425.846	6893.25
426.068	6676.25
426.291	6622.25
426.513	6636.25
426.735	6707.25
426.958	7172.25
427.18	7836.25
427.402	8984.25
427.625	9158.25
427.847	8001.25
428.069	7385.25
428.292	6698.25
428.514	6217.25
428.736	6007.25
428.958	6068.25
429.181	5881.25
429.403	5940.25
429.625	6041.25
429.847	6402.25
430.069	6805.25
430.292	6373.25
430.514	5877.25
430.736	5870.25
430.958	5772.25
431.18	5708.25
431.402	5760.25
431.624	5698.25
431.846	5769.25
432.068	5774.25
432.29	5900.25
432.512	5779.25
432.734	5864.25
432.956	5769.25
433.178	5927.25
433.4	5896.25
433.622	5836.25
433.844	5843.25
434.066	5865.25
434.287	5934.25
434.509	6208.25
434.731	6467.25
434.953	6549.25
435.175	6752.25
435.397	6687.25
435.618	6758.25
435.84	7024.25
436.062	7794.25
436.284	7701.25
436.505	6590.25
436.727	6276.25
436.949	6024.25
437.17	5869.25
437.392	5904.25
437.614	6056.25
437.835	6390.25
438.057	7434.25
438.278	7872.25
438.5	7856.25
438.721	8598.25
438.943	7570.25
439.165	6452.25
439.386	6279.25
439.608	6298.25
439.829	6409.25
440.05	6731.25
440.272	7104.25
440.493	6438.25
440.715	6238.25
440.936	6148.25
441.158	6249.25
441.379	6345.25
441.6	6656.25
441.822	6806.25
442.043	7220.25
442.264	8046.25
442.486	7790.25
442.707	6930.25
442.928	6814.25
443.149	6952.25
443.371	7175.25
443.592	7688.25
443.813	8618.25
444.034	8560.25
444.255	7593.25
444.476	7450.25
444.698	7615.25
444.919	7656.25
445.14	7526.25
445.361	7333.25
445.582	7425.25
445.803	7862.25
446.024	8578.25
446.245	8196.25
446.466	7436.25
446.687	6429.25
446.908	6161.25
447.129	5870.25
447.35	5673.25
447.571	5707.25
447.792	5548.25
448.013	5748.25
448.234	5809.25
448.455	6497.25
448.675	7625.25
448.896	8129.25
449.117	6665.25
449.338	6849.25
449.559	8129.25
449.779	8320.25
450	6425.25
450.221	5706.25
450.442	5632.25
450.662	5472.25
450.883	5654.25
451.104	5644.25
451.324	5572.25
451.545	5473.25
451.766	5271.25
451.986	5167.25
452.207	5130.25
452.428	5117.25
452.648	5135.25
452.869	5116.25
453.089	5224.25
453.31	5244.25
453.53	5189.25
453.751	5106.25
453.971	5164.25
454.192	5216.25
454.412	5001.25
454.633	4947.25
454.853	4965.25
455.073	4920.25
455.294	5357.25
455.514	5824.25
455.734	5355.25
455.955	4926.25
456.175	4710.25
456.395	4744.25
456.616	4708.25
456.836	4752.25
457.056	4696.25
457.276	4661.25
457.497	4868.25
457.717	4738.25
457.937	4889.25
458.157	4903.25
458.377	4983.25
458.598	5350.25
458.818	6044.25
459.038	6773.25
459.258	6626.25
459.478	5951.25
459.698	5926.25
459.918	5936.25
460.138	6142.25
460.358	6398.25
460.578	6351.25
460.798	6462.25
461.018	6476.25
461.238	6308.25
461.458	6279.25
461.678	6291.25
461.898	6425.25
462.118	6508.25
462.338	6873.25
462.558	6987.25
462.777	7275.25
462.997	7900.25
463.217	8360.25
463.437	8025.25
463.657	7489.25
463.876	7229.25
464.096	7308.25
464.316	7395.25
464.536	7373.25
464.755	7049.25
464.975	7021.25
465.195	7083.25
465.414	7110.25
465.634	6348.25
465.854	6025.25
466.073	5828.25
466.293	5510.25
466.512	5406.25
466.732	5347.25
466.951	5344.25
467.171	5379.25
467.391	5382.25
467.61	5428.25
467.829	5469.25
468.049	5488.25
468.268	5473.25
468.488	5240.25
468.707	5145.25
468.927	5160.25
469.146	5054.25
469.365	5161.25
469.585	5196.25
469.804	5376.25
470.023	5509.25
470.243	5557.25
470.462	5649.25
470.681	5741.25
470.901	5590.25
471.12	5471.25
471.339	5398.25
471.558	5417.25
471.777	5247.25
471.997	5299.25
472.216	5594.25
472.435	6227.25
472.654	5646.25
472.873	5298.25
473.092	5230.25
473.311	5168.25
473.53	5193.25
473.749	5230.25
473.968	5706.25
474.187	6711.25
474.406	6290.25
474.625	5356.25
474.844	5152.25
475.063	5125.25
475.282	5125.25
475.501	5204.25
475.72	5212.25
475.939	5235.25
476.158	5295.25
476.377	5331.25
476.596	5337.25
476.814	5459.25
477.033	5502.25
477.252	5575.25
477.471	5619.25
477.69	5781.25
477.908	5907.25
478.127	6016.25
478.346	6114.25
478.564	6269.25
478.783	6361.25
479.002	6396.25
479.22	6436.25
479.439	6621.25
479.658	6692.25
479.876	6698.25
480.095	6924.25
480.313	7376.25
480.532	7258.25
480.751	7185.25
480.969	7440.25
481.188	8526.25
481.406	8412.25
481.624	7314.25
481.843	6753.25
482.061	6392.25
482.28	6318.25
482.498	6218.25
482.717	6070.25
482.935	6119.25
483.153	6021.25
483.372	6073.25
483.59	6080.25
483.808	6131.25
484.027	6083.25
484.245	6143.25
484.463	6100.25
484.681	6249.25
484.9	6311.25
485.118	6347.25
485.336	6305.25
485.554	6361.25
485.772	6445.25
485.99	6391.25
486.209	6539.25
486.427	6522.25
486.645	6490.25
486.863	6692.25
487.081	6633.25
487.299	6501.25
487.517	6551.25
487.735	6600.25
487.953	6491.25
