Data from Circ_2003_H10_HRD10591_00014.txt Node
Date: Wed Jan 03 10:37:05 EST 2024
User: Yrep
Spectrometer: HR+D1059
Trigger mode: 1
Integration Time (sec): 1.000000E-1
Scans to average: 1
Electric dark correction enabled: true
Nonlinearity correction enabled: false
Boxcar width: 0
XAxis mode: Wavelengths
Number of Pixels in Spectrum: 2048
>>>>>Begin Spectral Data<<<<<
223.165	-6.5
223.4	-6.5
223.635	-6.5
223.869	-20.5
224.104	-13.5
224.338	-26.5
224.573	-22.5
224.808	-6.5
225.042	-1.5
225.277	-9.5
225.511	-2.5
225.746	8.5
225.98	10.5
226.215	12.5
226.449	20.5
226.683	3.5
226.918	17.5
227.152	36.5
227.387	36.5
227.621	37.5
227.856	46.5
228.09	56.5
228.324	52.5
228.559	54.5
228.793	54.5
229.027	69.5
229.262	67.5
229.496	66.5
229.73	77.5
229.964	83.5
230.199	75.5
230.433	67.5
230.667	74.5
230.901	75.5
231.136	72.5
231.37	77.5
231.604	78.5
231.838	81.5
232.072	61.5
232.306	91.5
232.541	70.5
232.775	81.5
233.009	78.5
233.243	89.5
233.477	87.5
233.711	70.5
233.945	77.5
234.179	84.5
234.413	84.5
234.647	89.5
234.881	71.5
235.115	91.5
235.349	76.5
235.583	69.5
235.817	84.5
236.051	70.5
236.285	77.5
236.519	80.5
236.753	73.5
236.987	79.5
237.221	97.5
237.455	75.5
237.689	81.5
237.922	73.5
238.156	80.5
238.39	71.5
238.624	78.5
238.858	71.5
239.091	71.5
239.325	81.5
239.559	74.5
239.793	79.5
240.027	77.5
240.26	81.5
240.494	90.5
240.728	77.5
240.961	82.5
241.195	71.5
241.429	87.5
241.662	70.5
241.896	70.5
242.13	76.5
242.363	83.5
242.597	74.5
242.83	80.5
243.064	82.5
243.298	75.5
243.531	80.5
243.765	77.5
243.998	90.5
244.232	77.5
244.465	81.5
244.699	77.5
244.932	66.5
245.166	70.5
245.399	88.5
245.633	72.5
245.866	80.5
246.099	76.5
246.333	85.5
246.566	74.5
246.8	69.5
247.033	83.5
247.266	81.5
247.5	64.5
247.733	88.5
247.966	77.5
248.2	77.5
248.433	85.5
248.666	90.5
248.899	80.5
249.133	80.5
249.366	92.5
249.599	87.5
249.832	86.5
250.066	90.5
250.299	81.5
250.532	70.5
250.765	73.5
250.998	74.5
251.231	75.5
251.465	74.5
251.698	77.5
251.931	75.5
252.164	82.5
252.397	75.5
252.63	76.5
252.863	74.5
253.096	75.5
253.329	87.5
253.562	82.5
253.795	88.5
254.028	80.5
254.261	75.5
254.494	73.5
254.727	86.5
254.96	84.5
255.193	64.5
255.426	76.5
255.659	90.5
255.892	74.5
256.124	76.5
256.357	74.5
256.59	88.5
256.823	79.5
257.056	82.5
257.289	77.5
257.521	88.5
257.754	77.5
257.987	78.5
258.22	84.5
258.452	85.5
258.685	97.5
258.918	79.5
259.151	78.5
259.383	77.5
259.616	90.5
259.849	84.5
260.081	81.5
260.314	83.5
260.547	92.5
260.779	84.5
261.012	86.5
261.244	85.5
261.477	82.5
261.71	73.5
261.942	92.5
262.175	105.5
262.407	85.5
262.64	70.5
262.872	73.5
263.105	86.5
263.337	87.5
263.57	71.5
263.802	88.5
264.035	77.5
264.267	82.5
264.499	95.5
264.732	89.5
264.964	79.5
265.197	70.5
265.429	83.5
265.661	77.5
265.894	87.5
266.126	85.5
266.358	94.5
266.591	84.5
266.823	90.5
267.055	82.5
267.287	89.5
267.52	89.5
267.752	94.5
267.984	83.5
268.216	96.5
268.448	87.5
268.681	84.5
268.913	96.5
269.145	81.5
269.377	69.5
269.609	69.5
269.841	87.5
270.073	92.5
270.306	91.5
270.538	82.5
270.77	101.5
271.002	85.5
271.234	85.5
271.466	88.5
271.698	81.5
271.93	85.5
272.162	93.5
272.394	74.5
272.626	74.5
272.858	83.5
273.09	73.5
273.322	69.5
273.553	87.5
273.785	95.5
274.017	88.5
274.249	75.5
274.481	78.5
274.713	74.5
274.945	94.5
275.176	82.5
275.408	89.5
275.64	72.5
275.872	89.5
276.104	87.5
276.335	78.5
276.567	88.5
276.799	98.5
277.031	95.5
277.262	90.5
277.494	95.5
277.726	86.5
277.957	75.5
278.189	90.5
278.421	97.5
278.652	81.5
278.884	74.5
279.115	72.5
279.347	85.5
279.579	88.5
279.81	84.5
280.042	95.5
280.273	89.5
280.505	81.5
280.736	84.5
280.968	93.5
281.199	86.5
281.431	95.5
281.662	89.5
281.894	71.5
282.125	72.5
282.356	110.5
282.588	142.5
282.819	119.5
283.051	86.5
283.282	88.5
283.513	73.5
283.745	83.5
283.976	101.5
284.207	94.5
284.439	84.5
284.67	88.5
284.901	90.5
285.132	75.5
285.364	79.5
285.595	82.5
285.826	78.5
286.057	82.5
286.288	84.5
286.52	88.5
286.751	94.5
286.982	94.5
287.213	89.5
287.444	85.5
287.675	101.5
287.906	91.5
288.138	83.5
288.369	91.5
288.6	97.5
288.831	88.5
289.062	84.5
289.293	85.5
289.524	72.5
289.755	78.5
289.986	87.5
290.217	95.5
290.448	94.5
290.679	82.5
290.91	90.5
291.141	90.5
291.371	92.5
291.602	82.5
291.833	82.5
292.064	98.5
292.295	94.5
292.526	83.5
292.757	87.5
292.987	94.5
293.218	85.5
293.449	82.5
293.68	94.5
293.91	81.5
294.141	87.5
294.372	71.5
294.603	91.5
294.833	75.5
295.064	84.5
295.295	101.5
295.525	90.5
295.756	89.5
295.987	110.5
296.217	112.5
296.448	109.5
296.679	91.5
296.909	79.5
297.14	84.5
297.37	88.5
297.601	78.5
297.831	94.5
298.062	87.5
298.292	92.5
298.523	84.5
298.753	97.5
298.984	82.5
299.214	91.5
299.445	91.5
299.675	99.5
299.905	73.5
300.136	81.5
300.366	91.5
300.597	80.5
300.827	87.5
301.057	91.5
301.288	90.5
301.518	84.5
301.748	84.5
301.979	103.5
302.209	97.5
302.439	94.5
302.669	98.5
302.9	96.5
303.13	98.5
303.36	91.5
303.59	88.5
303.82	94.5
304.051	93.5
304.281	95.5
304.511	88.5
304.741	70.5
304.971	74.5
305.201	87.5
305.431	73.5
305.661	92.5
305.891	91.5
306.121	90.5
306.352	98.5
306.582	106.5
306.812	88.5
307.042	95.5
307.272	88.5
307.502	86.5
307.731	83.5
307.961	99.5
308.191	89.5
308.421	82.5
308.651	98.5
308.881	91.5
309.111	88.5
309.341	100.5
309.571	98.5
309.8	106.5
310.03	77.5
310.26	80.5
310.49	78.5
310.72	95.5
310.949	91.5
311.179	90.5
311.409	98.5
311.639	87.5
311.868	93.5
312.098	91.5
312.328	87.5
312.557	97.5
312.787	99.5
313.017	91.5
313.246	94.5
313.476	86.5
313.706	83.5
313.935	103.5
314.165	88.5
314.394	100.5
314.624	92.5
314.853	89.5
315.083	88.5
315.312	87.5
315.542	102.5
315.771	91.5
316.001	92.5
316.23	83.5
316.46	95.5
316.689	94.5
316.919	82.5
317.148	89.5
317.377	95.5
317.607	79.5
317.836	87.5
318.065	87.5
318.295	83.5
318.524	79.5
318.753	90.5
318.983	97.5
319.212	90.5
319.441	91.5
319.67	99.5
319.9	96.5
320.129	83.5
320.358	117.5
320.587	104.5
320.816	106.5
321.046	109.5
321.275	114.5
321.504	93.5
321.733	77.5
321.962	85.5
322.191	96.5
322.42	104.5
322.649	102.5
322.878	104.5
323.108	117.5
323.337	114.5
323.566	122.5
323.795	134.5
324.024	199.5
324.253	351.5
324.482	722.5
324.71	1477.5
324.939	1954.5
325.168	742.5
325.397	221.5
325.626	144.5
325.855	136.5
326.084	106.5
326.313	122.5
326.542	131.5
326.77	210.5
326.999	414.5
327.228	847.5
327.457	1514.5
327.686	1203.5
327.914	321.5
328.143	182.5
328.372	138.5
328.6	114.5
328.829	111.5
329.058	89.5
329.287	111.5
329.515	112.5
329.744	108.5
329.972	81.5
330.201	103.5
330.43	113.5
330.658	111.5
330.887	124.5
331.115	105.5
331.344	93.5
331.572	99.5
331.801	98.5
332.03	93.5
332.258	95.5
332.486	95.5
332.715	85.5
332.943	85.5
333.172	99.5
333.4	106.5
333.629	105.5
333.857	103.5
334.085	89.5
334.314	83.5
334.542	105.5
334.771	98.5
334.999	95.5
335.227	91.5
335.455	103.5
335.684	91.5
335.912	90.5
336.14	81.5
336.369	85.5
336.597	97.5
336.825	113.5
337.053	81.5
337.281	87.5
337.51	92.5
337.738	87.5
337.966	74.5
338.194	96.5
338.422	84.5
338.65	83.5
338.878	89.5
339.106	87.5
339.334	95.5
339.562	79.5
339.79	86.5
340.018	95.5
340.246	91.5
340.474	99.5
340.702	98.5
340.93	90.5
341.158	90.5
341.386	101.5
341.614	88.5
341.842	102.5
342.07	79.5
342.298	90.5
342.526	89.5
342.754	97.5
342.981	83.5
343.209	82.5
343.437	92.5
343.665	88.5
343.893	105.5
344.12	81.5
344.348	97.5
344.576	92.5
344.804	99.5
345.031	97.5
345.259	78.5
345.487	80.5
345.714	87.5
345.942	98.5
346.17	101.5
346.397	87.5
346.625	84.5
346.853	83.5
347.08	83.5
347.308	94.5
347.535	82.5
347.763	104.5
347.99	88.5
348.218	105.5
348.445	105.5
348.673	99.5
348.9	96.5
349.128	112.5
349.355	89.5
349.583	103.5
349.81	83.5
350.037	96.5
350.265	87.5
350.492	79.5
350.72	108.5
350.947	83.5
351.174	105.5
351.402	98.5
351.629	91.5
351.856	98.5
352.083	100.5
352.311	111.5
352.538	96.5
352.765	98.5
352.992	111.5
353.22	102.5
353.447	102.5
353.674	104.5
353.901	96.5
354.128	88.5
354.355	101.5
354.583	103.5
354.81	91.5
355.037	88.5
355.264	77.5
355.491	76.5
355.718	95.5
355.945	94.5
356.172	104.5
356.399	102.5
356.626	106.5
356.853	95.5
357.08	82.5
357.307	90.5
357.534	87.5
357.761	91.5
357.988	95.5
358.215	109.5
358.441	90.5
358.668	89.5
358.895	92.5
359.122	90.5
359.349	101.5
359.576	79.5
359.802	97.5
360.029	94.5
360.256	108.5
360.483	95.5
360.709	73.5
360.936	79.5
361.163	78.5
361.39	96.5
361.616	102.5
361.843	109.5
362.07	88.5
362.296	100.5
362.523	107.5
362.749	94.5
362.976	94.5
363.203	84.5
363.429	96.5
363.656	94.5
363.882	79.5
364.109	90.5
364.335	104.5
364.562	81.5
364.788	77.5
365.015	75.5
365.241	89.5
365.468	102.5
365.694	113.5
365.92	88.5
366.147	76.5
366.373	90.5
366.599	89.5
366.826	78.5
367.052	91.5
367.278	94.5
367.505	88.5
367.731	94.5
367.957	89.5
368.184	100.5
368.41	80.5
368.636	106.5
368.862	115.5
369.089	97.5
369.315	82.5
369.541	101.5
369.767	84.5
369.993	97.5
370.219	101.5
370.445	77.5
370.672	77.5
370.898	87.5
371.124	94.5
371.35	91.5
371.576	83.5
371.802	84.5
372.028	75.5
372.254	97.5
372.48	91.5
372.706	99.5
372.932	86.5
373.158	90.5
373.384	96.5
373.61	93.5
373.835	91.5
374.061	92.5
374.287	90.5
374.513	90.5
374.739	83.5
374.965	100.5
375.191	101.5
375.416	94.5
375.642	95.5
375.868	96.5
376.094	102.5
376.319	88.5
376.545	90.5
376.771	77.5
376.997	102.5
377.222	87.5
377.448	101.5
377.674	96.5
377.899	90.5
378.125	97.5
378.35	99.5
378.576	79.5
378.802	95.5
379.027	102.5
379.253	101.5
379.478	106.5
379.704	97.5
379.929	96.5
380.155	102.5
380.38	115.5
380.606	105.5
380.831	102.5
381.057	88.5
381.282	83.5
381.507	95.5
381.733	108.5
381.958	106.5
382.184	108.5
382.409	110.5
382.634	96.5
382.86	115.5
383.085	104.5
383.31	113.5
383.535	125.5
383.761	97.5
383.986	97.5
384.211	109.5
384.436	111.5
384.662	105.5
384.887	110.5
385.112	131.5
385.337	130.5
385.562	119.5
385.787	112.5
386.013	126.5
386.238	126.5
386.463	116.5
386.688	141.5
386.913	123.5
387.138	142.5
387.363	109.5
387.588	121.5
387.813	116.5
388.038	113.5
388.263	143.5
388.488	141.5
388.713	90.5
388.938	94.5
389.163	96.5
389.387	101.5
389.612	88.5
389.837	101.5
390.062	86.5
390.287	96.5
390.512	92.5
390.736	101.5
390.961	87.5
391.186	104.5
391.411	92.5
391.636	99.5
391.86	86.5
392.085	82.5
392.31	78.5
392.534	90.5
392.759	80.5
392.984	98.5
393.208	103.5
393.433	125.5
393.658	99.5
393.882	98.5
394.107	80.5
394.331	75.5
394.556	85.5
394.78	90.5
395.005	81.5
395.229	91.5
395.454	101.5
395.678	86.5
395.903	91.5
396.127	77.5
396.352	84.5
396.576	86.5
396.801	106.5
397.025	102.5
397.249	84.5
397.474	100.5
397.698	82.5
397.922	82.5
398.147	83.5
398.371	88.5
398.595	95.5
398.82	85.5
399.044	91.5
399.268	90.5
399.492	86.5
399.717	94.5
399.941	88.5
400.165	96.5
400.389	93.5
400.613	91.5
400.837	86.5
401.062	90.5
401.286	101.5
401.51	88.5
401.734	89.5
401.958	106.5
402.182	126.5
402.406	146.5
402.63	108.5
402.854	99.5
403.078	97.5
403.302	74.5
403.526	84.5
403.75	91.5
403.974	89.5
404.198	80.5
404.422	97.5
404.645	88.5
404.869	79.5
405.093	104.5
405.317	102.5
405.541	98.5
405.765	97.5
405.988	93.5
406.212	143.5
406.436	189.5
406.66	121.5
406.883	81.5
407.107	90.5
407.331	94.5
407.555	104.5
407.778	100.5
408.002	70.5
408.226	84.5
408.449	90.5
408.673	90.5
408.896	74.5
409.12	98.5
409.344	94.5
409.567	98.5
409.791	99.5
410.014	89.5
410.238	106.5
410.461	96.5
410.685	90.5
410.908	101.5
411.132	114.5
411.355	88.5
411.578	93.5
411.802	86.5
412.025	87.5
412.249	87.5
412.472	83.5
412.695	95.5
412.919	95.5
413.142	78.5
413.365	89.5
413.589	73.5
413.812	89.5
414.035	89.5
414.258	86.5
414.482	104.5
414.705	87.5
414.928	81.5
415.151	107.5
415.374	103.5
415.597	83.5
415.821	86.5
416.044	98.5
416.267	93.5
416.49	75.5
416.713	88.5
416.936	88.5
417.159	88.5
417.382	99.5
417.605	85.5
417.828	87.5
418.051	84.5
418.274	97.5
418.497	102.5
418.72	94.5
418.943	89.5
419.166	88.5
419.389	92.5
419.611	107.5
419.834	89.5
420.057	94.5
420.28	98.5
420.503	93.5
420.726	94.5
420.948	82.5
421.171	82.5
421.394	87.5
421.617	91.5
421.839	93.5
422.062	77.5
422.285	98.5
422.507	105.5
422.73	113.5
422.953	88.5
423.175	93.5
423.398	84.5
423.621	83.5
423.843	83.5
424.066	106.5
424.288	87.5
424.511	93.5
424.733	99.5
424.956	95.5
425.178	91.5
425.401	108.5
425.623	98.5
425.846	99.5
426.068	88.5
426.291	94.5
426.513	85.5
426.735	102.5
426.958	85.5
427.18	99.5
427.402	127.5
427.625	160.5
427.847	118.5
428.069	92.5
428.292	95.5
428.514	90.5
428.736	83.5
428.958	95.5
429.181	82.5
429.403	82.5
429.625	105.5
429.847	88.5
430.069	81.5
430.292	84.5
430.514	72.5
430.736	85.5
430.958	99.5
431.18	77.5
431.402	80.5
431.624	90.5
431.846	82.5
432.068	93.5
432.29	73.5
432.512	90.5
432.734	90.5
432.956	91.5
433.178	95.5
433.4	77.5
433.622	100.5
433.844	101.5
434.066	97.5
434.287	88.5
434.509	89.5
434.731	92.5
434.953	85.5
435.175	75.5
435.397	90.5
435.618	98.5
435.84	104.5
436.062	116.5
436.284	106.5
436.505	93.5
436.727	90.5
436.949	107.5
437.17	91.5
437.392	83.5
437.614	97.5
437.835	102.5
438.057	103.5
438.278	86.5
438.5	98.5
438.721	98.5
438.943	100.5
439.165	91.5
439.386	91.5
439.608	82.5
439.829	104.5
440.05	101.5
440.272	129.5
440.493	101.5
440.715	72.5
440.936	90.5
441.158	84.5
441.379	102.5
441.6	81.5
441.822	102.5
442.043	93.5
442.264	99.5
442.486	96.5
442.707	94.5
442.928	81.5
443.149	117.5
443.371	120.5
443.592	111.5
443.813	108.5
444.034	109.5
444.255	87.5
444.476	86.5
444.698	78.5
444.919	91.5
445.14	138.5
445.361	126.5
445.582	120.5
445.803	128.5
446.024	112.5
446.245	108.5
446.466	110.5
446.687	78.5
446.908	97.5
447.129	95.5
447.35	107.5
447.571	102.5
447.792	100.5
448.013	94.5
448.234	108.5
448.455	86.5
448.675	104.5
448.896	110.5
449.117	100.5
449.338	105.5
449.559	119.5
449.779	119.5
450	77.5
450.221	86.5
450.442	84.5
450.662	96.5
450.883	101.5
451.104	83.5
451.324	79.5
451.545	94.5
451.766	81.5
451.986	81.5
452.207	73.5
452.428	92.5
452.648	88.5
452.869	125.5
453.089	106.5
453.31	108.5
453.53	92.5
453.751	86.5
453.971	105.5
454.192	103.5
454.412	89.5
454.633	67.5
454.853	87.5
455.073	85.5
455.294	94.5
455.514	90.5
455.734	74.5
455.955	75.5
456.175	77.5
456.395	87.5
456.616	80.5
456.836	91.5
457.056	90.5
457.276	88.5
457.497	80.5
457.717	88.5
457.937	95.5
458.157	81.5
458.377	96.5
458.598	94.5
458.818	127.5
459.038	136.5
459.258	96.5
459.478	80.5
459.698	95.5
459.918	75.5
460.138	88.5
460.358	68.5
460.578	86.5
460.798	83.5
461.018	78.5
461.238	76.5
461.458	90.5
461.678	77.5
461.898	93.5
462.118	85.5
462.338	92.5
462.558	87.5
462.777	76.5
462.997	85.5
463.217	93.5
463.437	88.5
463.657	83.5
463.876	91.5
464.096	94.5
464.316	95.5
464.536	88.5
464.755	102.5
464.975	92.5
465.195	136.5
465.414	136.5
465.634	102.5
465.854	86.5
466.073	79.5
466.293	93.5
466.512	83.5
466.732	85.5
466.951	71.5
467.171	85.5
467.391	75.5
467.61	94.5
467.829	95.5
468.049	76.5
468.268	87.5
468.488	83.5
468.707	75.5
468.927	78.5
469.146	85.5
469.365	91.5
469.585	95.5
469.804	84.5
470.023	96.5
470.243	91.5
470.462	96.5
470.681	105.5
470.901	102.5
471.12	83.5
471.339	93.5
471.558	83.5
471.777	88.5
471.997	96.5
472.216	82.5
472.435	78.5
472.654	84.5
472.873	82.5
473.092	86.5
473.311	90.5
473.53	97.5
473.749	93.5
473.968	91.5
474.187	102.5
474.406	93.5
474.625	84.5
474.844	92.5
475.063	96.5
475.282	90.5
475.501	90.5
475.72	101.5
475.939	85.5
476.158	88.5
476.377	78.5
476.596	96.5
476.814	107.5
477.033	86.5
477.252	94.5
477.471	73.5
477.69	80.5
477.908	81.5
478.127	77.5
478.346	99.5
478.564	91.5
478.783	87.5
479.002	96.5
479.22	93.5
479.439	102.5
479.658	85.5
479.876	82.5
480.095	83.5
480.313	96.5
480.532	85.5
480.751	81.5
480.969	79.5
481.188	112.5
481.406	110.5
481.624	88.5
481.843	83.5
482.061	89.5
482.28	74.5
482.498	72.5
482.717	91.5
482.935	89.5
483.153	89.5
483.372	94.5
483.59	98.5
483.808	100.5
484.027	86.5
484.245	82.5
484.463	81.5
484.681	97.5
484.9	96.5
485.118	101.5
485.336	99.5
485.554	93.5
485.772	97.5
485.99	95.5
486.209	114.5
486.427	99.5
486.645	115.5
486.863	107.5
487.081	100.5
487.299	93.5
487.517	108.5
487.735	99.5
487.953	90.5
488.171	96.5
488.389	84.5
488.607	90.5
488.825	91.5
489.043	109.5
489.261	95.5
489.479	89.5
489.696	94.5
489.914	81.5
490.132	81.5
490.35	89.5
490.568	82.5
490.786	101.5
491.003	94.5
491.221	86.5
491.439	89.5
491.657	90.5
491.874	102.5
492.092	94.5
492.31	90.5
492.527	79.5
492.745	83.5
492.963	77.5
493.18	79.5
493.398	73.5
493.615	88.5
493.833	99.5
494.05	94.5
494.268	96.5
494.485	91.5
494.703	90.5
494.92	96.5
495.138	88.5
495.355	85.5
495.573	91.5
495.79	83.5
496.008	78.5
496.225	72.5
496.442	82.5
496.66	95.5
496.877	106.5
497.094	101.5
497.312	110.5
497.529	98.5
497.746	79.5
497.963	86.5
498.181	88.5
498.398	93.5
498.615	117.5
498.832	89.5
499.049	74.5
499.267	79.5
499.484	98.5
499.701	100.5
499.918	85.5
500.135	92.5
500.352	87.5
500.569	97.5
500.786	95.5
501.003	98.5
501.22	99.5
501.437	87.5
501.654	88.5
501.871	91.5
502.088	97.5
502.305	94.5
502.522	87.5
502.739	93.5
502.956	83.5
503.172	97.5
503.389	102.5
503.606	87.5
503.823	100.5
504.04	110.5
504.256	89.5
504.473	95.5
504.69	97.5
504.907	99.5
505.123	84.5
505.34	99.5
505.557	90.5
505.773	88.5
505.99	97.5
506.207	89.5
506.423	80.5
506.64	95.5
506.856	87.5
507.073	83.5
507.289	82.5
507.506	88.5
507.722	102.5
507.939	105.5
508.155	96.5
508.372	87.5
508.588	90.5
508.805	106.5
509.021	98.5
509.238	102.5
509.454	89.5
509.67	93.5
509.887	87.5
510.103	122.5
510.319	199.5
510.536	647.5
510.752	2027.5
510.968	578.5
511.184	145.5
511.401	103.5
511.617	91.5
511.833	85.5
512.049	95.5
512.265	102.5
512.481	87.5
512.698	93.5
512.914	95.5
513.13	96.5
513.346	88.5
513.562	93.5
513.778	105.5
513.994	94.5
514.21	87.5
514.426	104.5
514.642	127.5
514.858	122.5
515.074	144.5
515.29	357.5
515.506	1141.5
515.721	462.5
515.937	129.5
516.153	105.5
516.369	87.5
516.585	85.5
516.801	98.5
517.016	79.5
517.232	82.5
517.448	70.5
517.664	81.5
517.879	85.5
518.095	96.5
518.311	93.5
518.527	94.5
518.742	85.5
518.958	92.5
519.173	83.5
519.389	95.5
519.605	83.5
519.82	98.5
520.036	111.5
520.251	100.5
520.467	101.5
520.682	100.5
520.898	106.5
521.113	98.5
521.329	129.5
521.544	181.5
521.76	452.5
521.975	1857.5
522.19	1165.5
522.406	273.5
522.621	115.5
522.836	110.5
523.052	90.5
523.267	93.5
523.482	93.5
523.698	95.5
523.913	108.5
524.128	110.5
524.343	95.5
524.559	98.5
524.774	96.5
524.989	89.5
525.204	101.5
525.419	89.5
525.634	85.5
525.849	97.5
526.064	94.5
526.28	90.5
526.495	84.5
526.71	83.5
526.925	97.5
527.14	96.5
527.355	87.5
527.57	89.5
527.785	96.5
527.999	82.5
528.214	91.5
528.429	80.5
528.644	94.5
528.859	86.5
529.074	95.5
529.289	118.5
529.503	143.5
529.718	118.5
529.933	77.5
530.148	93.5
530.363	94.5
530.577	84.5
530.792	95.5
531.007	80.5
531.221	86.5
531.436	86.5
531.651	78.5
531.865	89.5
532.08	90.5
532.295	86.5
532.509	82.5
532.724	101.5
532.938	97.5
533.153	98.5
533.367	94.5
533.582	77.5
533.796	81.5
534.011	93.5
534.225	88.5
534.44	98.5
534.654	85.5
534.868	85.5
535.083	94.5
535.297	89.5
535.511	93.5
535.726	89.5
535.94	106.5
