Data from TenMicroDelayPb_HRD10591_00001.txt Node
Date: Mon Nov 24 14:55:43 EST 2025
User: Yrep
Spectrometer: HR+D1059
Trigger mode: 5
Integration Time (sec): 1.000000E-3
Scans to average: 1
Electric dark correction enabled: true
Nonlinearity correction enabled: false
Boxcar width: 0
XAxis mode: Wavelengths
Number of Pixels in Spectrum: 2048
>>>>>Begin Spectral Data<<<<<
223.165	-38.38
223.4	-38.38
223.635	-38.38
223.869	-31.38
224.104	-20.38
224.338	-3.38
224.573	-7.38
224.808	-9.38
225.042	-12.38
225.277	1.62
225.511	-14.38
225.746	14.62
225.98	9.62
226.215	9.62
226.449	16.62
226.683	22.62
226.918	29.62
227.152	32.62
227.387	30.62
227.621	29.62
227.856	57.62
228.09	37.62
228.324	40.62
228.559	77.62
228.793	62.62
229.027	65.62
229.262	76.62
229.496	90.62
229.73	79.62
229.964	66.62
230.199	76.62
230.433	80.62
230.667	84.62
230.901	95.62
231.136	90.62
231.37	91.62
231.604	81.62
231.838	82.62
232.072	99.62
232.306	94.62
232.541	109.62
232.775	103.62
233.009	89.62
233.243	98.62
233.477	98.62
233.711	93.62
233.945	102.62
234.179	84.62
234.413	96.62
234.647	104.62
234.881	78.62
235.115	105.62
235.349	84.62
235.583	96.62
235.817	91.62
236.051	85.62
236.285	75.62
236.519	83.62
236.753	90.62
236.987	95.62
237.221	82.62
237.455	108.62
237.689	104.62
237.922	88.62
238.156	77.62
238.39	91.62
238.624	91.62
238.858	89.62
239.091	100.62
239.325	96.62
239.559	90.62
239.793	95.62
240.027	97.62
240.26	93.62
240.494	98.62
240.728	90.62
240.961	93.62
241.195	116.62
241.429	95.62
241.662	100.62
241.896	86.62
242.13	97.62
242.363	94.62
242.597	73.62
242.83	94.62
243.064	86.62
243.298	99.62
243.531	98.62
243.765	100.62
243.998	90.62
244.232	109.62
244.465	100.62
244.699	98.62
244.932	96.62
245.166	93.62
245.399	95.62
245.633	81.62
245.866	90.62
246.099	92.62
246.333	83.62
246.566	93.62
246.8	92.62
247.033	90.62
247.266	94.62
247.5	107.62
247.733	110.62
247.966	95.62
248.2	101.62
248.433	94.62
248.666	99.62
248.899	96.62
249.133	107.62
249.366	126.62
249.599	85.62
249.832	82.62
250.066	117.62
250.299	90.62
250.532	92.62
250.765	105.62
250.998	116.62
251.231	97.62
251.465	109.62
251.698	76.62
251.931	91.62
252.164	105.62
252.397	108.62
252.63	108.62
252.863	114.62
253.096	102.62
253.329	107.62
253.562	121.62
253.795	119.62
254.028	107.62
254.261	112.62
254.494	116.62
254.727	113.62
254.96	104.62
255.193	108.62
255.426	97.62
255.659	108.62
255.892	117.62
256.124	99.62
256.357	112.62
256.59	119.62
256.823	117.62
257.056	101.62
257.289	99.62
257.521	129.62
257.754	119.62
257.987	123.62
258.22	119.62
258.452	121.62
258.685	102.62
258.918	102.62
259.151	105.62
259.383	112.62
259.616	104.62
259.849	109.62
260.081	131.62
260.314	110.62
260.547	112.62
260.779	118.62
261.012	138.62
261.244	134.62
261.477	181.62
261.71	159.62
261.942	134.62
262.175	139.62
262.407	123.62
262.64	120.62
262.872	120.62
263.105	128.62
263.337	130.62
263.57	121.62
263.802	113.62
264.035	107.62
264.267	123.62
264.499	119.62
264.732	130.62
264.964	120.62
265.197	137.62
265.429	116.62
265.661	102.62
265.894	106.62
266.126	140.62
266.358	138.62
266.591	143.62
266.823	141.62
267.055	110.62
267.287	104.62
267.52	116.62
267.752	122.62
267.984	112.62
268.216	114.62
268.448	118.62
268.681	128.62
268.913	117.62
269.145	112.62
269.377	131.62
269.609	104.62
269.841	129.62
270.073	117.62
270.306	112.62
270.538	118.62
270.77	94.62
271.002	114.62
271.234	109.62
271.466	142.62
271.698	119.62
271.93	122.62
272.162	107.62
272.394	131.62
272.626	123.62
272.858	109.62
273.09	112.62
273.322	121.62
273.553	101.62
273.785	123.62
274.017	110.62
274.249	117.62
274.481	115.62
274.713	106.62
274.945	109.62
275.176	114.62
275.408	116.62
275.64	129.62
275.872	121.62
276.104	135.62
276.335	124.62
276.567	110.62
276.799	117.62
277.031	129.62
277.262	120.62
277.494	125.62
277.726	115.62
277.957	125.62
278.189	122.62
278.421	111.62
278.652	106.62
278.884	141.62
279.115	148.62
279.347	143.62
279.579	148.62
279.81	174.62
280.042	198.62
280.273	202.62
280.505	190.62
280.736	145.62
280.968	173.62
281.199	152.62
281.431	146.62
281.662	149.62
281.894	138.62
282.125	144.62
282.356	158.62
282.588	161.62
282.819	152.62
283.051	159.62
283.282	157.62
283.513	180.62
283.745	189.62
283.976	150.62
284.207	132.62
284.439	127.62
284.67	142.62
284.901	136.62
285.132	140.62
285.364	129.62
285.595	146.62
285.826	126.62
286.057	126.62
286.288	110.62
286.52	145.62
286.751	139.62
286.982	141.62
287.213	157.62
287.444	156.62
287.675	156.62
287.906	133.62
288.138	137.62
288.369	134.62
288.6	130.62
288.831	122.62
289.062	131.62
289.293	130.62
289.524	120.62
289.755	119.62
289.986	118.62
290.217	126.62
290.448	129.62
290.679	131.62
290.91	144.62
291.141	113.62
291.371	127.62
291.602	113.62
291.833	135.62
292.064	122.62
292.295	139.62
292.526	128.62
292.757	120.62
292.987	134.62
293.218	116.62
293.449	118.62
293.68	112.62
293.91	126.62
294.141	142.62
294.372	130.62
294.603	109.62
294.833	130.62
295.064	133.62
295.295	128.62
295.525	138.62
295.756	138.62
295.987	130.62
296.217	125.62
296.448	125.62
296.679	114.62
296.909	143.62
297.14	137.62
297.37	145.62
297.601	123.62
297.831	119.62
298.062	138.62
298.292	138.62
298.523	124.62
298.753	135.62
298.984	124.62
299.214	135.62
299.445	129.62
299.675	136.62
299.905	122.62
300.136	127.62
300.366	133.62
300.597	129.62
300.827	129.62
301.057	136.62
301.288	123.62
301.518	136.62
301.748	127.62
301.979	190.62
302.209	128.62
302.439	119.62
302.669	129.62
302.9	142.62
303.13	137.62
303.36	120.62
303.59	128.62
303.82	125.62
304.051	132.62
304.281	124.62
304.511	150.62
304.741	135.62
304.971	111.62
305.201	139.62
305.431	127.62
305.661	114.62
305.891	113.62
306.121	132.62
306.352	131.62
306.582	134.62
306.812	128.62
307.042	123.62
307.272	129.62
307.502	138.62
307.731	137.62
307.961	141.62
308.191	127.62
308.421	137.62
308.651	139.62
308.881	130.62
309.111	133.62
309.341	135.62
309.571	124.62
309.8	136.62
310.03	141.62
310.26	128.62
310.49	128.62
310.72	108.62
310.949	140.62
311.179	149.62
311.409	136.62
311.639	120.62
311.868	140.62
312.098	137.62
312.328	137.62
312.557	144.62
312.787	136.62
313.017	138.62
313.246	147.62
313.476	146.62
313.706	137.62
313.935	133.62
314.165	137.62
314.394	141.62
314.624	138.62
314.853	173.62
315.083	145.62
315.312	147.62
315.542	149.62
315.771	134.62
316.001	162.62
316.23	147.62
316.46	140.62
316.689	140.62
316.919	146.62
317.148	134.62
317.377	168.62
317.607	154.62
317.836	148.62
318.065	149.62
318.295	141.62
318.524	140.62
318.753	153.62
318.983	154.62
319.212	150.62
319.441	128.62
319.67	138.62
319.9	146.62
320.129	158.62
320.358	141.62
320.587	133.62
320.816	145.62
321.046	141.62
321.275	139.62
321.504	131.62
321.733	136.62
321.962	147.62
322.191	121.62
322.42	138.62
322.649	134.62
322.878	155.62
323.108	141.62
323.337	133.62
323.566	138.62
323.795	140.62
324.024	133.62
324.253	149.62
324.482	147.62
324.71	136.62
324.939	145.62
325.168	130.62
325.397	130.62
325.626	138.62
325.855	122.62
326.084	133.62
326.313	135.62
326.542	124.62
326.77	153.62
326.999	132.62
327.228	142.62
327.457	139.62
327.686	135.62
327.914	150.62
328.143	148.62
328.372	132.62
328.6	130.62
328.829	130.62
329.058	136.62
329.287	133.62
329.515	139.62
329.744	152.62
329.972	117.62
330.201	122.62
330.43	129.62
330.658	140.62
330.887	153.62
331.115	152.62
331.344	149.62
331.572	147.62
331.801	134.62
332.03	130.62
332.258	138.62
332.486	142.62
332.715	140.62
332.943	132.62
333.172	141.62
333.4	128.62
333.629	151.62
333.857	130.62
334.085	154.62
334.314	146.62
334.542	130.62
334.771	126.62
334.999	141.62
335.227	131.62
335.455	143.62
335.684	140.62
335.912	140.62
336.14	138.62
336.369	137.62
336.597	144.62
336.825	147.62
337.053	123.62
337.281	142.62
337.51	142.62
337.738	149.62
337.966	138.62
338.194	127.62
338.422	134.62
338.65	136.62
338.878	151.62
339.106	138.62
339.334	156.62
339.562	133.62
339.79	158.62
340.018	142.62
340.246	142.62
340.474	136.62
340.702	126.62
340.93	142.62
341.158	142.62
341.386	152.62
341.614	122.62
341.842	130.62
342.07	133.62
342.298	130.62
342.526	139.62
342.754	128.62
342.981	139.62
343.209	136.62
343.437	177.62
343.665	144.62
343.893	135.62
344.12	154.62
344.348	133.62
344.576	145.62
344.804	137.62
345.031	147.62
345.259	139.62
345.487	148.62
345.714	147.62
345.942	140.62
346.17	145.62
346.397	132.62
346.625	138.62
346.853	133.62
347.08	122.62
347.308	128.62
347.535	134.62
347.763	135.62
347.99	152.62
348.218	149.62
348.445	138.62
348.673	132.62
348.9	136.62
349.128	135.62
349.355	121.62
349.583	150.62
349.81	112.62
350.037	133.62
350.265	134.62
350.492	122.62
350.72	140.62
350.947	138.62
351.174	139.62
351.402	141.62
351.629	140.62
351.856	149.62
352.083	139.62
352.311	141.62
352.538	133.62
352.765	145.62
352.992	162.62
353.22	153.62
353.447	143.62
353.674	136.62
353.901	134.62
354.128	154.62
354.355	140.62
354.583	145.62
354.81	146.62
355.037	148.62
355.264	147.62
355.491	140.62
355.718	137.62
355.945	147.62
356.172	146.62
356.399	143.62
356.626	162.62
356.853	178.62
357.08	208.62
357.307	233.62
357.534	245.62
357.761	220.62
357.988	202.62
358.215	197.62
358.441	165.62
358.668	147.62
358.895	166.62
359.122	154.62
359.349	149.62
359.576	157.62
359.802	151.62
360.029	147.62
360.256	167.62
360.483	150.62
360.709	162.62
360.936	174.62
361.163	152.62
361.39	156.62
361.616	153.62
361.843	152.62
362.07	147.62
362.296	168.62
362.523	147.62
362.749	148.62
362.976	149.62
363.203	176.62
363.429	166.62
363.656	222.62
363.882	253.62
364.109	304.62
364.335	260.62
364.562	222.62
364.788	163.62
365.015	166.62
365.241	174.62
365.468	178.62
365.694	144.62
365.92	156.62
366.147	146.62
366.373	174.62
366.599	160.62
366.826	163.62
367.052	188.62
367.278	198.62
367.505	190.62
367.731	248.62
367.957	244.62
368.184	284.62
368.41	335.62
368.636	316.62
368.862	245.62
369.089	221.62
369.315	185.62
369.541	176.62
369.767	181.62
369.993	161.62
370.219	153.62
370.445	146.62
370.672	163.62
370.898	152.62
371.124	149.62
371.35	154.62
371.576	152.62
371.802	143.62
372.028	150.62
372.254	160.62
372.48	166.62
372.706	158.62
372.932	164.62
373.158	164.62
373.384	187.62
373.61	178.62
373.835	230.62
374.061	262.62
374.287	273.62
374.513	211.62
374.739	184.62
374.965	159.62
375.191	160.62
375.416	168.62
375.642	171.62
375.868	168.62
376.094	163.62
376.319	144.62
376.545	140.62
376.771	141.62
376.997	146.62
377.222	129.62
377.448	142.62
377.674	145.62
377.899	160.62
378.125	154.62
378.35	142.62
378.576	154.62
378.802	145.62
379.027	158.62
379.253	148.62
379.478	158.62
379.704	140.62
379.929	144.62
380.155	131.62
380.38	141.62
380.606	139.62
380.831	141.62
381.057	167.62
381.282	149.62
381.507	136.62
381.733	144.62
381.958	159.62
382.184	153.62
382.409	138.62
382.634	160.62
382.86	126.62
383.085	177.62
383.31	150.62
383.535	146.62
383.761	163.62
383.986	149.62
384.211	143.62
384.436	153.62
384.662	158.62
384.887	144.62
385.112	154.62
385.337	134.62
385.562	144.62
385.787	163.62
386.013	159.62
386.238	140.62
386.463	133.62
386.688	210.62
386.913	156.62
387.138	148.62
387.363	150.62
387.588	148.62
387.813	139.62
388.038	168.62
388.263	148.62
388.488	147.62
388.713	148.62
388.938	149.62
389.163	148.62
389.387	141.62
389.612	151.62
389.837	169.62
390.062	155.62
390.287	150.62
390.512	158.62
390.736	156.62
390.961	148.62
391.186	153.62
391.411	138.62
391.636	143.62
391.86	154.62
392.085	154.62
392.31	153.62
392.534	154.62
392.759	171.62
392.984	144.62
393.208	160.62
393.433	147.62
393.658	144.62
393.882	147.62
394.107	168.62
394.331	155.62
394.556	149.62
394.78	152.62
395.005	154.62
395.229	146.62
395.454	161.62
395.678	150.62
395.903	147.62
396.127	165.62
396.352	148.62
396.576	142.62
396.801	150.62
397.025	153.62
397.249	145.62
397.474	165.62
397.698	153.62
397.922	168.62
398.147	143.62
398.371	153.62
398.595	151.62
398.82	139.62
399.044	157.62
399.268	159.62
399.492	152.62
399.717	175.62
399.941	152.62
400.165	160.62
400.389	158.62
400.613	164.62
400.837	159.62
401.062	181.62
401.286	163.62
401.51	172.62
401.734	184.62
401.958	183.62
402.182	195.62
402.406	161.62
402.63	167.62
402.854	161.62
403.078	177.62
403.302	177.62
403.526	171.62
403.75	172.62
403.974	172.62
404.198	193.62
404.422	181.62
404.645	187.62
404.869	204.62
405.093	225.62
405.317	257.62
405.541	325.62
405.765	442.62
405.988	506.62
406.212	388.62
406.436	339.62
406.66	276.62
406.883	241.62
407.107	203.62
407.331	199.62
407.555	187.62
407.778	208.62
408.002	183.62
408.226	194.62
408.449	203.62
408.673	189.62
408.896	186.62
409.12	172.62
409.344	155.62
409.567	168.62
409.791	196.62
410.014	192.62
410.238	168.62
410.461	170.62
410.685	190.62
410.908	187.62
411.132	184.62
411.355	180.62
411.578	190.62
411.802	180.62
412.025	169.62
412.249	170.62
412.472	170.62
412.695	190.62
412.919	168.62
413.142	168.62
413.365	173.62
413.589	172.62
413.812	164.62
414.035	185.62
414.258	171.62
414.482	160.62
414.705	177.62
414.928	190.62
415.151	161.62
415.374	151.62
415.597	178.62
415.821	180.62
416.044	181.62
416.267	169.62
416.49	166.62
416.713	184.62
416.936	184.62
417.159	187.62
417.382	183.62
417.605	164.62
417.828	174.62
418.051	174.62
418.274	195.62
418.497	185.62
418.72	153.62
418.943	169.62
419.166	171.62
419.389	174.62
419.611	173.62
419.834	165.62
420.057	186.62
420.28	170.62
420.503	172.62
420.726	188.62
420.948	168.62
421.171	161.62
421.394	192.62
421.617	177.62
421.839	165.62
422.062	199.62
422.285	174.62
422.507	168.62
422.73	162.62
422.953	187.62
423.175	176.62
423.398	193.62
423.621	211.62
423.843	213.62
424.066	228.62
424.288	226.62
424.511	263.62
424.733	282.62
424.956	268.62
425.178	252.62
425.401	222.62
425.623	211.62
425.846	205.62
426.068	197.62
426.291	191.62
426.513	208.62
426.735	208.62
426.958	200.62
427.18	183.62
427.402	200.62
427.625	202.62
427.847	202.62
428.069	181.62
428.292	173.62
428.514	218.62
428.736	166.62
428.958	178.62
429.181	202.62
429.403	171.62
429.625	174.62
429.847	178.62
430.069	173.62
430.292	174.62
430.514	175.62
430.736	170.62
430.958	187.62
431.18	176.62
431.402	180.62
431.624	166.62
431.846	158.62
432.068	158.62
432.29	167.62
432.512	185.62
432.734	174.62
432.956	172.62
433.178	197.62
433.4	176.62
433.622	182.62
433.844	179.62
434.066	173.62
434.287	170.62
434.509	170.62
434.731	179.62
434.953	188.62
435.175	186.62
435.397	175.62
435.618	173.62
435.84	180.62
436.062	169.62
436.284	184.62
436.505	190.62
436.727	182.62
436.949	178.62
437.17	174.62
437.392	178.62
437.614	185.62
437.835	177.62
438.057	195.62
438.278	214.62
438.5	220.62
438.721	254.62
438.943	261.62
439.165	248.62
439.386	247.62
439.608	262.62
439.829	228.62
440.05	225.62
440.272	222.62
440.493	231.62
440.715	219.62
440.936	243.62
441.158	248.62
441.379	219.62
441.6	215.62
441.822	205.62
442.043	229.62
442.264	216.62
442.486	202.62
442.707	194.62
442.928	201.62
443.149	204.62
443.371	195.62
443.592	196.62
443.813	200.62
444.034	192.62
444.255	192.62
444.476	183.62
444.698	204.62
444.919	202.62
445.14	491.62
445.361	334.62
445.582	208.62
445.803	197.62
446.024	193.62
446.245	207.62
446.466	196.62
446.687	205.62
446.908	205.62
447.129	210.62
447.35	194.62
447.571	201.62
447.792	196.62
448.013	184.62
448.234	182.62
448.455	187.62
448.675	208.62
448.896	168.62
449.117	185.62
449.338	176.62
449.559	210.62
449.779	196.62
450	174.62
450.221	182.62
450.442	189.62
450.662	194.62
450.883	177.62
451.104	186.62
451.324	160.62
451.545	174.62
451.766	176.62
451.986	168.62
452.207	182.62
452.428	179.62
452.648	158.62
452.869	176.62
453.089	155.62
453.31	175.62
453.53	164.62
453.751	169.62
453.971	165.62
454.192	142.62
454.412	157.62
454.633	161.62
454.853	156.62
455.073	164.62
455.294	168.62
455.514	180.62
455.734	162.62
455.955	162.62
456.175	144.62
456.395	164.62
456.616	171.62
456.836	158.62
457.056	159.62
457.276	151.62
457.497	148.62
457.717	149.62
457.937	145.62
458.157	162.62
458.377	153.62
458.598	141.62
458.818	128.62
459.038	152.62
459.258	151.62
459.478	171.62
459.698	150.62
459.918	151.62
460.138	164.62
460.358	174.62
460.578	180.62
460.798	165.62
461.018	182.62
461.238	169.62
461.458	157.62
461.678	165.62
461.898	166.62
462.118	164.62
462.338	195.62
462.558	172.62
462.777	157.62
462.997	173.62
463.217	159.62
463.437	173.62
463.657	153.62
463.876	175.62
464.096	153.62
464.316	164.62
464.536	163.62
464.755	171.62
464.975	157.62
465.195	184.62
465.414	160.62
465.634	154.62
465.854	171.62
466.073	171.62
466.293	172.62
466.512	149.62
466.732	163.62
466.951	146.62
467.171	162.62
467.391	176.62
467.61	173.62
467.829	161.62
468.049	154.62
468.268	158.62
468.488	178.62
468.707	166.62
468.927	166.62
469.146	169.62
469.365	168.62
469.585	187.62
469.804	173.62
470.023	154.62
470.243	174.62
470.462	186.62
470.681	169.62
470.901	165.62
471.12	170.62
471.339	192.62
471.558	160.62
471.777	162.62
471.997	158.62
472.216	174.62
472.435	139.62
472.654	154.62
472.873	165.62
473.092	166.62
473.311	172.62
473.53	159.62
473.749	165.62
473.968	195.62
474.187	169.62
474.406	166.62
474.625	160.62
474.844	188.62
475.063	163.62
475.282	160.62
475.501	162.62
475.72	196.62
475.939	172.62
476.158	160.62
476.377	179.62
476.596	172.62
476.814	179.62
477.033	169.62
477.252	164.62
477.471	164.62
477.69	181.62
477.908	186.62
478.127	206.62
478.346	176.62
478.564	181.62
478.783	175.62
479.002	187.62
479.22	175.62
479.439	202.62
479.658	174.62
479.876	171.62
480.095	162.62
480.313	171.62
480.532	190.62
480.751	176.62
480.969	157.62
481.188	161.62
481.406	189.62
481.624	177.62
481.843	157.62
482.061	175.62
482.28	169.62
482.498	174.62
482.717	156.62
482.935	173.62
483.153	182.62
483.372	181.62
483.59	174.62
483.808	170.62
484.027	182.62
484.245	189.62
484.463	181.62
484.681	217.62
484.9	187.62
485.118	197.62
485.336	189.62
485.554	181.62
485.772	161.62
485.99	186.62
486.209	188.62
486.427	157.62
486.645	176.62
486.863	187.62
487.081	184.62
487.299	185.62
487.517	177.62
487.735	192.62
487.953	222.62
488.171	202.62
488.389	219.62
488.607	186.62
488.825	169.62
489.043	193.62
489.261	192.62
489.479	190.62
489.696	192.62
489.914	193.62
490.132	198.62
490.35	188.62
490.568	197.62
490.786	197.62
491.003	192.62
491.221	196.62
491.439	197.62
491.657	224.62
491.874	216.62
492.092	227.62
492.31	225.62
492.527	212.62
492.745	216.62
492.963	215.62
493.18	219.62
493.398	218.62
493.615	212.62
493.833	210.62
494.05	213.62
494.268	197.62
494.485	208.62
494.703	202.62
494.92	190.62
495.138	221.62
495.355	217.62
495.573	223.62
495.79	195.62
496.008	199.62
496.225	206.62
496.442	198.62
496.66	221.62
496.877	203.62
497.094	218.62
497.312	215.62
497.529	231.62
497.746	193.62
497.963	203.62
498.181	184.62
498.398	188.62
498.615	190.62
498.832	185.62
499.049	206.62
499.267	232.62
499.484	192.62
499.701	225.62
499.918	221.62
500.135	222.62
500.352	242.62
500.569	250.62
500.786	261.62
501.003	273.62
501.22	246.62
501.437	237.62
501.654	224.62
501.871	206.62
502.088	214.62
502.305	219.62
502.522	212.62
502.739	209.62
502.956	222.62
503.172	220.62
503.389	193.62
503.606	206.62
