Data from TenMicroDelayPb_HRD10591_00010.txt Node
Date: Mon Nov 24 14:55:48 EST 2025
User: Yrep
Spectrometer: HR+D1059
Trigger mode: 5
Integration Time (sec): 1.000000E-3
Scans to average: 1
Electric dark correction enabled: true
Nonlinearity correction enabled: false
Boxcar width: 0
XAxis mode: Wavelengths
Number of Pixels in Spectrum: 2048
>>>>>Begin Spectral Data<<<<<
223.165	-27.5
223.4	-27.5
223.635	-27.5
223.869	-26.5
224.104	-23.5
224.338	-10.5
224.573	-13.5
224.808	-21.5
225.042	-6.5
225.277	3.5
225.511	-6.5
225.746	11.5
225.98	19.5
226.215	12.5
226.449	8.5
226.683	17.5
226.918	33.5
227.152	29.5
227.387	37.5
227.621	48.5
227.856	46.5
228.09	49.5
228.324	45.5
228.559	74.5
228.793	63.5
229.027	85.5
229.262	92.5
229.496	72.5
229.73	81.5
229.964	84.5
230.199	87.5
230.433	90.5
230.667	96.5
230.901	66.5
231.136	98.5
231.37	82.5
231.604	79.5
231.838	78.5
232.072	87.5
232.306	98.5
232.541	89.5
232.775	84.5
233.009	96.5
233.243	80.5
233.477	87.5
233.711	87.5
233.945	95.5
234.179	89.5
234.413	87.5
234.647	97.5
234.881	86.5
235.115	89.5
235.349	105.5
235.583	97.5
235.817	96.5
236.051	74.5
236.285	89.5
236.519	89.5
236.753	99.5
236.987	105.5
237.221	83.5
237.455	99.5
237.689	93.5
237.922	96.5
238.156	83.5
238.39	100.5
238.624	82.5
238.858	95.5
239.091	101.5
239.325	103.5
239.559	99.5
239.793	97.5
240.027	99.5
240.26	86.5
240.494	97.5
240.728	108.5
240.961	90.5
241.195	97.5
241.429	105.5
241.662	107.5
241.896	85.5
242.13	102.5
242.363	97.5
242.597	84.5
242.83	98.5
243.064	99.5
243.298	90.5
243.531	107.5
243.765	103.5
243.998	116.5
244.232	112.5
244.465	92.5
244.699	89.5
244.932	106.5
245.166	117.5
245.399	93.5
245.633	94.5
245.866	100.5
246.099	72.5
246.333	86.5
246.566	92.5
246.8	108.5
247.033	94.5
247.266	87.5
247.5	95.5
247.733	93.5
247.966	97.5
248.2	112.5
248.433	91.5
248.666	113.5
248.899	96.5
249.133	104.5
249.366	117.5
249.599	98.5
249.832	109.5
250.066	108.5
250.299	95.5
250.532	109.5
250.765	87.5
250.998	89.5
251.231	112.5
251.465	109.5
251.698	106.5
251.931	93.5
252.164	106.5
252.397	105.5
252.63	114.5
252.863	115.5
253.096	100.5
253.329	115.5
253.562	110.5
253.795	98.5
254.028	120.5
254.261	112.5
254.494	107.5
254.727	107.5
254.96	118.5
255.193	105.5
255.426	107.5
255.659	117.5
255.892	144.5
256.124	104.5
256.357	106.5
256.59	125.5
256.823	94.5
257.056	113.5
257.289	123.5
257.521	124.5
257.754	117.5
257.987	111.5
258.22	132.5
258.452	119.5
258.685	100.5
258.918	119.5
259.151	94.5
259.383	122.5
259.616	109.5
259.849	116.5
260.081	114.5
260.314	131.5
260.547	133.5
260.779	121.5
261.012	127.5
261.244	145.5
261.477	171.5
261.71	158.5
261.942	147.5
262.175	126.5
262.407	129.5
262.64	128.5
262.872	113.5
263.105	127.5
263.337	133.5
263.57	128.5
263.802	128.5
264.035	121.5
264.267	109.5
264.499	116.5
264.732	117.5
264.964	135.5
265.197	126.5
265.429	134.5
265.661	120.5
265.894	126.5
266.126	134.5
266.358	137.5
266.591	127.5
266.823	143.5
267.055	111.5
267.287	112.5
267.52	104.5
267.752	114.5
267.984	114.5
268.216	131.5
268.448	119.5
268.681	119.5
268.913	123.5
269.145	100.5
269.377	108.5
269.609	105.5
269.841	107.5
270.073	128.5
270.306	129.5
270.538	116.5
270.77	100.5
271.002	99.5
271.234	121.5
271.466	119.5
271.698	120.5
271.93	102.5
272.162	125.5
272.394	113.5
272.626	114.5
272.858	105.5
273.09	122.5
273.322	118.5
273.553	107.5
273.785	124.5
274.017	115.5
274.249	119.5
274.481	110.5
274.713	115.5
274.945	123.5
275.176	100.5
275.408	116.5
275.64	123.5
275.872	122.5
276.104	127.5
276.335	133.5
276.567	125.5
276.799	120.5
277.031	120.5
277.262	128.5
277.494	133.5
277.726	127.5
277.957	130.5
278.189	111.5
278.421	131.5
278.652	132.5
278.884	154.5
279.115	153.5
279.347	160.5
279.579	152.5
279.81	173.5
280.042	213.5
280.273	219.5
280.505	205.5
280.736	175.5
280.968	167.5
281.199	148.5
281.431	148.5
281.662	139.5
281.894	150.5
282.125	151.5
282.356	160.5
282.588	155.5
282.819	157.5
283.051	161.5
283.282	168.5
283.513	217.5
283.745	199.5
283.976	144.5
284.207	148.5
284.439	152.5
284.67	133.5
284.901	139.5
285.132	124.5
285.364	139.5
285.595	122.5
285.826	130.5
286.057	146.5
286.288	141.5
286.52	139.5
286.751	145.5
286.982	155.5
287.213	152.5
287.444	179.5
287.675	165.5
287.906	158.5
288.138	128.5
288.369	121.5
288.6	132.5
288.831	118.5
289.062	137.5
289.293	123.5
289.524	131.5
289.755	124.5
289.986	119.5
290.217	117.5
290.448	125.5
290.679	133.5
290.91	145.5
291.141	118.5
291.371	119.5
291.602	128.5
291.833	125.5
292.064	132.5
292.295	128.5
292.526	124.5
292.757	124.5
292.987	136.5
293.218	132.5
293.449	138.5
293.68	131.5
293.91	105.5
294.141	152.5
294.372	129.5
294.603	125.5
294.833	120.5
295.064	122.5
295.295	139.5
295.525	136.5
295.756	144.5
295.987	130.5
296.217	130.5
296.448	131.5
296.679	131.5
296.909	134.5
297.14	143.5
297.37	143.5
297.601	133.5
297.831	109.5
298.062	130.5
298.292	126.5
298.523	131.5
298.753	138.5
298.984	121.5
299.214	113.5
299.445	145.5
299.675	133.5
299.905	130.5
300.136	123.5
300.366	115.5
300.597	125.5
300.827	138.5
301.057	122.5
301.288	125.5
301.518	136.5
301.748	134.5
301.979	172.5
302.209	147.5
302.439	127.5
302.669	125.5
302.9	148.5
303.13	141.5
303.36	137.5
303.59	145.5
303.82	140.5
304.051	132.5
304.281	125.5
304.511	147.5
304.741	132.5
304.971	125.5
305.201	137.5
305.431	137.5
305.661	125.5
305.891	143.5
306.121	135.5
306.352	135.5
306.582	130.5
306.812	135.5
307.042	127.5
307.272	127.5
307.502	127.5
307.731	136.5
307.961	139.5
308.191	129.5
308.421	123.5
308.651	132.5
308.881	142.5
309.111	121.5
309.341	130.5
309.571	126.5
309.8	135.5
310.03	128.5
310.26	125.5
310.49	131.5
310.72	131.5
310.949	139.5
311.179	130.5
311.409	126.5
311.639	137.5
311.868	141.5
312.098	127.5
312.328	163.5
312.557	152.5
312.787	131.5
313.017	140.5
313.246	159.5
313.476	146.5
313.706	143.5
313.935	147.5
314.165	138.5
314.394	139.5
314.624	141.5
314.853	151.5
315.083	143.5
315.312	157.5
315.542	134.5
315.771	149.5
316.001	141.5
316.23	138.5
316.46	146.5
316.689	155.5
316.919	149.5
317.148	139.5
317.377	179.5
317.607	169.5
317.836	146.5
318.065	148.5
318.295	141.5
318.524	139.5
318.753	145.5
318.983	146.5
319.212	135.5
319.441	143.5
319.67	134.5
319.9	133.5
320.129	149.5
320.358	145.5
320.587	133.5
320.816	132.5
321.046	145.5
321.275	145.5
321.504	130.5
321.733	138.5
321.962	133.5
322.191	146.5
322.42	135.5
322.649	148.5
322.878	169.5
323.108	156.5
323.337	137.5
323.566	144.5
323.795	141.5
324.024	142.5
324.253	141.5
324.482	143.5
324.71	125.5
324.939	144.5
325.168	137.5
325.397	134.5
325.626	146.5
325.855	139.5
326.084	136.5
326.313	149.5
326.542	141.5
326.77	147.5
326.999	134.5
327.228	148.5
327.457	137.5
327.686	163.5
327.914	141.5
328.143	140.5
328.372	140.5
328.6	137.5
328.829	145.5
329.058	144.5
329.287	149.5
329.515	143.5
329.744	153.5
329.972	129.5
330.201	143.5
330.43	156.5
330.658	138.5
330.887	132.5
331.115	157.5
331.344	133.5
331.572	168.5
331.801	136.5
332.03	140.5
332.258	144.5
332.486	139.5
332.715	151.5
332.943	144.5
333.172	141.5
333.4	137.5
333.629	144.5
333.857	141.5
334.085	149.5
334.314	117.5
334.542	144.5
334.771	143.5
334.999	130.5
335.227	123.5
335.455	142.5
335.684	144.5
335.912	152.5
336.14	142.5
336.369	135.5
336.597	136.5
336.825	132.5
337.053	131.5
337.281	144.5
337.51	125.5
337.738	163.5
337.966	142.5
338.194	144.5
338.422	132.5
338.65	157.5
338.878	143.5
339.106	130.5
339.334	132.5
339.562	142.5
339.79	139.5
340.018	145.5
340.246	137.5
340.474	148.5
340.702	145.5
340.93	140.5
341.158	150.5
341.386	147.5
341.614	142.5
341.842	141.5
342.07	128.5
342.298	140.5
342.526	134.5
342.754	136.5
342.981	143.5
343.209	145.5
343.437	197.5
343.665	143.5
343.893	144.5
344.12	159.5
344.348	161.5
344.576	150.5
344.804	127.5
345.031	144.5
345.259	127.5
345.487	136.5
345.714	128.5
345.942	130.5
346.17	151.5
346.397	148.5
346.625	143.5
346.853	159.5
347.08	131.5
347.308	144.5
347.535	139.5
347.763	145.5
347.99	151.5
348.218	141.5
348.445	125.5
348.673	129.5
348.9	143.5
349.128	167.5
349.355	144.5
349.583	134.5
349.81	145.5
350.037	129.5
350.265	129.5
350.492	129.5
350.72	150.5
350.947	148.5
351.174	140.5
351.402	124.5
351.629	139.5
351.856	144.5
352.083	139.5
352.311	142.5
352.538	152.5
352.765	139.5
352.992	173.5
353.22	139.5
353.447	146.5
353.674	144.5
353.901	149.5
354.128	144.5
354.355	131.5
354.583	135.5
354.81	148.5
355.037	157.5
355.264	146.5
355.491	134.5
355.718	148.5
355.945	142.5
356.172	154.5
356.399	146.5
356.626	172.5
356.853	177.5
357.08	215.5
357.307	269.5
357.534	264.5
357.761	228.5
357.988	214.5
358.215	197.5
358.441	155.5
358.668	177.5
358.895	155.5
359.122	153.5
359.349	148.5
359.576	151.5
359.802	167.5
360.029	143.5
360.256	160.5
360.483	157.5
360.709	151.5
360.936	172.5
361.163	152.5
361.39	150.5
361.616	138.5
361.843	144.5
362.07	157.5
362.296	155.5
362.523	146.5
362.749	149.5
362.976	166.5
363.203	183.5
363.429	187.5
363.656	225.5
363.882	283.5
364.109	308.5
364.335	273.5
364.562	199.5
364.788	189.5
365.015	175.5
365.241	167.5
365.468	173.5
365.694	172.5
365.92	156.5
366.147	171.5
366.373	176.5
366.599	155.5
366.826	181.5
367.052	204.5
367.278	223.5
367.505	193.5
367.731	227.5
367.957	228.5
368.184	313.5
368.41	353.5
368.636	347.5
368.862	268.5
369.089	206.5
369.315	204.5
369.541	204.5
369.767	187.5
369.993	187.5
370.219	161.5
370.445	151.5
370.672	150.5
370.898	156.5
371.124	146.5
371.35	141.5
371.576	161.5
371.802	147.5
372.028	156.5
372.254	171.5
372.48	163.5
372.706	155.5
372.932	162.5
373.158	165.5
373.384	187.5
373.61	196.5
373.835	247.5
374.061	283.5
374.287	280.5
374.513	212.5
374.739	195.5
374.965	174.5
375.191	165.5
375.416	169.5
375.642	172.5
375.868	170.5
376.094	143.5
376.319	161.5
376.545	156.5
376.771	164.5
376.997	155.5
377.222	154.5
377.448	162.5
377.674	144.5
377.899	147.5
378.125	160.5
378.35	157.5
378.576	139.5
378.802	149.5
379.027	163.5
379.253	162.5
379.478	142.5
379.704	169.5
379.929	153.5
380.155	141.5
380.38	148.5
380.606	143.5
380.831	178.5
381.057	177.5
381.282	163.5
381.507	160.5
381.733	150.5
381.958	141.5
382.184	144.5
382.409	153.5
382.634	148.5
382.86	163.5
383.085	158.5
383.31	167.5
383.535	155.5
383.761	141.5
383.986	152.5
384.211	145.5
384.436	160.5
384.662	159.5
384.887	159.5
385.112	151.5
385.337	151.5
385.562	149.5
385.787	142.5
386.013	148.5
386.238	150.5
386.463	161.5
386.688	196.5
386.913	143.5
387.138	155.5
387.363	158.5
387.588	173.5
387.813	159.5
388.038	168.5
388.263	149.5
388.488	144.5
388.713	136.5
388.938	135.5
389.163	152.5
389.387	135.5
389.612	155.5
389.837	155.5
390.062	163.5
390.287	147.5
390.512	160.5
390.736	132.5
390.961	145.5
391.186	168.5
391.411	161.5
391.636	149.5
391.86	147.5
392.085	158.5
392.31	154.5
392.534	151.5
392.759	162.5
392.984	169.5
393.208	152.5
393.433	169.5
393.658	152.5
393.882	151.5
394.107	149.5
394.331	161.5
394.556	144.5
394.78	161.5
395.005	151.5
395.229	164.5
395.454	158.5
395.678	141.5
395.903	176.5
396.127	160.5
396.352	159.5
396.576	153.5
396.801	161.5
397.025	145.5
397.249	164.5
397.474	189.5
397.698	158.5
397.922	151.5
398.147	163.5
398.371	169.5
398.595	169.5
398.82	176.5
399.044	154.5
399.268	152.5
399.492	157.5
399.717	167.5
399.941	172.5
400.165	173.5
400.389	171.5
400.613	176.5
400.837	168.5
401.062	167.5
401.286	173.5
401.51	180.5
401.734	156.5
401.958	202.5
402.182	176.5
402.406	171.5
402.63	180.5
402.854	163.5
403.078	195.5
403.302	179.5
403.526	172.5
403.75	171.5
403.974	174.5
404.198	188.5
404.422	179.5
404.645	187.5
404.869	199.5
405.093	229.5
405.317	267.5
405.541	356.5
405.765	482.5
405.988	541.5
406.212	436.5
406.436	333.5
406.66	297.5
406.883	249.5
407.107	219.5
407.331	202.5
407.555	204.5
407.778	216.5
408.002	197.5
408.226	200.5
408.449	197.5
408.673	187.5
408.896	207.5
409.12	183.5
409.344	191.5
409.567	175.5
409.791	174.5
410.014	196.5
410.238	180.5
410.461	180.5
410.685	190.5
410.908	168.5
411.132	187.5
411.355	185.5
411.578	187.5
411.802	180.5
412.025	169.5
412.249	158.5
412.472	174.5
412.695	173.5
412.919	181.5
413.142	185.5
413.365	175.5
413.589	190.5
413.812	175.5
414.035	179.5
414.258	162.5
414.482	163.5
414.705	159.5
414.928	191.5
415.151	176.5
415.374	168.5
415.597	172.5
415.821	185.5
416.044	183.5
416.267	166.5
416.49	186.5
416.713	182.5
416.936	207.5
417.159	183.5
417.382	171.5
417.605	162.5
417.828	162.5
418.051	188.5
418.274	183.5
418.497	160.5
418.72	184.5
418.943	177.5
419.166	164.5
419.389	191.5
419.611	176.5
419.834	146.5
420.057	187.5
420.28	173.5
420.503	177.5
420.726	176.5
420.948	194.5
421.171	186.5
421.394	181.5
421.617	163.5
421.839	183.5
422.062	181.5
422.285	187.5
422.507	191.5
422.73	179.5
422.953	189.5
423.175	198.5
423.398	203.5
423.621	226.5
423.843	221.5
424.066	233.5
424.288	246.5
424.511	264.5
424.733	271.5
424.956	278.5
425.178	261.5
425.401	243.5
425.623	234.5
425.846	204.5
426.068	191.5
426.291	208.5
426.513	206.5
426.735	231.5
426.958	219.5
427.18	190.5
427.402	182.5
427.625	179.5
427.847	162.5
428.069	189.5
428.292	194.5
428.514	189.5
428.736	187.5
428.958	185.5
429.181	173.5
429.403	191.5
429.625	183.5
429.847	195.5
430.069	180.5
430.292	183.5
430.514	187.5
430.736	182.5
430.958	176.5
431.18	157.5
431.402	162.5
431.624	163.5
431.846	152.5
432.068	180.5
432.29	181.5
432.512	181.5
432.734	176.5
432.956	189.5
433.178	203.5
433.4	200.5
433.622	201.5
433.844	190.5
434.066	195.5
434.287	184.5
434.509	174.5
434.731	190.5
434.953	187.5
435.175	187.5
435.397	193.5
435.618	185.5
435.84	194.5
436.062	194.5
436.284	191.5
436.505	200.5
436.727	198.5
436.949	194.5
437.17	173.5
437.392	202.5
437.614	191.5
437.835	191.5
438.057	215.5
438.278	220.5
438.5	235.5
438.721	257.5
438.943	284.5
439.165	278.5
439.386	260.5
439.608	263.5
439.829	249.5
440.05	244.5
440.272	245.5
440.493	224.5
440.715	229.5
440.936	247.5
441.158	258.5
441.379	236.5
441.6	239.5
441.822	217.5
442.043	207.5
442.264	209.5
442.486	204.5
442.707	203.5
442.928	194.5
443.149	191.5
443.371	211.5
443.592	184.5
443.813	191.5
444.034	201.5
444.255	207.5
444.476	195.5
444.698	208.5
444.919	196.5
445.14	608.5
445.361	363.5
445.582	218.5
445.803	196.5
446.024	205.5
446.245	207.5
446.466	203.5
446.687	197.5
446.908	201.5
447.129	216.5
447.35	191.5
447.571	213.5
447.792	192.5
448.013	188.5
448.234	200.5
448.455	198.5
448.675	199.5
448.896	188.5
449.117	211.5
449.338	181.5
449.559	200.5
449.779	169.5
450	191.5
450.221	178.5
450.442	181.5
450.662	171.5
450.883	187.5
451.104	190.5
451.324	159.5
451.545	186.5
451.766	169.5
451.986	179.5
452.207	190.5
452.428	183.5
452.648	180.5
452.869	169.5
453.089	163.5
453.31	147.5
453.53	178.5
453.751	167.5
453.971	150.5
454.192	140.5
454.412	174.5
454.633	180.5
454.853	172.5
455.073	187.5
455.294	155.5
455.514	180.5
455.734	170.5
455.955	167.5
456.175	168.5
456.395	167.5
456.616	169.5
456.836	168.5
457.056	180.5
457.276	151.5
457.497	161.5
457.717	171.5
457.937	161.5
458.157	179.5
458.377	165.5
458.598	174.5
458.818	167.5
459.038	174.5
459.258	156.5
459.478	154.5
459.698	136.5
459.918	149.5
460.138	150.5
460.358	175.5
460.578	184.5
460.798	160.5
461.018	185.5
461.238	185.5
461.458	162.5
461.678	159.5
461.898	178.5
462.118	187.5
462.338	177.5
462.558	179.5
462.777	158.5
462.997	159.5
463.217	161.5
463.437	169.5
463.657	164.5
463.876	175.5
464.096	182.5
464.316	175.5
464.536	161.5
464.755	193.5
464.975	169.5
465.195	173.5
465.414	188.5
465.634	172.5
465.854	168.5
466.073	158.5
466.293	192.5
466.512	154.5
466.732	170.5
466.951	173.5
467.171	171.5
467.391	184.5
467.61	173.5
467.829	172.5
468.049	164.5
468.268	187.5
468.488	162.5
468.707	153.5
468.927	161.5
469.146	163.5
469.365	171.5
469.585	168.5
469.804	177.5
470.023	178.5
470.243	189.5
470.462	169.5
470.681	192.5
470.901	179.5
471.12	181.5
471.339	188.5
471.558	171.5
471.777	198.5
471.997	176.5
472.216	192.5
472.435	167.5
472.654	161.5
472.873	179.5
473.092	169.5
473.311	192.5
473.53	169.5
473.749	157.5
473.968	187.5
474.187	170.5
474.406	164.5
474.625	179.5
474.844	173.5
475.063	179.5
475.282	175.5
475.501	168.5
475.72	187.5
475.939	179.5
476.158	191.5
476.377	182.5
476.596	174.5
476.814	173.5
477.033	177.5
477.252	185.5
477.471	188.5
477.69	171.5
477.908	185.5
478.127	208.5
478.346	196.5
478.564	216.5
478.783	182.5
479.002	180.5
479.22	207.5
479.439	201.5
479.658	171.5
479.876	177.5
480.095	160.5
480.313	193.5
480.532	202.5
480.751	187.5
480.969	162.5
481.188	161.5
481.406	188.5
481.624	167.5
481.843	151.5
482.061	187.5
482.28	197.5
482.498	167.5
482.717	187.5
482.935	210.5
483.153	193.5
483.372	185.5
483.59	186.5
483.808	180.5
484.027	203.5
484.245	193.5
484.463	189.5
484.681	219.5
484.9	184.5
485.118	186.5
485.336	188.5
485.554	192.5
485.772	183.5
485.99	184.5
486.209	195.5
486.427	165.5
486.645	187.5
486.863	194.5
487.081	187.5
487.299	177.5
487.517	208.5
487.735	208.5
487.953	196.5
488.171	209.5
488.389	203.5
488.607	199.5
488.825	189.5
489.043	191.5
489.261	197.5
489.479	201.5
489.696	197.5
489.914	204.5
490.132	200.5
490.35	207.5
490.568	195.5
490.786	210.5
491.003	209.5
491.221	203.5
491.439	219.5
491.657	212.5
491.874	234.5
492.092	239.5
492.31	243.5
492.527	222.5
492.745	211.5
492.963	221.5
493.18	229.5
493.398	220.5
493.615	197.5
493.833	217.5
494.05	221.5
494.268	222.5
494.485	214.5
494.703	229.5
494.92	210.5
495.138	218.5
495.355	231.5
495.573	241.5
495.79	235.5
496.008	224.5
496.225	204.5
496.442	212.5
496.66	237.5
496.877	228.5
497.094	221.5
497.312	224.5
497.529	222.5
497.746	223.5
497.963	208.5
498.181	214.5
498.398	211.5
498.615	218.5
498.832	222.5
499.049	213.5
499.267	228.5
499.484	221.5
499.701	247.5
499.918	235.5
500.135	238.5
500.352	255.5
500.569	271.5
500.786	304.5
501.003	263.5
501.22	247.5
501.437	232.5
501.654	217.5
501.871	227.5
502.088	226.5
502.305	219.5
502.522	208.5
502.739	213.5
502.956	226.5
503.172	213.5
503.389	220.5
503.606	231.5
503.823	219.5
504.04	215.5
504.256	223.5
504.473	217.5
504.69	231.5
504.907	233.5
505.123	223.5
505.34	215.5
505.557	217.5
505.773	218.5
505.99	200.5
506.207	207.5
506.423	177.5
506.64	192.5
506.856	191.5
507.073	197.5
507.289	217.5
507.506	203.5
507.722	191.5
507.939	183.5
508.155	200.5
508.372	198.5
508.588	208.5
508.805	193.5
509.021	182.5
509.238	191.5
509.454	174.5
509.67	185.5
509.887	167.5
510.103	185.5
510.319	178.5
510.536	186.5
510.752	178.5
510.968	164.5
511.184	159.5
511.401	187.5
511.617	181.5
511.833	173.5
512.049	183.5
512.265	165.5
512.481	198.5
512.698	195.5
512.914	187.5
513.13	175.5
513.346	176.5
513.562	188.5
513.778	180.5
513.994	181.5
514.21	183.5
514.426	180.5
514.642	183.5
514.858	173.5
515.074	188.5
515.29	185.5
515.506	187.5
515.721	175.5
515.937	194.5
516.153	179.5
516.369	185.5
516.585	170.5
516.801	176.5
517.016	181.5
517.232	176.5
517.448	186.5
517.664	195.5
517.879	168.5
518.095	170.5
518.311	189.5
518.527	181.5
518.742	178.5
518.958	177.5
519.173	189.5
519.389	171.5
519.605	173.5
519.82	170.5
520.036	169.5
520.251	180.5
520.467	187.5
520.682	183.5
520.898	171.5
521.113	175.5
521.329	181.5
521.544	169.5
521.76	163.5
