Data from TenMicroDelayPb_HRD10591_00005.txt Node
Date: Mon Nov 24 14:55:45 EST 2025
User: Yrep
Spectrometer: HR+D1059
Trigger mode: 5
Integration Time (sec): 1.000000E-3
Scans to average: 1
Electric dark correction enabled: true
Nonlinearity correction enabled: false
Boxcar width: 0
XAxis mode: Wavelengths
Number of Pixels in Spectrum: 2048
>>>>>Begin Spectral Data<<<<<
223.165	-19.62
223.4	-19.62
223.635	-19.62
223.869	-42.62
224.104	-26.62
224.338	-9.62
224.573	-18.62
224.808	-4.62
225.042	1.38
225.277	2.38
225.511	-6.62
225.746	7.38
225.98	12.38
226.215	1.38
226.449	16.38
226.683	20.38
226.918	33.38
227.152	33.38
227.387	30.38
227.621	44.38
227.856	52.38
228.09	51.38
228.324	55.38
228.559	88.38
228.793	62.38
229.027	78.38
229.262	85.38
229.496	67.38
229.73	74.38
229.964	94.38
230.199	82.38
230.433	82.38
230.667	88.38
230.901	76.38
231.136	77.38
231.37	84.38
231.604	102.38
231.838	102.38
232.072	88.38
232.306	93.38
232.541	100.38
232.775	82.38
233.009	82.38
233.243	96.38
233.477	85.38
233.711	101.38
233.945	81.38
234.179	88.38
234.413	106.38
234.647	105.38
234.881	84.38
235.115	88.38
235.349	80.38
235.583	97.38
235.817	89.38
236.051	79.38
236.285	81.38
236.519	97.38
236.753	103.38
236.987	86.38
237.221	88.38
237.455	98.38
237.689	88.38
237.922	96.38
238.156	64.38
238.39	83.38
238.624	94.38
238.858	81.38
239.091	82.38
239.325	91.38
239.559	93.38
239.793	81.38
240.027	114.38
240.26	76.38
240.494	81.38
240.728	96.38
240.961	69.38
241.195	91.38
241.429	101.38
241.662	92.38
241.896	107.38
242.13	94.38
242.363	97.38
242.597	89.38
242.83	105.38
243.064	96.38
243.298	94.38
243.531	82.38
243.765	92.38
243.998	82.38
244.232	95.38
244.465	90.38
244.699	82.38
244.932	100.38
245.166	99.38
245.399	89.38
245.633	81.38
245.866	102.38
246.099	92.38
246.333	85.38
246.566	78.38
246.8	92.38
247.033	76.38
247.266	92.38
247.5	101.38
247.733	88.38
247.966	98.38
248.2	111.38
248.433	96.38
248.666	94.38
248.899	110.38
249.133	92.38
249.366	116.38
249.599	96.38
249.832	97.38
250.066	113.38
250.299	95.38
250.532	100.38
250.765	97.38
250.998	94.38
251.231	108.38
251.465	97.38
251.698	99.38
251.931	93.38
252.164	101.38
252.397	106.38
252.63	117.38
252.863	102.38
253.096	113.38
253.329	116.38
253.562	103.38
253.795	107.38
254.028	106.38
254.261	98.38
254.494	101.38
254.727	118.38
254.96	101.38
255.193	116.38
255.426	89.38
255.659	102.38
255.892	117.38
256.124	94.38
256.357	100.38
256.59	126.38
256.823	111.38
257.056	114.38
257.289	114.38
257.521	106.38
257.754	107.38
257.987	113.38
258.22	127.38
258.452	106.38
258.685	116.38
258.918	113.38
259.151	112.38
259.383	116.38
259.616	115.38
259.849	107.38
260.081	117.38
260.314	104.38
260.547	130.38
260.779	134.38
261.012	133.38
261.244	118.38
261.477	170.38
261.71	144.38
261.942	129.38
262.175	123.38
262.407	122.38
262.64	120.38
262.872	114.38
263.105	117.38
263.337	132.38
263.57	120.38
263.802	133.38
264.035	108.38
264.267	110.38
264.499	116.38
264.732	117.38
264.964	139.38
265.197	140.38
265.429	123.38
265.661	113.38
265.894	122.38
266.126	128.38
266.358	135.38
266.591	130.38
266.823	130.38
267.055	111.38
267.287	115.38
267.52	114.38
267.752	114.38
267.984	106.38
268.216	100.38
268.448	116.38
268.681	124.38
268.913	120.38
269.145	126.38
269.377	113.38
269.609	98.38
269.841	121.38
270.073	120.38
270.306	107.38
270.538	112.38
270.77	112.38
271.002	126.38
271.234	112.38
271.466	121.38
271.698	116.38
271.93	107.38
272.162	121.38
272.394	119.38
272.626	108.38
272.858	97.38
273.09	123.38
273.322	117.38
273.553	111.38
273.785	108.38
274.017	112.38
274.249	98.38
274.481	102.38
274.713	121.38
274.945	113.38
275.176	96.38
275.408	120.38
275.64	113.38
275.872	117.38
276.104	122.38
276.335	136.38
276.567	113.38
276.799	110.38
277.031	106.38
277.262	120.38
277.494	122.38
277.726	137.38
277.957	141.38
278.189	121.38
278.421	121.38
278.652	144.38
278.884	149.38
279.115	129.38
279.347	134.38
279.579	154.38
279.81	158.38
280.042	192.38
280.273	202.38
280.505	195.38
280.736	164.38
280.968	141.38
281.199	120.38
281.431	143.38
281.662	146.38
281.894	137.38
282.125	150.38
282.356	157.38
282.588	149.38
282.819	156.38
283.051	159.38
283.282	185.38
283.513	184.38
283.745	161.38
283.976	144.38
284.207	129.38
284.439	139.38
284.67	133.38
284.901	121.38
285.132	134.38
285.364	134.38
285.595	131.38
285.826	136.38
286.057	132.38
286.288	124.38
286.52	134.38
286.751	137.38
286.982	150.38
287.213	157.38
287.444	203.38
287.675	152.38
287.906	144.38
288.138	144.38
288.369	124.38
288.6	128.38
288.831	111.38
289.062	130.38
289.293	119.38
289.524	122.38
289.755	123.38
289.986	114.38
290.217	123.38
290.448	109.38
290.679	118.38
290.91	138.38
291.141	113.38
291.371	126.38
291.602	121.38
291.833	126.38
292.064	124.38
292.295	118.38
292.526	113.38
292.757	129.38
292.987	130.38
293.218	116.38
293.449	110.38
293.68	124.38
293.91	102.38
294.141	132.38
294.372	109.38
294.603	129.38
294.833	106.38
295.064	118.38
295.295	124.38
295.525	129.38
295.756	123.38
295.987	138.38
296.217	109.38
296.448	128.38
296.679	127.38
296.909	123.38
297.14	127.38
297.37	121.38
297.601	125.38
297.831	130.38
298.062	136.38
298.292	131.38
298.523	137.38
298.753	118.38
298.984	134.38
299.214	126.38
299.445	139.38
299.675	130.38
299.905	139.38
300.136	134.38
300.366	124.38
300.597	124.38
300.827	128.38
301.057	135.38
301.288	133.38
301.518	118.38
301.748	127.38
301.979	198.38
302.209	125.38
302.439	124.38
302.669	129.38
302.9	123.38
303.13	126.38
303.36	110.38
303.59	123.38
303.82	135.38
304.051	145.38
304.281	147.38
304.511	148.38
304.741	122.38
304.971	120.38
305.201	143.38
305.431	133.38
305.661	114.38
305.891	126.38
306.121	117.38
306.352	135.38
306.582	115.38
306.812	128.38
307.042	124.38
307.272	136.38
307.502	143.38
307.731	128.38
307.961	142.38
308.191	138.38
308.421	128.38
308.651	125.38
308.881	127.38
309.111	121.38
309.341	106.38
309.571	128.38
309.8	126.38
310.03	135.38
310.26	132.38
310.49	138.38
310.72	142.38
310.949	125.38
311.179	126.38
311.409	122.38
311.639	129.38
311.868	134.38
312.098	142.38
312.328	150.38
312.557	134.38
312.787	125.38
313.017	144.38
313.246	136.38
313.476	137.38
313.706	143.38
313.935	141.38
314.165	141.38
314.394	145.38
314.624	143.38
314.853	153.38
315.083	140.38
315.312	146.38
315.542	137.38
315.771	139.38
316.001	151.38
316.23	143.38
316.46	133.38
316.689	129.38
316.919	138.38
317.148	155.38
317.377	151.38
317.607	138.38
317.836	136.38
318.065	136.38
318.295	125.38
318.524	130.38
318.753	137.38
318.983	136.38
319.212	141.38
319.441	133.38
319.67	128.38
319.9	138.38
320.129	130.38
320.358	131.38
320.587	133.38
320.816	141.38
321.046	131.38
321.275	136.38
321.504	144.38
321.733	152.38
321.962	133.38
322.191	133.38
322.42	131.38
322.649	130.38
322.878	147.38
323.108	134.38
323.337	146.38
323.566	151.38
323.795	130.38
324.024	129.38
324.253	141.38
324.482	133.38
324.71	133.38
324.939	143.38
325.168	141.38
325.397	131.38
325.626	152.38
325.855	135.38
326.084	134.38
326.313	154.38
326.542	127.38
326.77	136.38
326.999	132.38
327.228	127.38
327.457	137.38
327.686	144.38
327.914	147.38
328.143	145.38
328.372	139.38
328.6	130.38
328.829	123.38
329.058	138.38
329.287	112.38
329.515	126.38
329.744	133.38
329.972	116.38
330.201	138.38
330.43	151.38
330.658	137.38
330.887	128.38
331.115	138.38
331.344	128.38
331.572	150.38
331.801	133.38
332.03	136.38
332.258	140.38
332.486	132.38
332.715	146.38
332.943	155.38
333.172	130.38
333.4	125.38
333.629	141.38
333.857	129.38
334.085	138.38
334.314	152.38
334.542	134.38
334.771	144.38
334.999	143.38
335.227	143.38
335.455	142.38
335.684	169.38
335.912	153.38
336.14	127.38
336.369	141.38
336.597	131.38
336.825	150.38
337.053	132.38
337.281	127.38
337.51	109.38
337.738	147.38
337.966	134.38
338.194	124.38
338.422	140.38
338.65	129.38
338.878	145.38
339.106	136.38
339.334	157.38
339.562	132.38
339.79	125.38
340.018	130.38
340.246	126.38
340.474	128.38
340.702	146.38
340.93	132.38
341.158	129.38
341.386	124.38
341.614	132.38
341.842	137.38
342.07	126.38
342.298	139.38
342.526	126.38
342.754	129.38
342.981	128.38
343.209	138.38
343.437	176.38
343.665	133.38
343.893	147.38
344.12	149.38
344.348	132.38
344.576	125.38
344.804	156.38
345.031	136.38
345.259	150.38
345.487	141.38
345.714	140.38
345.942	133.38
346.17	139.38
346.397	147.38
346.625	140.38
346.853	142.38
347.08	136.38
347.308	124.38
347.535	124.38
347.763	132.38
347.99	134.38
348.218	137.38
348.445	137.38
348.673	128.38
348.9	141.38
349.128	136.38
349.355	133.38
349.583	128.38
349.81	138.38
350.037	129.38
350.265	140.38
350.492	136.38
350.72	122.38
350.947	138.38
351.174	139.38
351.402	134.38
351.629	138.38
351.856	131.38
352.083	121.38
352.311	125.38
352.538	144.38
352.765	144.38
352.992	163.38
353.22	149.38
353.447	129.38
353.674	132.38
353.901	138.38
354.128	141.38
354.355	132.38
354.583	130.38
354.81	129.38
355.037	155.38
355.264	155.38
355.491	133.38
355.718	133.38
355.945	141.38
356.172	156.38
356.399	151.38
356.626	146.38
356.853	146.38
357.08	198.38
357.307	244.38
357.534	243.38
357.761	215.38
357.988	184.38
358.215	186.38
358.441	168.38
358.668	145.38
358.895	155.38
359.122	155.38
359.349	141.38
359.576	151.38
359.802	148.38
360.029	136.38
360.256	162.38
360.483	145.38
360.709	138.38
360.936	177.38
361.163	159.38
361.39	149.38
361.616	156.38
361.843	159.38
362.07	158.38
362.296	128.38
362.523	151.38
362.749	150.38
362.976	151.38
363.203	186.38
363.429	174.38
363.656	206.38
363.882	260.38
364.109	290.38
364.335	234.38
364.562	218.38
364.788	181.38
365.015	171.38
365.241	169.38
365.468	161.38
365.694	147.38
365.92	172.38
366.147	142.38
366.373	150.38
366.599	152.38
366.826	172.38
367.052	186.38
367.278	190.38
367.505	164.38
367.731	220.38
367.957	234.38
368.184	286.38
368.41	334.38
368.636	324.38
368.862	269.38
369.089	204.38
369.315	176.38
369.541	186.38
369.767	188.38
369.993	168.38
370.219	161.38
370.445	152.38
370.672	163.38
370.898	160.38
371.124	147.38
371.35	144.38
371.576	150.38
371.802	157.38
372.028	146.38
372.254	169.38
372.48	147.38
372.706	158.38
372.932	142.38
373.158	163.38
373.384	196.38
373.61	189.38
373.835	229.38
374.061	265.38
374.287	265.38
374.513	194.38
374.739	166.38
374.965	173.38
375.191	164.38
375.416	164.38
375.642	162.38
375.868	155.38
376.094	152.38
376.319	153.38
376.545	161.38
376.771	145.38
376.997	151.38
377.222	148.38
377.448	151.38
377.674	138.38
377.899	151.38
378.125	134.38
378.35	158.38
378.576	153.38
378.802	145.38
379.027	149.38
379.253	163.38
379.478	137.38
379.704	139.38
379.929	146.38
380.155	146.38
380.38	125.38
380.606	154.38
380.831	138.38
381.057	165.38
381.282	148.38
381.507	155.38
381.733	147.38
381.958	151.38
382.184	147.38
382.409	149.38
382.634	147.38
382.86	152.38
383.085	159.38
383.31	144.38
383.535	146.38
383.761	162.38
383.986	155.38
384.211	142.38
384.436	144.38
384.662	151.38
384.887	149.38
385.112	139.38
385.337	144.38
385.562	160.38
385.787	148.38
386.013	148.38
386.238	151.38
386.463	145.38
386.688	204.38
386.913	157.38
387.138	146.38
387.363	161.38
387.588	168.38
387.813	154.38
388.038	157.38
388.263	162.38
388.488	163.38
388.713	147.38
388.938	141.38
389.163	144.38
389.387	138.38
389.612	159.38
389.837	153.38
390.062	171.38
390.287	154.38
390.512	143.38
390.736	148.38
390.961	159.38
391.186	145.38
391.411	144.38
391.636	136.38
391.86	152.38
392.085	142.38
392.31	142.38
392.534	146.38
392.759	169.38
392.984	146.38
393.208	155.38
393.433	148.38
393.658	166.38
393.882	136.38
394.107	142.38
394.331	132.38
394.556	163.38
394.78	157.38
395.005	173.38
395.229	168.38
395.454	168.38
395.678	154.38
395.903	155.38
396.127	162.38
396.352	160.38
396.576	154.38
396.801	154.38
397.025	152.38
397.249	153.38
397.474	178.38
397.698	167.38
397.922	159.38
398.147	158.38
398.371	150.38
398.595	161.38
398.82	151.38
399.044	160.38
399.268	156.38
399.492	169.38
399.717	168.38
399.941	153.38
400.165	157.38
400.389	160.38
400.613	165.38
400.837	166.38
401.062	161.38
401.286	174.38
401.51	192.38
401.734	166.38
401.958	189.38
402.182	192.38
402.406	152.38
402.63	155.38
402.854	175.38
403.078	180.38
403.302	164.38
403.526	181.38
403.75	177.38
403.974	174.38
404.198	157.38
404.422	186.38
404.645	188.38
404.869	211.38
405.093	225.38
405.317	249.38
405.541	327.38
405.765	449.38
405.988	483.38
406.212	401.38
406.436	303.38
406.66	269.38
406.883	223.38
407.107	213.38
407.331	197.38
407.555	204.38
407.778	199.38
408.002	197.38
408.226	194.38
408.449	193.38
408.673	179.38
408.896	187.38
409.12	175.38
409.344	168.38
409.567	178.38
409.791	172.38
410.014	186.38
410.238	169.38
410.461	174.38
410.685	181.38
410.908	173.38
411.132	184.38
411.355	176.38
411.578	183.38
411.802	164.38
412.025	150.38
412.249	176.38
412.472	160.38
412.695	161.38
412.919	174.38
413.142	168.38
413.365	180.38
413.589	177.38
413.812	150.38
414.035	177.38
414.258	180.38
414.482	163.38
414.705	168.38
414.928	173.38
415.151	161.38
415.374	165.38
415.597	157.38
415.821	159.38
416.044	157.38
416.267	158.38
416.49	175.38
416.713	172.38
416.936	174.38
417.159	174.38
417.382	178.38
417.605	172.38
417.828	163.38
418.051	150.38
418.274	157.38
418.497	160.38
418.72	177.38
418.943	172.38
419.166	177.38
419.389	185.38
419.611	191.38
419.834	161.38
420.057	170.38
420.28	180.38
420.503	174.38
420.726	173.38
420.948	166.38
421.171	177.38
421.394	181.38
421.617	194.38
421.839	179.38
422.062	180.38
422.285	172.38
422.507	194.38
422.73	176.38
422.953	175.38
423.175	190.38
423.398	191.38
423.621	207.38
423.843	210.38
424.066	210.38
424.288	247.38
424.511	256.38
424.733	273.38
424.956	262.38
425.178	239.38
425.401	241.38
425.623	208.38
425.846	203.38
426.068	203.38
426.291	209.38
426.513	190.38
426.735	205.38
426.958	187.38
427.18	203.38
427.402	176.38
427.625	176.38
427.847	187.38
428.069	180.38
428.292	184.38
428.514	177.38
428.736	192.38
428.958	179.38
429.181	194.38
429.403	190.38
429.625	172.38
429.847	174.38
430.069	169.38
430.292	184.38
430.514	160.38
430.736	171.38
430.958	175.38
431.18	174.38
431.402	176.38
431.624	164.38
431.846	168.38
432.068	157.38
432.29	184.38
432.512	186.38
432.734	158.38
432.956	170.38
433.178	198.38
433.4	197.38
433.622	198.38
433.844	196.38
434.066	193.38
434.287	181.38
434.509	171.38
434.731	182.38
434.953	148.38
435.175	172.38
435.397	188.38
435.618	174.38
435.84	183.38
436.062	190.38
436.284	177.38
436.505	197.38
436.727	175.38
436.949	170.38
437.17	178.38
437.392	204.38
437.614	174.38
437.835	191.38
438.057	182.38
438.278	221.38
438.5	241.38
438.721	242.38
438.943	259.38
439.165	257.38
439.386	239.38
439.608	248.38
439.829	223.38
440.05	225.38
440.272	222.38
440.493	234.38
440.715	235.38
440.936	240.38
441.158	250.38
441.379	238.38
441.6	221.38
441.822	204.38
442.043	200.38
442.264	203.38
442.486	200.38
442.707	199.38
442.928	217.38
443.149	197.38
443.371	214.38
443.592	197.38
443.813	193.38
444.034	202.38
444.255	201.38
444.476	197.38
444.698	210.38
444.919	186.38
445.14	480.38
445.361	311.38
445.582	206.38
445.803	175.38
446.024	182.38
446.245	197.38
446.466	192.38
446.687	181.38
446.908	208.38
447.129	193.38
447.35	185.38
447.571	193.38
447.792	208.38
448.013	175.38
448.234	191.38
448.455	176.38
448.675	196.38
448.896	176.38
449.117	179.38
449.338	181.38
449.559	198.38
449.779	178.38
450	186.38
450.221	175.38
450.442	175.38
450.662	195.38
450.883	170.38
451.104	190.38
451.324	175.38
451.545	173.38
451.766	165.38
451.986	183.38
452.207	176.38
452.428	183.38
452.648	182.38
452.869	160.38
453.089	171.38
453.31	163.38
453.53	147.38
453.751	154.38
453.971	154.38
454.192	160.38
454.412	165.38
454.633	164.38
454.853	156.38
455.073	174.38
455.294	177.38
455.514	187.38
455.734	152.38
455.955	163.38
456.175	163.38
456.395	173.38
456.616	172.38
456.836	170.38
457.056	179.38
457.276	156.38
457.497	160.38
457.717	149.38
457.937	159.38
458.157	144.38
458.377	150.38
458.598	144.38
458.818	162.38
459.038	143.38
459.258	145.38
459.478	162.38
459.698	152.38
459.918	160.38
460.138	159.38
460.358	170.38
460.578	178.38
460.798	172.38
461.018	165.38
461.238	160.38
461.458	178.38
461.678	140.38
461.898	168.38
462.118	186.38
462.338	176.38
462.558	154.38
462.777	154.38
462.997	171.38
463.217	163.38
463.437	153.38
463.657	164.38
463.876	149.38
464.096	161.38
464.316	173.38
464.536	166.38
464.755	176.38
464.975	168.38
465.195	158.38
465.414	165.38
465.634	147.38
465.854	174.38
466.073	158.38
466.293	166.38
466.512	169.38
466.732	156.38
466.951	174.38
467.171	184.38
467.391	185.38
467.61	161.38
467.829	163.38
468.049	166.38
468.268	165.38
468.488	167.38
468.707	154.38
468.927	177.38
469.146	166.38
469.365	172.38
469.585	186.38
469.804	165.38
470.023	174.38
470.243	176.38
470.462	159.38
470.681	176.38
470.901	163.38
471.12	172.38
471.339	173.38
471.558	187.38
471.777	180.38
471.997	164.38
472.216	174.38
472.435	170.38
472.654	169.38
472.873	176.38
473.092	170.38
473.311	176.38
473.53	154.38
473.749	168.38
473.968	173.38
474.187	165.38
474.406	162.38
474.625	187.38
474.844	174.38
475.063	148.38
475.282	176.38
475.501	170.38
475.72	179.38
475.939	189.38
476.158	165.38
476.377	156.38
476.596	158.38
476.814	161.38
477.033	153.38
477.252	169.38
477.471	171.38
477.69	175.38
477.908	189.38
478.127	206.38
478.346	178.38
478.564	185.38
478.783	180.38
479.002	194.38
479.22	192.38
479.439	191.38
479.658	174.38
479.876	169.38
480.095	169.38
480.313	177.38
480.532	173.38
480.751	186.38
480.969	176.38
481.188	190.38
481.406	171.38
481.624	179.38
481.843	169.38
482.061	180.38
482.28	170.38
482.498	174.38
482.717	160.38
482.935	178.38
483.153	193.38
483.372	187.38
483.59	204.38
483.808	182.38
484.027	185.38
484.245	190.38
484.463	184.38
484.681	210.38
484.9	195.38
485.118	193.38
485.336	164.38
485.554	163.38
485.772	182.38
485.99	177.38
486.209	158.38
486.427	192.38
486.645	186.38
486.863	181.38
487.081	190.38
487.299	179.38
487.517	188.38
487.735	210.38
487.953	212.38
488.171	195.38
488.389	192.38
488.607	194.38
488.825	185.38
489.043	195.38
489.261	185.38
489.479	197.38
489.696	201.38
489.914	174.38
490.132	188.38
490.35	217.38
490.568	190.38
490.786	212.38
491.003	222.38
491.221	194.38
491.439	198.38
491.657	206.38
491.874	208.38
492.092	241.38
492.31	239.38
492.527	217.38
492.745	209.38
492.963	219.38
493.18	209.38
493.398	213.38
493.615	206.38
493.833	200.38
494.05	200.38
494.268	204.38
494.485	207.38
494.703	206.38
494.92	213.38
495.138	190.38
495.355	220.38
495.573	225.38
495.79	190.38
496.008	210.38
496.225	200.38
496.442	218.38
496.66	202.38
496.877	203.38
497.094	203.38
497.312	192.38
497.529	204.38
497.746	212.38
497.963	207.38
498.181	204.38
498.398	189.38
498.615	194.38
498.832	203.38
499.049	190.38
499.267	190.38
499.484	217.38
499.701	210.38
499.918	242.38
500.135	229.38
500.352	231.38
500.569	248.38
500.786	282.38
501.003	242.38
501.22	249.38
501.437	237.38
501.654	227.38
501.871	229.38
502.088	225.38
502.305	235.38
502.522	193.38
502.739	212.38
502.956	220.38
503.172	200.38
503.389	213.38
503.606	196.38
503.823	202.38
