Data from TenMicroDelayPb_HRD10591_00002.txt Node
Date: Mon Nov 24 14:55:44 EST 2025
User: Yrep
Spectrometer: HR+D1059
Trigger mode: 5
Integration Time (sec): 1.000000E-3
Scans to average: 1
Electric dark correction enabled: true
Nonlinearity correction enabled: false
Boxcar width: 0
XAxis mode: Wavelengths
Number of Pixels in Spectrum: 2048
>>>>>Begin Spectral Data<<<<<
223.165	-33.44
223.4	-33.44
223.635	-33.44
223.869	-29.44
224.104	-18.44
224.338	-5.44
224.573	-5.44
224.808	-13.44
225.042	-10.44
225.277	-4.44
225.511	-9.44
225.746	19.56
225.98	14.56
226.215	13.56
226.449	19.56
226.683	21.56
226.918	9.56
227.152	31.56
227.387	50.56
227.621	50.56
227.856	51.56
228.09	46.56
228.324	48.56
228.559	67.56
228.793	62.56
229.027	84.56
229.262	86.56
229.496	84.56
229.73	72.56
229.964	97.56
230.199	83.56
230.433	79.56
230.667	102.56
230.901	88.56
231.136	90.56
231.37	96.56
231.604	86.56
231.838	96.56
232.072	78.56
232.306	94.56
232.541	97.56
232.775	96.56
233.009	92.56
233.243	88.56
233.477	84.56
233.711	88.56
233.945	92.56
234.179	82.56
234.413	101.56
234.647	98.56
234.881	81.56
235.115	84.56
235.349	93.56
235.583	91.56
235.817	113.56
236.051	96.56
236.285	97.56
236.519	94.56
236.753	102.56
236.987	93.56
237.221	83.56
237.455	82.56
237.689	89.56
237.922	87.56
238.156	94.56
238.39	88.56
238.624	104.56
238.858	85.56
239.091	95.56
239.325	91.56
239.559	102.56
239.793	82.56
240.027	115.56
240.26	92.56
240.494	93.56
240.728	90.56
240.961	90.56
241.195	106.56
241.429	92.56
241.662	82.56
241.896	90.56
242.13	84.56
242.363	101.56
242.597	88.56
242.83	97.56
243.064	87.56
243.298	98.56
243.531	102.56
243.765	95.56
243.998	90.56
244.232	93.56
244.465	108.56
244.699	98.56
244.932	98.56
245.166	98.56
245.399	111.56
245.633	103.56
245.866	106.56
246.099	97.56
246.333	96.56
246.566	96.56
246.8	102.56
247.033	94.56
247.266	82.56
247.5	91.56
247.733	107.56
247.966	106.56
248.2	106.56
248.433	96.56
248.666	95.56
248.899	96.56
249.133	85.56
249.366	116.56
249.599	104.56
249.832	108.56
250.066	108.56
250.299	95.56
250.532	111.56
250.765	87.56
250.998	92.56
251.231	103.56
251.465	91.56
251.698	91.56
251.931	96.56
252.164	115.56
252.397	111.56
252.63	114.56
252.863	107.56
253.096	100.56
253.329	123.56
253.562	116.56
253.795	122.56
254.028	126.56
254.261	110.56
254.494	109.56
254.727	126.56
254.96	112.56
255.193	114.56
255.426	106.56
255.659	112.56
255.892	141.56
256.124	127.56
256.357	118.56
256.59	114.56
256.823	109.56
257.056	120.56
257.289	104.56
257.521	111.56
257.754	116.56
257.987	121.56
258.22	137.56
258.452	126.56
258.685	118.56
258.918	101.56
259.151	99.56
259.383	121.56
259.616	111.56
259.849	126.56
260.081	122.56
260.314	120.56
260.547	137.56
260.779	119.56
261.012	151.56
261.244	149.56
261.477	166.56
261.71	147.56
261.942	133.56
262.175	147.56
262.407	119.56
262.64	107.56
262.872	118.56
263.105	116.56
263.337	121.56
263.57	118.56
263.802	128.56
264.035	110.56
264.267	113.56
264.499	136.56
264.732	131.56
264.964	128.56
265.197	131.56
265.429	120.56
265.661	125.56
265.894	122.56
266.126	139.56
266.358	142.56
266.591	149.56
266.823	130.56
267.055	106.56
267.287	133.56
267.52	128.56
267.752	124.56
267.984	117.56
268.216	116.56
268.448	133.56
268.681	119.56
268.913	131.56
269.145	139.56
269.377	124.56
269.609	114.56
269.841	111.56
270.073	110.56
270.306	104.56
270.538	121.56
270.77	122.56
271.002	118.56
271.234	119.56
271.466	123.56
271.698	104.56
271.93	100.56
272.162	124.56
272.394	118.56
272.626	112.56
272.858	123.56
273.09	142.56
273.322	126.56
273.553	118.56
273.785	120.56
274.017	102.56
274.249	125.56
274.481	120.56
274.713	118.56
274.945	126.56
275.176	109.56
275.408	127.56
275.64	135.56
275.872	127.56
276.104	117.56
276.335	139.56
276.567	100.56
276.799	130.56
277.031	129.56
277.262	112.56
277.494	130.56
277.726	147.56
277.957	131.56
278.189	110.56
278.421	121.56
278.652	130.56
278.884	153.56
279.115	141.56
279.347	155.56
279.579	154.56
279.81	156.56
280.042	213.56
280.273	200.56
280.505	194.56
280.736	148.56
280.968	147.56
281.199	150.56
281.431	136.56
281.662	147.56
281.894	142.56
282.125	156.56
282.356	142.56
282.588	160.56
282.819	146.56
283.051	154.56
283.282	166.56
283.513	206.56
283.745	178.56
283.976	157.56
284.207	133.56
284.439	137.56
284.67	144.56
284.901	132.56
285.132	140.56
285.364	130.56
285.595	127.56
285.826	145.56
286.057	152.56
286.288	131.56
286.52	124.56
286.751	141.56
286.982	139.56
287.213	151.56
287.444	191.56
287.675	162.56
287.906	158.56
288.138	117.56
288.369	119.56
288.6	127.56
288.831	124.56
289.062	146.56
289.293	130.56
289.524	131.56
289.755	124.56
289.986	115.56
290.217	134.56
290.448	122.56
290.679	115.56
290.91	138.56
291.141	123.56
291.371	138.56
291.602	133.56
291.833	127.56
292.064	140.56
292.295	135.56
292.526	130.56
292.757	125.56
292.987	126.56
293.218	120.56
293.449	126.56
293.68	134.56
293.91	150.56
294.141	148.56
294.372	116.56
294.603	124.56
294.833	126.56
295.064	122.56
295.295	126.56
295.525	116.56
295.756	144.56
295.987	130.56
296.217	130.56
296.448	130.56
296.679	129.56
296.909	128.56
297.14	121.56
297.37	127.56
297.601	139.56
297.831	141.56
298.062	144.56
298.292	133.56
298.523	138.56
298.753	127.56
298.984	123.56
299.214	138.56
299.445	125.56
299.675	136.56
299.905	135.56
300.136	131.56
300.366	137.56
300.597	130.56
300.827	132.56
301.057	118.56
301.288	128.56
301.518	131.56
301.748	131.56
301.979	188.56
302.209	137.56
302.439	124.56
302.669	132.56
302.9	146.56
303.13	129.56
303.36	132.56
303.59	150.56
303.82	137.56
304.051	145.56
304.281	130.56
304.511	147.56
304.741	134.56
304.971	150.56
305.201	149.56
305.431	126.56
305.661	123.56
305.891	135.56
306.121	139.56
306.352	126.56
306.582	119.56
306.812	121.56
307.042	136.56
307.272	134.56
307.502	140.56
307.731	143.56
307.961	142.56
308.191	126.56
308.421	148.56
308.651	118.56
308.881	138.56
309.111	124.56
309.341	111.56
309.571	151.56
309.8	123.56
310.03	139.56
310.26	140.56
310.49	146.56
310.72	119.56
310.949	120.56
311.179	122.56
311.409	124.56
311.639	135.56
311.868	147.56
312.098	135.56
312.328	136.56
312.557	150.56
312.787	135.56
313.017	155.56
313.246	142.56
313.476	143.56
313.706	139.56
313.935	151.56
314.165	142.56
314.394	142.56
314.624	150.56
314.853	154.56
315.083	147.56
315.312	150.56
315.542	158.56
315.771	141.56
316.001	145.56
316.23	139.56
316.46	142.56
316.689	151.56
316.919	136.56
317.148	135.56
317.377	151.56
317.607	148.56
317.836	146.56
318.065	140.56
318.295	146.56
318.524	136.56
318.753	131.56
318.983	138.56
319.212	143.56
319.441	135.56
319.67	148.56
319.9	131.56
320.129	144.56
320.358	152.56
320.587	162.56
320.816	150.56
321.046	140.56
321.275	148.56
321.504	141.56
321.733	134.56
321.962	148.56
322.191	138.56
322.42	138.56
322.649	143.56
322.878	149.56
323.108	156.56
323.337	135.56
323.566	127.56
323.795	138.56
324.024	153.56
324.253	135.56
324.482	146.56
324.71	132.56
324.939	135.56
325.168	139.56
325.397	135.56
325.626	136.56
325.855	125.56
326.084	148.56
326.313	143.56
326.542	133.56
326.77	149.56
326.999	140.56
327.228	144.56
327.457	138.56
327.686	151.56
327.914	144.56
328.143	144.56
328.372	146.56
328.6	129.56
328.829	144.56
329.058	151.56
329.287	137.56
329.515	147.56
329.744	155.56
329.972	131.56
330.201	136.56
330.43	135.56
330.658	139.56
330.887	141.56
331.115	142.56
331.344	145.56
331.572	153.56
331.801	141.56
332.03	136.56
332.258	143.56
332.486	151.56
332.715	146.56
332.943	134.56
333.172	143.56
333.4	142.56
333.629	135.56
333.857	139.56
334.085	128.56
334.314	145.56
334.542	149.56
334.771	146.56
334.999	129.56
335.227	124.56
335.455	150.56
335.684	154.56
335.912	136.56
336.14	143.56
336.369	129.56
336.597	143.56
336.825	142.56
337.053	145.56
337.281	151.56
337.51	149.56
337.738	146.56
337.966	141.56
338.194	131.56
338.422	136.56
338.65	140.56
338.878	154.56
339.106	150.56
339.334	162.56
339.562	152.56
339.79	150.56
340.018	143.56
340.246	134.56
340.474	140.56
340.702	139.56
340.93	144.56
341.158	145.56
341.386	139.56
341.614	139.56
341.842	116.56
342.07	119.56
342.298	163.56
342.526	146.56
342.754	141.56
342.981	134.56
343.209	132.56
343.437	166.56
343.665	141.56
343.893	148.56
344.12	156.56
344.348	127.56
344.576	135.56
344.804	144.56
345.031	144.56
345.259	138.56
345.487	134.56
345.714	131.56
345.942	135.56
346.17	128.56
346.397	147.56
346.625	147.56
346.853	141.56
347.08	124.56
347.308	152.56
347.535	133.56
347.763	131.56
347.99	145.56
348.218	161.56
348.445	148.56
348.673	144.56
348.9	145.56
349.128	133.56
349.355	140.56
349.583	123.56
349.81	132.56
350.037	150.56
350.265	142.56
350.492	135.56
350.72	129.56
350.947	129.56
351.174	124.56
351.402	132.56
351.629	150.56
351.856	141.56
352.083	132.56
352.311	148.56
352.538	134.56
352.765	136.56
352.992	183.56
353.22	148.56
353.447	136.56
353.674	128.56
353.901	137.56
354.128	142.56
354.355	122.56
354.583	153.56
354.81	150.56
355.037	158.56
355.264	158.56
355.491	139.56
355.718	140.56
355.945	160.56
356.172	142.56
356.399	156.56
356.626	154.56
356.853	176.56
357.08	238.56
357.307	255.56
357.534	252.56
357.761	211.56
357.988	206.56
358.215	176.56
358.441	168.56
358.668	174.56
358.895	186.56
359.122	165.56
359.349	165.56
359.576	150.56
359.802	158.56
360.029	151.56
360.256	151.56
360.483	143.56
360.709	150.56
360.936	154.56
361.163	148.56
361.39	153.56
361.616	156.56
361.843	151.56
362.07	160.56
362.296	158.56
362.523	131.56
362.749	146.56
362.976	152.56
363.203	188.56
363.429	186.56
363.656	210.56
363.882	256.56
364.109	284.56
364.335	237.56
364.562	210.56
364.788	174.56
365.015	190.56
365.241	165.56
365.468	178.56
365.694	167.56
365.92	155.56
366.147	159.56
366.373	162.56
366.599	178.56
366.826	163.56
367.052	184.56
367.278	220.56
367.505	207.56
367.731	231.56
367.957	216.56
368.184	285.56
368.41	352.56
368.636	335.56
368.862	251.56
369.089	208.56
369.315	192.56
369.541	181.56
369.767	194.56
369.993	165.56
370.219	164.56
370.445	156.56
370.672	155.56
370.898	151.56
371.124	155.56
371.35	162.56
371.576	167.56
371.802	159.56
372.028	146.56
372.254	164.56
372.48	152.56
372.706	163.56
372.932	151.56
373.158	176.56
373.384	170.56
373.61	200.56
373.835	226.56
374.061	265.56
374.287	246.56
374.513	219.56
374.739	175.56
374.965	171.56
375.191	170.56
375.416	158.56
375.642	177.56
375.868	166.56
376.094	154.56
376.319	141.56
376.545	164.56
376.771	154.56
376.997	157.56
377.222	151.56
377.448	157.56
377.674	148.56
377.899	149.56
378.125	148.56
378.35	152.56
378.576	148.56
378.802	135.56
379.027	150.56
379.253	172.56
379.478	158.56
379.704	143.56
379.929	145.56
380.155	145.56
380.38	147.56
380.606	141.56
380.831	147.56
381.057	169.56
381.282	151.56
381.507	144.56
381.733	165.56
381.958	152.56
382.184	154.56
382.409	144.56
382.634	161.56
382.86	152.56
383.085	171.56
383.31	150.56
383.535	159.56
383.761	152.56
383.986	159.56
384.211	142.56
384.436	145.56
384.662	141.56
384.887	164.56
385.112	151.56
385.337	155.56
385.562	146.56
385.787	150.56
386.013	172.56
386.238	153.56
386.463	159.56
386.688	200.56
386.913	161.56
387.138	147.56
387.363	163.56
387.588	192.56
387.813	154.56
388.038	142.56
388.263	157.56
388.488	143.56
388.713	147.56
388.938	145.56
389.163	160.56
389.387	156.56
389.612	149.56
389.837	146.56
390.062	158.56
390.287	134.56
390.512	135.56
390.736	148.56
390.961	155.56
391.186	157.56
391.411	159.56
391.636	148.56
391.86	175.56
392.085	165.56
392.31	129.56
392.534	151.56
392.759	164.56
392.984	170.56
393.208	172.56
393.433	147.56
393.658	159.56
393.882	157.56
394.107	171.56
394.331	149.56
394.556	148.56
394.78	167.56
395.005	156.56
395.229	148.56
395.454	155.56
395.678	152.56
395.903	163.56
396.127	158.56
396.352	140.56
396.576	160.56
396.801	159.56
397.025	140.56
397.249	162.56
397.474	174.56
397.698	159.56
397.922	171.56
398.147	158.56
398.371	149.56
398.595	177.56
398.82	160.56
399.044	147.56
399.268	166.56
399.492	182.56
399.717	195.56
399.941	172.56
400.165	172.56
400.389	156.56
400.613	176.56
400.837	165.56
401.062	181.56
401.286	163.56
401.51	190.56
401.734	172.56
401.958	191.56
402.182	166.56
402.406	170.56
402.63	165.56
402.854	179.56
403.078	170.56
403.302	176.56
403.526	171.56
403.75	180.56
403.974	186.56
404.198	190.56
404.422	195.56
404.645	211.56
404.869	209.56
405.093	238.56
405.317	262.56
405.541	310.56
405.765	434.56
405.988	454.56
406.212	395.56
406.436	328.56
406.66	288.56
406.883	249.56
407.107	218.56
407.331	213.56
407.555	221.56
407.778	202.56
408.002	206.56
408.226	197.56
408.449	192.56
408.673	196.56
408.896	180.56
409.12	186.56
409.344	185.56
409.567	178.56
409.791	183.56
410.014	212.56
410.238	180.56
410.461	176.56
410.685	160.56
410.908	188.56
411.132	192.56
411.355	188.56
411.578	177.56
411.802	184.56
412.025	177.56
412.249	176.56
412.472	165.56
412.695	156.56
412.919	166.56
413.142	188.56
413.365	190.56
413.589	175.56
413.812	176.56
414.035	172.56
414.258	174.56
414.482	183.56
414.705	166.56
414.928	183.56
415.151	174.56
415.374	171.56
415.597	165.56
415.821	167.56
416.044	191.56
416.267	176.56
416.49	171.56
416.713	204.56
416.936	203.56
417.159	175.56
417.382	168.56
417.605	174.56
417.828	190.56
418.051	169.56
418.274	192.56
418.497	171.56
418.72	166.56
418.943	188.56
419.166	200.56
419.389	170.56
419.611	174.56
419.834	172.56
420.057	187.56
420.28	176.56
420.503	186.56
420.726	165.56
420.948	176.56
421.171	181.56
421.394	186.56
421.617	180.56
421.839	162.56
422.062	195.56
422.285	195.56
422.507	188.56
422.73	183.56
422.953	200.56
423.175	189.56
423.398	200.56
423.621	215.56
423.843	214.56
424.066	219.56
424.288	246.56
424.511	254.56
424.733	272.56
424.956	277.56
425.178	256.56
425.401	252.56
425.623	242.56
425.846	211.56
426.068	231.56
426.291	204.56
426.513	190.56
426.735	211.56
426.958	210.56
427.18	186.56
427.402	210.56
427.625	203.56
427.847	168.56
428.069	191.56
428.292	186.56
428.514	202.56
428.736	196.56
428.958	190.56
429.181	190.56
429.403	184.56
429.625	190.56
429.847	174.56
430.069	175.56
430.292	194.56
430.514	181.56
430.736	175.56
430.958	174.56
431.18	186.56
431.402	185.56
431.624	181.56
431.846	148.56
432.068	188.56
432.29	175.56
432.512	182.56
432.734	196.56
432.956	181.56
433.178	186.56
433.4	173.56
433.622	206.56
433.844	198.56
434.066	173.56
434.287	180.56
434.509	170.56
434.731	165.56
434.953	186.56
435.175	155.56
435.397	197.56
435.618	174.56
435.84	183.56
436.062	194.56
436.284	199.56
436.505	176.56
436.727	206.56
436.949	197.56
437.17	198.56
437.392	196.56
437.614	200.56
437.835	200.56
438.057	201.56
438.278	214.56
438.5	233.56
438.721	264.56
438.943	266.56
439.165	249.56
439.386	244.56
439.608	246.56
439.829	242.56
440.05	247.56
440.272	234.56
440.493	249.56
440.715	238.56
440.936	256.56
441.158	254.56
441.379	216.56
441.6	218.56
441.822	224.56
442.043	207.56
442.264	218.56
442.486	196.56
442.707	215.56
442.928	210.56
443.149	206.56
443.371	211.56
443.592	213.56
443.813	208.56
444.034	202.56
444.255	195.56
444.476	215.56
444.698	208.56
444.919	213.56
445.14	494.56
445.361	342.56
445.582	223.56
445.803	198.56
446.024	193.56
446.245	205.56
446.466	205.56
446.687	195.56
446.908	214.56
447.129	202.56
447.35	191.56
447.571	211.56
447.792	197.56
448.013	170.56
448.234	172.56
448.455	199.56
448.675	173.56
448.896	190.56
449.117	186.56
449.338	215.56
449.559	193.56
449.779	175.56
450	167.56
450.221	204.56
450.442	174.56
450.662	175.56
450.883	178.56
451.104	198.56
451.324	162.56
451.545	173.56
451.766	164.56
451.986	169.56
452.207	192.56
452.428	188.56
452.648	184.56
452.869	170.56
453.089	165.56
453.31	170.56
453.53	177.56
453.751	155.56
453.971	155.56
454.192	152.56
454.412	181.56
454.633	158.56
454.853	177.56
455.073	171.56
455.294	165.56
455.514	181.56
455.734	169.56
455.955	188.56
456.175	160.56
456.395	163.56
456.616	173.56
456.836	163.56
457.056	177.56
457.276	164.56
457.497	163.56
457.717	156.56
457.937	160.56
458.157	163.56
458.377	159.56
458.598	154.56
458.818	141.56
459.038	148.56
459.258	167.56
459.478	166.56
459.698	139.56
459.918	158.56
460.138	167.56
460.358	174.56
460.578	188.56
460.798	179.56
461.018	177.56
461.238	182.56
461.458	167.56
461.678	178.56
461.898	159.56
462.118	182.56
462.338	176.56
462.558	167.56
462.777	176.56
462.997	154.56
463.217	182.56
463.437	176.56
463.657	172.56
463.876	163.56
464.096	167.56
464.316	183.56
464.536	181.56
464.755	176.56
464.975	162.56
465.195	159.56
465.414	173.56
465.634	170.56
465.854	146.56
466.073	171.56
466.293	169.56
466.512	185.56
466.732	158.56
466.951	176.56
467.171	160.56
467.391	178.56
467.61	172.56
467.829	164.56
468.049	175.56
468.268	172.56
468.488	157.56
468.707	179.56
468.927	176.56
469.146	155.56
469.365	190.56
469.585	189.56
469.804	175.56
470.023	187.56
470.243	166.56
470.462	186.56
470.681	178.56
470.901	179.56
471.12	166.56
471.339	180.56
471.558	191.56
471.777	190.56
471.997	172.56
472.216	178.56
472.435	160.56
472.654	148.56
472.873	180.56
473.092	177.56
473.311	182.56
473.53	173.56
473.749	190.56
473.968	192.56
474.187	176.56
474.406	156.56
474.625	196.56
474.844	189.56
475.063	164.56
475.282	158.56
475.501	170.56
475.72	195.56
475.939	162.56
476.158	159.56
476.377	159.56
476.596	176.56
476.814	174.56
477.033	184.56
477.252	178.56
477.471	174.56
477.69	182.56
477.908	197.56
478.127	200.56
478.346	179.56
478.564	205.56
478.783	176.56
479.002	197.56
479.22	192.56
479.439	198.56
479.658	179.56
479.876	170.56
480.095	165.56
480.313	194.56
480.532	185.56
480.751	175.56
480.969	159.56
481.188	168.56
481.406	196.56
481.624	180.56
481.843	175.56
482.061	159.56
482.28	192.56
482.498	171.56
482.717	195.56
482.935	186.56
483.153	186.56
483.372	201.56
483.59	209.56
483.808	197.56
484.027	208.56
484.245	204.56
484.463	180.56
484.681	195.56
484.9	197.56
485.118	196.56
485.336	176.56
485.554	161.56
485.772	175.56
485.99	174.56
486.209	166.56
486.427	165.56
486.645	195.56
486.863	203.56
487.081	202.56
487.299	195.56
487.517	198.56
487.735	198.56
487.953	217.56
488.171	193.56
488.389	206.56
488.607	196.56
488.825	197.56
489.043	204.56
489.261	212.56
489.479	198.56
489.696	192.56
489.914	180.56
490.132	179.56
490.35	198.56
490.568	213.56
490.786	212.56
491.003	212.56
491.221	193.56
491.439	226.56
491.657	201.56
491.874	227.56
492.092	252.56
492.31	236.56
492.527	224.56
492.745	221.56
492.963	229.56
493.18	222.56
493.398	201.56
493.615	189.56
493.833	212.56
494.05	221.56
494.268	206.56
494.485	214.56
494.703	206.56
494.92	218.56
495.138	207.56
495.355	206.56
495.573	216.56
495.79	211.56
496.008	230.56
496.225	225.56
496.442	204.56
496.66	220.56
496.877	204.56
497.094	235.56
497.312	199.56
497.529	216.56
497.746	223.56
497.963	196.56
498.181	213.56
498.398	228.56
498.615	204.56
498.832	208.56
499.049	215.56
499.267	212.56
499.484	207.56
499.701	212.56
499.918	242.56
500.135	240.56
500.352	245.56
500.569	269.56
500.786	305.56
501.003	268.56
501.22	247.56
501.437	227.56
501.654	234.56
501.871	223.56
502.088	215.56
502.305	225.56
502.522	219.56
502.739	223.56
502.956	217.56
503.172	221.56
503.389	218.56
503.606	206.56
