Data from TenMicroDelayPb_HRD10591_00003.txt Node
Date: Mon Nov 24 14:55:44 EST 2025
User: Yrep
Spectrometer: HR+D1059
Trigger mode: 5
Integration Time (sec): 1.000000E-3
Scans to average: 1
Electric dark correction enabled: true
Nonlinearity correction enabled: false
Boxcar width: 0
XAxis mode: Wavelengths
Number of Pixels in Spectrum: 2048
>>>>>Begin Spectral Data<<<<<
223.165	-20.81
223.4	-20.81
223.635	-20.81
223.869	-29.81
224.104	-33.81
224.338	1.19
224.573	-14.81
224.808	-7.81
225.042	-5.81
225.277	1.19
225.511	-3.81
225.746	12.19
225.98	5.19
226.215	10.19
226.449	2.19
226.683	33.19
226.918	24.19
227.152	27.19
227.387	28.19
227.621	37.19
227.856	36.19
228.09	49.19
228.324	36.19
228.559	47.19
228.793	59.19
229.027	63.19
229.262	71.19
229.496	69.19
229.73	58.19
229.964	79.19
230.199	81.19
230.433	79.19
230.667	102.19
230.901	86.19
231.136	72.19
231.37	71.19
231.604	90.19
231.838	82.19
232.072	94.19
232.306	88.19
232.541	92.19
232.775	89.19
233.009	95.19
233.243	92.19
233.477	84.19
233.711	93.19
233.945	115.19
234.179	91.19
234.413	83.19
234.647	90.19
234.881	88.19
235.115	82.19
235.349	79.19
235.583	75.19
235.817	87.19
236.051	69.19
236.285	101.19
236.519	91.19
236.753	99.19
236.987	88.19
237.221	79.19
237.455	97.19
237.689	85.19
237.922	96.19
238.156	85.19
238.39	88.19
238.624	77.19
238.858	91.19
239.091	101.19
239.325	93.19
239.559	99.19
239.793	99.19
240.027	94.19
240.26	103.19
240.494	95.19
240.728	88.19
240.961	79.19
241.195	97.19
241.429	92.19
241.662	91.19
241.896	89.19
242.13	96.19
242.363	76.19
242.597	83.19
242.83	80.19
243.064	94.19
243.298	79.19
243.531	83.19
243.765	101.19
243.998	95.19
244.232	104.19
244.465	86.19
244.699	88.19
244.932	89.19
245.166	76.19
245.399	105.19
245.633	88.19
245.866	77.19
246.099	78.19
246.333	85.19
246.566	81.19
246.8	93.19
247.033	100.19
247.266	92.19
247.5	68.19
247.733	99.19
247.966	107.19
248.2	84.19
248.433	92.19
248.666	86.19
248.899	97.19
249.133	106.19
249.366	107.19
249.599	92.19
249.832	93.19
250.066	111.19
250.299	84.19
250.532	97.19
250.765	94.19
250.998	100.19
251.231	69.19
251.465	88.19
251.698	96.19
251.931	115.19
252.164	105.19
252.397	103.19
252.63	96.19
252.863	104.19
253.096	108.19
253.329	118.19
253.562	97.19
253.795	102.19
254.028	120.19
254.261	102.19
254.494	112.19
254.727	117.19
254.96	114.19
255.193	104.19
255.426	115.19
255.659	111.19
255.892	117.19
256.124	111.19
256.357	105.19
256.59	99.19
256.823	113.19
257.056	104.19
257.289	111.19
257.521	109.19
257.754	84.19
257.987	108.19
258.22	115.19
258.452	103.19
258.685	123.19
258.918	111.19
259.151	115.19
259.383	107.19
259.616	112.19
259.849	109.19
260.081	127.19
260.314	113.19
260.547	107.19
260.779	132.19
261.012	133.19
261.244	132.19
261.477	156.19
261.71	147.19
261.942	124.19
262.175	126.19
262.407	106.19
262.64	110.19
262.872	106.19
263.105	111.19
263.337	111.19
263.57	102.19
263.802	112.19
264.035	121.19
264.267	122.19
264.499	109.19
264.732	122.19
264.964	143.19
265.197	125.19
265.429	131.19
265.661	120.19
265.894	106.19
266.126	128.19
266.358	129.19
266.591	139.19
266.823	124.19
267.055	111.19
267.287	125.19
267.52	105.19
267.752	120.19
267.984	112.19
268.216	114.19
268.448	126.19
268.681	125.19
268.913	125.19
269.145	108.19
269.377	106.19
269.609	113.19
269.841	125.19
270.073	120.19
270.306	113.19
270.538	133.19
270.77	97.19
271.002	114.19
271.234	115.19
271.466	123.19
271.698	119.19
271.93	102.19
272.162	112.19
272.394	104.19
272.626	101.19
272.858	108.19
273.09	122.19
273.322	113.19
273.553	94.19
273.785	120.19
274.017	103.19
274.249	125.19
274.481	110.19
274.713	96.19
274.945	112.19
275.176	111.19
275.408	118.19
275.64	105.19
275.872	111.19
276.104	126.19
276.335	115.19
276.567	116.19
276.799	104.19
277.031	93.19
277.262	118.19
277.494	127.19
277.726	126.19
277.957	116.19
278.189	126.19
278.421	119.19
278.652	136.19
278.884	117.19
279.115	135.19
279.347	149.19
279.579	159.19
279.81	161.19
280.042	186.19
280.273	206.19
280.505	206.19
280.736	157.19
280.968	155.19
281.199	143.19
281.431	148.19
281.662	137.19
281.894	144.19
282.125	149.19
282.356	154.19
282.588	145.19
282.819	167.19
283.051	130.19
283.282	173.19
283.513	186.19
283.745	160.19
283.976	131.19
284.207	129.19
284.439	147.19
284.67	126.19
284.901	131.19
285.132	112.19
285.364	120.19
285.595	146.19
285.826	119.19
286.057	143.19
286.288	132.19
286.52	155.19
286.751	124.19
286.982	135.19
287.213	155.19
287.444	181.19
287.675	152.19
287.906	139.19
288.138	114.19
288.369	130.19
288.6	121.19
288.831	123.19
289.062	133.19
289.293	121.19
289.524	108.19
289.755	115.19
289.986	121.19
290.217	135.19
290.448	119.19
290.679	124.19
290.91	137.19
291.141	124.19
291.371	120.19
291.602	102.19
291.833	108.19
292.064	123.19
292.295	119.19
292.526	116.19
292.757	126.19
292.987	116.19
293.218	121.19
293.449	124.19
293.68	121.19
293.91	110.19
294.141	133.19
294.372	118.19
294.603	149.19
294.833	123.19
295.064	116.19
295.295	112.19
295.525	125.19
295.756	117.19
295.987	120.19
296.217	125.19
296.448	122.19
296.679	123.19
296.909	125.19
297.14	132.19
297.37	135.19
297.601	114.19
297.831	107.19
298.062	132.19
298.292	128.19
298.523	124.19
298.753	106.19
298.984	115.19
299.214	136.19
299.445	136.19
299.675	142.19
299.905	117.19
300.136	118.19
300.366	121.19
300.597	138.19
300.827	117.19
301.057	125.19
301.288	131.19
301.518	122.19
301.748	127.19
301.979	177.19
302.209	127.19
302.439	117.19
302.669	133.19
302.9	117.19
303.13	132.19
303.36	132.19
303.59	138.19
303.82	150.19
304.051	121.19
304.281	141.19
304.511	140.19
304.741	123.19
304.971	121.19
305.201	140.19
305.431	121.19
305.661	129.19
305.891	136.19
306.121	121.19
306.352	128.19
306.582	126.19
306.812	117.19
307.042	128.19
307.272	129.19
307.502	132.19
307.731	142.19
307.961	126.19
308.191	117.19
308.421	119.19
308.651	126.19
308.881	128.19
309.111	139.19
309.341	117.19
309.571	128.19
309.8	112.19
310.03	120.19
310.26	111.19
310.49	142.19
310.72	129.19
310.949	128.19
311.179	124.19
311.409	121.19
311.639	138.19
311.868	136.19
312.098	135.19
312.328	128.19
312.557	136.19
312.787	127.19
313.017	140.19
313.246	144.19
313.476	139.19
313.706	126.19
313.935	129.19
314.165	145.19
314.394	136.19
314.624	149.19
314.853	146.19
315.083	137.19
315.312	138.19
315.542	150.19
315.771	143.19
316.001	152.19
316.23	137.19
316.46	158.19
316.689	146.19
316.919	139.19
317.148	158.19
317.377	161.19
317.607	146.19
317.836	137.19
318.065	133.19
318.295	147.19
318.524	133.19
318.753	148.19
318.983	135.19
319.212	145.19
319.441	134.19
319.67	142.19
319.9	128.19
320.129	140.19
320.358	147.19
320.587	123.19
320.816	137.19
321.046	128.19
321.275	159.19
321.504	120.19
321.733	123.19
321.962	121.19
322.191	149.19
322.42	137.19
322.649	127.19
322.878	143.19
323.108	130.19
323.337	134.19
323.566	120.19
323.795	148.19
324.024	149.19
324.253	133.19
324.482	132.19
324.71	147.19
324.939	149.19
325.168	148.19
325.397	140.19
325.626	143.19
325.855	137.19
326.084	137.19
326.313	119.19
326.542	119.19
326.77	146.19
326.999	125.19
327.228	126.19
327.457	138.19
327.686	138.19
327.914	135.19
328.143	147.19
328.372	137.19
328.6	129.19
328.829	142.19
329.058	147.19
329.287	127.19
329.515	124.19
329.744	144.19
329.972	128.19
330.201	125.19
330.43	132.19
330.658	122.19
330.887	116.19
331.115	139.19
331.344	141.19
331.572	145.19
331.801	128.19
332.03	142.19
332.258	139.19
332.486	129.19
332.715	138.19
332.943	136.19
333.172	126.19
333.4	143.19
333.629	140.19
333.857	133.19
334.085	127.19
334.314	141.19
334.542	136.19
334.771	137.19
334.999	132.19
335.227	132.19
335.455	128.19
335.684	151.19
335.912	155.19
336.14	132.19
336.369	130.19
336.597	129.19
336.825	135.19
337.053	133.19
337.281	128.19
337.51	136.19
337.738	149.19
337.966	133.19
338.194	136.19
338.422	133.19
338.65	155.19
338.878	143.19
339.106	133.19
339.334	163.19
339.562	142.19
339.79	129.19
340.018	136.19
340.246	116.19
340.474	132.19
340.702	128.19
340.93	151.19
341.158	149.19
341.386	125.19
341.614	134.19
341.842	133.19
342.07	135.19
342.298	139.19
342.526	134.19
342.754	139.19
342.981	137.19
343.209	131.19
343.437	180.19
343.665	133.19
343.893	126.19
344.12	138.19
344.348	150.19
344.576	141.19
344.804	117.19
345.031	136.19
345.259	147.19
345.487	131.19
345.714	135.19
345.942	123.19
346.17	137.19
346.397	129.19
346.625	133.19
346.853	136.19
347.08	125.19
347.308	133.19
347.535	131.19
347.763	128.19
347.99	138.19
348.218	141.19
348.445	126.19
348.673	129.19
348.9	136.19
349.128	137.19
349.355	129.19
349.583	125.19
349.81	132.19
350.037	114.19
350.265	126.19
350.492	145.19
350.72	122.19
350.947	134.19
351.174	141.19
351.402	125.19
351.629	116.19
351.856	122.19
352.083	127.19
352.311	128.19
352.538	119.19
352.765	133.19
352.992	143.19
353.22	141.19
353.447	133.19
353.674	146.19
353.901	146.19
354.128	136.19
354.355	127.19
354.583	129.19
354.81	161.19
355.037	120.19
355.264	134.19
355.491	132.19
355.718	153.19
355.945	145.19
356.172	136.19
356.399	144.19
356.626	149.19
356.853	181.19
357.08	203.19
357.307	233.19
357.534	235.19
357.761	201.19
357.988	181.19
358.215	198.19
358.441	163.19
358.668	145.19
358.895	151.19
359.122	153.19
359.349	132.19
359.576	149.19
359.802	146.19
360.029	154.19
360.256	145.19
360.483	136.19
360.709	155.19
360.936	159.19
361.163	131.19
361.39	139.19
361.616	143.19
361.843	134.19
362.07	149.19
362.296	144.19
362.523	140.19
362.749	136.19
362.976	153.19
363.203	181.19
363.429	175.19
363.656	211.19
363.882	257.19
364.109	295.19
364.335	248.19
364.562	187.19
364.788	188.19
365.015	162.19
365.241	170.19
365.468	157.19
365.694	153.19
365.92	145.19
366.147	158.19
366.373	150.19
366.599	159.19
366.826	169.19
367.052	180.19
367.278	199.19
367.505	191.19
367.731	220.19
367.957	218.19
368.184	279.19
368.41	351.19
368.636	325.19
368.862	245.19
369.089	204.19
369.315	197.19
369.541	194.19
369.767	186.19
369.993	159.19
370.219	162.19
370.445	161.19
370.672	141.19
370.898	156.19
371.124	152.19
371.35	144.19
371.576	152.19
371.802	151.19
372.028	151.19
372.254	141.19
372.48	145.19
372.706	145.19
372.932	167.19
373.158	160.19
373.384	161.19
373.61	190.19
373.835	231.19
374.061	249.19
374.287	263.19
374.513	221.19
374.739	180.19
374.965	164.19
375.191	172.19
375.416	159.19
375.642	151.19
375.868	156.19
376.094	129.19
376.319	130.19
376.545	156.19
376.771	139.19
376.997	146.19
377.222	159.19
377.448	150.19
377.674	141.19
377.899	135.19
378.125	137.19
378.35	142.19
378.576	146.19
378.802	151.19
379.027	147.19
379.253	143.19
379.478	137.19
379.704	144.19
379.929	133.19
380.155	144.19
380.38	131.19
380.606	151.19
380.831	148.19
381.057	174.19
381.282	139.19
381.507	163.19
381.733	153.19
381.958	150.19
382.184	148.19
382.409	150.19
382.634	146.19
382.86	148.19
383.085	145.19
383.31	147.19
383.535	146.19
383.761	155.19
383.986	141.19
384.211	134.19
384.436	144.19
384.662	156.19
384.887	145.19
385.112	147.19
385.337	173.19
385.562	145.19
385.787	152.19
386.013	145.19
386.238	148.19
386.463	129.19
386.688	193.19
386.913	154.19
387.138	131.19
387.363	139.19
387.588	154.19
387.813	156.19
388.038	126.19
388.263	140.19
388.488	138.19
388.713	146.19
388.938	144.19
389.163	153.19
389.387	165.19
389.612	149.19
389.837	129.19
390.062	159.19
390.287	144.19
390.512	143.19
390.736	144.19
390.961	146.19
391.186	158.19
391.411	152.19
391.636	149.19
391.86	145.19
392.085	142.19
392.31	143.19
392.534	151.19
392.759	147.19
392.984	152.19
393.208	140.19
393.433	149.19
393.658	145.19
393.882	146.19
394.107	165.19
394.331	155.19
394.556	140.19
394.78	157.19
395.005	140.19
395.229	136.19
395.454	147.19
395.678	149.19
395.903	157.19
396.127	162.19
396.352	142.19
396.576	128.19
396.801	139.19
397.025	164.19
397.249	149.19
397.474	168.19
397.698	143.19
397.922	155.19
398.147	149.19
398.371	153.19
398.595	159.19
398.82	131.19
399.044	152.19
399.268	169.19
399.492	161.19
399.717	168.19
399.941	148.19
400.165	173.19
400.389	167.19
400.613	186.19
400.837	152.19
401.062	159.19
401.286	149.19
401.51	171.19
401.734	164.19
401.958	186.19
402.182	169.19
402.406	170.19
402.63	159.19
402.854	166.19
403.078	179.19
403.302	165.19
403.526	148.19
403.75	187.19
403.974	176.19
404.198	181.19
404.422	178.19
404.645	197.19
404.869	206.19
405.093	213.19
405.317	215.19
405.541	307.19
405.765	427.19
405.988	481.19
406.212	376.19
406.436	309.19
406.66	243.19
406.883	225.19
407.107	225.19
407.331	207.19
407.555	190.19
407.778	187.19
408.002	197.19
408.226	185.19
408.449	187.19
408.673	191.19
408.896	184.19
409.12	183.19
409.344	170.19
409.567	179.19
409.791	190.19
410.014	175.19
410.238	163.19
410.461	156.19
410.685	169.19
410.908	191.19
411.132	196.19
411.355	165.19
411.578	188.19
411.802	165.19
412.025	164.19
412.249	167.19
412.472	171.19
412.695	181.19
412.919	175.19
413.142	156.19
413.365	136.19
413.589	161.19
413.812	153.19
414.035	170.19
414.258	165.19
414.482	163.19
414.705	141.19
414.928	165.19
415.151	141.19
415.374	165.19
415.597	177.19
415.821	167.19
416.044	165.19
416.267	175.19
416.49	168.19
416.713	170.19
416.936	180.19
417.159	168.19
417.382	156.19
417.605	165.19
417.828	174.19
418.051	161.19
418.274	183.19
418.497	165.19
418.72	161.19
418.943	189.19
419.166	169.19
419.389	179.19
419.611	181.19
419.834	160.19
420.057	183.19
420.28	168.19
420.503	185.19
420.726	167.19
420.948	170.19
421.171	165.19
421.394	159.19
421.617	179.19
421.839	169.19
422.062	179.19
422.285	174.19
422.507	189.19
422.73	170.19
422.953	163.19
423.175	164.19
423.398	196.19
423.621	202.19
423.843	205.19
424.066	208.19
424.288	221.19
424.511	252.19
424.733	241.19
424.956	239.19
425.178	230.19
425.401	233.19
425.623	203.19
425.846	214.19
426.068	205.19
426.291	205.19
426.513	196.19
426.735	203.19
426.958	188.19
427.18	191.19
427.402	198.19
427.625	185.19
427.847	194.19
428.069	170.19
428.292	160.19
428.514	179.19
428.736	196.19
428.958	179.19
429.181	183.19
429.403	185.19
429.625	190.19
429.847	170.19
430.069	177.19
430.292	197.19
430.514	171.19
430.736	164.19
430.958	180.19
431.18	168.19
431.402	175.19
431.624	176.19
431.846	168.19
432.068	167.19
432.29	152.19
432.512	191.19
432.734	160.19
432.956	178.19
433.178	187.19
433.4	180.19
433.622	197.19
433.844	199.19
434.066	192.19
434.287	155.19
434.509	164.19
434.731	173.19
434.953	179.19
435.175	172.19
435.397	171.19
435.618	171.19
435.84	183.19
436.062	181.19
436.284	184.19
436.505	172.19
436.727	184.19
436.949	200.19
437.17	185.19
437.392	189.19
437.614	197.19
437.835	189.19
438.057	190.19
438.278	190.19
438.5	234.19
438.721	245.19
438.943	254.19
439.165	255.19
439.386	226.19
439.608	238.19
439.829	229.19
440.05	223.19
440.272	225.19
440.493	221.19
440.715	231.19
440.936	256.19
441.158	245.19
441.379	209.19
441.6	229.19
441.822	210.19
442.043	200.19
442.264	190.19
442.486	197.19
442.707	192.19
442.928	188.19
443.149	194.19
443.371	193.19
443.592	201.19
443.813	189.19
444.034	170.19
444.255	196.19
444.476	194.19
444.698	190.19
444.919	203.19
445.14	490.19
445.361	327.19
445.582	222.19
445.803	197.19
446.024	203.19
446.245	208.19
446.466	208.19
446.687	191.19
446.908	188.19
447.129	186.19
447.35	185.19
447.571	176.19
447.792	177.19
448.013	182.19
448.234	163.19
448.455	184.19
448.675	179.19
448.896	184.19
449.117	190.19
449.338	177.19
449.559	195.19
449.779	172.19
450	164.19
450.221	193.19
450.442	174.19
450.662	179.19
450.883	168.19
451.104	187.19
451.324	171.19
451.545	183.19
451.766	158.19
451.986	158.19
452.207	160.19
452.428	187.19
452.648	179.19
452.869	171.19
453.089	152.19
453.31	147.19
453.53	156.19
453.751	171.19
453.971	144.19
454.192	147.19
454.412	151.19
454.633	160.19
454.853	160.19
455.073	159.19
455.294	165.19
455.514	160.19
455.734	159.19
455.955	167.19
456.175	156.19
456.395	160.19
456.616	153.19
456.836	148.19
457.056	153.19
457.276	147.19
457.497	138.19
457.717	149.19
457.937	146.19
458.157	147.19
458.377	158.19
458.598	129.19
458.818	158.19
459.038	148.19
459.258	147.19
459.478	148.19
459.698	136.19
459.918	156.19
460.138	151.19
460.358	157.19
460.578	181.19
460.798	148.19
461.018	149.19
461.238	163.19
461.458	166.19
461.678	174.19
461.898	174.19
462.118	156.19
462.338	164.19
462.558	163.19
462.777	177.19
462.997	164.19
463.217	155.19
463.437	164.19
463.657	155.19
463.876	165.19
464.096	171.19
464.316	152.19
464.536	156.19
464.755	175.19
464.975	148.19
465.195	163.19
465.414	171.19
465.634	172.19
465.854	157.19
466.073	168.19
466.293	164.19
466.512	163.19
466.732	169.19
466.951	165.19
467.171	173.19
467.391	184.19
467.61	168.19
467.829	155.19
468.049	143.19
468.268	164.19
468.488	176.19
468.707	168.19
468.927	163.19
469.146	163.19
469.365	164.19
469.585	189.19
469.804	183.19
470.023	167.19
470.243	176.19
470.462	175.19
470.681	152.19
470.901	171.19
471.12	169.19
471.339	185.19
471.558	170.19
471.777	159.19
471.997	169.19
472.216	176.19
472.435	167.19
472.654	172.19
472.873	168.19
473.092	149.19
473.311	164.19
473.53	169.19
473.749	161.19
473.968	183.19
474.187	146.19
474.406	145.19
474.625	154.19
474.844	177.19
475.063	159.19
475.282	173.19
475.501	155.19
475.72	180.19
475.939	169.19
476.158	184.19
476.377	159.19
476.596	173.19
476.814	161.19
477.033	147.19
477.252	163.19
477.471	166.19
477.69	166.19
477.908	188.19
478.127	187.19
478.346	183.19
478.564	179.19
478.783	197.19
479.002	189.19
479.22	191.19
479.439	193.19
479.658	177.19
479.876	181.19
480.095	171.19
480.313	181.19
480.532	174.19
480.751	191.19
480.969	152.19
481.188	163.19
481.406	172.19
481.624	166.19
481.843	152.19
482.061	157.19
482.28	177.19
482.498	158.19
482.717	171.19
482.935	202.19
483.153	191.19
483.372	183.19
483.59	189.19
483.808	181.19
484.027	157.19
484.245	199.19
484.463	171.19
484.681	197.19
484.9	201.19
485.118	192.19
485.336	174.19
485.554	167.19
485.772	175.19
485.99	180.19
486.209	169.19
486.427	154.19
486.645	175.19
486.863	181.19
487.081	167.19
487.299	172.19
487.517	187.19
487.735	192.19
487.953	199.19
488.171	205.19
488.389	185.19
488.607	191.19
488.825	168.19
489.043	181.19
489.261	196.19
489.479	187.19
489.696	184.19
489.914	175.19
490.132	198.19
490.35	196.19
490.568	204.19
490.786	197.19
491.003	212.19
491.221	219.19
491.439	205.19
491.657	209.19
491.874	216.19
492.092	215.19
492.31	235.19
492.527	205.19
492.745	224.19
492.963	209.19
493.18	212.19
493.398	220.19
493.615	197.19
493.833	203.19
494.05	188.19
494.268	202.19
494.485	205.19
494.703	211.19
494.92	222.19
495.138	203.19
495.355	210.19
495.573	212.19
495.79	204.19
496.008	214.19
496.225	199.19
496.442	193.19
496.66	214.19
496.877	209.19
497.094	215.19
497.312	223.19
497.529	212.19
497.746	201.19
497.963	190.19
498.181	188.19
498.398	189.19
498.615	201.19
498.832	198.19
499.049	203.19
499.267	231.19
499.484	219.19
499.701	247.19
499.918	239.19
500.135	223.19
500.352	238.19
500.569	247.19
500.786	303.19
501.003	255.19
501.22	233.19
501.437	230.19
501.654	219.19
501.871	211.19
502.088	215.19
502.305	223.19
502.522	239.19
502.739	206.19
502.956	200.19
503.172	211.19
503.389	199.19
503.606	207.19
503.823	203.19
