Data from TenMicroDelayPb_HRD10591_00006.txt Node
Date: Mon Nov 24 14:55:46 EST 2025
User: Yrep
Spectrometer: HR+D1059
Trigger mode: 5
Integration Time (sec): 1.000000E-3
Scans to average: 1
Electric dark correction enabled: true
Nonlinearity correction enabled: false
Boxcar width: 0
XAxis mode: Wavelengths
Number of Pixels in Spectrum: 2048
>>>>>Begin Spectral Data<<<<<
223.165	-20.5
223.4	-20.5
223.635	-20.5
223.869	-30.5
224.104	-33.5
224.338	-8.5
224.573	-13.5
224.808	-8.5
225.042	-0.5
225.277	-12.5
225.511	0.5
225.746	15.5
225.98	10.5
226.215	10.5
226.449	18.5
226.683	12.5
226.918	20.5
227.152	39.5
227.387	25.5
227.621	43.5
227.856	66.5
228.09	48.5
228.324	52.5
228.559	46.5
228.793	54.5
229.027	69.5
229.262	86.5
229.496	65.5
229.73	68.5
229.964	72.5
230.199	96.5
230.433	73.5
230.667	79.5
230.901	95.5
231.136	87.5
231.37	86.5
231.604	84.5
231.838	81.5
232.072	102.5
232.306	79.5
232.541	93.5
232.775	87.5
233.009	106.5
233.243	87.5
233.477	86.5
233.711	92.5
233.945	90.5
234.179	96.5
234.413	88.5
234.647	94.5
234.881	98.5
235.115	94.5
235.349	89.5
235.583	83.5
235.817	83.5
236.051	88.5
236.285	79.5
236.519	88.5
236.753	92.5
236.987	86.5
237.221	84.5
237.455	88.5
237.689	82.5
237.922	87.5
238.156	87.5
238.39	90.5
238.624	83.5
238.858	94.5
239.091	87.5
239.325	94.5
239.559	82.5
239.793	98.5
240.027	114.5
240.26	103.5
240.494	104.5
240.728	88.5
240.961	85.5
241.195	91.5
241.429	95.5
241.662	81.5
241.896	84.5
242.13	88.5
242.363	86.5
242.597	84.5
242.83	93.5
243.064	95.5
243.298	85.5
243.531	100.5
243.765	90.5
243.998	87.5
244.232	104.5
244.465	90.5
244.699	108.5
244.932	96.5
245.166	103.5
245.399	86.5
245.633	81.5
245.866	103.5
246.099	106.5
246.333	90.5
246.566	76.5
246.8	93.5
247.033	84.5
247.266	89.5
247.5	105.5
247.733	94.5
247.966	77.5
248.2	92.5
248.433	91.5
248.666	92.5
248.899	83.5
249.133	97.5
249.366	105.5
249.599	99.5
249.832	99.5
250.066	122.5
250.299	103.5
250.532	113.5
250.765	96.5
250.998	103.5
251.231	86.5
251.465	107.5
251.698	107.5
251.931	120.5
252.164	108.5
252.397	105.5
252.63	111.5
252.863	101.5
253.096	103.5
253.329	117.5
253.562	95.5
253.795	96.5
254.028	116.5
254.261	109.5
254.494	96.5
254.727	124.5
254.96	105.5
255.193	109.5
255.426	122.5
255.659	111.5
255.892	117.5
256.124	116.5
256.357	114.5
256.59	113.5
256.823	97.5
257.056	98.5
257.289	105.5
257.521	107.5
257.754	125.5
257.987	129.5
258.22	124.5
258.452	125.5
258.685	110.5
258.918	121.5
259.151	113.5
259.383	125.5
259.616	116.5
259.849	112.5
260.081	115.5
260.314	121.5
260.547	121.5
260.779	106.5
261.012	140.5
261.244	145.5
261.477	161.5
261.71	159.5
261.942	140.5
262.175	119.5
262.407	118.5
262.64	122.5
262.872	117.5
263.105	122.5
263.337	128.5
263.57	120.5
263.802	122.5
264.035	121.5
264.267	127.5
264.499	122.5
264.732	131.5
264.964	127.5
265.197	115.5
265.429	138.5
265.661	114.5
265.894	118.5
266.126	135.5
266.358	133.5
266.591	138.5
266.823	123.5
267.055	109.5
267.287	121.5
267.52	108.5
267.752	108.5
267.984	132.5
268.216	112.5
268.448	122.5
268.681	115.5
268.913	109.5
269.145	106.5
269.377	112.5
269.609	114.5
269.841	115.5
270.073	116.5
270.306	129.5
270.538	107.5
270.77	113.5
271.002	121.5
271.234	97.5
271.466	116.5
271.698	109.5
271.93	121.5
272.162	116.5
272.394	116.5
272.626	127.5
272.858	110.5
273.09	115.5
273.322	106.5
273.553	116.5
273.785	127.5
274.017	100.5
274.249	106.5
274.481	107.5
274.713	112.5
274.945	127.5
275.176	101.5
275.408	122.5
275.64	121.5
275.872	107.5
276.104	132.5
276.335	112.5
276.567	112.5
276.799	114.5
277.031	111.5
277.262	136.5
277.494	125.5
277.726	122.5
277.957	115.5
278.189	122.5
278.421	148.5
278.652	132.5
278.884	129.5
279.115	131.5
279.347	133.5
279.579	149.5
279.81	174.5
280.042	181.5
280.273	193.5
280.505	177.5
280.736	155.5
280.968	148.5
281.199	142.5
281.431	146.5
281.662	130.5
281.894	135.5
282.125	153.5
282.356	153.5
282.588	143.5
282.819	152.5
283.051	154.5
283.282	165.5
283.513	194.5
283.745	160.5
283.976	149.5
284.207	146.5
284.439	141.5
284.67	144.5
284.901	130.5
285.132	128.5
285.364	123.5
285.595	132.5
285.826	139.5
286.057	143.5
286.288	137.5
286.52	123.5
286.751	133.5
286.982	148.5
287.213	144.5
287.444	177.5
287.675	157.5
287.906	127.5
288.138	132.5
288.369	135.5
288.6	141.5
288.831	120.5
289.062	130.5
289.293	123.5
289.524	113.5
289.755	133.5
289.986	118.5
290.217	123.5
290.448	125.5
290.679	133.5
290.91	132.5
291.141	114.5
291.371	120.5
291.602	140.5
291.833	126.5
292.064	117.5
292.295	124.5
292.526	130.5
292.757	130.5
292.987	113.5
293.218	117.5
293.449	107.5
293.68	146.5
293.91	131.5
294.141	133.5
294.372	116.5
294.603	119.5
294.833	125.5
295.064	132.5
295.295	123.5
295.525	125.5
295.756	136.5
295.987	139.5
296.217	115.5
296.448	134.5
296.679	123.5
296.909	131.5
297.14	123.5
297.37	138.5
297.601	105.5
297.831	117.5
298.062	132.5
298.292	142.5
298.523	134.5
298.753	138.5
298.984	121.5
299.214	133.5
299.445	119.5
299.675	122.5
299.905	108.5
300.136	126.5
300.366	124.5
300.597	123.5
300.827	116.5
301.057	122.5
301.288	142.5
301.518	118.5
301.748	137.5
301.979	190.5
302.209	138.5
302.439	120.5
302.669	128.5
302.9	114.5
303.13	131.5
303.36	128.5
303.59	113.5
303.82	121.5
304.051	139.5
304.281	136.5
304.511	130.5
304.741	128.5
304.971	136.5
305.201	145.5
305.431	133.5
305.661	125.5
305.891	125.5
306.121	119.5
306.352	139.5
306.582	122.5
306.812	126.5
307.042	134.5
307.272	130.5
307.502	134.5
307.731	141.5
307.961	123.5
308.191	130.5
308.421	141.5
308.651	125.5
308.881	128.5
309.111	124.5
309.341	115.5
309.571	132.5
309.8	131.5
310.03	133.5
310.26	138.5
310.49	129.5
310.72	123.5
310.949	133.5
311.179	137.5
311.409	137.5
311.639	139.5
311.868	136.5
312.098	145.5
312.328	134.5
312.557	152.5
312.787	134.5
313.017	155.5
313.246	149.5
313.476	132.5
313.706	141.5
313.935	145.5
314.165	136.5
314.394	157.5
314.624	129.5
314.853	152.5
315.083	142.5
315.312	153.5
315.542	139.5
315.771	153.5
316.001	146.5
316.23	144.5
316.46	129.5
316.689	146.5
316.919	133.5
317.148	150.5
317.377	143.5
317.607	146.5
317.836	147.5
318.065	147.5
318.295	129.5
318.524	139.5
318.753	144.5
318.983	140.5
319.212	147.5
319.441	130.5
319.67	139.5
319.9	132.5
320.129	132.5
320.358	142.5
320.587	129.5
320.816	122.5
321.046	135.5
321.275	149.5
321.504	120.5
321.733	145.5
321.962	137.5
322.191	154.5
322.42	126.5
322.649	135.5
322.878	132.5
323.108	125.5
323.337	120.5
323.566	154.5
323.795	138.5
324.024	132.5
324.253	154.5
324.482	140.5
324.71	139.5
324.939	139.5
325.168	141.5
325.397	133.5
325.626	151.5
325.855	141.5
326.084	142.5
326.313	138.5
326.542	139.5
326.77	156.5
326.999	133.5
327.228	137.5
327.457	135.5
327.686	147.5
327.914	148.5
328.143	147.5
328.372	137.5
328.6	129.5
328.829	127.5
329.058	138.5
329.287	131.5
329.515	143.5
329.744	143.5
329.972	135.5
330.201	139.5
330.43	137.5
330.658	136.5
330.887	135.5
331.115	150.5
331.344	138.5
331.572	145.5
331.801	146.5
332.03	146.5
332.258	141.5
332.486	130.5
332.715	113.5
332.943	122.5
333.172	138.5
333.4	130.5
333.629	142.5
333.857	130.5
334.085	143.5
334.314	151.5
334.542	142.5
334.771	133.5
334.999	140.5
335.227	128.5
335.455	144.5
335.684	153.5
335.912	141.5
336.14	148.5
336.369	141.5
336.597	149.5
336.825	131.5
337.053	133.5
337.281	140.5
337.51	137.5
337.738	150.5
337.966	146.5
338.194	142.5
338.422	131.5
338.65	141.5
338.878	147.5
339.106	129.5
339.334	152.5
339.562	129.5
339.79	151.5
340.018	142.5
340.246	133.5
340.474	132.5
340.702	123.5
340.93	137.5
341.158	127.5
341.386	126.5
341.614	132.5
341.842	129.5
342.07	148.5
342.298	121.5
342.526	125.5
342.754	138.5
342.981	136.5
343.209	134.5
343.437	188.5
343.665	148.5
343.893	136.5
344.12	143.5
344.348	155.5
344.576	144.5
344.804	142.5
345.031	142.5
345.259	132.5
345.487	136.5
345.714	137.5
345.942	131.5
346.17	143.5
346.397	117.5
346.625	119.5
346.853	118.5
347.08	130.5
347.308	146.5
347.535	135.5
347.763	124.5
347.99	126.5
348.218	138.5
348.445	138.5
348.673	135.5
348.9	145.5
349.128	155.5
349.355	136.5
349.583	138.5
349.81	145.5
350.037	132.5
350.265	135.5
350.492	139.5
350.72	142.5
350.947	135.5
351.174	132.5
351.402	122.5
351.629	130.5
351.856	133.5
352.083	133.5
352.311	141.5
352.538	123.5
352.765	137.5
352.992	152.5
353.22	126.5
353.447	117.5
353.674	153.5
353.901	137.5
354.128	142.5
354.355	134.5
354.583	133.5
354.81	139.5
355.037	155.5
355.264	135.5
355.491	139.5
355.718	139.5
355.945	131.5
356.172	156.5
356.399	159.5
356.626	145.5
356.853	176.5
357.08	215.5
357.307	264.5
357.534	228.5
357.761	212.5
357.988	203.5
358.215	184.5
358.441	172.5
358.668	167.5
358.895	160.5
359.122	162.5
359.349	149.5
359.576	151.5
359.802	143.5
360.029	143.5
360.256	151.5
360.483	147.5
360.709	145.5
360.936	167.5
361.163	156.5
361.39	143.5
361.616	136.5
361.843	145.5
362.07	149.5
362.296	142.5
362.523	151.5
362.749	176.5
362.976	169.5
363.203	183.5
363.429	176.5
363.656	211.5
363.882	267.5
364.109	305.5
364.335	239.5
364.562	192.5
364.788	170.5
365.015	172.5
365.241	165.5
365.468	191.5
365.694	156.5
365.92	164.5
366.147	166.5
366.373	164.5
366.599	160.5
366.826	173.5
367.052	185.5
367.278	196.5
367.505	201.5
367.731	229.5
367.957	242.5
368.184	290.5
368.41	332.5
368.636	313.5
368.862	257.5
369.089	221.5
369.315	202.5
369.541	190.5
369.767	169.5
369.993	155.5
370.219	164.5
370.445	170.5
370.672	169.5
370.898	151.5
371.124	156.5
371.35	147.5
371.576	153.5
371.802	156.5
372.028	162.5
372.254	159.5
372.48	152.5
372.706	153.5
372.932	138.5
373.158	153.5
373.384	191.5
373.61	195.5
373.835	237.5
374.061	259.5
374.287	248.5
374.513	232.5
374.739	193.5
374.965	180.5
375.191	167.5
375.416	158.5
375.642	149.5
375.868	156.5
376.094	148.5
376.319	166.5
376.545	128.5
376.771	157.5
376.997	164.5
377.222	150.5
377.448	139.5
377.674	137.5
377.899	145.5
378.125	146.5
378.35	143.5
378.576	133.5
378.802	154.5
379.027	150.5
379.253	153.5
379.478	143.5
379.704	147.5
379.929	141.5
380.155	152.5
380.38	149.5
380.606	143.5
380.831	144.5
381.057	169.5
381.282	145.5
381.507	155.5
381.733	151.5
381.958	146.5
382.184	145.5
382.409	146.5
382.634	154.5
382.86	145.5
383.085	141.5
383.31	143.5
383.535	156.5
383.761	135.5
383.986	143.5
384.211	135.5
384.436	141.5
384.662	146.5
384.887	156.5
385.112	145.5
385.337	147.5
385.562	148.5
385.787	151.5
386.013	152.5
386.238	152.5
386.463	155.5
386.688	186.5
386.913	154.5
387.138	145.5
387.363	142.5
387.588	156.5
387.813	154.5
388.038	155.5
388.263	158.5
388.488	149.5
388.713	144.5
388.938	137.5
389.163	154.5
389.387	147.5
389.612	143.5
389.837	155.5
390.062	162.5
390.287	152.5
390.512	160.5
390.736	144.5
390.961	164.5
391.186	153.5
391.411	160.5
391.636	139.5
391.86	135.5
392.085	148.5
392.31	138.5
392.534	147.5
392.759	139.5
392.984	145.5
393.208	161.5
393.433	163.5
393.658	149.5
393.882	156.5
394.107	167.5
394.331	143.5
394.556	143.5
394.78	159.5
395.005	152.5
395.229	154.5
395.454	164.5
395.678	148.5
395.903	172.5
396.127	143.5
396.352	171.5
396.576	155.5
396.801	148.5
397.025	148.5
397.249	160.5
397.474	179.5
397.698	154.5
397.922	171.5
398.147	168.5
398.371	160.5
398.595	163.5
398.82	170.5
399.044	181.5
399.268	168.5
399.492	156.5
399.717	154.5
399.941	155.5
400.165	172.5
400.389	160.5
400.613	167.5
400.837	160.5
401.062	169.5
401.286	162.5
401.51	157.5
401.734	176.5
401.958	193.5
402.182	200.5
402.406	165.5
402.63	185.5
402.854	176.5
403.078	170.5
403.302	160.5
403.526	174.5
403.75	177.5
403.974	199.5
404.198	193.5
404.422	199.5
404.645	181.5
404.869	215.5
405.093	224.5
405.317	276.5
405.541	324.5
405.765	473.5
405.988	494.5
406.212	407.5
406.436	305.5
406.66	266.5
406.883	242.5
407.107	209.5
407.331	206.5
407.555	212.5
407.778	194.5
408.002	189.5
408.226	196.5
408.449	206.5
408.673	175.5
408.896	193.5
409.12	177.5
409.344	185.5
409.567	164.5
409.791	188.5
410.014	177.5
410.238	193.5
410.461	159.5
410.685	196.5
410.908	187.5
411.132	190.5
411.355	158.5
411.578	178.5
411.802	164.5
412.025	159.5
412.249	170.5
412.472	167.5
412.695	191.5
412.919	164.5
413.142	190.5
413.365	169.5
413.589	159.5
413.812	173.5
414.035	191.5
414.258	174.5
414.482	179.5
414.705	168.5
414.928	173.5
415.151	169.5
415.374	164.5
415.597	172.5
415.821	171.5
416.044	179.5
416.267	170.5
416.49	185.5
416.713	186.5
416.936	190.5
417.159	168.5
417.382	163.5
417.605	175.5
417.828	182.5
418.051	157.5
418.274	156.5
418.497	156.5
418.72	154.5
418.943	169.5
419.166	171.5
419.389	173.5
419.611	169.5
419.834	177.5
420.057	186.5
420.28	159.5
420.503	171.5
420.726	171.5
420.948	172.5
421.171	195.5
421.394	173.5
421.617	158.5
421.839	164.5
422.062	188.5
422.285	177.5
422.507	173.5
422.73	195.5
422.953	171.5
423.175	164.5
423.398	190.5
423.621	199.5
423.843	207.5
424.066	223.5
424.288	228.5
424.511	260.5
424.733	285.5
424.956	276.5
425.178	257.5
425.401	222.5
425.623	226.5
425.846	212.5
426.068	192.5
426.291	206.5
426.513	204.5
426.735	208.5
426.958	194.5
427.18	187.5
427.402	194.5
427.625	193.5
427.847	192.5
428.069	188.5
428.292	197.5
428.514	188.5
428.736	188.5
428.958	173.5
429.181	171.5
429.403	175.5
429.625	191.5
429.847	186.5
430.069	189.5
430.292	187.5
430.514	179.5
430.736	188.5
430.958	174.5
431.18	172.5
431.402	169.5
431.624	164.5
431.846	153.5
432.068	153.5
432.29	175.5
432.512	175.5
432.734	165.5
432.956	180.5
433.178	192.5
433.4	180.5
433.622	187.5
433.844	171.5
434.066	160.5
434.287	162.5
434.509	174.5
434.731	183.5
434.953	169.5
435.175	175.5
435.397	183.5
435.618	176.5
435.84	172.5
436.062	181.5
436.284	187.5
436.505	187.5
436.727	193.5
436.949	193.5
437.17	186.5
437.392	184.5
437.614	191.5
437.835	188.5
438.057	188.5
438.278	212.5
438.5	217.5
438.721	257.5
438.943	283.5
439.165	264.5
439.386	252.5
439.608	247.5
439.829	227.5
440.05	236.5
440.272	236.5
440.493	221.5
440.715	228.5
440.936	256.5
441.158	251.5
441.379	207.5
441.6	225.5
441.822	217.5
442.043	189.5
442.264	213.5
442.486	203.5
442.707	218.5
442.928	209.5
443.149	202.5
443.371	205.5
443.592	204.5
443.813	193.5
444.034	191.5
444.255	195.5
444.476	194.5
444.698	203.5
444.919	208.5
445.14	516.5
445.361	352.5
445.582	199.5
445.803	195.5
446.024	203.5
446.245	204.5
446.466	195.5
446.687	184.5
446.908	194.5
447.129	201.5
447.35	200.5
447.571	188.5
447.792	195.5
448.013	169.5
448.234	189.5
448.455	171.5
448.675	190.5
448.896	187.5
449.117	175.5
449.338	175.5
449.559	192.5
449.779	187.5
450	178.5
450.221	175.5
450.442	174.5
450.662	177.5
450.883	179.5
451.104	194.5
451.324	174.5
451.545	172.5
451.766	193.5
451.986	183.5
452.207	185.5
452.428	172.5
452.648	183.5
452.869	173.5
453.089	142.5
453.31	151.5
453.53	162.5
453.751	148.5
453.971	168.5
454.192	153.5
454.412	164.5
454.633	164.5
454.853	172.5
455.073	173.5
455.294	163.5
455.514	162.5
455.734	161.5
455.955	172.5
456.175	175.5
456.395	147.5
456.616	169.5
456.836	164.5
457.056	153.5
457.276	143.5
457.497	162.5
457.717	129.5
457.937	149.5
458.157	153.5
458.377	149.5
458.598	149.5
458.818	141.5
459.038	141.5
459.258	158.5
459.478	142.5
459.698	161.5
459.918	162.5
460.138	156.5
460.358	157.5
460.578	191.5
460.798	163.5
461.018	162.5
461.238	155.5
461.458	165.5
461.678	174.5
461.898	187.5
462.118	174.5
462.338	149.5
462.558	174.5
462.777	169.5
462.997	167.5
463.217	168.5
463.437	164.5
463.657	183.5
463.876	171.5
464.096	166.5
464.316	186.5
464.536	176.5
464.755	170.5
464.975	158.5
465.195	169.5
465.414	167.5
465.634	169.5
465.854	161.5
466.073	169.5
466.293	161.5
466.512	183.5
466.732	184.5
466.951	176.5
467.171	147.5
467.391	151.5
467.61	164.5
467.829	175.5
468.049	163.5
468.268	166.5
468.488	181.5
468.707	159.5
468.927	159.5
469.146	152.5
469.365	182.5
469.585	183.5
469.804	171.5
470.023	169.5
470.243	184.5
470.462	164.5
470.681	170.5
470.901	170.5
471.12	188.5
471.339	173.5
471.558	185.5
471.777	173.5
471.997	194.5
472.216	181.5
472.435	157.5
472.654	162.5
472.873	171.5
473.092	150.5
473.311	155.5
473.53	163.5
473.749	163.5
473.968	175.5
474.187	158.5
474.406	155.5
474.625	174.5
474.844	188.5
475.063	178.5
475.282	172.5
475.501	158.5
475.72	203.5
475.939	169.5
476.158	174.5
476.377	163.5
476.596	168.5
476.814	175.5
477.033	176.5
477.252	184.5
477.471	189.5
477.69	185.5
477.908	182.5
478.127	184.5
478.346	176.5
478.564	175.5
478.783	176.5
479.002	186.5
479.22	178.5
479.439	180.5
479.658	174.5
479.876	193.5
480.095	162.5
480.313	169.5
480.532	195.5
480.751	191.5
480.969	150.5
481.188	164.5
481.406	177.5
481.624	160.5
481.843	171.5
482.061	167.5
482.28	181.5
482.498	173.5
482.717	181.5
482.935	188.5
483.153	193.5
483.372	199.5
483.59	185.5
483.808	202.5
484.027	192.5
484.245	195.5
484.463	186.5
484.681	207.5
484.9	191.5
485.118	202.5
485.336	180.5
485.554	177.5
485.772	172.5
485.99	172.5
486.209	183.5
486.427	169.5
486.645	179.5
486.863	173.5
487.081	160.5
487.299	182.5
487.517	211.5
487.735	194.5
487.953	205.5
488.171	223.5
488.389	194.5
488.607	200.5
488.825	172.5
489.043	169.5
489.261	184.5
489.479	201.5
489.696	189.5
489.914	191.5
490.132	198.5
490.35	205.5
490.568	181.5
490.786	200.5
491.003	201.5
491.221	207.5
491.439	205.5
491.657	212.5
491.874	226.5
492.092	241.5
492.31	260.5
492.527	225.5
492.745	221.5
492.963	223.5
493.18	223.5
493.398	203.5
493.615	197.5
493.833	195.5
494.05	195.5
494.268	212.5
494.485	183.5
494.703	203.5
494.92	202.5
495.138	201.5
495.355	216.5
495.573	218.5
495.79	208.5
496.008	208.5
496.225	215.5
496.442	213.5
496.66	238.5
496.877	195.5
497.094	231.5
497.312	205.5
497.529	212.5
497.746	206.5
497.963	201.5
498.181	195.5
498.398	191.5
498.615	204.5
498.832	201.5
499.049	203.5
499.267	206.5
499.484	218.5
499.701	244.5
499.918	237.5
500.135	221.5
500.352	242.5
500.569	264.5
500.786	265.5
501.003	250.5
501.22	251.5
501.437	240.5
501.654	219.5
501.871	225.5
502.088	192.5
502.305	223.5
502.522	202.5
502.739	211.5
502.956	198.5
503.172	216.5
503.389	197.5
503.606	205.5
503.823	207.5
504.04	215.5
504.256	234.5
504.473	205.5
504.69	217.5
504.907	246.5
505.123	207.5
505.34	221.5
505.557	212.5
505.773	211.5
505.99	168.5
506.207	193.5
506.423	186.5
506.64	191.5
506.856	188.5
507.073	191.5
507.289	200.5
507.506	189.5
507.722	178.5
507.939	177.5
508.155	189.5
508.372	180.5
508.588	191.5
508.805	199.5
509.021	173.5
509.238	181.5
509.454	184.5
509.67	179.5
509.887	163.5
510.103	172.5
510.319	171.5
510.536	186.5
510.752	162.5
510.968	168.5
511.184	168.5
511.401	169.5
511.617	178.5
511.833	161.5
512.049	188.5
512.265	172.5
512.481	178.5
512.698	178.5
512.914	180.5
513.13	177.5
513.346	165.5
513.562	164.5
513.778	165.5
513.994	165.5
514.21	154.5
514.426	169.5
514.642	159.5
514.858	154.5
515.074	174.5
515.29	171.5
515.506	183.5
515.721	184.5
515.937	189.5
516.153	177.5
516.369	155.5
516.585	185.5
516.801	175.5
517.016	193.5
517.232	165.5
517.448	175.5
517.664	169.5
517.879	192.5
518.095	159.5
518.311	166.5
518.527	163.5
518.742	172.5
518.958	180.5
519.173	186.5
519.389	173.5
519.605	180.5
519.82	178.5
520.036	172.5
520.251	176.5
520.467	183.5
520.682	155.5
520.898	173.5
521.113	163.5
521.329	172.5
521.544	170.5
521.76	165.5
