Data from TenMicroDelayPb_HRD10591_00008.txt Node
Date: Mon Nov 24 14:55:47 EST 2025
User: Yrep
Spectrometer: HR+D1059
Trigger mode: 5
Integration Time (sec): 1.000000E-3
Scans to average: 1
Electric dark correction enabled: true
Nonlinearity correction enabled: false
Boxcar width: 0
XAxis mode: Wavelengths
Number of Pixels in Spectrum: 2048
>>>>>Begin Spectral Data<<<<<
223.165	-1.31
223.4	-1.31
223.635	-1.31
223.869	-37.31
224.104	-32.31
224.338	-13.31
224.573	-8.31
224.808	-25.31
225.042	1.69
225.277	-11.31
225.511	7.69
225.746	9.69
225.98	4.69
226.215	2.69
226.449	11.69
226.683	20.69
226.918	34.69
227.152	35.69
227.387	26.69
227.621	45.69
227.856	52.69
228.09	44.69
228.324	42.69
228.559	71.69
228.793	61.69
229.027	63.69
229.262	74.69
229.496	78.69
229.73	88.69
229.964	101.69
230.199	96.69
230.433	80.69
230.667	88.69
230.901	91.69
231.136	83.69
231.37	90.69
231.604	77.69
231.838	85.69
232.072	88.69
232.306	84.69
232.541	83.69
232.775	93.69
233.009	81.69
233.243	85.69
233.477	97.69
233.711	94.69
233.945	91.69
234.179	94.69
234.413	107.69
234.647	86.69
234.881	87.69
235.115	87.69
235.349	92.69
235.583	102.69
235.817	100.69
236.051	88.69
236.285	86.69
236.519	84.69
236.753	91.69
236.987	101.69
237.221	80.69
237.455	91.69
237.689	98.69
237.922	86.69
238.156	82.69
238.39	85.69
238.624	93.69
238.858	86.69
239.091	96.69
239.325	87.69
239.559	103.69
239.793	82.69
240.027	103.69
240.26	88.69
240.494	103.69
240.728	85.69
240.961	91.69
241.195	107.69
241.429	93.69
241.662	91.69
241.896	94.69
242.13	82.69
242.363	90.69
242.597	90.69
242.83	93.69
243.064	88.69
243.298	79.69
243.531	94.69
243.765	85.69
243.998	90.69
244.232	105.69
244.465	89.69
244.699	85.69
244.932	92.69
245.166	105.69
245.399	114.69
245.633	103.69
245.866	93.69
246.099	98.69
246.333	88.69
246.566	101.69
246.8	73.69
247.033	87.69
247.266	93.69
247.5	106.69
247.733	85.69
247.966	97.69
248.2	102.69
248.433	97.69
248.666	75.69
248.899	101.69
249.133	91.69
249.366	97.69
249.599	96.69
249.832	85.69
250.066	125.69
250.299	103.69
250.532	86.69
250.765	104.69
250.998	95.69
251.231	97.69
251.465	95.69
251.698	83.69
251.931	98.69
252.164	105.69
252.397	98.69
252.63	117.69
252.863	96.69
253.096	105.69
253.329	111.69
253.562	119.69
253.795	110.69
254.028	106.69
254.261	103.69
254.494	111.69
254.727	103.69
254.96	104.69
255.193	107.69
255.426	104.69
255.659	96.69
255.892	115.69
256.124	94.69
256.357	119.69
256.59	116.69
256.823	116.69
257.056	107.69
257.289	107.69
257.521	110.69
257.754	128.69
257.987	134.69
258.22	136.69
258.452	106.69
258.685	128.69
258.918	122.69
259.151	105.69
259.383	103.69
259.616	107.69
259.849	104.69
260.081	113.69
260.314	110.69
260.547	120.69
260.779	118.69
261.012	144.69
261.244	131.69
261.477	180.69
261.71	151.69
261.942	130.69
262.175	129.69
262.407	121.69
262.64	113.69
262.872	128.69
263.105	111.69
263.337	131.69
263.57	122.69
263.802	115.69
264.035	126.69
264.267	109.69
264.499	120.69
264.732	133.69
264.964	120.69
265.197	118.69
265.429	105.69
265.661	113.69
265.894	122.69
266.126	141.69
266.358	128.69
266.591	144.69
266.823	132.69
267.055	109.69
267.287	122.69
267.52	115.69
267.752	113.69
267.984	123.69
268.216	115.69
268.448	114.69
268.681	119.69
268.913	117.69
269.145	104.69
269.377	128.69
269.609	107.69
269.841	101.69
270.073	112.69
270.306	119.69
270.538	119.69
270.77	120.69
271.002	118.69
271.234	124.69
271.466	118.69
271.698	114.69
271.93	112.69
272.162	97.69
272.394	132.69
272.626	109.69
272.858	125.69
273.09	126.69
273.322	112.69
273.553	93.69
273.785	111.69
274.017	92.69
274.249	118.69
274.481	127.69
274.713	127.69
274.945	105.69
275.176	109.69
275.408	122.69
275.64	117.69
275.872	109.69
276.104	117.69
276.335	106.69
276.567	114.69
276.799	114.69
277.031	119.69
277.262	141.69
277.494	113.69
277.726	131.69
277.957	132.69
278.189	113.69
278.421	123.69
278.652	129.69
278.884	139.69
279.115	154.69
279.347	154.69
279.579	148.69
279.81	154.69
280.042	205.69
280.273	224.69
280.505	180.69
280.736	170.69
280.968	141.69
281.199	137.69
281.431	132.69
281.662	139.69
281.894	124.69
282.125	154.69
282.356	158.69
282.588	157.69
282.819	145.69
283.051	152.69
283.282	171.69
283.513	188.69
283.745	165.69
283.976	159.69
284.207	147.69
284.439	125.69
284.67	144.69
284.901	146.69
285.132	111.69
285.364	126.69
285.595	127.69
285.826	128.69
286.057	126.69
286.288	128.69
286.52	143.69
286.751	130.69
286.982	149.69
287.213	159.69
287.444	173.69
287.675	154.69
287.906	144.69
288.138	134.69
288.369	124.69
288.6	123.69
288.831	127.69
289.062	142.69
289.293	116.69
289.524	128.69
289.755	115.69
289.986	126.69
290.217	136.69
290.448	110.69
290.679	135.69
290.91	118.69
291.141	118.69
291.371	127.69
291.602	123.69
291.833	109.69
292.064	138.69
292.295	120.69
292.526	123.69
292.757	112.69
292.987	136.69
293.218	115.69
293.449	121.69
293.68	135.69
293.91	122.69
294.141	155.69
294.372	127.69
294.603	129.69
294.833	110.69
295.064	139.69
295.295	115.69
295.525	111.69
295.756	135.69
295.987	131.69
296.217	124.69
296.448	129.69
296.679	119.69
296.909	135.69
297.14	133.69
297.37	124.69
297.601	139.69
297.831	122.69
298.062	141.69
298.292	118.69
298.523	118.69
298.753	92.69
298.984	137.69
299.214	125.69
299.445	135.69
299.675	130.69
299.905	122.69
300.136	119.69
300.366	125.69
300.597	118.69
300.827	142.69
301.057	115.69
301.288	119.69
301.518	121.69
301.748	130.69
301.979	185.69
302.209	118.69
302.439	114.69
302.669	136.69
302.9	130.69
303.13	125.69
303.36	129.69
303.59	126.69
303.82	143.69
304.051	125.69
304.281	145.69
304.511	145.69
304.741	127.69
304.971	126.69
305.201	129.69
305.431	138.69
305.661	133.69
305.891	120.69
306.121	135.69
306.352	125.69
306.582	140.69
306.812	132.69
307.042	112.69
307.272	119.69
307.502	136.69
307.731	148.69
307.961	129.69
308.191	124.69
308.421	120.69
308.651	121.69
308.881	124.69
309.111	123.69
309.341	117.69
309.571	145.69
309.8	121.69
310.03	121.69
310.26	136.69
310.49	128.69
310.72	121.69
310.949	130.69
311.179	123.69
311.409	124.69
311.639	146.69
311.868	136.69
312.098	139.69
312.328	150.69
312.557	145.69
312.787	127.69
313.017	139.69
313.246	150.69
313.476	136.69
313.706	134.69
313.935	126.69
314.165	131.69
314.394	129.69
314.624	144.69
314.853	135.69
315.083	142.69
315.312	158.69
315.542	135.69
315.771	140.69
316.001	122.69
316.23	140.69
316.46	130.69
316.689	147.69
316.919	139.69
317.148	157.69
317.377	152.69
317.607	130.69
317.836	144.69
318.065	150.69
318.295	144.69
318.524	133.69
318.753	146.69
318.983	144.69
319.212	135.69
319.441	147.69
319.67	137.69
319.9	137.69
320.129	154.69
320.358	129.69
320.587	146.69
320.816	140.69
321.046	126.69
321.275	141.69
321.504	138.69
321.733	144.69
321.962	137.69
322.191	144.69
322.42	127.69
322.649	154.69
322.878	146.69
323.108	136.69
323.337	146.69
323.566	138.69
323.795	148.69
324.024	135.69
324.253	134.69
324.482	126.69
324.71	130.69
324.939	148.69
325.168	121.69
325.397	129.69
325.626	136.69
325.855	133.69
326.084	127.69
326.313	141.69
326.542	138.69
326.77	142.69
326.999	149.69
327.228	131.69
327.457	130.69
327.686	133.69
327.914	129.69
328.143	149.69
328.372	127.69
328.6	138.69
328.829	121.69
329.058	125.69
329.287	136.69
329.515	137.69
329.744	142.69
329.972	125.69
330.201	137.69
330.43	136.69
330.658	126.69
330.887	151.69
331.115	121.69
331.344	128.69
331.572	152.69
331.801	149.69
332.03	137.69
332.258	128.69
332.486	135.69
332.715	145.69
332.943	136.69
333.172	142.69
333.4	120.69
333.629	129.69
333.857	134.69
334.085	141.69
334.314	134.69
334.542	136.69
334.771	140.69
334.999	154.69
335.227	130.69
335.455	124.69
335.684	145.69
335.912	150.69
336.14	137.69
336.369	132.69
336.597	136.69
336.825	129.69
337.053	142.69
337.281	133.69
337.51	139.69
337.738	149.69
337.966	119.69
338.194	135.69
338.422	140.69
338.65	153.69
338.878	155.69
339.106	129.69
339.334	152.69
339.562	133.69
339.79	140.69
340.018	127.69
340.246	133.69
340.474	121.69
340.702	136.69
340.93	137.69
341.158	128.69
341.386	144.69
341.614	135.69
341.842	115.69
342.07	143.69
342.298	155.69
342.526	150.69
342.754	142.69
342.981	129.69
343.209	137.69
343.437	179.69
343.665	125.69
343.893	131.69
344.12	141.69
344.348	138.69
344.576	142.69
344.804	140.69
345.031	131.69
345.259	130.69
345.487	151.69
345.714	141.69
345.942	137.69
346.17	138.69
346.397	144.69
346.625	143.69
346.853	138.69
347.08	136.69
347.308	131.69
347.535	156.69
347.763	139.69
347.99	145.69
348.218	143.69
348.445	141.69
348.673	131.69
348.9	151.69
349.128	139.69
349.355	141.69
349.583	118.69
349.81	139.69
350.037	152.69
350.265	146.69
350.492	125.69
350.72	149.69
350.947	129.69
351.174	138.69
351.402	131.69
351.629	134.69
351.856	137.69
352.083	129.69
352.311	154.69
352.538	144.69
352.765	137.69
352.992	166.69
353.22	133.69
353.447	133.69
353.674	141.69
353.901	155.69
354.128	129.69
354.355	142.69
354.583	144.69
354.81	152.69
355.037	141.69
355.264	151.69
355.491	137.69
355.718	130.69
355.945	147.69
356.172	151.69
356.399	144.69
356.626	152.69
356.853	165.69
357.08	210.69
357.307	265.69
357.534	256.69
357.761	220.69
357.988	214.69
358.215	175.69
358.441	174.69
358.668	153.69
358.895	151.69
359.122	138.69
359.349	158.69
359.576	145.69
359.802	147.69
360.029	165.69
360.256	142.69
360.483	139.69
360.709	142.69
360.936	174.69
361.163	149.69
361.39	139.69
361.616	155.69
361.843	166.69
362.07	143.69
362.296	157.69
362.523	154.69
362.749	152.69
362.976	169.69
363.203	181.69
363.429	179.69
363.656	219.69
363.882	281.69
364.109	295.69
364.335	251.69
364.562	208.69
364.788	179.69
365.015	168.69
365.241	165.69
365.468	175.69
365.694	155.69
365.92	165.69
366.147	154.69
366.373	162.69
366.599	154.69
366.826	173.69
367.052	188.69
367.278	205.69
367.505	202.69
367.731	226.69
367.957	236.69
368.184	300.69
368.41	379.69
368.636	345.69
368.862	267.69
369.089	214.69
369.315	188.69
369.541	196.69
369.767	185.69
369.993	165.69
370.219	145.69
370.445	160.69
370.672	158.69
370.898	161.69
371.124	151.69
371.35	155.69
371.576	154.69
371.802	142.69
372.028	138.69
372.254	142.69
372.48	158.69
372.706	160.69
372.932	158.69
373.158	151.69
373.384	180.69
373.61	198.69
373.835	231.69
374.061	273.69
374.287	269.69
374.513	218.69
374.739	179.69
374.965	171.69
375.191	168.69
375.416	160.69
375.642	159.69
375.868	167.69
376.094	144.69
376.319	153.69
376.545	153.69
376.771	138.69
376.997	150.69
377.222	138.69
377.448	153.69
377.674	169.69
377.899	166.69
378.125	149.69
378.35	159.69
378.576	152.69
378.802	157.69
379.027	145.69
379.253	159.69
379.478	156.69
379.704	149.69
379.929	141.69
380.155	134.69
380.38	142.69
380.606	140.69
380.831	152.69
381.057	166.69
381.282	138.69
381.507	141.69
381.733	138.69
381.958	137.69
382.184	139.69
382.409	141.69
382.634	150.69
382.86	150.69
383.085	136.69
383.31	155.69
383.535	160.69
383.761	149.69
383.986	157.69
384.211	144.69
384.436	133.69
384.662	149.69
384.887	154.69
385.112	159.69
385.337	146.69
385.562	147.69
385.787	155.69
386.013	142.69
386.238	143.69
386.463	145.69
386.688	197.69
386.913	141.69
387.138	145.69
387.363	150.69
387.588	169.69
387.813	156.69
388.038	154.69
388.263	163.69
388.488	142.69
388.713	134.69
388.938	130.69
389.163	155.69
389.387	142.69
389.612	147.69
389.837	165.69
390.062	167.69
390.287	150.69
390.512	141.69
390.736	149.69
390.961	149.69
391.186	167.69
391.411	146.69
391.636	158.69
391.86	152.69
392.085	144.69
392.31	138.69
392.534	161.69
392.759	153.69
392.984	170.69
393.208	153.69
393.433	130.69
393.658	143.69
393.882	161.69
394.107	157.69
394.331	153.69
394.556	150.69
394.78	161.69
395.005	171.69
395.229	150.69
395.454	162.69
395.678	153.69
395.903	158.69
396.127	156.69
396.352	160.69
396.576	151.69
396.801	145.69
397.025	147.69
397.249	151.69
397.474	171.69
397.698	147.69
397.922	166.69
398.147	143.69
398.371	154.69
398.595	168.69
398.82	162.69
399.044	159.69
399.268	152.69
399.492	156.69
399.717	167.69
399.941	171.69
400.165	169.69
400.389	160.69
400.613	185.69
400.837	157.69
401.062	182.69
401.286	162.69
401.51	186.69
401.734	185.69
401.958	207.69
402.182	177.69
402.406	160.69
402.63	174.69
402.854	151.69
403.078	165.69
403.302	181.69
403.526	168.69
403.75	174.69
403.974	181.69
404.198	188.69
404.422	189.69
404.645	175.69
404.869	202.69
405.093	222.69
405.317	271.69
405.541	350.69
405.765	514.69
405.988	528.69
406.212	405.69
406.436	309.69
406.66	254.69
406.883	232.69
407.107	191.69
407.331	219.69
407.555	190.69
407.778	210.69
408.002	201.69
408.226	188.69
408.449	191.69
408.673	189.69
408.896	186.69
409.12	179.69
409.344	170.69
409.567	165.69
409.791	178.69
410.014	197.69
410.238	185.69
410.461	193.69
410.685	179.69
410.908	171.69
411.132	183.69
411.355	163.69
411.578	190.69
411.802	162.69
412.025	166.69
412.249	161.69
412.472	165.69
412.695	187.69
412.919	165.69
413.142	186.69
413.365	179.69
413.589	163.69
413.812	147.69
414.035	170.69
414.258	169.69
414.482	158.69
414.705	166.69
414.928	164.69
415.151	145.69
415.374	168.69
415.597	173.69
415.821	187.69
416.044	177.69
416.267	169.69
416.49	169.69
416.713	183.69
416.936	191.69
417.159	170.69
417.382	185.69
417.605	156.69
417.828	189.69
418.051	171.69
418.274	163.69
418.497	167.69
418.72	156.69
418.943	168.69
419.166	169.69
419.389	176.69
419.611	175.69
419.834	152.69
420.057	167.69
420.28	171.69
420.503	157.69
420.726	171.69
420.948	173.69
421.171	157.69
421.394	188.69
421.617	169.69
421.839	153.69
422.062	188.69
422.285	172.69
422.507	190.69
422.73	183.69
422.953	185.69
423.175	191.69
423.398	201.69
423.621	203.69
423.843	194.69
424.066	226.69
424.288	235.69
424.511	271.69
424.733	288.69
424.956	253.69
425.178	248.69
425.401	232.69
425.623	219.69
425.846	202.69
426.068	193.69
426.291	192.69
426.513	192.69
426.735	204.69
426.958	207.69
427.18	206.69
427.402	202.69
427.625	190.69
427.847	185.69
428.069	193.69
428.292	193.69
428.514	204.69
428.736	188.69
428.958	177.69
429.181	169.69
429.403	178.69
429.625	167.69
429.847	175.69
430.069	187.69
430.292	193.69
430.514	172.69
430.736	171.69
430.958	194.69
431.18	187.69
431.402	188.69
431.624	181.69
431.846	162.69
432.068	173.69
432.29	163.69
432.512	201.69
432.734	165.69
432.956	174.69
433.178	192.69
433.4	174.69
433.622	186.69
433.844	175.69
434.066	159.69
434.287	173.69
434.509	176.69
434.731	177.69
434.953	181.69
435.175	175.69
435.397	190.69
435.618	166.69
435.84	162.69
436.062	194.69
436.284	186.69
436.505	183.69
436.727	189.69
436.949	182.69
437.17	193.69
437.392	171.69
437.614	182.69
437.835	186.69
438.057	204.69
438.278	205.69
438.5	226.69
438.721	257.69
438.943	277.69
439.165	269.69
439.386	263.69
439.608	256.69
439.829	248.69
440.05	233.69
440.272	227.69
440.493	223.69
440.715	245.69
440.936	256.69
441.158	250.69
441.379	231.69
441.6	230.69
441.822	201.69
442.043	204.69
442.264	207.69
442.486	208.69
442.707	203.69
442.928	213.69
443.149	224.69
443.371	195.69
443.592	180.69
443.813	197.69
444.034	191.69
444.255	201.69
444.476	198.69
444.698	184.69
444.919	195.69
445.14	582.69
445.361	375.69
445.582	218.69
445.803	183.69
446.024	185.69
446.245	212.69
446.466	192.69
446.687	174.69
446.908	203.69
447.129	213.69
447.35	181.69
447.571	194.69
447.792	198.69
448.013	177.69
448.234	203.69
448.455	193.69
448.675	177.69
448.896	165.69
449.117	171.69
449.338	171.69
449.559	198.69
449.779	177.69
450	173.69
450.221	180.69
450.442	196.69
450.662	187.69
450.883	171.69
451.104	189.69
451.324	167.69
451.545	174.69
451.766	175.69
451.986	180.69
452.207	187.69
452.428	167.69
452.648	173.69
452.869	164.69
453.089	170.69
453.31	170.69
453.53	168.69
453.751	190.69
453.971	166.69
454.192	153.69
454.412	147.69
454.633	171.69
454.853	167.69
455.073	180.69
455.294	186.69
455.514	181.69
455.734	163.69
455.955	181.69
456.175	149.69
456.395	158.69
456.616	169.69
456.836	179.69
457.056	177.69
457.276	160.69
457.497	162.69
457.717	141.69
457.937	151.69
458.157	155.69
458.377	167.69
458.598	164.69
458.818	158.69
459.038	154.69
459.258	147.69
459.478	146.69
459.698	159.69
459.918	178.69
460.138	171.69
460.358	176.69
460.578	179.69
460.798	183.69
461.018	166.69
461.238	154.69
461.458	193.69
461.678	173.69
461.898	169.69
462.118	181.69
462.338	180.69
462.558	185.69
462.777	178.69
462.997	180.69
463.217	158.69
463.437	187.69
463.657	162.69
463.876	171.69
464.096	174.69
464.316	178.69
464.536	173.69
464.755	183.69
464.975	167.69
465.195	180.69
465.414	172.69
465.634	144.69
465.854	153.69
466.073	171.69
466.293	157.69
466.512	183.69
466.732	169.69
466.951	164.69
467.171	158.69
467.391	159.69
467.61	171.69
467.829	152.69
468.049	166.69
468.268	160.69
468.488	165.69
468.707	185.69
468.927	178.69
469.146	143.69
469.365	166.69
469.585	176.69
469.804	165.69
470.023	181.69
470.243	183.69
470.462	181.69
470.681	178.69
470.901	192.69
471.12	171.69
471.339	185.69
471.558	181.69
471.777	187.69
471.997	170.69
472.216	177.69
472.435	169.69
472.654	179.69
472.873	183.69
473.092	181.69
473.311	184.69
473.53	173.69
473.749	170.69
473.968	197.69
474.187	173.69
474.406	168.69
474.625	196.69
474.844	170.69
475.063	153.69
475.282	169.69
475.501	184.69
475.72	199.69
475.939	176.69
476.158	169.69
476.377	178.69
476.596	162.69
476.814	169.69
477.033	168.69
477.252	193.69
477.471	185.69
477.69	174.69
477.908	187.69
478.127	217.69
478.346	192.69
478.564	188.69
478.783	165.69
479.002	196.69
479.22	195.69
479.439	191.69
479.658	185.69
479.876	171.69
480.095	169.69
480.313	187.69
480.532	182.69
480.751	168.69
480.969	159.69
481.188	165.69
481.406	165.69
481.624	172.69
481.843	166.69
482.061	175.69
482.28	176.69
482.498	193.69
482.717	165.69
482.935	183.69
483.153	183.69
483.372	197.69
483.59	206.69
483.808	191.69
484.027	203.69
484.245	184.69
484.463	182.69
484.681	214.69
484.9	190.69
485.118	196.69
485.336	175.69
485.554	170.69
485.772	167.69
485.99	171.69
486.209	177.69
486.427	176.69
486.645	186.69
486.863	183.69
487.081	187.69
487.299	189.69
487.517	201.69
487.735	212.69
487.953	205.69
488.171	205.69
488.389	206.69
488.607	184.69
488.825	199.69
489.043	187.69
489.261	196.69
489.479	190.69
489.696	193.69
489.914	191.69
490.132	189.69
490.35	210.69
490.568	184.69
490.786	197.69
491.003	215.69
491.221	204.69
491.439	213.69
491.657	215.69
491.874	217.69
492.092	235.69
492.31	231.69
492.527	207.69
492.745	202.69
492.963	219.69
493.18	217.69
493.398	210.69
493.615	209.69
493.833	216.69
494.05	206.69
494.268	206.69
494.485	223.69
494.703	205.69
494.92	216.69
495.138	210.69
495.355	233.69
495.573	240.69
495.79	203.69
496.008	221.69
496.225	214.69
496.442	211.69
496.66	231.69
496.877	213.69
497.094	206.69
497.312	206.69
497.529	201.69
497.746	221.69
497.963	214.69
498.181	211.69
498.398	196.69
498.615	209.69
498.832	208.69
499.049	214.69
499.267	229.69
499.484	218.69
499.701	240.69
499.918	227.69
500.135	244.69
500.352	224.69
500.569	263.69
500.786	293.69
501.003	259.69
501.22	245.69
501.437	223.69
501.654	231.69
501.871	225.69
502.088	217.69
502.305	225.69
502.522	209.69
502.739	219.69
502.956	223.69
503.172	201.69
503.389	201.69
503.606	220.69
503.823	200.69
