Data from TenMicroDelayPb_HRD10591_00007.txt Node
Date: Mon Nov 24 14:55:46 EST 2025
User: Yrep
Spectrometer: HR+D1059
Trigger mode: 5
Integration Time (sec): 1.000000E-3
Scans to average: 1
Electric dark correction enabled: true
Nonlinearity correction enabled: false
Boxcar width: 0
XAxis mode: Wavelengths
Number of Pixels in Spectrum: 2048
>>>>>Begin Spectral Data<<<<<
223.165	-25.81
223.4	-25.81
223.635	-25.81
223.869	-29.81
224.104	-21.81
224.338	-8.81
224.573	-25.81
224.808	-13.81
225.042	11.19
225.277	-13.81
225.511	-7.81
225.746	10.19
225.98	9.19
226.215	14.19
226.449	17.19
226.683	23.19
226.918	27.19
227.152	35.19
227.387	52.19
227.621	46.19
227.856	43.19
228.09	50.19
228.324	41.19
228.559	74.19
228.793	68.19
229.027	55.19
229.262	64.19
229.496	55.19
229.73	75.19
229.964	89.19
230.199	68.19
230.433	75.19
230.667	93.19
230.901	76.19
231.136	80.19
231.37	93.19
231.604	100.19
231.838	95.19
232.072	83.19
232.306	91.19
232.541	89.19
232.775	90.19
233.009	82.19
233.243	88.19
233.477	80.19
233.711	94.19
233.945	101.19
234.179	82.19
234.413	95.19
234.647	83.19
234.881	84.19
235.115	96.19
235.349	96.19
235.583	88.19
235.817	97.19
236.051	83.19
236.285	66.19
236.519	88.19
236.753	74.19
236.987	107.19
237.221	88.19
237.455	86.19
237.689	88.19
237.922	74.19
238.156	74.19
238.39	87.19
238.624	76.19
238.858	72.19
239.091	87.19
239.325	81.19
239.559	94.19
239.793	104.19
240.027	112.19
240.26	86.19
240.494	101.19
240.728	88.19
240.961	94.19
241.195	98.19
241.429	90.19
241.662	79.19
241.896	97.19
242.13	68.19
242.363	90.19
242.597	100.19
242.83	83.19
243.064	79.19
243.298	81.19
243.531	87.19
243.765	97.19
243.998	83.19
244.232	91.19
244.465	102.19
244.699	106.19
244.932	90.19
245.166	99.19
245.399	100.19
245.633	98.19
245.866	104.19
246.099	87.19
246.333	76.19
246.566	95.19
246.8	97.19
247.033	81.19
247.266	82.19
247.5	80.19
247.733	92.19
247.966	95.19
248.2	86.19
248.433	103.19
248.666	101.19
248.899	102.19
249.133	106.19
249.366	126.19
249.599	91.19
249.832	94.19
250.066	120.19
250.299	107.19
250.532	106.19
250.765	99.19
250.998	104.19
251.231	97.19
251.465	104.19
251.698	107.19
251.931	104.19
252.164	93.19
252.397	112.19
252.63	111.19
252.863	89.19
253.096	123.19
253.329	120.19
253.562	120.19
253.795	106.19
254.028	114.19
254.261	113.19
254.494	107.19
254.727	115.19
254.96	100.19
255.193	106.19
255.426	124.19
255.659	107.19
255.892	116.19
256.124	96.19
256.357	116.19
256.59	121.19
256.823	112.19
257.056	122.19
257.289	109.19
257.521	114.19
257.754	111.19
257.987	119.19
258.22	140.19
258.452	123.19
258.685	118.19
258.918	112.19
259.151	118.19
259.383	113.19
259.616	117.19
259.849	113.19
260.081	126.19
260.314	103.19
260.547	114.19
260.779	124.19
261.012	135.19
261.244	126.19
261.477	176.19
261.71	135.19
261.942	145.19
262.175	141.19
262.407	111.19
262.64	121.19
262.872	125.19
263.105	99.19
263.337	132.19
263.57	106.19
263.802	109.19
264.035	114.19
264.267	110.19
264.499	120.19
264.732	136.19
264.964	124.19
265.197	135.19
265.429	123.19
265.661	122.19
265.894	134.19
266.126	140.19
266.358	144.19
266.591	146.19
266.823	122.19
267.055	107.19
267.287	125.19
267.52	117.19
267.752	116.19
267.984	123.19
268.216	136.19
268.448	115.19
268.681	113.19
268.913	121.19
269.145	122.19
269.377	118.19
269.609	116.19
269.841	121.19
270.073	125.19
270.306	123.19
270.538	131.19
270.77	121.19
271.002	106.19
271.234	121.19
271.466	126.19
271.698	104.19
271.93	107.19
272.162	122.19
272.394	110.19
272.626	129.19
272.858	105.19
273.09	103.19
273.322	109.19
273.553	118.19
273.785	101.19
274.017	114.19
274.249	120.19
274.481	108.19
274.713	119.19
274.945	123.19
275.176	103.19
275.408	127.19
275.64	106.19
275.872	114.19
276.104	125.19
276.335	128.19
276.567	108.19
276.799	117.19
277.031	121.19
277.262	118.19
277.494	139.19
277.726	130.19
277.957	134.19
278.189	130.19
278.421	125.19
278.652	140.19
278.884	124.19
279.115	142.19
279.347	153.19
279.579	153.19
279.81	176.19
280.042	204.19
280.273	217.19
280.505	178.19
280.736	164.19
280.968	149.19
281.199	152.19
281.431	133.19
281.662	144.19
281.894	141.19
282.125	145.19
282.356	168.19
282.588	149.19
282.819	143.19
283.051	155.19
283.282	162.19
283.513	191.19
283.745	170.19
283.976	161.19
284.207	149.19
284.439	139.19
284.67	132.19
284.901	135.19
285.132	126.19
285.364	126.19
285.595	147.19
285.826	144.19
286.057	138.19
286.288	132.19
286.52	146.19
286.751	157.19
286.982	158.19
287.213	156.19
287.444	183.19
287.675	173.19
287.906	142.19
288.138	118.19
288.369	137.19
288.6	123.19
288.831	135.19
289.062	140.19
289.293	136.19
289.524	113.19
289.755	136.19
289.986	126.19
290.217	109.19
290.448	108.19
290.679	126.19
290.91	127.19
291.141	100.19
291.371	130.19
291.602	127.19
291.833	122.19
292.064	123.19
292.295	126.19
292.526	128.19
292.757	120.19
292.987	123.19
293.218	111.19
293.449	110.19
293.68	129.19
293.91	134.19
294.141	158.19
294.372	139.19
294.603	127.19
294.833	135.19
295.064	117.19
295.295	122.19
295.525	134.19
295.756	132.19
295.987	125.19
296.217	114.19
296.448	133.19
296.679	131.19
296.909	139.19
297.14	135.19
297.37	127.19
297.601	114.19
297.831	114.19
298.062	131.19
298.292	122.19
298.523	138.19
298.753	122.19
298.984	134.19
299.214	131.19
299.445	122.19
299.675	128.19
299.905	134.19
300.136	127.19
300.366	115.19
300.597	134.19
300.827	125.19
301.057	123.19
301.288	133.19
301.518	116.19
301.748	132.19
301.979	192.19
302.209	139.19
302.439	136.19
302.669	123.19
302.9	125.19
303.13	132.19
303.36	125.19
303.59	142.19
303.82	136.19
304.051	143.19
304.281	146.19
304.511	145.19
304.741	131.19
304.971	118.19
305.201	138.19
305.431	123.19
305.661	147.19
305.891	132.19
306.121	130.19
306.352	116.19
306.582	131.19
306.812	128.19
307.042	126.19
307.272	127.19
307.502	111.19
307.731	128.19
307.961	143.19
308.191	135.19
308.421	122.19
308.651	131.19
308.881	139.19
309.111	126.19
309.341	127.19
309.571	124.19
309.8	135.19
310.03	141.19
310.26	140.19
310.49	138.19
310.72	141.19
310.949	144.19
311.179	138.19
311.409	118.19
311.639	132.19
311.868	129.19
312.098	137.19
312.328	137.19
312.557	145.19
312.787	137.19
313.017	145.19
313.246	143.19
313.476	142.19
313.706	139.19
313.935	133.19
314.165	153.19
314.394	151.19
314.624	147.19
314.853	162.19
315.083	167.19
315.312	147.19
315.542	152.19
315.771	147.19
316.001	143.19
316.23	144.19
316.46	143.19
316.689	153.19
316.919	135.19
317.148	151.19
317.377	163.19
317.607	138.19
317.836	134.19
318.065	143.19
318.295	149.19
318.524	126.19
318.753	132.19
318.983	155.19
319.212	139.19
319.441	136.19
319.67	149.19
319.9	154.19
320.129	137.19
320.358	142.19
320.587	144.19
320.816	145.19
321.046	135.19
321.275	154.19
321.504	132.19
321.733	146.19
321.962	120.19
322.191	138.19
322.42	136.19
322.649	135.19
322.878	132.19
323.108	139.19
323.337	152.19
323.566	148.19
323.795	143.19
324.024	144.19
324.253	137.19
324.482	150.19
324.71	155.19
324.939	150.19
325.168	151.19
325.397	152.19
325.626	152.19
325.855	138.19
326.084	148.19
326.313	138.19
326.542	127.19
326.77	138.19
326.999	142.19
327.228	134.19
327.457	150.19
327.686	139.19
327.914	133.19
328.143	150.19
328.372	125.19
328.6	135.19
328.829	155.19
329.058	143.19
329.287	134.19
329.515	136.19
329.744	136.19
329.972	134.19
330.201	152.19
330.43	146.19
330.658	143.19
330.887	150.19
331.115	120.19
331.344	140.19
331.572	153.19
331.801	127.19
332.03	135.19
332.258	139.19
332.486	137.19
332.715	139.19
332.943	127.19
333.172	136.19
333.4	142.19
333.629	138.19
333.857	133.19
334.085	144.19
334.314	142.19
334.542	139.19
334.771	148.19
334.999	146.19
335.227	145.19
335.455	149.19
335.684	154.19
335.912	137.19
336.14	136.19
336.369	143.19
336.597	146.19
336.825	134.19
337.053	140.19
337.281	139.19
337.51	139.19
337.738	154.19
337.966	135.19
338.194	136.19
338.422	139.19
338.65	131.19
338.878	150.19
339.106	150.19
339.334	161.19
339.562	133.19
339.79	131.19
340.018	140.19
340.246	137.19
340.474	142.19
340.702	120.19
340.93	145.19
341.158	148.19
341.386	141.19
341.614	135.19
341.842	144.19
342.07	141.19
342.298	138.19
342.526	133.19
342.754	139.19
342.981	144.19
343.209	134.19
343.437	189.19
343.665	150.19
343.893	144.19
344.12	162.19
344.348	152.19
344.576	147.19
344.804	158.19
345.031	154.19
345.259	143.19
345.487	150.19
345.714	138.19
345.942	140.19
346.17	153.19
346.397	139.19
346.625	147.19
346.853	144.19
347.08	129.19
347.308	150.19
347.535	138.19
347.763	138.19
347.99	146.19
348.218	141.19
348.445	120.19
348.673	146.19
348.9	142.19
349.128	147.19
349.355	130.19
349.583	132.19
349.81	140.19
350.037	147.19
350.265	136.19
350.492	141.19
350.72	139.19
350.947	137.19
351.174	137.19
351.402	125.19
351.629	133.19
351.856	143.19
352.083	124.19
352.311	141.19
352.538	137.19
352.765	140.19
352.992	171.19
353.22	138.19
353.447	144.19
353.674	147.19
353.901	157.19
354.128	149.19
354.355	138.19
354.583	141.19
354.81	138.19
355.037	167.19
355.264	139.19
355.491	142.19
355.718	142.19
355.945	154.19
356.172	147.19
356.399	154.19
356.626	133.19
356.853	175.19
357.08	216.19
357.307	264.19
357.534	281.19
357.761	230.19
357.988	207.19
358.215	188.19
358.441	170.19
358.668	168.19
358.895	157.19
359.122	153.19
359.349	156.19
359.576	147.19
359.802	151.19
360.029	150.19
360.256	146.19
360.483	161.19
360.709	155.19
360.936	183.19
361.163	159.19
361.39	138.19
361.616	138.19
361.843	168.19
362.07	147.19
362.296	154.19
362.523	160.19
362.749	157.19
362.976	152.19
363.203	189.19
363.429	160.19
363.656	238.19
363.882	280.19
364.109	321.19
364.335	275.19
364.562	190.19
364.788	168.19
365.015	161.19
365.241	173.19
365.468	178.19
365.694	156.19
365.92	163.19
366.147	170.19
366.373	152.19
366.599	163.19
366.826	168.19
367.052	193.19
367.278	214.19
367.505	198.19
367.731	226.19
367.957	243.19
368.184	272.19
368.41	356.19
368.636	328.19
368.862	263.19
369.089	217.19
369.315	188.19
369.541	196.19
369.767	167.19
369.993	185.19
370.219	158.19
370.445	145.19
370.672	158.19
370.898	162.19
371.124	147.19
371.35	162.19
371.576	178.19
371.802	161.19
372.028	156.19
372.254	147.19
372.48	156.19
372.706	153.19
372.932	155.19
373.158	168.19
373.384	171.19
373.61	202.19
373.835	244.19
374.061	279.19
374.287	276.19
374.513	226.19
374.739	207.19
374.965	166.19
375.191	167.19
375.416	151.19
375.642	151.19
375.868	161.19
376.094	167.19
376.319	158.19
376.545	156.19
376.771	131.19
376.997	141.19
377.222	152.19
377.448	143.19
377.674	150.19
377.899	162.19
378.125	156.19
378.35	145.19
378.576	142.19
378.802	132.19
379.027	158.19
379.253	151.19
379.478	145.19
379.704	152.19
379.929	158.19
380.155	157.19
380.38	160.19
380.606	165.19
380.831	153.19
381.057	159.19
381.282	147.19
381.507	142.19
381.733	159.19
381.958	140.19
382.184	136.19
382.409	151.19
382.634	151.19
382.86	141.19
383.085	160.19
383.31	163.19
383.535	166.19
383.761	150.19
383.986	156.19
384.211	168.19
384.436	162.19
384.662	153.19
384.887	156.19
385.112	159.19
385.337	155.19
385.562	138.19
385.787	160.19
386.013	152.19
386.238	156.19
386.463	159.19
386.688	209.19
386.913	154.19
387.138	146.19
387.363	161.19
387.588	178.19
387.813	153.19
388.038	155.19
388.263	153.19
388.488	158.19
388.713	160.19
388.938	151.19
389.163	143.19
389.387	152.19
389.612	153.19
389.837	136.19
390.062	170.19
390.287	162.19
390.512	137.19
390.736	146.19
390.961	143.19
391.186	152.19
391.411	149.19
391.636	149.19
391.86	146.19
392.085	151.19
392.31	160.19
392.534	156.19
392.759	162.19
392.984	174.19
393.208	162.19
393.433	154.19
393.658	150.19
393.882	151.19
394.107	159.19
394.331	156.19
394.556	149.19
394.78	168.19
395.005	159.19
395.229	158.19
395.454	172.19
395.678	159.19
395.903	166.19
396.127	146.19
396.352	164.19
396.576	161.19
396.801	159.19
397.025	156.19
397.249	159.19
397.474	184.19
397.698	173.19
397.922	154.19
398.147	151.19
398.371	157.19
398.595	161.19
398.82	159.19
399.044	150.19
399.268	166.19
399.492	167.19
399.717	156.19
399.941	160.19
400.165	183.19
400.389	183.19
400.613	179.19
400.837	172.19
401.062	168.19
401.286	172.19
401.51	180.19
401.734	179.19
401.958	191.19
402.182	208.19
402.406	183.19
402.63	178.19
402.854	174.19
403.078	163.19
403.302	182.19
403.526	168.19
403.75	194.19
403.974	176.19
404.198	186.19
404.422	215.19
404.645	221.19
404.869	218.19
405.093	238.19
405.317	269.19
405.541	355.19
405.765	476.19
405.988	528.19
406.212	411.19
406.436	326.19
406.66	286.19
406.883	246.19
407.107	241.19
407.331	217.19
407.555	193.19
407.778	208.19
408.002	198.19
408.226	200.19
408.449	197.19
408.673	195.19
408.896	199.19
409.12	186.19
409.344	189.19
409.567	175.19
409.791	192.19
410.014	184.19
410.238	162.19
410.461	187.19
410.685	167.19
410.908	158.19
411.132	182.19
411.355	177.19
411.578	182.19
411.802	160.19
412.025	163.19
412.249	172.19
412.472	174.19
412.695	167.19
412.919	167.19
413.142	183.19
413.365	178.19
413.589	184.19
413.812	174.19
414.035	180.19
414.258	190.19
414.482	170.19
414.705	179.19
414.928	171.19
415.151	160.19
415.374	151.19
415.597	163.19
415.821	167.19
416.044	165.19
416.267	159.19
416.49	172.19
416.713	170.19
416.936	180.19
417.159	169.19
417.382	187.19
417.605	171.19
417.828	167.19
418.051	186.19
418.274	168.19
418.497	163.19
418.72	172.19
418.943	182.19
419.166	184.19
419.389	163.19
419.611	174.19
419.834	172.19
420.057	178.19
420.28	171.19
420.503	174.19
420.726	183.19
420.948	160.19
421.171	171.19
421.394	173.19
421.617	180.19
421.839	185.19
422.062	210.19
422.285	182.19
422.507	177.19
422.73	180.19
422.953	186.19
423.175	185.19
423.398	200.19
423.621	199.19
423.843	224.19
424.066	238.19
424.288	242.19
424.511	267.19
424.733	292.19
424.956	268.19
425.178	266.19
425.401	238.19
425.623	244.19
425.846	207.19
426.068	214.19
426.291	206.19
426.513	209.19
426.735	223.19
426.958	204.19
427.18	194.19
427.402	181.19
427.625	194.19
427.847	188.19
428.069	186.19
428.292	186.19
428.514	183.19
428.736	191.19
428.958	184.19
429.181	196.19
429.403	178.19
429.625	174.19
429.847	179.19
430.069	195.19
430.292	186.19
430.514	176.19
430.736	188.19
430.958	182.19
431.18	179.19
431.402	184.19
431.624	158.19
431.846	160.19
432.068	155.19
432.29	176.19
432.512	188.19
432.734	172.19
432.956	172.19
433.178	196.19
433.4	170.19
433.622	185.19
433.844	178.19
434.066	177.19
434.287	172.19
434.509	174.19
434.731	187.19
434.953	174.19
435.175	178.19
435.397	189.19
435.618	172.19
435.84	176.19
436.062	179.19
436.284	185.19
436.505	192.19
436.727	191.19
436.949	208.19
437.17	191.19
437.392	190.19
437.614	201.19
437.835	185.19
438.057	204.19
438.278	238.19
438.5	220.19
438.721	259.19
438.943	281.19
439.165	279.19
439.386	259.19
439.608	259.19
439.829	231.19
440.05	247.19
440.272	227.19
440.493	246.19
440.715	227.19
440.936	256.19
441.158	255.19
441.379	221.19
441.6	220.19
441.822	227.19
442.043	226.19
442.264	202.19
442.486	184.19
442.707	189.19
442.928	212.19
443.149	206.19
443.371	202.19
443.592	200.19
443.813	197.19
444.034	199.19
444.255	211.19
444.476	201.19
444.698	210.19
444.919	190.19
445.14	555.19
445.361	379.19
445.582	210.19
445.803	190.19
446.024	196.19
446.245	211.19
446.466	216.19
446.687	199.19
446.908	206.19
447.129	195.19
447.35	193.19
447.571	202.19
447.792	192.19
448.013	176.19
448.234	193.19
448.455	179.19
448.675	176.19
448.896	193.19
449.117	191.19
449.338	170.19
449.559	205.19
449.779	188.19
450	182.19
450.221	174.19
450.442	191.19
450.662	179.19
450.883	174.19
451.104	182.19
451.324	175.19
451.545	185.19
451.766	163.19
451.986	179.19
452.207	188.19
452.428	190.19
452.648	192.19
452.869	177.19
453.089	156.19
453.31	166.19
453.53	171.19
453.751	160.19
453.971	178.19
454.192	168.19
454.412	161.19
454.633	169.19
454.853	174.19
455.073	166.19
455.294	179.19
455.514	184.19
455.734	174.19
455.955	166.19
456.175	171.19
456.395	164.19
456.616	166.19
456.836	159.19
457.056	162.19
457.276	160.19
457.497	154.19
457.717	173.19
457.937	166.19
458.157	156.19
458.377	159.19
458.598	155.19
458.818	152.19
459.038	155.19
459.258	149.19
459.478	162.19
459.698	153.19
459.918	175.19
460.138	156.19
460.358	147.19
460.578	178.19
460.798	163.19
461.018	180.19
461.238	182.19
461.458	185.19
461.678	165.19
461.898	203.19
462.118	188.19
462.338	176.19
462.558	195.19
462.777	167.19
462.997	180.19
463.217	163.19
463.437	163.19
463.657	159.19
463.876	176.19
464.096	164.19
464.316	182.19
464.536	167.19
464.755	173.19
464.975	171.19
465.195	184.19
465.414	156.19
465.634	178.19
465.854	158.19
466.073	174.19
466.293	166.19
466.512	187.19
466.732	178.19
466.951	162.19
467.171	184.19
467.391	170.19
467.61	158.19
467.829	166.19
468.049	167.19
468.268	182.19
468.488	193.19
468.707	181.19
468.927	176.19
469.146	154.19
469.365	174.19
469.585	177.19
469.804	182.19
470.023	171.19
470.243	204.19
470.462	194.19
470.681	168.19
470.901	180.19
471.12	181.19
471.339	188.19
471.558	184.19
471.777	175.19
471.997	202.19
472.216	178.19
472.435	164.19
472.654	157.19
472.873	172.19
473.092	184.19
473.311	185.19
473.53	182.19
473.749	190.19
473.968	202.19
474.187	186.19
474.406	149.19
474.625	168.19
474.844	172.19
475.063	179.19
475.282	167.19
475.501	167.19
475.72	178.19
475.939	175.19
476.158	175.19
476.377	178.19
476.596	155.19
476.814	174.19
477.033	187.19
477.252	184.19
477.471	160.19
477.69	188.19
477.908	177.19
478.127	195.19
478.346	200.19
478.564	192.19
478.783	189.19
479.002	191.19
479.22	186.19
479.439	200.19
479.658	171.19
479.876	176.19
480.095	157.19
480.313	174.19
480.532	192.19
480.751	181.19
480.969	161.19
481.188	170.19
481.406	181.19
481.624	173.19
481.843	161.19
482.061	178.19
482.28	177.19
482.498	191.19
482.717	171.19
482.935	184.19
483.153	210.19
483.372	190.19
483.59	178.19
483.808	188.19
484.027	198.19
484.245	184.19
484.463	178.19
484.681	199.19
484.9	176.19
485.118	195.19
485.336	175.19
485.554	182.19
485.772	188.19
485.99	167.19
486.209	194.19
486.427	168.19
486.645	188.19
486.863	182.19
487.081	179.19
487.299	200.19
487.517	204.19
487.735	208.19
487.953	205.19
488.171	209.19
488.389	196.19
488.607	194.19
488.825	168.19
489.043	202.19
489.261	204.19
489.479	202.19
489.696	186.19
489.914	182.19
490.132	197.19
490.35	201.19
490.568	210.19
490.786	214.19
491.003	221.19
491.221	210.19
491.439	203.19
491.657	203.19
491.874	217.19
492.092	222.19
492.31	223.19
492.527	226.19
492.745	207.19
492.963	221.19
493.18	219.19
493.398	213.19
493.615	216.19
493.833	217.19
494.05	207.19
494.268	212.19
494.485	223.19
494.703	217.19
494.92	206.19
495.138	220.19
495.355	228.19
495.573	227.19
495.79	225.19
496.008	233.19
496.225	220.19
496.442	216.19
496.66	223.19
496.877	211.19
497.094	229.19
497.312	223.19
497.529	218.19
497.746	216.19
497.963	216.19
498.181	206.19
498.398	200.19
498.615	201.19
498.832	199.19
499.049	208.19
499.267	224.19
499.484	207.19
499.701	210.19
499.918	250.19
500.135	248.19
500.352	232.19
500.569	265.19
500.786	301.19
501.003	263.19
501.22	232.19
501.437	245.19
501.654	223.19
501.871	236.19
502.088	214.19
502.305	236.19
502.522	219.19
502.739	215.19
502.956	195.19
503.172	215.19
503.389	206.19
503.606	197.19
