Data from TenMicroDelayPb_HRD10591_00004.txt Node
Date: Mon Nov 24 14:27:30 EST 2025
User: Yrep
Spectrometer: HR+D1059
Trigger mode: 0
Integration Time (sec): 1.000000E-1
Scans to average: 5
Electric dark correction enabled: true
Nonlinearity correction enabled: false
Boxcar width: 0
XAxis mode: Wavelengths
Number of Pixels in Spectrum: 2048
>>>>>Begin Spectral Data<<<<<
223.165	-17.98
223.4	-17.98
223.635	-17.98
223.869	-15.58
224.104	-13.18
224.338	-14.98
224.573	-15.18
224.808	-12.58
225.042	-8.18
225.277	-4.58
225.511	2.62
225.746	1.42
225.98	3.23
226.215	10.82
226.449	14.23
226.683	14.02
226.918	24.62
227.152	31.23
227.387	38.42
227.621	39.02
227.856	41.23
228.09	51.82
228.324	50.82
228.559	58.62
228.793	57.82
229.027	66.23
229.262	61.02
229.496	66.82
229.73	71.23
229.964	74.02
230.199	76.02
230.433	73.02
230.667	74.42
230.901	78.42
231.136	78.42
231.37	81.42
231.604	80.42
231.838	86.42
232.072	84.23
232.306	81.82
232.541	82.62
232.775	84.82
233.009	84.42
233.243	80.82
233.477	79.02
233.711	86.02
233.945	81.23
234.179	85.82
234.413	80.23
234.647	80.42
234.881	86.42
235.115	82.02
235.349	78.42
235.583	79.82
235.817	78.42
236.051	75.82
236.285	76.42
236.519	73.62
236.753	77.23
236.987	80.82
237.221	74.82
237.455	83.62
237.689	72.23
237.922	77.42
238.156	79.62
238.39	73.23
238.624	79.62
238.858	77.82
239.091	83.42
239.325	78.82
239.559	89.42
239.793	75.82
240.027	86.82
240.26	82.02
240.494	87.02
240.728	75.23
240.961	81.82
241.195	82.82
241.429	83.23
241.662	73.23
241.896	79.02
242.13	81.02
242.363	76.02
242.597	81.82
242.83	76.23
243.064	81.62
243.298	79.02
243.531	86.02
243.765	76.82
243.998	79.42
244.232	89.62
244.465	78.82
244.699	80.23
244.932	85.82
245.166	82.82
245.399	88.42
245.633	89.62
245.866	81.82
246.099	82.62
246.333	79.23
246.566	77.82
246.8	81.02
247.033	79.02
247.266	84.02
247.5	81.02
247.733	85.02
247.966	90.23
248.2	86.62
248.433	79.82
248.666	88.23
248.899	85.23
249.133	86.82
249.366	88.42
249.599	82.82
249.832	89.23
250.066	95.42
250.299	86.42
250.532	77.62
250.765	80.02
250.998	83.62
251.231	83.02
251.465	85.23
251.698	86.82
251.931	87.42
252.164	82.82
252.397	88.82
252.63	86.42
252.863	85.42
253.096	82.62
253.329	87.23
253.562	89.82
253.795	93.82
254.028	93.23
254.261	90.62
254.494	86.62
254.727	88.62
254.96	82.42
255.193	88.82
255.426	88.82
255.659	83.23
255.892	90.62
256.124	85.62
256.357	88.02
256.59	94.42
256.823	89.82
257.056	83.82
257.289	86.02
257.521	98.82
257.754	94.23
257.987	95.82
258.22	92.02
258.452	89.23
258.685	90.62
258.918	94.62
259.151	98.02
259.383	98.62
259.616	93.82
259.849	92.42
260.081	89.02
260.314	90.02
260.547	90.23
260.779	94.62
261.012	98.62
261.244	110.02
261.477	123.02
261.71	110.02
261.942	98.23
262.175	101.42
262.407	94.62
262.64	96.62
262.872	91.23
263.105	97.62
263.337	94.62
263.57	89.42
263.802	89.42
264.035	97.02
264.267	90.82
264.499	92.42
264.732	100.42
264.964	105.02
265.197	96.82
265.429	94.23
265.661	95.02
265.894	95.62
266.126	94.23
266.358	94.62
266.591	102.42
266.823	101.02
267.055	95.23
267.287	91.82
267.52	102.02
267.752	102.62
267.984	94.62
268.216	90.62
268.448	95.62
268.681	97.82
268.913	91.02
269.145	86.62
269.377	92.23
269.609	92.23
269.841	97.23
270.073	90.02
270.306	92.82
270.538	85.42
270.77	89.62
271.002	93.62
271.234	91.23
271.466	90.42
271.698	92.42
271.93	97.82
272.162	92.42
272.394	97.62
272.626	90.82
272.858	89.23
273.09	90.42
273.322	89.02
273.553	89.82
273.785	96.23
274.017	89.23
274.249	92.62
274.481	87.42
274.713	93.02
274.945	95.02
275.176	100.02
275.408	93.42
275.64	95.23
275.872	96.02
276.104	97.02
276.335	100.42
276.567	90.82
276.799	94.82
277.031	86.23
277.262	90.23
277.494	99.82
277.726	95.62
277.957	91.23
278.189	96.42
278.421	94.62
278.652	99.82
278.884	96.82
279.115	103.82
279.347	104.82
279.579	105.62
279.81	121.62
280.042	130.42
280.273	144.82
280.505	139.82
280.736	116.23
280.968	102.23
281.199	105.82
281.431	103.82
281.662	102.62
281.894	104.62
282.125	109.62
282.356	110.23
282.588	113.02
282.819	109.02
283.051	107.42
283.282	120.42
283.513	133.42
283.745	119.82
283.976	112.02
284.207	101.23
284.439	96.23
284.67	99.62
284.901	95.62
285.132	98.23
285.364	98.62
285.595	93.23
285.826	98.62
286.057	105.62
286.288	97.23
286.52	105.23
286.751	106.42
286.982	112.02
287.213	109.62
287.444	117.02
287.675	108.62
287.906	98.23
288.138	102.62
288.369	101.82
288.6	100.02
288.831	94.42
289.062	100.62
289.293	101.02
289.524	89.62
289.755	101.62
289.986	86.62
290.217	101.62
290.448	97.42
290.679	94.42
290.91	91.02
291.141	99.62
291.371	96.42
291.602	103.62
291.833	99.42
292.064	92.82
292.295	92.62
292.526	96.02
292.757	99.42
292.987	93.42
293.218	89.82
293.449	98.62
293.68	97.02
293.91	96.02
294.141	95.82
294.372	95.82
294.603	95.82
294.833	92.02
295.064	91.62
295.295	97.42
295.525	101.62
295.756	103.42
295.987	106.02
296.217	100.02
296.448	98.62
296.679	94.62
296.909	104.82
297.14	103.02
297.37	96.82
297.601	98.62
297.831	98.82
298.062	105.02
298.292	94.23
298.523	97.23
298.753	99.42
298.984	98.82
299.214	92.82
299.445	100.42
299.675	97.02
299.905	93.62
300.136	100.42
300.366	102.82
300.597	93.82
300.827	99.42
301.057	86.02
301.288	106.62
301.518	98.02
301.748	98.02
301.979	110.23
302.209	93.82
302.439	96.02
302.669	96.23
302.9	94.23
303.13	93.42
303.36	96.82
303.59	93.02
303.82	99.42
304.051	104.23
304.281	97.23
304.511	100.02
304.741	98.02
304.971	101.23
305.201	100.23
305.431	97.23
305.661	100.02
305.891	98.62
306.121	101.23
306.352	101.62
306.582	101.23
306.812	98.23
307.042	96.23
307.272	97.62
307.502	100.42
307.731	98.42
307.961	98.23
308.191	104.42
308.421	104.02
308.651	98.82
308.881	101.23
309.111	96.62
309.341	97.82
309.571	93.23
309.8	91.42
310.03	96.62
310.26	99.42
310.49	97.62
310.72	100.82
310.949	92.62
311.179	97.02
311.409	98.82
311.639	94.62
311.868	103.42
312.098	103.23
312.328	95.02
312.557	94.42
312.787	102.02
313.017	103.82
313.246	108.62
313.476	103.02
313.706	98.23
313.935	101.02
314.165	101.42
314.394	100.23
314.624	103.02
314.853	108.02
315.083	109.82
315.312	102.82
315.542	103.42
315.771	102.62
316.001	102.02
316.23	102.23
316.46	102.02
316.689	104.02
316.919	103.62
317.148	103.82
317.377	106.42
317.607	100.02
317.836	100.42
318.065	102.62
318.295	108.62
318.524	105.62
318.753	103.62
318.983	98.42
319.212	102.62
319.441	103.02
319.67	96.23
319.9	100.02
320.129	97.42
320.358	99.02
320.587	95.82
320.816	99.02
321.046	103.62
321.275	99.23
321.504	93.02
321.733	100.42
321.962	107.02
322.191	103.23
322.42	99.23
322.649	103.82
322.878	107.02
323.108	101.23
323.337	103.42
323.566	102.42
323.795	98.42
324.024	107.23
324.253	97.42
324.482	95.82
324.71	94.82
324.939	101.02
325.168	95.42
325.397	97.02
325.626	101.62
325.855	100.62
326.084	95.42
326.313	99.42
326.542	93.42
326.77	101.02
326.999	100.62
327.228	99.62
327.457	105.02
327.686	102.23
327.914	100.23
328.143	106.42
328.372	105.82
328.6	102.42
328.829	96.42
329.058	97.82
329.287	101.23
329.515	95.23
329.744	98.02
329.972	99.42
330.201	98.62
330.43	100.42
330.658	97.02
330.887	100.02
331.115	98.02
331.344	102.42
331.572	99.02
331.801	100.82
332.03	102.02
332.258	108.23
332.486	107.82
332.715	100.02
332.943	107.23
333.172	109.02
333.4	95.02
333.629	99.23
333.857	99.23
334.085	99.62
334.314	101.62
334.542	102.23
334.771	104.02
334.999	103.62
335.227	104.62
335.455	96.82
335.684	102.82
335.912	104.02
336.14	95.82
336.369	102.02
336.597	93.42
336.825	101.23
337.053	104.62
337.281	99.42
337.51	96.62
337.738	98.62
337.966	99.23
338.194	95.02
338.422	99.82
338.65	97.82
338.878	104.62
339.106	103.42
339.334	101.02
339.562	100.02
339.79	96.42
340.018	106.42
340.246	94.62
340.474	102.23
340.702	107.02
340.93	94.02
341.158	100.62
341.386	104.23
341.614	97.02
341.842	96.62
342.07	95.62
342.298	94.82
342.526	95.82
342.754	100.42
342.981	102.02
343.209	100.42
343.437	108.62
343.665	103.42
343.893	93.02
344.12	97.42
344.348	103.42
344.576	102.82
344.804	106.82
345.031	100.82
345.259	98.82
345.487	102.62
345.714	103.23
345.942	99.42
346.17	100.23
346.397	96.62
346.625	100.42
346.853	95.62
347.08	98.62
347.308	95.82
347.535	97.82
347.763	99.82
347.99	97.23
348.218	105.02
348.445	96.23
348.673	101.82
348.9	95.62
349.128	93.02
349.355	101.82
349.583	105.62
349.81	103.62
350.037	95.62
350.265	93.82
350.492	100.02
350.72	107.62
350.947	102.02
351.174	103.62
351.402	99.02
351.629	97.42
351.856	101.62
352.083	92.62
352.311	105.23
352.538	92.82
352.765	99.62
352.992	99.82
353.22	98.42
353.447	93.62
353.674	107.23
353.901	99.82
354.128	101.23
354.355	93.82
354.583	101.42
354.81	98.82
355.037	101.82
355.264	100.42
355.491	100.23
355.718	105.42
355.945	104.62
356.172	104.23
356.399	102.02
356.626	108.82
356.853	116.82
357.08	130.02
357.307	156.02
357.534	151.62
357.761	129.02
357.988	114.23
358.215	117.62
358.441	106.62
358.668	107.42
358.895	107.42
359.122	103.23
359.349	101.82
359.576	101.82
359.802	100.42
360.029	101.42
360.256	100.23
360.483	96.62
360.709	98.62
360.936	111.02
361.163	112.23
361.39	103.82
361.616	99.02
361.843	99.23
362.07	103.82
362.296	107.62
362.523	102.23
362.749	103.62
362.976	104.42
363.203	111.62
363.429	110.42
363.656	133.42
363.882	157.82
364.109	174.62
364.335	147.42
364.562	126.82
364.788	110.62
365.015	108.42
365.241	103.42
365.468	99.42
365.694	105.23
365.92	105.62
366.147	105.62
366.373	103.62
366.599	109.23
366.826	111.02
367.052	118.82
367.278	126.23
367.505	123.82
367.731	124.82
367.957	141.62
368.184	172.02
368.41	206.62
368.636	186.62
368.862	145.62
369.089	122.82
369.315	124.62
369.541	122.62
369.767	114.82
369.993	108.82
370.219	107.42
370.445	101.82
370.672	102.42
370.898	101.23
371.124	111.02
371.35	106.42
371.576	104.42
371.802	106.42
372.028	110.02
372.254	104.23
372.48	110.42
372.706	103.23
372.932	106.02
373.158	105.62
373.384	107.23
373.61	124.42
373.835	149.23
374.061	156.82
374.287	141.42
374.513	120.82
374.739	116.42
374.965	104.62
375.191	113.23
375.416	102.23
375.642	109.42
375.868	109.42
376.094	107.23
376.319	101.02
376.545	103.23
376.771	100.82
376.997	101.02
377.222	96.42
377.448	104.82
377.674	102.02
377.899	102.02
378.125	93.42
378.35	104.62
378.576	101.02
378.802	103.23
379.027	103.62
379.253	105.62
379.478	94.02
379.704	102.62
379.929	97.02
380.155	103.23
380.38	99.42
380.606	92.02
380.831	105.62
381.057	107.42
381.282	105.23
381.507	101.23
381.733	104.02
381.958	103.82
382.184	101.82
382.409	102.82
382.634	104.23
382.86	103.23
383.085	110.82
383.31	94.62
383.535	103.23
383.761	100.23
383.986	101.02
384.211	101.42
384.436	103.62
384.662	100.23
384.887	97.62
385.112	103.23
385.337	104.82
385.562	108.02
385.787	96.82
386.013	99.23
386.238	95.23
386.463	106.42
386.688	103.62
386.913	100.02
387.138	95.42
387.363	100.42
387.588	103.23
387.813	97.02
388.038	101.23
388.263	101.62
388.488	104.02
388.713	104.42
388.938	105.82
389.163	98.82
389.387	99.62
389.612	105.02
389.837	104.42
390.062	103.23
390.287	104.82
390.512	104.42
390.736	103.62
390.961	104.82
391.186	103.82
391.411	100.02
391.636	109.02
391.86	96.62
392.085	102.23
392.31	108.42
392.534	106.62
392.759	104.23
392.984	102.42
393.208	104.02
393.433	108.62
393.658	97.62
393.882	96.42
394.107	100.42
394.331	102.23
394.556	104.62
394.78	104.02
395.005	99.82
395.229	98.62
395.454	107.02
395.678	102.42
395.903	99.82
396.127	104.23
396.352	100.42
396.576	102.02
396.801	102.82
397.025	99.02
397.249	101.23
397.474	109.42
397.698	106.82
397.922	106.42
398.147	101.82
398.371	100.62
398.595	104.23
398.82	109.82
399.044	107.42
399.268	104.02
399.492	113.62
399.717	112.62
399.941	99.82
400.165	111.42
400.389	108.42
400.613	108.23
400.837	106.82
401.062	104.23
401.286	109.23
401.51	111.42
401.734	112.62
401.958	113.62
402.182	112.82
402.406	112.42
402.63	102.62
402.854	100.62
403.078	110.23
403.302	112.23
403.526	112.82
403.75	111.02
403.974	111.23
404.198	112.02
404.422	116.82
404.645	115.82
404.869	120.42
405.093	133.62
405.317	153.02
405.541	187.23
405.765	261.62
405.988	283.62
406.212	217.42
406.436	164.62
406.66	140.02
406.883	120.82
407.107	125.42
407.331	117.02
407.555	113.82
407.778	115.82
408.002	119.62
408.226	116.42
408.449	116.82
408.673	116.82
408.896	114.62
409.12	109.82
409.344	113.42
409.567	112.23
409.791	106.02
410.014	105.42
410.238	104.62
410.461	110.82
410.685	107.02
410.908	113.02
411.132	105.02
411.355	107.23
411.578	100.23
411.802	106.02
412.025	104.42
412.249	111.23
412.472	110.82
412.695	110.62
412.919	107.82
413.142	111.02
413.365	103.42
413.589	110.42
413.812	107.62
414.035	111.42
414.258	106.62
414.482	104.42
414.705	100.42
414.928	105.82
415.151	108.42
415.374	103.42
415.597	112.62
415.821	110.82
416.044	98.23
416.267	101.62
416.49	106.02
416.713	107.62
416.936	116.82
417.159	101.82
417.382	107.23
417.605	100.62
417.828	107.42
418.051	111.02
418.274	107.02
418.497	107.02
418.72	113.02
418.943	104.02
419.166	111.62
419.389	109.42
419.611	106.42
419.834	109.62
420.057	107.23
420.28	104.42
420.503	109.82
420.726	113.42
420.948	106.82
421.171	104.02
421.394	112.42
421.617	111.62
421.839	108.23
422.062	110.02
422.285	112.02
422.507	113.42
422.73	117.02
422.953	115.82
423.175	118.82
423.398	113.23
423.621	120.62
423.843	127.23
424.066	136.82
424.288	146.62
424.511	167.82
424.733	175.62
424.956	159.62
425.178	145.42
425.401	136.02
425.623	131.82
425.846	126.62
426.068	124.42
426.291	124.62
426.513	123.42
426.735	123.02
426.958	118.23
427.18	114.82
427.402	121.02
427.625	114.62
427.847	107.42
428.069	120.62
428.292	110.82
428.514	111.02
428.736	110.62
428.958	104.62
429.181	113.62
429.403	117.23
429.625	107.42
429.847	111.82
430.069	116.62
430.292	117.42
430.514	113.02
430.736	108.02
430.958	117.62
431.18	108.82
431.402	108.02
431.624	109.02
431.846	104.23
432.068	105.62
432.29	103.23
432.512	108.82
432.734	110.82
432.956	106.82
433.178	109.23
433.4	111.42
433.622	115.02
433.844	112.23
434.066	113.82
434.287	111.82
434.509	107.02
434.731	106.62
434.953	112.02
435.175	115.62
435.397	106.23
435.618	116.42
435.84	108.82
436.062	108.62
436.284	113.23
436.505	110.62
436.727	116.62
436.949	114.23
437.17	118.42
437.392	120.23
437.614	114.62
437.835	115.62
438.057	120.02
438.278	123.02
438.5	140.82
438.721	158.82
438.943	162.42
439.165	155.82
439.386	142.82
439.608	151.62
439.829	139.23
440.05	140.02
440.272	135.23
440.493	137.82
440.715	139.02
440.936	145.23
441.158	137.42
441.379	130.23
441.6	126.82
441.822	129.62
442.043	119.02
442.264	119.02
442.486	122.02
442.707	115.23
442.928	122.02
443.149	116.23
443.371	117.23
443.592	119.62
443.813	115.02
444.034	112.62
444.255	114.62
444.476	118.42
444.698	112.23
444.919	125.42
445.14	185.62
445.361	152.23
445.582	117.02
445.803	109.82
446.024	115.62
446.245	116.82
446.466	108.62
446.687	115.23
446.908	113.23
447.129	117.42
447.35	110.02
447.571	112.23
447.792	112.82
448.013	108.23
448.234	110.02
448.455	107.23
448.675	110.62
448.896	107.23
449.117	109.02
449.338	114.23
449.559	107.82
449.779	111.62
450	111.42
450.221	111.02
450.442	114.42
450.662	112.42
450.883	107.42
451.104	109.02
451.324	108.23
451.545	108.82
451.766	109.23
451.986	113.62
452.207	105.42
452.428	113.02
452.648	103.02
452.869	112.82
453.089	107.02
453.31	106.23
453.53	101.42
453.751	104.23
453.971	107.23
454.192	104.02
454.412	100.02
454.633	104.82
454.853	104.82
455.073	104.23
455.294	104.42
455.514	103.82
455.734	99.02
455.955	102.02
456.175	101.02
456.395	105.23
456.616	101.42
456.836	104.02
457.056	105.23
457.276	105.42
457.497	108.23
457.717	100.82
457.937	102.62
458.157	106.02
458.377	106.23
458.598	107.42
458.818	103.23
459.038	102.23
459.258	102.62
459.478	97.23
459.698	106.42
459.918	110.82
460.138	112.23
460.358	107.42
460.578	114.02
460.798	110.02
461.018	105.02
461.238	107.82
461.458	107.82
461.678	104.82
461.898	109.23
462.118	111.02
462.338	113.82
462.558	107.82
462.777	109.23
462.997	107.82
463.217	111.82
463.437	107.02
463.657	103.62
463.876	105.02
464.096	110.02
464.316	104.82
464.536	109.82
464.755	108.02
464.975	107.42
465.195	111.62
465.414	98.82
465.634	109.62
465.854	100.62
466.073	106.02
466.293	105.42
466.512	104.23
466.732	109.62
466.951	105.82
467.171	106.62
467.391	100.82
467.61	107.02
467.829	109.42
468.049	109.82
468.268	105.82
468.488	102.62
468.707	103.42
468.927	114.62
469.146	103.42
469.365	107.62
469.585	112.42
469.804	111.42
470.023	105.82
470.243	107.62
470.462	113.82
470.681	107.62
470.901	109.62
471.12	110.23
471.339	108.23
471.558	105.02
471.777	106.42
471.997	108.82
472.216	106.23
472.435	104.62
472.654	103.62
472.873	113.82
473.092	97.42
473.311	105.82
473.53	100.62
473.749	110.42
473.968	110.42
474.187	100.42
474.406	101.42
474.625	108.62
474.844	109.02
475.063	102.02
475.282	112.62
475.501	99.02
475.72	112.62
475.939	101.82
476.158	108.02
476.377	109.23
476.596	105.82
476.814	107.62
477.033	104.23
477.252	109.02
477.471	111.23
477.69	117.23
477.908	112.23
478.127	110.23
478.346	117.62
478.564	111.82
478.783	109.62
479.002	113.42
479.22	117.42
479.439	118.82
479.658	111.42
479.876	111.02
480.095	109.02
480.313	119.62
480.532	112.62
480.751	116.62
480.969	111.23
481.188	106.02
481.406	111.82
481.624	112.42
481.843	109.82
482.061	115.62
482.28	118.82
482.498	113.02
482.717	106.62
482.935	119.42
483.153	115.23
483.372	107.62
483.59	113.62
483.808	112.42
484.027	108.42
484.245	117.23
484.463	109.02
484.681	115.02
484.9	112.23
485.118	111.23
485.336	104.82
485.554	109.62
485.772	111.82
485.99	107.62
486.209	113.02
486.427	106.62
486.645	114.62
486.863	121.42
487.081	113.62
487.299	114.82
487.517	111.62
487.735	117.02
487.953	116.42
488.171	123.02
488.389	112.23
488.607	111.62
488.825	111.62
489.043	111.62
489.261	115.02
489.479	118.42
489.696	116.42
489.914	114.02
490.132	117.42
490.35	120.23
490.568	116.62
490.786	111.62
491.003	118.42
491.221	115.23
491.439	116.02
491.657	115.23
491.874	112.23
492.092	118.82
492.31	120.02
492.527	121.82
492.745	121.42
492.963	118.82
493.18	122.02
493.398	119.23
493.615	115.62
493.833	117.62
494.05	118.42
494.268	116.42
494.485	121.23
494.703	113.02
494.92	121.82
495.138	120.23
495.355	116.23
495.573	122.62
495.79	120.02
496.008	117.82
496.225	117.82
496.442	115.62
496.66	119.62
496.877	116.82
497.094	114.82
497.312	116.02
497.529	118.62
497.746	120.23
497.963	116.23
498.181	112.23
498.398	115.82
498.615	120.02
498.832	115.82
499.049	123.82
499.267	125.62
499.484	122.23
499.701	124.82
499.918	138.62
500.135	133.62
500.352	134.23
500.569	145.02
500.786	162.42
501.003	144.62
501.22	130.42
501.437	136.62
501.654	129.42
501.871	124.82
502.088	121.82
502.305	127.42
502.522	122.23
502.739	124.42
502.956	120.62
503.172	126.02
503.389	125.02
503.606	125.62
503.823	123.42
504.04	118.82
504.256	122.02
504.473	131.23
504.69	127.23
504.907	125.42
505.123	124.23
505.34	131.02
505.557	124.82
505.773	124.02
505.99	123.42
506.207	121.42
506.423	115.62
506.64	121.42
506.856	126.02
507.073	117.62
507.289	118.02
507.506	117.62
507.722	114.62
507.939	109.42
