Data from TenMicroDelayPb_HRD10591_00011.txt Node
Date: Mon Nov 24 14:27:34 EST 2025
User: Yrep
Spectrometer: HR+D1059
Trigger mode: 0
Integration Time (sec): 1.000000E-1
Scans to average: 5
Electric dark correction enabled: true
Nonlinearity correction enabled: false
Boxcar width: 0
XAxis mode: Wavelengths
Number of Pixels in Spectrum: 2048
>>>>>Begin Spectral Data<<<<<
223.165	-9.51
223.4	-9.51
223.635	-9.51
223.869	-19.71
224.104	-14.71
224.338	-13.71
224.573	-23.11
224.808	-12.31
225.042	-10.51
225.277	-9.31
225.511	-5.11
225.746	3.49
225.98	8.69
226.215	10.29
226.449	19.89
226.683	18.09
226.918	24.09
227.152	33.49
227.387	27.49
227.621	40.29
227.856	44.29
228.09	49.69
228.324	52.49
228.559	55.89
228.793	53.29
229.027	59.29
229.262	64.69
229.496	63.09
229.73	66.89
229.964	69.49
230.199	72.29
230.433	71.89
230.667	83.49
230.901	82.69
231.136	72.89
231.37	85.89
231.604	75.09
231.838	84.09
232.072	83.49
232.306	88.89
232.541	90.69
232.775	87.69
233.009	86.29
233.243	86.29
233.477	85.89
233.711	75.89
233.945	77.69
234.179	80.49
234.413	85.29
234.647	84.49
234.881	89.29
235.115	74.89
235.349	78.49
235.583	82.29
235.817	78.49
236.051	81.69
236.285	72.89
236.519	86.29
236.753	79.69
236.987	79.49
237.221	79.69
237.455	77.69
237.689	77.49
237.922	77.29
238.156	82.29
238.39	74.29
238.624	74.49
238.858	87.89
239.091	80.49
239.325	79.69
239.559	76.09
239.793	85.29
240.027	81.89
240.26	77.49
240.494	80.09
240.728	74.69
240.961	75.69
241.195	75.09
241.429	81.09
241.662	80.69
241.896	78.69
242.13	72.69
242.363	78.89
242.597	76.69
242.83	83.89
243.064	79.29
243.298	84.69
243.531	73.29
243.765	87.69
243.998	76.49
244.232	81.49
244.465	85.89
244.699	83.69
244.932	80.69
245.166	86.49
245.399	79.69
245.633	88.09
245.866	74.69
246.099	81.49
246.333	77.89
246.566	84.29
246.8	80.09
247.033	82.09
247.266	83.89
247.5	91.69
247.733	86.49
247.966	92.69
248.2	82.09
248.433	84.49
248.666	78.69
248.899	83.89
249.133	82.49
249.366	85.29
249.599	89.69
249.832	84.09
250.066	86.69
250.299	87.69
250.532	89.29
250.765	86.09
250.998	86.09
251.231	85.29
251.465	90.09
251.698	89.89
251.931	87.09
252.164	85.49
252.397	88.29
252.63	90.49
252.863	91.49
253.096	88.69
253.329	91.69
253.562	90.09
253.795	87.49
254.028	92.29
254.261	82.09
254.494	89.29
254.727	93.09
254.96	89.09
255.193	91.29
255.426	85.69
255.659	88.69
255.892	92.09
256.124	81.89
256.357	91.29
256.59	89.29
256.823	83.09
257.056	88.09
257.289	91.09
257.521	88.29
257.754	85.49
257.987	100.49
258.22	91.89
258.452	90.29
258.685	90.89
258.918	93.49
259.151	90.89
259.383	94.89
259.616	92.49
259.849	85.69
260.081	88.69
260.314	86.49
260.547	95.89
260.779	93.89
261.012	98.89
261.244	102.89
261.477	116.49
261.71	119.69
261.942	104.09
262.175	97.49
262.407	95.89
262.64	96.69
262.872	96.89
263.105	93.09
263.337	98.09
263.57	91.49
263.802	89.49
264.035	90.09
264.267	97.29
264.499	90.29
264.732	92.09
264.964	92.89
265.197	100.89
265.429	90.89
265.661	93.69
265.894	94.49
266.126	95.69
266.358	98.49
266.591	99.89
266.823	91.09
267.055	92.49
267.287	99.49
267.52	95.09
267.752	89.49
267.984	93.69
268.216	83.69
268.448	95.89
268.681	95.49
268.913	95.49
269.145	87.29
269.377	84.49
269.609	92.09
269.841	89.09
270.073	91.69
270.306	82.89
270.538	94.89
270.77	88.49
271.002	89.29
271.234	91.69
271.466	94.09
271.698	88.69
271.93	88.49
272.162	96.49
272.394	90.49
272.626	90.29
272.858	88.09
273.09	90.69
273.322	91.49
273.553	99.29
273.785	89.49
274.017	84.29
274.249	90.29
274.481	89.89
274.713	92.09
274.945	91.69
275.176	89.89
275.408	90.49
275.64	92.69
275.872	91.69
276.104	94.49
276.335	98.49
276.567	98.29
276.799	92.69
277.031	89.69
277.262	95.69
277.494	94.09
277.726	93.29
277.957	93.69
278.189	95.29
278.421	104.29
278.652	95.69
278.884	99.29
279.115	98.29
279.347	105.09
279.579	108.89
279.81	115.29
280.042	131.49
280.273	145.89
280.505	133.69
280.736	118.09
280.968	106.69
281.199	103.49
281.431	93.49
281.662	99.29
281.894	103.09
282.125	107.49
282.356	112.49
282.588	107.09
282.819	104.29
283.051	111.29
283.282	122.09
283.513	128.89
283.745	118.89
283.976	107.49
284.207	107.09
284.439	101.89
284.67	104.09
284.901	100.29
285.132	93.09
285.364	96.69
285.595	94.29
285.826	93.49
286.057	96.89
286.288	90.69
286.52	97.49
286.751	97.49
286.982	102.89
287.213	113.29
287.444	118.49
287.675	111.89
287.906	102.89
288.138	91.89
288.369	98.09
288.6	98.49
288.831	95.89
289.062	93.09
289.293	93.09
289.524	95.09
289.755	92.29
289.986	93.49
290.217	103.29
290.448	90.89
290.679	94.89
290.91	104.29
291.141	91.89
291.371	99.09
291.602	91.89
291.833	98.09
292.064	97.69
292.295	99.29
292.526	96.29
292.757	96.09
292.987	101.69
293.218	92.69
293.449	93.29
293.68	100.69
293.91	93.29
294.141	94.89
294.372	99.49
294.603	95.29
294.833	102.49
295.064	97.69
295.295	97.09
295.525	94.29
295.756	102.29
295.987	94.89
296.217	96.29
296.448	97.89
296.679	99.89
296.909	95.49
297.14	100.69
297.37	91.89
297.601	94.49
297.831	94.29
298.062	95.69
298.292	100.49
298.523	94.29
298.753	98.69
298.984	89.29
299.214	100.69
299.445	96.49
299.675	96.09
299.905	99.69
300.136	92.49
300.366	92.69
300.597	95.69
300.827	96.69
301.057	94.49
301.288	101.69
301.518	102.29
301.748	102.49
301.979	111.09
302.209	98.49
302.439	99.09
302.669	91.69
302.9	97.89
303.13	97.49
303.36	98.09
303.59	98.49
303.82	103.29
304.051	96.09
304.281	98.69
304.511	101.49
304.741	96.49
304.971	95.49
305.201	100.29
305.431	99.49
305.661	99.69
305.891	94.09
306.121	97.89
306.352	98.69
306.582	93.09
306.812	95.29
307.042	98.49
307.272	96.89
307.502	96.89
307.731	100.29
307.961	93.89
308.191	100.29
308.421	95.89
308.651	100.89
308.881	95.29
309.111	91.69
309.341	98.29
309.571	95.89
309.8	94.89
310.03	100.29
310.26	94.49
310.49	98.09
310.72	94.49
310.949	100.29
311.179	96.69
311.409	97.09
311.639	98.49
311.868	91.89
312.098	92.89
312.328	102.89
312.557	103.69
312.787	107.49
313.017	105.29
313.246	101.49
313.476	97.29
313.706	103.29
313.935	98.69
314.165	99.49
314.394	111.49
314.624	107.89
314.853	103.49
315.083	105.49
315.312	107.89
315.542	105.69
315.771	102.49
316.001	104.89
316.23	100.49
316.46	102.89
316.689	98.69
316.919	109.49
317.148	109.69
317.377	96.29
317.607	99.29
317.836	104.69
318.065	104.89
318.295	100.89
318.524	97.09
318.753	101.49
318.983	97.69
319.212	96.89
319.441	100.69
319.67	99.29
319.9	99.09
320.129	100.09
320.358	101.89
320.587	101.89
320.816	97.69
321.046	102.09
321.275	100.49
321.504	98.89
321.733	105.29
321.962	103.89
322.191	99.29
322.42	100.69
322.649	104.69
322.878	106.29
323.108	103.09
323.337	98.29
323.566	91.69
323.795	94.29
324.024	105.29
324.253	99.49
324.482	97.69
324.71	102.29
324.939	108.89
325.168	95.89
325.397	102.09
325.626	103.89
325.855	96.29
326.084	105.89
326.313	104.89
326.542	99.69
326.77	104.29
326.999	101.69
327.228	98.89
327.457	101.09
327.686	102.09
327.914	98.89
328.143	98.09
328.372	94.29
328.6	98.29
328.829	101.49
329.058	97.29
329.287	99.89
329.515	100.09
329.744	102.29
329.972	102.09
330.201	110.09
330.43	104.69
330.658	101.69
330.887	99.69
331.115	99.89
331.344	104.49
331.572	99.89
331.801	99.49
332.03	99.69
332.258	109.49
332.486	100.89
332.715	102.09
332.943	99.69
333.172	105.09
333.4	95.49
333.629	103.29
333.857	96.69
334.085	98.89
334.314	97.69
334.542	104.49
334.771	103.29
334.999	97.29
335.227	107.29
335.455	98.49
335.684	100.09
335.912	104.49
336.14	98.49
336.369	105.09
336.597	102.09
336.825	100.29
337.053	102.09
337.281	100.09
337.51	100.89
337.738	104.89
337.966	102.49
338.194	97.29
338.422	95.69
338.65	98.49
338.878	101.29
339.106	103.89
339.334	102.89
339.562	97.49
339.79	95.69
340.018	100.29
340.246	99.89
340.474	96.29
340.702	99.09
340.93	102.69
341.158	101.69
341.386	100.29
341.614	101.89
341.842	100.29
342.07	99.49
342.298	96.89
342.526	99.29
342.754	99.09
342.981	96.29
343.209	95.29
343.437	110.09
343.665	102.49
343.893	95.49
344.12	103.69
344.348	99.89
344.576	91.69
344.804	104.49
345.031	104.89
345.259	103.29
345.487	101.29
345.714	100.09
345.942	98.69
346.17	102.69
346.397	99.69
346.625	98.49
346.853	93.89
347.08	96.29
347.308	97.69
347.535	100.09
347.763	102.29
347.99	97.49
348.218	98.09
348.445	101.09
348.673	102.29
348.9	101.49
349.128	104.69
349.355	99.89
349.583	106.09
349.81	102.89
350.037	98.69
350.265	99.69
350.492	102.89
350.72	94.69
350.947	102.69
351.174	102.69
351.402	100.29
351.629	94.89
351.856	92.09
352.083	98.29
352.311	97.69
352.538	102.49
352.765	98.29
352.992	103.89
353.22	100.89
353.447	95.49
353.674	102.49
353.901	99.29
354.128	95.09
354.355	97.29
354.583	104.09
354.81	85.49
355.037	104.29
355.264	103.69
355.491	101.69
355.718	95.29
355.945	102.69
356.172	103.69
356.399	104.89
356.626	112.49
356.853	111.09
357.08	128.69
357.307	158.89
357.534	151.89
357.761	124.89
357.988	117.69
358.215	106.09
358.441	106.89
358.668	104.29
358.895	96.09
359.122	98.29
359.349	101.89
359.576	102.89
359.802	110.89
360.029	101.09
360.256	107.89
360.483	101.69
360.709	102.09
360.936	107.29
361.163	95.09
361.39	98.69
361.616	100.49
361.843	97.09
362.07	101.29
362.296	104.09
362.523	104.89
362.749	103.29
362.976	104.49
363.203	108.69
363.429	113.89
363.656	127.69
363.882	149.89
364.109	167.09
364.335	147.09
364.562	120.29
364.788	113.89
365.015	111.69
365.241	111.49
365.468	109.89
365.694	98.89
365.92	107.09
366.147	102.69
366.373	104.49
366.599	106.89
366.826	110.69
367.052	122.89
367.278	128.29
367.505	119.49
367.731	125.29
367.957	137.69
368.184	172.49
368.41	201.29
368.636	182.29
368.862	148.29
369.089	121.49
369.315	113.29
369.541	118.69
369.767	109.29
369.993	104.49
370.219	107.29
370.445	110.89
370.672	107.29
370.898	103.69
371.124	102.49
371.35	98.69
371.576	107.29
371.802	104.89
372.028	101.29
372.254	106.69
372.48	104.09
372.706	100.89
372.932	107.89
373.158	106.09
373.384	105.09
373.61	113.89
373.835	137.09
374.061	156.49
374.287	144.49
374.513	120.09
374.739	111.69
374.965	107.69
375.191	111.69
375.416	109.69
375.642	98.89
375.868	108.69
376.094	107.69
376.319	95.69
376.545	96.29
376.771	100.89
376.997	101.49
377.222	100.49
377.448	97.89
377.674	98.89
377.899	99.69
378.125	96.89
378.35	100.49
378.576	99.69
378.802	100.09
379.027	95.49
379.253	104.69
379.478	103.69
379.704	100.69
379.929	95.09
380.155	96.89
380.38	103.49
380.606	94.89
380.831	91.09
381.057	99.89
381.282	102.09
381.507	101.89
381.733	105.29
381.958	106.69
382.184	100.09
382.409	101.69
382.634	104.09
382.86	109.69
383.085	100.09
383.31	93.49
383.535	98.49
383.761	105.49
383.986	101.69
384.211	100.69
384.436	100.49
384.662	106.69
384.887	104.69
385.112	97.89
385.337	105.89
385.562	105.49
385.787	95.49
386.013	101.89
386.238	98.69
386.463	105.49
386.688	116.09
386.913	101.09
387.138	108.09
387.363	102.09
387.588	97.89
387.813	101.69
388.038	101.49
388.263	100.89
388.488	96.89
388.713	97.29
388.938	96.29
389.163	98.49
389.387	100.69
389.612	103.09
389.837	104.09
390.062	102.09
390.287	101.69
390.512	98.89
390.736	101.09
390.961	100.69
391.186	102.29
391.411	102.09
391.636	103.49
391.86	101.29
392.085	105.49
392.31	97.69
392.534	102.49
392.759	109.49
392.984	103.09
393.208	99.69
393.433	107.69
393.658	101.49
393.882	103.49
394.107	105.69
394.331	98.09
394.556	101.69
394.78	107.89
395.005	97.49
395.229	102.69
395.454	101.89
395.678	101.49
395.903	103.89
396.127	106.49
396.352	98.09
396.576	99.69
396.801	99.69
397.025	106.29
397.249	104.29
397.474	108.69
397.698	105.09
397.922	105.89
398.147	102.29
398.371	102.49
398.595	108.09
398.82	105.69
399.044	101.49
399.268	109.49
399.492	108.29
399.717	105.89
399.941	109.49
400.165	114.89
400.389	108.29
400.613	108.29
400.837	111.49
401.062	107.69
401.286	106.29
401.51	109.49
401.734	110.49
401.958	115.69
402.182	119.29
402.406	103.69
402.63	106.09
402.854	107.69
403.078	106.49
403.302	109.29
403.526	110.89
403.75	109.29
403.974	107.89
404.198	109.69
404.422	116.89
404.645	108.69
404.869	124.09
405.093	133.89
405.317	139.69
405.541	187.29
405.765	251.09
405.988	280.89
406.212	216.69
406.436	166.69
406.66	140.49
406.883	134.29
407.107	127.29
407.331	123.29
407.555	123.09
407.778	119.09
408.002	114.89
408.226	116.09
408.449	115.89
408.673	110.09
408.896	115.09
409.12	109.09
409.344	114.89
409.567	117.69
409.791	110.89
410.014	118.89
410.238	111.29
410.461	108.69
410.685	108.49
410.908	107.09
411.132	109.49
411.355	115.09
411.578	108.09
411.802	111.29
412.025	108.09
412.249	101.69
412.472	106.89
412.695	102.29
412.919	110.29
413.142	116.49
413.365	109.29
413.589	111.69
413.812	101.29
414.035	107.49
414.258	101.49
414.482	103.89
414.705	106.69
414.928	99.69
415.151	105.29
415.374	99.89
415.597	106.49
415.821	103.69
416.044	106.09
416.267	108.69
416.49	106.29
416.713	108.09
416.936	111.89
417.159	107.29
417.382	102.29
417.605	102.89
417.828	110.29
418.051	108.09
418.274	105.69
418.497	109.29
418.72	98.89
418.943	110.09
419.166	107.89
419.389	112.89
419.611	106.29
419.834	108.49
420.057	113.89
420.28	113.69
420.503	110.89
420.726	104.09
420.948	110.09
421.171	115.49
421.394	114.69
421.617	116.09
421.839	117.09
422.062	116.89
422.285	107.09
422.507	109.89
422.73	109.29
422.953	117.29
423.175	120.89
423.398	113.69
423.621	123.49
423.843	130.89
424.066	129.09
424.288	141.09
424.511	164.69
424.733	173.29
424.956	152.89
425.178	141.69
425.401	135.89
425.623	128.29
425.846	129.49
426.068	125.89
426.291	120.49
426.513	120.69
426.735	126.49
426.958	120.49
427.18	113.89
427.402	112.49
427.625	121.69
427.847	112.09
428.069	118.09
428.292	115.69
428.514	113.09
428.736	109.89
428.958	111.09
429.181	114.89
429.403	110.89
429.625	110.29
429.847	107.09
430.069	104.09
430.292	110.09
430.514	108.69
430.736	105.09
430.958	103.69
431.18	108.29
431.402	114.69
431.624	103.89
431.846	112.69
432.068	104.69
432.29	109.89
432.512	114.29
432.734	106.69
432.956	107.69
433.178	111.29
433.4	110.09
433.622	116.09
433.844	116.89
434.066	115.89
434.287	110.49
434.509	110.29
434.731	111.09
434.953	107.69
435.175	110.29
435.397	109.69
435.618	111.29
435.84	105.49
436.062	102.69
436.284	111.69
436.505	110.49
436.727	110.69
436.949	119.29
437.17	117.49
437.392	115.29
437.614	114.69
437.835	119.29
438.057	123.29
438.278	125.89
438.5	137.89
438.721	162.49
438.943	158.29
439.165	155.29
439.386	141.49
439.608	141.29
439.829	135.89
440.05	136.49
440.272	131.49
440.493	131.89
440.715	133.29
440.936	144.09
441.158	146.29
441.379	125.49
441.6	132.89
441.822	124.09
442.043	121.69
442.264	111.49
442.486	123.29
442.707	116.49
442.928	121.89
443.149	121.89
443.371	120.09
443.592	117.49
443.813	122.49
444.034	110.29
444.255	113.89
444.476	113.89
444.698	119.89
444.919	114.09
445.14	188.49
445.361	146.09
445.582	115.69
445.803	111.29
446.024	111.09
446.245	113.09
446.466	113.29
446.687	116.89
446.908	112.89
447.129	112.09
447.35	111.09
447.571	110.49
447.792	106.29
448.013	111.89
448.234	106.69
448.455	113.89
448.675	110.49
448.896	107.09
449.117	108.89
449.338	109.29
449.559	112.69
449.779	104.89
450	107.69
450.221	109.69
450.442	108.49
450.662	104.89
450.883	105.69
451.104	112.69
451.324	109.49
451.545	108.49
451.766	104.29
451.986	105.69
452.207	108.29
452.428	108.49
452.648	105.49
452.869	108.29
453.089	102.89
453.31	103.89
453.53	107.29
453.751	108.29
453.971	104.69
454.192	101.09
454.412	104.69
454.633	105.69
454.853	102.49
455.073	105.89
455.294	106.29
455.514	101.89
455.734	103.29
455.955	104.89
456.175	106.89
456.395	101.09
456.616	100.49
456.836	100.69
457.056	96.89
457.276	101.89
457.497	104.49
457.717	105.69
457.937	108.09
458.157	99.09
458.377	97.69
458.598	108.09
458.818	105.29
459.038	97.29
459.258	99.29
459.478	104.89
459.698	105.29
459.918	107.69
460.138	98.29
460.358	108.49
460.578	110.09
460.798	108.29
461.018	108.29
461.238	110.89
461.458	103.09
461.678	101.69
461.898	101.49
462.118	106.29
462.338	107.29
462.558	111.29
462.777	113.29
462.997	109.09
463.217	109.49
463.437	103.29
463.657	106.69
463.876	107.89
464.096	102.29
464.316	99.29
464.536	109.89
464.755	109.09
464.975	108.29
465.195	107.69
465.414	108.49
465.634	105.89
465.854	104.89
466.073	103.29
466.293	106.69
466.512	109.09
466.732	109.49
466.951	109.69
467.171	106.89
467.391	112.49
467.61	106.49
467.829	108.29
468.049	110.09
468.268	104.49
468.488	103.09
468.707	99.89
468.927	98.29
469.146	105.89
469.365	100.89
469.585	108.69
469.804	108.69
470.023	101.89
470.243	107.69
470.462	112.09
470.681	107.69
470.901	106.89
471.12	107.89
471.339	103.69
471.558	110.09
471.777	112.49
471.997	108.09
472.216	102.29
472.435	106.89
472.654	101.89
472.873	104.09
473.092	105.09
473.311	105.49
473.53	99.69
473.749	104.69
473.968	110.89
474.187	109.29
474.406	107.09
474.625	106.49
474.844	105.89
475.063	105.29
475.282	111.09
475.501	102.69
475.72	108.09
475.939	110.09
476.158	112.89
476.377	110.29
476.596	104.49
476.814	100.49
477.033	105.89
477.252	104.09
477.471	113.29
477.69	111.09
477.908	110.69
478.127	116.69
478.346	114.89
478.564	117.49
478.783	115.89
479.002	121.09
479.22	113.69
479.439	111.29
479.658	109.89
479.876	118.49
480.095	110.09
480.313	120.09
480.532	118.29
480.751	115.49
480.969	104.29
481.188	105.09
481.406	108.89
481.624	111.29
481.843	100.29
482.061	110.49
482.28	110.09
482.498	114.29
482.717	114.49
482.935	113.29
483.153	113.89
483.372	112.89
483.59	113.29
483.808	108.29
484.027	112.09
484.245	113.69
484.463	107.49
484.681	108.49
484.9	110.29
485.118	112.89
485.336	113.69
485.554	113.29
485.772	111.29
485.99	111.29
486.209	112.69
486.427	110.89
486.645	109.89
486.863	113.69
487.081	112.69
487.299	113.29
487.517	113.49
487.735	114.49
487.953	116.29
488.171	111.29
488.389	117.89
488.607	115.09
488.825	107.29
489.043	108.89
489.261	119.69
489.479	107.29
489.696	113.29
489.914	113.69
490.132	108.69
490.35	116.49
490.568	108.49
490.786	114.49
491.003	113.69
491.221	115.29
491.439	116.49
491.657	118.29
491.874	121.09
492.092	117.89
492.31	124.09
492.527	126.69
492.745	112.09
492.963	115.29
493.18	114.49
493.398	118.89
493.615	114.09
493.833	117.49
494.05	117.09
494.268	127.09
494.485	110.89
494.703	117.89
494.92	120.09
495.138	117.09
495.355	124.09
495.573	130.49
495.79	117.69
496.008	119.49
496.225	118.69
496.442	118.49
496.66	116.09
496.877	119.89
497.094	124.69
497.312	121.29
497.529	114.69
497.746	114.89
497.963	121.69
498.181	113.89
498.398	110.89
498.615	117.49
498.832	116.69
499.049	124.49
499.267	122.49
499.484	124.69
499.701	126.09
499.918	129.49
500.135	127.69
500.352	136.69
500.569	145.09
500.786	161.09
501.003	146.69
501.22	136.89
501.437	127.89
501.654	127.69
501.871	123.49
502.088	132.29
502.305	116.69
502.522	120.29
502.739	122.09
502.956	114.49
503.172	120.09
503.389	126.09
503.606	122.89
503.823	119.09
504.04	123.89
504.256	132.49
504.473	126.49
504.69	128.09
504.907	131.49
505.123	121.29
505.34	126.69
505.557	121.49
505.773	118.09
505.99	121.49
506.207	130.29
506.423	112.29
506.64	117.69
506.856	114.09
507.073	120.29
507.289	113.09
507.506	113.29
507.722	115.29
507.939	109.29
508.155	118.89
508.372	114.09
508.588	116.69
