Data from TenMicroDelayPb_HRD10591_00002.txt Node
Date: Mon Nov 24 14:27:29 EST 2025
User: Yrep
Spectrometer: HR+D1059
Trigger mode: 0
Integration Time (sec): 1.000000E-1
Scans to average: 5
Electric dark correction enabled: true
Nonlinearity correction enabled: false
Boxcar width: 0
XAxis mode: Wavelengths
Number of Pixels in Spectrum: 2048
>>>>>Begin Spectral Data<<<<<
223.165	-18.56
223.4	-18.56
223.635	-18.56
223.869	-13.76
224.104	-26.56
224.338	-15.16
224.573	-12.96
224.808	-16.16
225.042	-12.96
225.277	-2.96
225.511	-3.96
225.746	6.84
225.98	6.64
226.215	7.84
226.449	18.84
226.683	20.84
226.918	31.04
227.152	31.04
227.387	35.84
227.621	36.84
227.856	45.44
228.09	41.84
228.324	53.24
228.559	53.84
228.793	56.64
229.027	66.84
229.262	68.04
229.496	61.64
229.73	68.84
229.964	70.04
230.199	75.84
230.433	75.04
230.667	78.64
230.901	78.24
231.136	77.44
231.37	78.44
231.604	78.24
231.838	83.84
232.072	74.64
232.306	85.64
232.541	85.64
232.775	74.24
233.009	79.24
233.243	84.84
233.477	80.44
233.711	86.04
233.945	82.64
234.179	85.04
234.413	85.04
234.647	80.04
234.881	80.04
235.115	78.84
235.349	73.04
235.583	81.04
235.817	77.44
236.051	80.64
236.285	83.84
236.519	78.44
236.753	77.24
236.987	72.44
237.221	81.24
237.455	79.64
237.689	75.24
237.922	77.44
238.156	82.84
238.39	75.64
238.624	75.44
238.858	80.64
239.091	71.24
239.325	77.24
239.559	80.04
239.793	72.04
240.027	80.04
240.26	78.84
240.494	83.84
240.728	78.84
240.961	77.64
241.195	77.64
241.429	88.44
241.662	80.44
241.896	78.04
242.13	77.44
242.363	78.84
242.597	83.24
242.83	84.84
243.064	77.44
243.298	81.64
243.531	76.44
243.765	82.04
243.998	76.64
244.232	83.84
244.465	87.84
244.699	82.44
244.932	83.84
245.166	82.84
245.399	81.24
245.633	78.24
245.866	79.24
246.099	75.24
246.333	79.44
246.566	78.64
246.8	81.04
247.033	79.04
247.266	78.84
247.5	79.64
247.733	79.64
247.966	87.64
248.2	87.84
248.433	83.84
248.666	79.64
248.899	82.04
249.133	87.04
249.366	82.04
249.599	84.44
249.832	87.64
250.066	87.44
250.299	75.04
250.532	82.64
250.765	83.64
250.998	86.44
251.231	86.44
251.465	90.24
251.698	80.44
251.931	84.24
252.164	89.64
252.397	86.84
252.63	85.44
252.863	87.44
253.096	89.24
253.329	93.84
253.562	89.24
253.795	93.64
254.028	94.84
254.261	90.84
254.494	93.84
254.727	87.44
254.96	87.64
255.193	84.24
255.426	93.04
255.659	83.44
255.892	86.44
256.124	86.04
256.357	85.04
256.59	88.84
256.823	84.04
257.056	89.84
257.289	87.04
257.521	96.44
257.754	90.24
257.987	92.84
258.22	101.24
258.452	90.24
258.685	85.64
258.918	86.64
259.151	91.04
259.383	98.64
259.616	96.24
259.849	89.04
260.081	88.24
260.314	90.04
260.547	98.04
260.779	94.64
261.012	98.04
261.244	107.24
261.477	117.04
261.71	115.84
261.942	100.84
262.175	93.64
262.407	92.84
262.64	95.24
262.872	88.24
263.105	93.44
263.337	92.04
263.57	99.44
263.802	96.24
264.035	84.04
264.267	89.64
264.499	94.64
264.732	94.04
264.964	106.64
265.197	96.64
265.429	94.84
265.661	86.24
265.894	95.84
266.126	96.44
266.358	97.24
266.591	103.24
266.823	101.84
267.055	92.24
267.287	89.64
267.52	95.04
267.752	89.84
267.984	90.84
268.216	88.04
268.448	87.04
268.681	89.84
268.913	85.84
269.145	91.64
269.377	95.84
269.609	90.84
269.841	83.84
270.073	91.64
270.306	92.24
270.538	83.24
270.77	85.64
271.002	87.04
271.234	94.24
271.466	90.64
271.698	91.64
271.93	91.24
272.162	96.84
272.394	89.64
272.626	91.04
272.858	87.04
273.09	91.24
273.322	89.84
273.553	92.84
273.785	91.44
274.017	90.44
274.249	93.04
274.481	93.84
274.713	88.24
274.945	91.84
275.176	87.04
275.408	92.04
275.64	81.44
275.872	86.64
276.104	98.84
276.335	90.44
276.567	96.64
276.799	91.84
277.031	96.44
277.262	97.84
277.494	90.24
277.726	91.04
277.957	94.64
278.189	94.44
278.421	90.44
278.652	94.64
278.884	95.84
279.115	97.64
279.347	107.64
279.579	111.24
279.81	125.04
280.042	135.44
280.273	149.44
280.505	135.04
280.736	123.04
280.968	102.04
281.199	104.04
281.431	103.44
281.662	104.44
281.894	101.44
282.125	107.64
282.356	118.44
282.588	112.84
282.819	105.04
283.051	112.04
283.282	120.64
283.513	126.24
283.745	114.04
283.976	100.24
284.207	106.44
284.439	101.24
284.67	98.24
284.901	98.44
285.132	92.64
285.364	94.44
285.595	96.44
285.826	104.64
286.057	94.64
286.288	96.04
286.52	98.44
286.751	101.64
286.982	102.24
287.213	113.24
287.444	120.44
287.675	109.64
287.906	107.24
288.138	99.24
288.369	94.04
288.6	98.84
288.831	95.24
289.062	99.04
289.293	96.44
289.524	95.24
289.755	93.24
289.986	92.04
290.217	97.04
290.448	93.04
290.679	88.84
290.91	100.44
291.141	93.44
291.371	96.04
291.602	95.64
291.833	90.44
292.064	99.24
292.295	92.44
292.526	92.84
292.757	96.84
292.987	91.24
293.218	93.04
293.449	83.44
293.68	99.64
293.91	96.84
294.141	98.84
294.372	99.44
294.603	102.64
294.833	96.04
295.064	92.04
295.295	91.24
295.525	90.24
295.756	103.24
295.987	95.64
296.217	100.64
296.448	98.84
296.679	92.44
296.909	98.04
297.14	99.24
297.37	95.44
297.601	91.44
297.831	99.04
298.062	91.44
298.292	90.84
298.523	102.44
298.753	94.04
298.984	100.64
299.214	92.84
299.445	90.84
299.675	97.24
299.905	102.64
300.136	96.84
300.366	95.64
300.597	100.24
300.827	94.24
301.057	98.24
301.288	100.04
301.518	99.64
301.748	99.04
301.979	106.04
302.209	91.84
302.439	98.44
302.669	102.44
302.9	97.24
303.13	97.24
303.36	97.44
303.59	93.44
303.82	98.64
304.051	98.64
304.281	97.84
304.511	104.04
304.741	93.84
304.971	91.84
305.201	99.04
305.431	99.84
305.661	100.04
305.891	99.24
306.121	95.84
306.352	92.84
306.582	94.84
306.812	98.24
307.042	94.04
307.272	96.04
307.502	99.64
307.731	98.64
307.961	97.84
308.191	99.84
308.421	111.44
308.651	104.44
308.881	97.44
309.111	100.64
309.341	93.04
309.571	96.64
309.8	97.84
310.03	90.64
310.26	97.24
310.49	96.44
310.72	99.24
310.949	94.24
311.179	101.84
311.409	103.64
311.639	95.04
311.868	95.84
312.098	95.64
312.328	104.24
312.557	96.84
312.787	100.84
313.017	100.64
313.246	99.44
313.476	100.84
313.706	99.24
313.935	102.64
314.165	98.44
314.394	97.84
314.624	105.44
314.853	104.84
315.083	104.64
315.312	103.44
315.542	103.24
315.771	100.84
316.001	99.44
316.23	107.24
316.46	102.84
316.689	101.64
316.919	107.24
317.148	109.84
317.377	99.04
317.607	104.84
317.836	100.64
318.065	101.04
318.295	103.64
318.524	101.24
318.753	96.84
318.983	103.04
319.212	99.24
319.441	94.84
319.67	100.24
319.9	99.24
320.129	100.24
320.358	100.84
320.587	99.64
320.816	99.44
321.046	100.64
321.275	102.64
321.504	96.44
321.733	88.84
321.962	96.24
322.191	99.04
322.42	98.24
322.649	94.44
322.878	99.04
323.108	93.24
323.337	98.64
323.566	97.24
323.795	102.24
324.024	101.24
324.253	100.84
324.482	103.84
324.71	99.44
324.939	93.44
325.168	100.24
325.397	100.24
325.626	104.24
325.855	93.84
326.084	99.44
326.313	103.84
326.542	98.44
326.77	101.64
326.999	95.84
327.228	102.64
327.457	98.04
327.686	100.64
327.914	95.44
328.143	99.24
328.372	102.24
328.6	99.64
328.829	99.64
329.058	97.64
329.287	101.44
329.515	100.24
329.744	93.84
329.972	101.64
330.201	100.64
330.43	101.64
330.658	97.24
330.887	100.64
331.115	99.44
331.344	98.84
331.572	99.84
331.801	101.84
332.03	100.24
332.258	103.04
332.486	101.04
332.715	104.04
332.943	107.44
333.172	104.84
333.4	106.44
333.629	95.04
333.857	94.24
334.085	94.64
334.314	98.24
334.542	104.04
334.771	101.24
334.999	98.84
335.227	100.64
335.455	101.04
335.684	105.24
335.912	102.64
336.14	98.24
336.369	100.44
336.597	107.04
336.825	98.24
337.053	101.04
337.281	99.84
337.51	100.44
337.738	101.64
337.966	94.04
338.194	91.44
338.422	94.84
338.65	95.44
338.878	104.04
339.106	94.64
339.334	100.04
339.562	91.04
339.79	100.84
340.018	99.24
340.246	88.64
340.474	97.64
340.702	95.24
340.93	99.24
341.158	94.04
341.386	93.44
341.614	94.24
341.842	101.04
342.07	95.24
342.298	92.84
342.526	97.44
342.754	95.84
342.981	95.04
343.209	103.24
343.437	104.64
343.665	94.44
343.893	95.84
344.12	103.64
344.348	104.84
344.576	100.84
344.804	102.04
345.031	95.44
345.259	105.24
345.487	93.84
345.714	104.24
345.942	100.24
346.17	94.04
346.397	98.24
346.625	104.44
346.853	100.44
347.08	88.84
347.308	100.84
347.535	97.44
347.763	91.24
347.99	95.84
348.218	96.64
348.445	100.84
348.673	93.64
348.9	103.04
349.128	99.64
349.355	103.64
349.583	100.44
349.81	101.84
350.037	101.84
350.265	102.44
350.492	99.44
350.72	94.84
350.947	102.44
351.174	99.84
351.402	100.44
351.629	96.24
351.856	99.64
352.083	101.64
352.311	98.44
352.538	91.24
352.765	102.84
352.992	101.24
353.22	92.84
353.447	102.04
353.674	101.24
353.901	96.04
354.128	101.84
354.355	102.24
354.583	99.24
354.81	100.24
355.037	102.84
355.264	106.84
355.491	105.04
355.718	99.84
355.945	102.04
356.172	101.24
356.399	102.84
356.626	106.64
356.853	121.44
357.08	134.24
357.307	159.24
357.534	144.64
357.761	133.24
357.988	122.24
358.215	113.44
358.441	112.64
358.668	111.04
358.895	105.04
359.122	106.44
359.349	108.64
359.576	106.64
359.802	98.64
360.029	99.04
360.256	101.04
360.483	103.44
360.709	104.44
360.936	107.44
361.163	98.64
361.39	107.24
361.616	102.64
361.843	107.04
362.07	101.64
362.296	99.64
362.523	101.64
362.749	101.84
362.976	109.84
363.203	110.44
363.429	110.84
363.656	132.44
363.882	161.64
364.109	168.04
364.335	146.64
364.562	120.04
364.788	104.84
365.015	109.64
365.241	106.04
365.468	101.04
365.694	105.64
365.92	103.84
366.147	110.44
366.373	110.84
366.599	106.04
366.826	106.44
367.052	117.04
367.278	118.24
367.505	117.04
367.731	126.04
367.957	140.84
368.184	161.04
368.41	204.24
368.636	191.44
368.862	138.64
369.089	124.84
369.315	122.24
369.541	117.44
369.767	101.24
369.993	104.84
370.219	106.04
370.445	106.24
370.672	108.04
370.898	102.44
371.124	108.24
371.35	111.44
371.576	102.64
371.802	103.84
372.028	105.64
372.254	100.04
372.48	100.24
372.706	97.64
372.932	105.84
373.158	101.24
373.384	108.24
373.61	119.44
373.835	140.04
374.061	156.44
374.287	145.84
374.513	126.04
374.739	111.24
374.965	109.04
375.191	105.24
375.416	106.84
375.642	104.24
375.868	104.24
376.094	106.84
376.319	96.04
376.545	99.84
376.771	100.64
376.997	100.04
377.222	101.24
377.448	102.44
377.674	99.44
377.899	101.04
378.125	99.64
378.35	106.24
378.576	102.44
378.802	98.64
379.027	102.84
379.253	103.24
379.478	99.24
379.704	103.44
379.929	107.24
380.155	101.04
380.38	100.64
380.606	100.44
380.831	97.24
381.057	94.64
381.282	105.04
381.507	98.04
381.733	104.04
381.958	96.84
382.184	101.04
382.409	91.24
382.634	103.64
382.86	93.24
383.085	97.84
383.31	100.04
383.535	102.84
383.761	105.64
383.986	99.24
384.211	102.04
384.436	102.04
384.662	96.64
384.887	98.24
385.112	102.64
385.337	101.04
385.562	106.44
385.787	104.04
386.013	99.84
386.238	98.24
386.463	97.64
386.688	112.84
386.913	104.64
387.138	102.64
387.363	103.24
387.588	100.04
387.813	105.24
388.038	96.04
388.263	104.44
388.488	102.64
388.713	100.04
388.938	99.04
389.163	101.64
389.387	106.24
389.612	99.24
389.837	101.24
390.062	99.24
390.287	99.24
390.512	98.24
390.736	103.44
390.961	94.64
391.186	101.84
391.411	104.04
391.636	102.24
391.86	99.44
392.085	95.04
392.31	104.04
392.534	101.04
392.759	104.24
392.984	104.24
393.208	96.04
393.433	98.64
393.658	110.04
393.882	99.04
394.107	94.24
394.331	97.04
394.556	101.24
394.78	105.04
395.005	104.44
395.229	104.84
395.454	94.64
395.678	100.84
395.903	111.84
396.127	105.64
396.352	104.64
396.576	101.04
396.801	100.24
397.025	100.44
397.249	103.84
397.474	105.04
397.698	105.64
397.922	106.44
398.147	98.44
398.371	95.84
398.595	106.44
398.82	104.04
399.044	94.64
399.268	117.04
399.492	109.84
399.717	111.84
399.941	104.04
400.165	108.64
400.389	104.24
400.613	106.24
400.837	104.44
401.062	107.44
401.286	109.64
401.51	111.64
401.734	113.64
401.958	114.24
402.182	108.64
402.406	102.84
402.63	109.44
402.854	107.84
403.078	102.04
403.302	108.84
403.526	100.84
403.75	111.04
403.974	105.84
404.198	106.84
404.422	109.44
404.645	118.64
404.869	114.24
405.093	124.24
405.317	151.44
405.541	185.24
405.765	264.04
405.988	284.44
406.212	223.44
406.436	165.44
406.66	145.04
406.883	135.04
407.107	121.44
407.331	124.84
407.555	113.04
407.778	117.64
408.002	120.84
408.226	115.84
408.449	112.24
408.673	117.24
408.896	108.44
409.12	110.84
409.344	108.64
409.567	110.84
409.791	113.44
410.014	107.84
410.238	107.84
410.461	100.24
410.685	109.04
410.908	109.24
411.132	112.64
411.355	107.24
411.578	104.44
411.802	111.04
412.025	105.84
412.249	108.04
412.472	107.84
412.695	103.44
412.919	105.64
413.142	102.44
413.365	102.24
413.589	107.24
413.812	106.64
414.035	108.04
414.258	105.84
414.482	107.44
414.705	101.44
414.928	109.84
415.151	108.84
415.374	106.64
415.597	108.84
415.821	109.64
416.044	109.04
416.267	106.84
416.49	107.04
416.713	109.24
416.936	113.84
417.159	108.04
417.382	106.04
417.605	111.84
417.828	108.44
418.051	108.04
418.274	104.24
418.497	107.24
418.72	108.24
418.943	114.04
419.166	106.24
419.389	113.24
419.611	110.44
419.834	107.24
420.057	111.84
420.28	102.44
420.503	108.84
420.726	106.24
420.948	107.64
421.171	102.84
421.394	108.24
421.617	108.84
421.839	107.84
422.062	111.04
422.285	111.04
422.507	115.44
422.73	111.84
422.953	112.64
423.175	120.44
423.398	126.04
423.621	123.04
423.843	119.64
424.066	130.44
424.288	141.04
424.511	164.44
424.733	163.84
424.956	159.04
425.178	147.84
425.401	146.64
425.623	135.84
425.846	131.64
426.068	124.24
426.291	120.24
426.513	125.84
426.735	119.84
426.958	117.64
427.18	120.44
427.402	117.04
427.625	111.64
427.847	108.64
428.069	111.64
428.292	112.64
428.514	106.84
428.736	113.44
428.958	112.84
429.181	106.84
429.403	109.04
429.625	112.04
429.847	112.04
430.069	110.84
430.292	104.44
430.514	104.24
430.736	110.24
430.958	114.04
431.18	109.44
431.402	104.84
431.624	104.24
431.846	105.24
432.068	101.64
432.29	105.24
432.512	110.44
432.734	104.44
432.956	109.04
433.178	111.84
433.4	108.04
433.622	115.44
433.844	110.24
434.066	112.44
434.287	115.04
434.509	110.04
434.731	116.44
434.953	112.24
435.175	107.04
435.397	115.64
435.618	113.84
435.84	108.64
436.062	106.44
436.284	107.84
436.505	103.84
436.727	114.04
436.949	119.24
437.17	117.04
437.392	111.64
437.614	118.84
437.835	116.24
438.057	126.44
438.278	129.84
438.5	137.64
438.721	163.44
438.943	176.64
439.165	159.84
439.386	145.04
439.608	151.04
439.829	134.04
440.05	131.44
440.272	136.24
440.493	131.64
440.715	132.44
440.936	149.24
441.158	143.24
441.379	129.64
441.6	133.44
441.822	121.84
442.043	119.24
442.264	123.64
442.486	116.24
442.707	112.64
442.928	113.64
443.149	109.44
443.371	118.24
443.592	115.64
443.813	118.24
444.034	110.24
444.255	113.64
444.476	115.64
444.698	108.44
444.919	116.44
445.14	190.64
445.361	145.24
445.582	116.24
445.803	112.84
446.024	116.84
446.245	118.64
446.466	114.64
446.687	112.84
446.908	108.84
447.129	114.64
447.35	107.04
447.571	110.44
447.792	104.64
448.013	110.04
448.234	109.24
448.455	105.64
448.675	112.44
448.896	107.64
449.117	111.44
449.338	112.44
449.559	108.64
449.779	105.84
450	103.64
450.221	110.44
450.442	111.84
450.662	108.84
450.883	108.64
451.104	109.84
451.324	110.04
451.545	109.84
451.766	107.44
451.986	105.84
452.207	104.64
452.428	114.64
452.648	107.84
452.869	104.44
453.089	104.64
453.31	98.84
453.53	102.84
453.751	105.04
453.971	105.24
454.192	101.84
454.412	109.64
454.633	98.84
454.853	108.44
455.073	106.24
455.294	100.44
455.514	105.24
455.734	106.64
455.955	106.44
456.175	106.24
456.395	106.24
456.616	106.04
456.836	98.04
457.056	104.44
457.276	98.44
457.497	103.24
457.717	99.84
457.937	99.04
458.157	102.04
458.377	99.04
458.598	94.44
458.818	99.84
459.038	98.84
459.258	105.24
459.478	106.24
459.698	99.64
459.918	102.84
460.138	105.64
460.358	105.24
460.578	105.24
460.798	106.04
461.018	110.84
461.238	104.64
461.458	105.44
461.678	108.24
461.898	112.64
462.118	102.24
462.338	111.84
462.558	111.44
462.777	108.44
462.997	108.04
463.217	103.64
463.437	106.44
463.657	103.64
463.876	98.84
464.096	108.24
464.316	103.44
464.536	109.84
464.755	114.64
464.975	105.44
465.195	102.84
465.414	114.64
465.634	94.44
465.854	110.24
466.073	106.04
466.293	107.84
466.512	103.84
466.732	103.24
466.951	102.24
467.171	110.84
467.391	106.04
467.61	103.44
467.829	101.84
468.049	101.84
468.268	106.44
468.488	104.64
468.707	108.04
468.927	108.44
469.146	101.64
469.365	100.64
469.585	105.64
469.804	104.04
470.023	106.44
470.243	112.04
470.462	103.64
470.681	102.84
470.901	108.64
471.12	105.24
471.339	112.24
471.558	110.04
471.777	100.84
471.997	105.04
472.216	112.84
472.435	104.24
472.654	98.44
472.873	110.44
473.092	104.24
473.311	103.04
473.53	105.64
473.749	109.04
473.968	108.64
474.187	99.24
474.406	102.84
474.625	103.64
474.844	111.04
475.063	107.44
475.282	101.44
475.501	102.44
475.72	113.24
475.939	113.44
476.158	107.84
476.377	105.24
476.596	113.04
476.814	105.04
477.033	106.04
477.252	106.64
477.471	107.64
477.69	103.04
477.908	111.24
478.127	113.04
478.346	106.64
478.564	112.24
478.783	110.64
479.002	114.04
479.22	107.64
479.439	109.04
479.658	108.44
479.876	110.44
480.095	109.84
480.313	114.44
480.532	113.44
480.751	110.64
480.969	102.24
481.188	106.44
481.406	112.64
481.624	102.24
481.843	110.84
482.061	107.44
482.28	104.64
482.498	108.64
482.717	110.44
482.935	111.84
483.153	112.44
483.372	111.04
483.59	114.44
483.808	110.04
484.027	110.64
484.245	112.24
484.463	112.84
484.681	114.84
484.9	112.64
485.118	107.04
485.336	106.44
485.554	112.24
485.772	110.64
485.99	106.84
486.209	110.64
486.427	105.24
486.645	110.04
486.863	110.44
487.081	108.24
487.299	107.64
487.517	110.84
487.735	111.64
487.953	113.84
488.171	122.64
488.389	119.84
488.607	107.04
488.825	106.24
489.043	106.44
489.261	111.24
489.479	113.24
489.696	113.64
489.914	111.44
490.132	112.44
490.35	111.44
490.568	109.04
490.786	112.44
491.003	114.44
491.221	120.64
491.439	120.04
491.657	116.24
491.874	119.84
492.092	118.04
492.31	119.64
492.527	113.84
492.745	113.64
492.963	114.64
493.18	117.04
493.398	111.04
493.615	116.84
493.833	111.84
494.05	111.24
494.268	109.64
494.485	114.04
494.703	109.44
494.92	117.84
495.138	121.64
495.355	117.64
495.573	120.04
495.79	108.44
496.008	116.24
496.225	120.24
496.442	119.04
496.66	126.64
496.877	120.44
497.094	110.24
497.312	115.64
497.529	118.84
497.746	111.04
497.963	119.84
498.181	119.24
498.398	114.64
498.615	114.04
498.832	114.04
499.049	122.64
499.267	122.64
499.484	124.84
499.701	124.64
499.918	130.04
500.135	129.64
500.352	136.84
500.569	141.04
500.786	152.04
501.003	142.84
501.22	139.84
501.437	134.64
501.654	136.44
501.871	119.04
502.088	123.04
502.305	128.84
502.522	126.64
502.739	121.84
502.956	119.24
503.172	120.64
503.389	119.84
503.606	120.44
503.823	125.04
504.04	122.24
504.256	126.64
504.473	131.64
504.69	129.24
504.907	137.64
505.123	125.44
505.34	123.04
505.557	125.84
505.773	124.04
505.99	120.64
506.207	119.84
506.423	115.24
506.64	118.04
506.856	122.44
507.073	117.24
507.289	117.04
507.506	112.44
507.722	115.64
507.939	116.64
508.155	115.04
508.372	111.84
508.588	114.04
508.805	107.24
