Data from TenMicroDelayPb_HRD10591_00006.txt Node
Date: Mon Nov 24 14:27:31 EST 2025
User: Yrep
Spectrometer: HR+D1059
Trigger mode: 0
Integration Time (sec): 1.000000E-1
Scans to average: 5
Electric dark correction enabled: true
Nonlinearity correction enabled: false
Boxcar width: 0
XAxis mode: Wavelengths
Number of Pixels in Spectrum: 2048
>>>>>Begin Spectral Data<<<<<
223.165	-11.86
223.4	-11.86
223.635	-11.86
223.869	-18.66
224.104	-25.66
224.338	-10.86
224.573	-14.46
224.808	-7.06
225.042	-10.46
225.277	-4.26
225.511	-7.46
225.746	5.14
225.98	5.54
226.215	15.14
226.449	17.74
226.683	16.34
226.918	22.94
227.152	27.94
227.387	32.74
227.621	38.94
227.856	47.34
228.09	45.74
228.324	57.94
228.559	55.34
228.793	59.14
229.027	66.54
229.262	68.14
229.496	71.54
229.73	69.14
229.964	76.14
230.199	73.14
230.433	68.74
230.667	84.14
230.901	76.94
231.136	82.14
231.37	88.94
231.604	81.94
231.838	82.14
232.072	80.14
232.306	82.74
232.541	87.94
232.775	85.14
233.009	87.54
233.243	85.74
233.477	84.74
233.711	80.54
233.945	84.34
234.179	84.14
234.413	88.74
234.647	88.74
234.881	86.54
235.115	80.74
235.349	77.54
235.583	87.14
235.817	84.94
236.051	84.74
236.285	81.34
236.519	81.94
236.753	79.74
236.987	82.14
237.221	76.34
237.455	78.74
237.689	79.14
237.922	83.94
238.156	87.74
238.39	77.74
238.624	77.14
238.858	77.34
239.091	78.34
239.325	75.74
239.559	74.14
239.793	81.74
240.027	90.34
240.26	84.94
240.494	79.94
240.728	83.14
240.961	80.54
241.195	77.14
241.429	77.74
241.662	82.54
241.896	74.94
242.13	76.34
242.363	80.94
242.597	74.54
242.83	82.74
243.064	80.34
243.298	78.94
243.531	84.54
243.765	75.94
243.998	82.54
244.232	91.54
244.465	76.34
244.699	80.54
244.932	84.74
245.166	83.14
245.399	83.14
245.633	85.94
245.866	81.54
246.099	81.54
246.333	83.54
246.566	81.94
246.8	83.34
247.033	85.74
247.266	72.54
247.5	85.74
247.733	86.14
247.966	80.94
248.2	82.94
248.433	87.14
248.666	82.54
248.899	88.94
249.133	72.14
249.366	91.74
249.599	83.34
249.832	84.14
250.066	87.34
250.299	82.14
250.532	80.54
250.765	86.34
250.998	83.14
251.231	88.54
251.465	83.14
251.698	82.54
251.931	88.54
252.164	84.14
252.397	83.54
252.63	97.34
252.863	90.34
253.096	90.94
253.329	87.54
253.562	87.74
253.795	88.34
254.028	86.94
254.261	81.74
254.494	86.74
254.727	89.34
254.96	91.54
255.193	84.94
255.426	88.14
255.659	86.94
255.892	90.14
256.124	92.14
256.357	90.74
256.59	88.94
256.823	91.34
257.056	90.74
257.289	92.74
257.521	89.34
257.754	91.94
257.987	94.54
258.22	93.14
258.452	90.34
258.685	84.94
258.918	87.34
259.151	92.14
259.383	97.14
259.616	92.74
259.849	93.94
260.081	93.74
260.314	95.94
260.547	88.54
260.779	89.54
261.012	92.54
261.244	102.74
261.477	118.74
261.71	117.94
261.942	105.94
262.175	96.14
262.407	95.14
262.64	96.74
262.872	93.74
263.105	92.34
263.337	94.54
263.57	93.74
263.802	100.54
264.035	93.14
264.267	95.54
264.499	97.54
264.732	100.14
264.964	94.14
265.197	92.94
265.429	98.94
265.661	96.54
265.894	93.54
266.126	105.14
266.358	107.54
266.591	101.34
266.823	101.74
267.055	89.54
267.287	91.74
267.52	94.54
267.752	93.34
267.984	91.94
268.216	90.14
268.448	86.14
268.681	88.34
268.913	84.74
269.145	92.94
269.377	93.94
269.609	97.34
269.841	88.14
270.073	94.74
270.306	95.14
270.538	96.34
270.77	94.94
271.002	88.94
271.234	88.14
271.466	94.74
271.698	91.94
271.93	93.14
272.162	92.74
272.394	96.54
272.626	89.94
272.858	93.74
273.09	92.14
273.322	89.74
273.553	96.54
273.785	91.74
274.017	85.14
274.249	90.14
274.481	91.94
274.713	90.94
274.945	97.74
275.176	90.34
275.408	95.34
275.64	95.34
275.872	96.34
276.104	88.54
276.335	93.34
276.567	93.14
276.799	91.14
277.031	93.14
277.262	97.54
277.494	100.14
277.726	97.54
277.957	87.74
278.189	92.94
278.421	92.34
278.652	100.94
278.884	93.74
279.115	101.54
279.347	110.14
279.579	108.54
279.81	115.54
280.042	132.54
280.273	137.54
280.505	136.94
280.736	114.54
280.968	104.94
281.199	106.14
281.431	104.14
281.662	106.14
281.894	104.54
282.125	113.54
282.356	109.34
282.588	113.34
282.819	107.74
283.051	107.34
283.282	116.74
283.513	130.94
283.745	113.54
283.976	109.94
284.207	104.14
284.439	100.54
284.67	103.14
284.901	103.54
285.132	102.54
285.364	100.94
285.595	103.54
285.826	94.74
286.057	97.74
286.288	96.94
286.52	102.74
286.751	99.94
286.982	102.34
287.213	106.94
287.444	121.14
287.675	110.34
287.906	103.74
288.138	95.34
288.369	96.54
288.6	98.34
288.831	100.14
289.062	98.74
289.293	98.54
289.524	95.54
289.755	101.14
289.986	101.34
290.217	98.74
290.448	94.14
290.679	94.14
290.91	98.94
291.141	99.74
291.371	101.74
291.602	100.74
291.833	101.74
292.064	95.74
292.295	97.34
292.526	90.54
292.757	96.34
292.987	102.74
293.218	95.94
293.449	102.34
293.68	99.14
293.91	90.54
294.141	100.34
294.372	103.14
294.603	99.34
294.833	105.34
295.064	107.54
295.295	98.14
295.525	90.94
295.756	97.94
295.987	103.14
296.217	99.94
296.448	101.94
296.679	94.54
296.909	95.94
297.14	97.54
297.37	97.34
297.601	97.74
297.831	98.94
298.062	102.94
298.292	95.74
298.523	98.54
298.753	93.94
298.984	95.34
299.214	98.14
299.445	102.54
299.675	97.94
299.905	107.34
300.136	98.34
300.366	100.34
300.597	98.34
300.827	93.94
301.057	94.94
301.288	94.34
301.518	97.14
301.748	94.94
301.979	109.54
302.209	103.74
302.439	91.94
302.669	99.94
302.9	99.34
303.13	102.34
303.36	99.14
303.59	99.54
303.82	100.14
304.051	101.74
304.281	107.14
304.511	101.14
304.741	104.94
304.971	92.74
305.201	101.94
305.431	97.94
305.661	104.94
305.891	100.74
306.121	99.34
306.352	97.54
306.582	96.54
306.812	104.14
307.042	91.54
307.272	94.94
307.502	95.74
307.731	96.34
307.961	94.34
308.191	104.34
308.421	99.74
308.651	96.34
308.881	102.14
309.111	91.94
309.341	92.54
309.571	96.54
309.8	93.74
310.03	100.74
310.26	99.34
310.49	103.54
310.72	99.34
310.949	100.54
311.179	94.94
311.409	101.14
311.639	100.34
311.868	100.54
312.098	104.54
312.328	97.94
312.557	107.14
312.787	101.14
313.017	101.14
313.246	99.14
313.476	96.34
313.706	105.54
313.935	102.94
314.165	100.74
314.394	102.14
314.624	104.74
314.853	105.14
315.083	105.54
315.312	110.94
315.542	96.34
315.771	105.34
316.001	101.14
316.23	109.74
316.46	108.34
316.689	102.54
316.919	104.54
317.148	108.34
317.377	105.54
317.607	106.54
317.836	98.14
318.065	99.54
318.295	99.34
318.524	91.74
318.753	98.14
318.983	96.94
319.212	94.14
319.441	100.14
319.67	100.94
319.9	100.94
320.129	99.74
320.358	98.54
320.587	98.74
320.816	100.74
321.046	106.34
321.275	101.94
321.504	97.54
321.733	101.94
321.962	100.34
322.191	96.54
322.42	96.74
322.649	97.74
322.878	99.34
323.108	100.94
323.337	103.94
323.566	101.34
323.795	102.34
324.024	101.14
324.253	98.94
324.482	101.14
324.71	95.54
324.939	99.14
325.168	104.94
325.397	99.94
325.626	92.14
325.855	102.54
326.084	99.34
326.313	98.14
326.542	100.74
326.77	106.14
326.999	103.14
327.228	103.74
327.457	101.34
327.686	103.54
327.914	106.54
328.143	104.94
328.372	100.54
328.6	101.34
328.829	102.14
329.058	105.74
329.287	100.54
329.515	97.14
329.744	99.14
329.972	97.14
330.201	102.34
330.43	100.74
330.658	101.94
330.887	99.54
331.115	105.14
331.344	112.74
331.572	114.14
331.801	104.14
332.03	104.74
332.258	98.14
332.486	97.54
332.715	96.54
332.943	100.94
333.172	100.14
333.4	99.94
333.629	105.34
333.857	102.94
334.085	100.34
334.314	100.94
334.542	100.94
334.771	99.34
334.999	101.34
335.227	101.54
335.455	97.94
335.684	101.14
335.912	101.34
336.14	97.74
336.369	105.94
336.597	101.74
336.825	102.14
337.053	105.74
337.281	104.34
337.51	100.94
337.738	105.34
337.966	94.34
338.194	97.94
338.422	99.14
338.65	102.34
338.878	103.74
339.106	96.94
339.334	98.14
339.562	99.14
339.79	91.34
340.018	93.74
340.246	96.14
340.474	101.74
340.702	100.34
340.93	99.54
341.158	92.54
341.386	98.74
341.614	99.14
341.842	100.34
342.07	92.34
342.298	97.74
342.526	99.34
342.754	97.74
342.981	102.54
343.209	105.74
343.437	105.94
343.665	107.54
343.893	99.74
344.12	106.74
344.348	103.74
344.576	96.94
344.804	104.74
345.031	95.94
345.259	104.34
345.487	95.54
345.714	99.54
345.942	94.34
346.17	104.74
346.397	103.14
346.625	99.34
346.853	101.34
347.08	99.14
347.308	99.14
347.535	97.94
347.763	98.74
347.99	96.74
348.218	96.54
348.445	96.54
348.673	100.74
348.9	102.74
349.128	105.14
349.355	99.34
349.583	96.34
349.81	96.94
350.037	100.34
350.265	99.94
350.492	95.74
350.72	96.94
350.947	100.14
351.174	97.74
351.402	99.34
351.629	95.94
351.856	101.74
352.083	94.54
352.311	92.74
352.538	97.54
352.765	99.14
352.992	101.54
353.22	102.94
353.447	106.74
353.674	102.74
353.901	100.54
354.128	97.34
354.355	91.34
354.583	95.14
354.81	97.94
355.037	99.34
355.264	100.54
355.491	105.74
355.718	99.34
355.945	103.14
356.172	104.74
356.399	103.14
356.626	101.54
356.853	115.34
357.08	130.74
357.307	148.54
357.534	153.14
357.761	132.74
357.988	116.54
358.215	117.74
358.441	113.94
358.668	102.34
358.895	108.54
359.122	110.54
359.349	106.54
359.576	104.94
359.802	101.34
360.029	108.14
360.256	101.74
360.483	103.34
360.709	99.74
360.936	103.34
361.163	105.14
361.39	104.14
361.616	105.94
361.843	100.14
362.07	106.34
362.296	100.54
362.523	101.94
362.749	102.94
362.976	106.94
363.203	111.74
363.429	117.74
363.656	132.34
363.882	155.74
364.109	167.74
364.335	142.54
364.562	123.74
364.788	118.34
365.015	114.14
365.241	108.14
365.468	109.54
365.694	111.34
365.92	104.34
366.147	102.34
366.373	106.14
366.599	108.14
366.826	113.54
367.052	117.54
367.278	124.34
367.505	123.34
367.731	126.54
367.957	137.94
368.184	170.74
368.41	192.54
368.636	184.14
368.862	146.54
369.089	123.34
369.315	118.34
369.541	116.94
369.767	104.54
369.993	109.94
370.219	108.34
370.445	98.14
370.672	102.14
370.898	102.74
371.124	111.14
371.35	95.34
371.576	101.74
371.802	112.14
372.028	100.94
372.254	103.54
372.48	108.94
372.706	103.74
372.932	100.74
373.158	104.34
373.384	107.34
373.61	121.94
373.835	135.74
374.061	156.94
374.287	148.94
374.513	124.74
374.739	118.94
374.965	114.14
375.191	106.54
375.416	106.74
375.642	102.34
375.868	107.94
376.094	105.94
376.319	98.14
376.545	101.54
376.771	97.14
376.997	96.14
377.222	103.14
377.448	104.34
377.674	103.74
377.899	106.14
378.125	95.14
378.35	98.94
378.576	103.94
378.802	102.54
379.027	99.74
379.253	102.14
379.478	103.34
379.704	102.34
379.929	98.54
380.155	96.34
380.38	97.34
380.606	113.94
380.831	104.34
381.057	100.34
381.282	100.34
381.507	99.14
381.733	103.94
381.958	105.14
382.184	97.14
382.409	104.14
382.634	104.34
382.86	103.34
383.085	108.54
383.31	96.14
383.535	102.94
383.761	98.34
383.986	105.14
384.211	96.14
384.436	101.74
384.662	103.74
384.887	108.14
385.112	104.14
385.337	99.34
385.562	100.94
385.787	102.34
386.013	110.14
386.238	99.34
386.463	96.14
386.688	106.34
386.913	98.54
387.138	95.54
387.363	104.14
387.588	107.14
387.813	109.54
388.038	102.54
388.263	105.74
388.488	99.34
388.713	98.54
388.938	108.34
389.163	104.74
389.387	103.54
389.612	95.14
389.837	96.14
390.062	109.14
390.287	99.54
390.512	101.34
390.736	101.94
390.961	96.74
391.186	98.14
391.411	97.74
391.636	105.94
391.86	98.94
392.085	102.74
392.31	96.54
392.534	104.54
392.759	107.74
392.984	101.14
393.208	104.74
393.433	103.34
393.658	105.14
393.882	100.34
394.107	107.14
394.331	104.94
394.556	101.94
394.78	98.54
395.005	111.34
395.229	102.94
395.454	90.34
395.678	102.54
395.903	104.94
396.127	99.74
396.352	109.54
396.576	98.74
396.801	105.14
397.025	99.94
397.249	98.94
397.474	110.34
397.698	105.34
397.922	104.34
398.147	102.34
398.371	98.34
398.595	100.54
398.82	104.34
399.044	97.94
399.268	106.34
399.492	109.34
399.717	112.14
399.941	106.14
400.165	106.94
400.389	102.94
400.613	103.14
400.837	103.54
401.062	108.94
401.286	113.14
401.51	110.34
401.734	118.54
401.958	120.34
402.182	118.14
402.406	107.54
402.63	107.54
402.854	110.34
403.078	106.94
403.302	112.34
403.526	111.34
403.75	112.74
403.974	107.74
404.198	120.74
404.422	111.94
404.645	114.74
404.869	120.94
405.093	132.54
405.317	146.94
405.541	194.14
405.765	257.94
405.988	282.54
406.212	214.14
406.436	173.14
406.66	136.74
406.883	131.94
407.107	132.94
407.331	120.94
407.555	122.94
407.778	116.74
408.002	118.94
408.226	111.74
408.449	115.14
408.673	111.54
408.896	109.94
409.12	105.14
409.344	112.74
409.567	105.94
409.791	105.54
410.014	109.74
410.238	107.74
410.461	106.74
410.685	105.34
410.908	106.14
411.132	112.54
411.355	109.74
411.578	110.74
411.802	105.14
412.025	104.54
412.249	110.94
412.472	111.34
412.695	102.74
412.919	106.74
413.142	105.54
413.365	109.94
413.589	110.34
413.812	112.94
414.035	109.14
414.258	108.74
414.482	108.74
414.705	107.94
414.928	100.14
415.151	107.14
415.374	101.34
415.597	110.14
415.821	109.14
416.044	110.94
416.267	110.94
416.49	97.54
416.713	106.54
416.936	111.34
417.159	99.74
417.382	107.34
417.605	104.34
417.828	109.94
418.051	104.14
418.274	105.14
418.497	107.54
418.72	106.14
418.943	104.54
419.166	100.34
419.389	109.34
419.611	103.14
419.834	109.94
420.057	109.54
420.28	112.34
420.503	108.14
420.726	106.14
420.948	108.34
421.171	105.34
421.394	112.54
421.617	108.54
421.839	111.94
422.062	106.54
422.285	118.14
422.507	114.34
422.73	118.34
422.953	115.74
423.175	118.54
423.398	118.54
423.621	123.54
423.843	125.74
424.066	130.74
424.288	141.14
424.511	156.34
424.733	180.94
424.956	164.14
425.178	151.94
425.401	140.74
425.623	134.34
425.846	126.94
426.068	129.74
426.291	115.34
426.513	126.14
426.735	119.34
426.958	121.74
427.18	120.34
427.402	118.34
427.625	113.34
427.847	108.34
428.069	111.74
428.292	119.54
428.514	114.74
428.736	114.54
428.958	109.54
429.181	108.94
429.403	113.74
429.625	113.74
429.847	105.74
430.069	106.94
430.292	115.34
430.514	113.34
430.736	111.74
430.958	111.94
431.18	112.74
431.402	105.74
431.624	105.54
431.846	112.34
432.068	111.14
432.29	104.34
432.512	114.14
432.734	105.74
432.956	114.34
433.178	108.94
433.4	116.74
433.622	113.94
433.844	111.14
434.066	115.94
434.287	103.74
434.509	109.94
434.731	119.54
434.953	112.34
435.175	109.74
435.397	115.74
435.618	110.54
435.84	112.94
436.062	103.14
436.284	113.54
436.505	121.94
436.727	116.34
436.949	115.14
437.17	111.74
437.392	120.94
437.614	113.14
437.835	116.94
438.057	123.54
438.278	130.34
438.5	142.14
438.721	155.14
438.943	175.34
439.165	148.94
439.386	146.34
439.608	140.34
439.829	136.74
440.05	134.14
440.272	134.54
440.493	138.54
440.715	135.94
440.936	143.34
441.158	142.74
441.379	137.94
441.6	124.54
441.822	126.14
442.043	122.34
442.264	121.94
442.486	127.94
442.707	115.94
442.928	117.34
443.149	121.74
443.371	113.94
443.592	115.14
443.813	112.94
444.034	117.74
444.255	114.34
444.476	120.94
444.698	119.94
444.919	120.74
445.14	188.94
445.361	148.14
445.582	113.74
445.803	109.34
446.024	118.54
446.245	115.34
446.466	112.74
446.687	113.74
446.908	112.54
447.129	111.34
447.35	107.14
447.571	113.94
447.792	109.54
448.013	112.54
448.234	107.54
448.455	105.54
448.675	108.74
448.896	105.34
449.117	110.34
449.338	108.74
449.559	106.74
449.779	108.94
450	113.34
450.221	109.34
450.442	107.14
450.662	100.94
450.883	107.94
451.104	110.74
451.324	108.34
451.545	110.14
451.766	106.94
451.986	105.34
452.207	109.34
452.428	106.14
452.648	116.34
452.869	105.14
453.089	102.54
453.31	98.74
453.53	105.34
453.751	102.34
453.971	106.34
454.192	110.94
454.412	103.14
454.633	106.14
454.853	108.94
455.073	109.14
455.294	105.14
455.514	109.74
455.734	103.14
455.955	107.54
456.175	113.14
456.395	103.34
456.616	101.74
456.836	104.54
457.056	99.34
457.276	95.14
457.497	101.34
457.717	100.94
457.937	106.54
458.157	106.94
458.377	105.94
458.598	98.94
458.818	105.74
459.038	93.54
459.258	101.54
459.478	102.94
459.698	100.14
459.918	107.14
460.138	109.94
460.358	112.54
460.578	109.74
460.798	107.94
461.018	106.54
461.238	109.74
461.458	106.94
461.678	107.54
461.898	117.34
462.118	107.34
462.338	104.14
462.558	105.94
462.777	110.74
462.997	106.74
463.217	108.94
463.437	115.34
463.657	106.14
463.876	111.54
464.096	105.94
464.316	103.14
464.536	107.54
464.755	108.94
464.975	107.14
465.195	107.14
465.414	111.94
465.634	103.54
465.854	111.14
466.073	102.94
466.293	105.34
466.512	106.74
466.732	99.74
466.951	106.54
467.171	109.74
467.391	109.74
467.61	103.74
467.829	106.54
468.049	111.14
468.268	104.34
468.488	110.94
468.707	106.54
468.927	110.54
469.146	111.54
469.365	115.34
469.585	108.34
469.804	114.14
470.023	108.74
470.243	102.14
470.462	107.74
470.681	102.14
470.901	98.34
471.12	104.94
471.339	109.94
471.558	109.54
471.777	106.54
471.997	107.74
472.216	108.94
472.435	104.94
472.654	106.54
472.873	107.74
473.092	105.74
473.311	101.54
473.53	107.54
473.749	107.14
473.968	108.34
474.187	97.14
474.406	101.94
474.625	111.54
474.844	107.74
475.063	107.74
475.282	106.74
475.501	104.74
475.72	106.14
475.939	100.74
476.158	110.94
476.377	113.14
476.596	109.14
476.814	106.94
477.033	109.14
477.252	104.34
477.471	102.74
477.69	105.54
477.908	108.14
478.127	113.74
478.346	115.14
478.564	114.54
478.783	112.74
479.002	116.94
479.22	119.54
479.439	111.74
479.658	113.74
479.876	112.94
480.095	103.94
480.313	111.34
480.532	113.74
480.751	110.94
480.969	103.54
481.188	108.94
481.406	111.94
481.624	110.54
481.843	111.54
482.061	106.74
482.28	110.34
482.498	115.34
482.717	110.14
482.935	110.14
483.153	110.54
483.372	110.34
483.59	116.74
483.808	121.74
484.027	116.54
484.245	117.14
484.463	120.94
484.681	118.74
484.9	106.94
485.118	115.34
485.336	109.14
485.554	112.34
485.772	111.54
485.99	112.54
486.209	108.94
486.427	110.74
486.645	112.54
486.863	112.14
487.081	115.14
487.299	114.34
487.517	116.54
487.735	121.14
487.953	110.34
488.171	119.34
488.389	113.14
488.607	119.74
488.825	113.54
489.043	109.94
489.261	106.14
489.479	114.54
489.696	120.14
489.914	111.94
490.132	114.34
490.35	113.14
490.568	113.14
490.786	109.94
491.003	117.14
491.221	115.74
491.439	120.14
491.657	110.14
491.874	126.14
492.092	120.74
492.31	123.54
492.527	114.54
492.745	122.94
492.963	119.74
493.18	120.14
493.398	114.14
493.615	108.74
493.833	113.74
494.05	115.34
494.268	120.14
494.485	120.14
494.703	117.14
494.92	121.34
495.138	121.54
495.355	120.54
495.573	123.74
495.79	119.54
496.008	119.14
496.225	119.54
496.442	114.54
496.66	122.34
496.877	121.94
497.094	122.14
497.312	117.34
497.529	125.54
497.746	117.94
497.963	125.54
498.181	120.54
498.398	114.14
498.615	116.34
498.832	122.74
499.049	127.54
499.267	126.34
499.484	128.54
499.701	125.14
499.918	129.54
500.135	130.34
500.352	133.74
500.569	145.34
500.786	155.54
501.003	142.54
501.22	137.74
501.437	132.34
501.654	136.14
501.871	132.14
502.088	123.14
502.305	128.74
502.522	122.94
502.739	126.34
502.956	126.54
503.172	126.34
503.389	119.74
503.606	122.34
503.823	124.74
504.04	133.14
504.256	126.54
504.473	127.74
504.69	131.74
504.907	131.34
505.123	121.14
505.34	122.74
505.557	126.54
505.773	117.74
505.99	118.34
506.207	120.14
506.423	114.94
506.64	118.14
506.856	125.34
507.073	115.14
507.289	120.54
507.506	121.94
507.722	118.34
507.939	109.34
508.155	113.14
