Data from TenMicroDelayPb_HRD10591_00013.txt Node
Date: Mon Nov 24 14:27:35 EST 2025
User: Yrep
Spectrometer: HR+D1059
Trigger mode: 0
Integration Time (sec): 1.000000E-1
Scans to average: 5
Electric dark correction enabled: true
Nonlinearity correction enabled: false
Boxcar width: 0
XAxis mode: Wavelengths
Number of Pixels in Spectrum: 2048
>>>>>Begin Spectral Data<<<<<
223.165	-17
223.4	-17
223.635	-17
223.869	-18.4
224.104	-19.6
224.338	-21.2
224.573	-14.4
224.808	-13.6
225.042	-4.4
225.277	-6.4
225.511	-6
225.746	7
225.98	6.2
226.215	17
226.449	15.2
226.683	20.8
226.918	26.2
227.152	28.6
227.387	38.2
227.621	40.8
227.856	44
228.09	51.2
228.324	50.4
228.559	53.4
228.793	60.4
229.027	68.2
229.262	66.8
229.496	74.8
229.73	69
229.964	73.8
230.199	76.6
230.433	76
230.667	77
230.901	81.4
231.136	73.2
231.37	83.8
231.604	83.4
231.838	84.8
232.072	80
232.306	78.8
232.541	79.8
232.775	79.2
233.009	84.8
233.243	83
233.477	89.8
233.711	88.6
233.945	86
234.179	89
234.413	81.2
234.647	82.4
234.881	85.4
235.115	86.4
235.349	81.4
235.583	80
235.817	80.6
236.051	76.8
236.285	71.8
236.519	80
236.753	82.6
236.987	83.6
237.221	78
237.455	75.2
237.689	78
237.922	79.6
238.156	86.6
238.39	78.2
238.624	75.6
238.858	81.4
239.091	78.6
239.325	88
239.559	89
239.793	87.6
240.027	78.4
240.26	78.8
240.494	79.8
240.728	81
240.961	73.8
241.195	78
241.429	76.4
241.662	78.2
241.896	81.2
242.13	85.4
242.363	82
242.597	83.8
242.83	80.2
243.064	81.4
243.298	82.2
243.531	75.4
243.765	77
243.998	83.6
244.232	83
244.465	86.6
244.699	86.4
244.932	79.8
245.166	85.6
245.399	78.2
245.633	76.6
245.866	75.6
246.099	86.4
246.333	80.2
246.566	79.4
246.8	91.8
247.033	79.8
247.266	88.6
247.5	86
247.733	85.6
247.966	87.4
248.2	87.8
248.433	79.2
248.666	89.4
248.899	86.6
249.133	86.4
249.366	82.4
249.599	89
249.832	80.8
250.066	92.8
250.299	88.4
250.532	93.2
250.765	88.4
250.998	83
251.231	88
251.465	85.8
251.698	84.6
251.931	88.6
252.164	87.4
252.397	87
252.63	94.2
252.863	89
253.096	87.2
253.329	86.4
253.562	94.6
253.795	89.4
254.028	84.4
254.261	92.4
254.494	90.2
254.727	97.4
254.96	93.6
255.193	89.8
255.426	85.4
255.659	89.2
255.892	87.2
256.124	86.2
256.357	87.6
256.59	91.2
256.823	91.6
257.056	94.4
257.289	95.4
257.521	92
257.754	97.6
257.987	97.6
258.22	100.2
258.452	91.2
258.685	92.6
258.918	90.2
259.151	89
259.383	93.4
259.616	87.4
259.849	93.4
260.081	95.4
260.314	94.2
260.547	97
260.779	100.4
261.012	105.2
261.244	115.2
261.477	123.2
261.71	110.2
261.942	106.8
262.175	97.2
262.407	97.2
262.64	86.8
262.872	89.4
263.105	99.2
263.337	97.4
263.57	92.8
263.802	92
264.035	92
264.267	85.4
264.499	97.6
264.732	96.8
264.964	99.6
265.197	105
265.429	95.2
265.661	100.4
265.894	97
266.126	102.8
266.358	93.8
266.591	103
266.823	97.6
267.055	90.8
267.287	89
267.52	91.8
267.752	98
267.984	89.4
268.216	93.8
268.448	100.2
268.681	92.4
268.913	98.6
269.145	90
269.377	91.6
269.609	95.8
269.841	91
270.073	97
270.306	90.6
270.538	85.6
270.77	90
271.002	94
271.234	88.6
271.466	95.8
271.698	94.2
271.93	89.6
272.162	91
272.394	93.6
272.626	94
272.858	93
273.09	92.4
273.322	102
273.553	94.4
273.785	93.8
274.017	94.8
274.249	98.8
274.481	92.8
274.713	97.6
274.945	94.6
275.176	91.6
275.408	93.4
275.64	96
275.872	91.2
276.104	98.8
276.335	97.4
276.567	92
276.799	95.2
277.031	90.8
277.262	96.6
277.494	96.2
277.726	98.4
277.957	90.2
278.189	93
278.421	98.6
278.652	101.6
278.884	101.2
279.115	104.2
279.347	105.2
279.579	108.8
279.81	116.8
280.042	131.4
280.273	141.6
280.505	136.8
280.736	112.8
280.968	116.4
281.199	106.8
281.431	105.6
281.662	108
281.894	110.2
282.125	103.8
282.356	114.4
282.588	112.6
282.819	108
283.051	110.4
283.282	118.4
283.513	131.6
283.745	124.2
283.976	110.4
284.207	103.6
284.439	104.2
284.67	98.2
284.901	95.6
285.132	97.4
285.364	98
285.595	96.6
285.826	106.8
286.057	98.2
286.288	100.8
286.52	104.6
286.751	101.6
286.982	114
287.213	115
287.444	121.8
287.675	114.4
287.906	109.8
288.138	96.4
288.369	100.2
288.6	98.4
288.831	97.8
289.062	97.8
289.293	96.8
289.524	98.6
289.755	102.4
289.986	95.2
290.217	94
290.448	94.2
290.679	86.8
290.91	95
291.141	95
291.371	102.2
291.602	98.6
291.833	92.6
292.064	95.6
292.295	97.2
292.526	97.8
292.757	100.8
292.987	102.4
293.218	96.8
293.449	94.6
293.68	93.2
293.91	100.6
294.141	101.8
294.372	92.6
294.603	98
294.833	96.8
295.064	95.2
295.295	100.8
295.525	98.2
295.756	103
295.987	97.4
296.217	100.8
296.448	90.2
296.679	97.6
296.909	103
297.14	97.8
297.37	99.2
297.601	95
297.831	100.4
298.062	103.2
298.292	99.4
298.523	101.6
298.753	94.2
298.984	96.8
299.214	100.4
299.445	99.2
299.675	104.2
299.905	95.4
300.136	92
300.366	96.6
300.597	92.8
300.827	92.4
301.057	97.4
301.288	95.2
301.518	97.2
301.748	99.2
301.979	110
302.209	104
302.439	103.2
302.669	92.8
302.9	99.2
303.13	100.6
303.36	103.2
303.59	93.6
303.82	96.4
304.051	98.2
304.281	93.6
304.511	103.6
304.741	98
304.971	98.4
305.201	98.6
305.431	95.8
305.661	95.6
305.891	92.8
306.121	103.2
306.352	99.2
306.582	98.8
306.812	97.4
307.042	97
307.272	99.2
307.502	94.4
307.731	100.2
307.961	98.2
308.191	96.4
308.421	99.8
308.651	102.2
308.881	102
309.111	93.6
309.341	100.8
309.571	94.4
309.8	94.6
310.03	94.8
310.26	107.6
310.49	97.8
310.72	100
310.949	96.2
311.179	101.4
311.409	97.8
311.639	100.8
311.868	98
312.098	102.2
312.328	99.6
312.557	96.4
312.787	100.2
313.017	104.6
313.246	103.4
313.476	104.2
313.706	103
313.935	101.8
314.165	97.8
314.394	104.2
314.624	103.4
314.853	105.4
315.083	98.6
315.312	109.2
315.542	101.6
315.771	107.8
316.001	105.2
316.23	104.2
316.46	98
316.689	98.6
316.919	101
317.148	100.4
317.377	99.8
317.607	104.6
317.836	109
318.065	101.6
318.295	103.2
318.524	109
318.753	109.4
318.983	100.6
319.212	98.4
319.441	98.4
319.67	101
319.9	99.8
320.129	108.2
320.358	102.2
320.587	100
320.816	88.8
321.046	98.8
321.275	105.6
321.504	101.2
321.733	102.6
321.962	98.6
322.191	99
322.42	94.4
322.649	109.2
322.878	105.2
323.108	102.6
323.337	100
323.566	103.6
323.795	100.4
324.024	100.6
324.253	102
324.482	103.8
324.71	101.4
324.939	103
325.168	102.4
325.397	102.6
325.626	104.2
325.855	99.6
326.084	99.2
326.313	97.8
326.542	97.8
326.77	101.6
326.999	104.2
327.228	102.6
327.457	101.2
327.686	98.8
327.914	103.6
328.143	106.4
328.372	103.4
328.6	100.4
328.829	104.8
329.058	98.8
329.287	100.4
329.515	105.8
329.744	104.4
329.972	99.8
330.201	103.8
330.43	97.6
330.658	99.8
330.887	101.2
331.115	100
331.344	101
331.572	105.6
331.801	101.2
332.03	101.6
332.258	101.2
332.486	99.8
332.715	96.8
332.943	104.6
333.172	101.2
333.4	93.2
333.629	100
333.857	102.4
334.085	99.4
334.314	99.6
334.542	98.8
334.771	102.6
334.999	99.8
335.227	106.2
335.455	97.8
335.684	104.8
335.912	108.2
336.14	96.4
336.369	104
336.597	98.8
336.825	103.2
337.053	101.6
337.281	106.4
337.51	97
337.738	105.2
337.966	107
338.194	92.4
338.422	102.6
338.65	106.6
338.878	103
339.106	99.4
339.334	102.4
339.562	102.4
339.79	97.4
340.018	94.2
340.246	99
340.474	95.2
340.702	98
340.93	104
341.158	95.4
341.386	100
341.614	97.6
341.842	97.6
342.07	97
342.298	97.2
342.526	101.2
342.754	98.4
342.981	97.6
343.209	99.6
343.437	114.4
343.665	98.8
343.893	100.4
344.12	106
344.348	100.8
344.576	101.4
344.804	100.6
345.031	97
345.259	97.2
345.487	101.8
345.714	103
345.942	94.4
346.17	101.4
346.397	103.4
346.625	100.8
346.853	97.8
347.08	100.6
347.308	96
347.535	100.4
347.763	97
347.99	99.4
348.218	100.6
348.445	95.2
348.673	97.2
348.9	100.4
349.128	99
349.355	99.2
349.583	98.8
349.81	97.4
350.037	94.2
350.265	98.4
350.492	99.6
350.72	99.4
350.947	102.8
351.174	103
351.402	95.6
351.629	93.2
351.856	101.4
352.083	100.6
352.311	101.2
352.538	99
352.765	96.4
352.992	111.6
353.22	92.4
353.447	99.6
353.674	98.2
353.901	105.6
354.128	100.6
354.355	103.6
354.583	103.6
354.81	99.4
355.037	101.8
355.264	101.8
355.491	100.2
355.718	106.6
355.945	101.2
356.172	105.4
356.399	103.8
356.626	107.2
356.853	112.8
357.08	134
357.307	149.2
357.534	149.8
357.761	131.6
357.988	121.8
358.215	114.6
358.441	110.4
358.668	108.2
358.895	104.8
359.122	105.8
359.349	105.4
359.576	101.8
359.802	100.2
360.029	107.4
360.256	102.2
360.483	102.4
360.709	102
360.936	97.6
361.163	96.4
361.39	100.2
361.616	104
361.843	100.6
362.07	94.8
362.296	103.6
362.523	102.6
362.749	104.8
362.976	104.6
363.203	117.8
363.429	115.8
363.656	132
363.882	159
364.109	178.4
364.335	142.2
364.562	124.8
364.788	113.2
365.015	116.2
365.241	106
365.468	110.2
365.694	108.4
365.92	107.2
366.147	104.2
366.373	97
366.599	98.4
366.826	110.2
367.052	119.2
367.278	127.8
367.505	116
367.731	124.4
367.957	132.6
368.184	165
368.41	199.2
368.636	186.4
368.862	151
369.089	129.8
369.315	119.4
369.541	118.2
369.767	111.2
369.993	113
370.219	108
370.445	106
370.672	107.8
370.898	109.8
371.124	108.6
371.35	107.2
371.576	106.8
371.802	104
372.028	100.6
372.254	106.6
372.48	108.4
372.706	111
372.932	107
373.158	113.2
373.384	110.4
373.61	117.2
373.835	135.6
374.061	165.2
374.287	155.2
374.513	128.6
374.739	115.6
374.965	109.6
375.191	112.4
375.416	101.2
375.642	106.2
375.868	103.8
376.094	101.4
376.319	104.4
376.545	100
376.771	110
376.997	100
377.222	99
377.448	108.2
377.674	102
377.899	109.6
378.125	103.4
378.35	96.6
378.576	99.8
378.802	103
379.027	102.4
379.253	111.4
379.478	103.8
379.704	96.2
379.929	100.6
380.155	98.4
380.38	104.8
380.606	101.6
380.831	102
381.057	104
381.282	103.6
381.507	100.8
381.733	107.8
381.958	99.2
382.184	97.8
382.409	102.4
382.634	97
382.86	97.4
383.085	105.6
383.31	103
383.535	106
383.761	99.6
383.986	103.6
384.211	106
384.436	103.8
384.662	101.4
384.887	100.8
385.112	110.2
385.337	102.6
385.562	99.8
385.787	103.6
386.013	109.2
386.238	109.6
386.463	101.6
386.688	110.4
386.913	108.8
387.138	105.4
387.363	101.6
387.588	110.8
387.813	102.4
388.038	99.2
388.263	106.8
388.488	101.4
388.713	101
388.938	101.6
389.163	103.8
389.387	98
389.612	95.2
389.837	106.8
390.062	102.2
390.287	101.8
390.512	101.8
390.736	98.6
390.961	96.2
391.186	106.4
391.411	105.2
391.636	99
391.86	99.2
392.085	102.4
392.31	101.8
392.534	104.8
392.759	103.4
392.984	102.8
393.208	99.2
393.433	106.6
393.658	103.2
393.882	109.8
394.107	104.6
394.331	101
394.556	104.2
394.78	102.2
395.005	111.8
395.229	107.2
395.454	106.4
395.678	106.4
395.903	114
396.127	103.4
396.352	103.4
396.576	105
396.801	101.4
397.025	98.8
397.249	113.6
397.474	104.4
397.698	104.6
397.922	105.8
398.147	103.6
398.371	109.6
398.595	110.2
398.82	103.6
399.044	107.6
399.268	103.4
399.492	113.8
399.717	107.4
399.941	107.6
400.165	112.6
400.389	107.8
400.613	104.6
400.837	109
401.062	107.4
401.286	108.4
401.51	109.2
401.734	109.2
401.958	121.8
402.182	114.6
402.406	109.4
402.63	108.8
402.854	108.2
403.078	106
403.302	113.2
403.526	108.4
403.75	117
403.974	116.4
404.198	115.2
404.422	114.2
404.645	118.2
404.869	126
405.093	130.8
405.317	148.6
405.541	184.6
405.765	256.6
405.988	291.4
406.212	217
406.436	171.6
406.66	145.4
406.883	127.6
407.107	124.4
407.331	121.8
407.555	124.6
407.778	112
408.002	110.6
408.226	110.8
408.449	114.2
408.673	118.6
408.896	111.8
409.12	115
409.344	103.8
409.567	108.6
409.791	113.6
410.014	112.6
410.238	105.6
410.461	107.6
410.685	104
410.908	113.2
411.132	106.2
411.355	106.6
411.578	110.2
411.802	106.6
412.025	105.2
412.249	109.4
412.472	103.2
412.695	106
412.919	109
413.142	114.2
413.365	111.6
413.589	105.8
413.812	100
414.035	108.4
414.258	109.8
414.482	110.8
414.705	109.8
414.928	106.6
415.151	113.2
415.374	112
415.597	106.2
415.821	107.4
416.044	113.2
416.267	109.8
416.49	105.6
416.713	109.6
416.936	111.6
417.159	106.2
417.382	110
417.605	106.4
417.828	110.8
418.051	105.8
418.274	107.4
418.497	108.2
418.72	106.6
418.943	108.8
419.166	106.8
419.389	105.8
419.611	111.8
419.834	111.6
420.057	111
420.28	110
420.503	110.2
420.726	106.8
420.948	115.2
421.171	116.6
421.394	110.2
421.617	113.4
421.839	106.2
422.062	112
422.285	116.6
422.507	118
422.73	115.2
422.953	113.2
423.175	118
423.398	123.2
423.621	126.6
423.843	129.4
424.066	131.2
424.288	145.2
424.511	169
424.733	171.2
424.956	156.4
425.178	143.8
425.401	140.8
425.623	132
425.846	133.8
426.068	132.8
426.291	122.6
426.513	119.2
426.735	116.8
426.958	118.2
427.18	115.8
427.402	116
427.625	117.6
427.847	114.6
428.069	119.8
428.292	117
428.514	117.4
428.736	121.6
428.958	113.6
429.181	110.8
429.403	112.8
429.625	107.2
429.847	114.2
430.069	114
430.292	111
430.514	110.6
430.736	110.6
430.958	109.2
431.18	107.6
431.402	111
431.624	110.6
431.846	114.2
432.068	114.4
432.29	101.4
432.512	108.8
432.734	106.6
432.956	119.2
433.178	110.6
433.4	110.6
433.622	116.2
433.844	110.8
434.066	111.2
434.287	112.2
434.509	112.8
434.731	114.8
434.953	110.6
435.175	108.6
435.397	103.6
435.618	109.4
435.84	111.4
436.062	118
436.284	110.2
436.505	110.4
436.727	114.6
436.949	112.8
437.17	117
437.392	118
437.614	118.2
437.835	117.8
438.057	115.6
438.278	126.6
438.5	142.6
438.721	157
438.943	172.6
439.165	155.6
439.386	146.8
439.608	143.4
439.829	136.8
440.05	133.2
440.272	139.8
440.493	134
440.715	136
440.936	144.8
441.158	139.4
441.379	137.6
441.6	131.2
441.822	133.6
442.043	120.6
442.264	117.2
442.486	121.6
442.707	118.4
442.928	118.6
443.149	125.6
443.371	121
443.592	123.4
443.813	123.4
444.034	122.6
444.255	113.8
444.476	111.6
444.698	117
444.919	118.8
445.14	186.4
445.361	148.8
445.582	113.4
445.803	114
446.024	113.2
446.245	112.4
446.466	112.4
446.687	115.4
446.908	115
447.129	117.4
447.35	114.2
447.571	111
447.792	119.4
448.013	105.8
448.234	109.8
448.455	108.8
448.675	110.8
448.896	106.4
449.117	114.6
449.338	108.6
449.559	114
449.779	104.6
450	112
450.221	106.8
450.442	108.8
450.662	108.4
450.883	112.4
451.104	114.6
451.324	114.6
451.545	105
451.766	108.4
451.986	112
452.207	106.6
452.428	107.6
452.648	103
452.869	106.8
453.089	101
453.31	106
453.53	107.2
453.751	109.4
453.971	102.4
454.192	106
454.412	105.8
454.633	105
454.853	114.2
455.073	102.6
455.294	100.2
455.514	112.6
455.734	106
455.955	115.4
456.175	103
456.395	108.2
456.616	108.2
456.836	101.6
457.056	105.2
457.276	96.6
457.497	104.8
457.717	101
457.937	109.4
458.157	105.4
458.377	107.2
458.598	102.4
458.818	103.6
459.038	98.2
459.258	102.8
459.478	98.2
459.698	100.4
459.918	104.4
460.138	107.6
460.358	115.8
460.578	107.6
460.798	100.6
461.018	106
461.238	111.4
461.458	111.2
461.678	109.8
461.898	117.4
462.118	113.6
462.338	106.4
462.558	116.8
462.777	109
462.997	113.8
463.217	99.4
463.437	115.2
463.657	112.2
463.876	109.8
464.096	111.4
464.316	110.6
464.536	106.4
464.755	109
464.975	109
465.195	102
465.414	110.4
465.634	104.2
465.854	108
466.073	107.4
466.293	110.4
466.512	107.4
466.732	111.4
466.951	110.4
467.171	104.4
467.391	115.2
467.61	106.4
467.829	105.8
468.049	108.8
468.268	112
468.488	108
468.707	102.8
468.927	109.2
469.146	106.8
469.365	109.2
469.585	108.4
469.804	108.2
470.023	108.2
470.243	115.6
470.462	104.8
470.681	104.2
470.901	114.6
471.12	109.2
471.339	113.8
471.558	109.4
471.777	105.4
471.997	109.4
472.216	114.4
472.435	110.4
472.654	101.6
472.873	113.4
473.092	108.6
473.311	105.8
473.53	114.4
473.749	111.6
473.968	110
474.187	110
474.406	103.2
474.625	108.8
474.844	114
475.063	107.8
475.282	103.8
475.501	110
475.72	112.6
475.939	109
476.158	107.6
476.377	110.6
476.596	111.2
476.814	110.2
477.033	111.4
477.252	113.2
477.471	108
477.69	107.2
477.908	115
478.127	112.4
478.346	113.2
478.564	111.4
478.783	112.2
479.002	116
479.22	113.4
479.439	116.8
479.658	111.2
479.876	107
480.095	108.2
480.313	113
480.532	111.2
480.751	108
480.969	107.4
481.188	112.4
481.406	113
481.624	108.2
481.843	116
482.061	110.8
482.28	112.2
482.498	110
482.717	114.6
482.935	110.2
483.153	110.2
483.372	120.4
483.59	113.2
483.808	117.2
484.027	115.4
484.245	111.8
484.463	105.6
484.681	124.2
484.9	115.2
485.118	110.4
485.336	112
485.554	113
485.772	109
485.99	107.4
486.209	115.6
486.427	113
486.645	110.6
486.863	110
487.081	107
487.299	108.6
487.517	113.6
487.735	118
487.953	121.8
488.171	108.2
488.389	111.8
488.607	112.6
488.825	115.2
489.043	112
489.261	116.8
489.479	116
489.696	118.8
489.914	114.6
490.132	120
490.35	114.6
490.568	114.4
490.786	115.8
491.003	114.4
491.221	108.8
491.439	126.6
491.657	119.8
491.874	123.8
492.092	112.6
492.31	119.4
492.527	119.8
492.745	120.6
492.963	121.6
493.18	119.6
493.398	122.2
493.615	112.8
493.833	109.8
494.05	116.2
494.268	123.8
494.485	119.8
494.703	121.4
494.92	114.6
495.138	121.4
495.355	114.4
495.573	121.6
495.79	121.6
496.008	120.8
496.225	114.2
496.442	119
496.66	121.8
496.877	114.4
497.094	125.6
497.312	123.2
497.529	122
497.746	120.2
497.963	122
498.181	120.6
498.398	118
498.615	118
498.832	121
499.049	121.4
499.267	123.2
499.484	126.4
499.701	129.6
499.918	132.2
500.135	130
500.352	133.6
500.569	146.8
500.786	153.6
501.003	151.4
501.22	138.2
501.437	127.8
501.654	132
501.871	128.4
502.088	129.4
502.305	122.4
502.522	123.2
502.739	121.8
502.956	127.8
503.172	126
503.389	123.8
503.606	119.4
503.823	131.4
504.04	127.4
504.256	131.6
504.473	124.8
504.69	131.4
504.907	134
505.123	129.2
505.34	125.4
505.557	121.4
505.773	117.6
505.99	123.2
506.207	117.4
506.423	127.6
506.64	122.8
506.856	118.2
507.073	121.8
507.289	121.4
507.506	120.4
507.722	111.8
507.939	120.4
508.155	117.6
508.372	114
508.588	113.6
508.805	118.6
509.021	113
509.238	114.2
509.454	110
509.67	114.2
509.887	103.2
510.103	109
510.319	116
510.536	112.2
510.752	110.4
510.968	111.2
511.184	111.8
511.401	113.6
511.617	111.6
511.833	107.6
512.049	112.4
512.265	108
512.481	110.6
512.698	107.2
512.914	115.8
513.13	114.8
513.346	106
513.562	117.6
513.778	108
513.994	115.4
514.21	106.8
514.426	109.2
514.642	110.4
514.858	111
515.074	102.4
515.29	108.2
515.506	113.2
515.721	103.4
515.937	116
516.153	110.6
516.369	117
516.585	105.8
516.801	112
517.016	111.2
517.232	119.4
517.448	121.2
517.664	111.6
517.879	109
518.095	115.4
518.311	112.6
518.527	109.6
518.742	109.4
518.958	113.4
519.173	107.4
519.389	111.8
519.605	107.6
519.82	109.6
520.036	113.2
520.251	113.4
520.467	112
520.682	112.4
520.898	112.2
521.113	117.4
521.329	109
521.544	106.6
521.76	112.2
521.975	106.2
522.19	116.4
522.406	116.4
522.621	108.4
522.836	118.6
523.052	121
523.267	112.6
523.482	111.4
523.698	104.2
523.913	112.6
524.128	109.6
524.343	107.2
524.559	113.8
524.774	108.8
524.989	109.6
525.204	108.2
525.419	104.4
525.634	110.6
525.849	108.8
526.064	116.8
526.28	111
526.495	102.4
526.71	105.6
526.925	109.6
527.14	105.4
527.355	104.2
527.57	108.2
527.785	106.4
527.999	103
528.214	111
528.429	113.6
528.644	112.8
528.859	116.2
529.074	110.6
529.289	112.2
529.503	118
529.718	111.8
529.933	111.2
530.148	103.6
530.363	110.2
530.577	112.6
530.792	106.6
531.007	105.6
531.221	109
531.436	104.8
531.651	110.6
531.865	104.4
532.08	110.8
532.295	108.2
532.509	108.4
532.724	102.6
532.938	114.4
533.153	113.8
533.367	101.8
