Data from TenMicroDelayPb_HRD10591_00012.txt Node
Date: Mon Nov 24 14:27:34 EST 2025
User: Yrep
Spectrometer: HR+D1059
Trigger mode: 0
Integration Time (sec): 1.000000E-1
Scans to average: 5
Electric dark correction enabled: true
Nonlinearity correction enabled: false
Boxcar width: 0
XAxis mode: Wavelengths
Number of Pixels in Spectrum: 2048
>>>>>Begin Spectral Data<<<<<
223.165	-15.11
223.4	-15.11
223.635	-15.11
223.869	-9.11
224.104	-19.91
224.338	-20.51
224.573	-22.91
224.808	-13.31
225.042	-7.31
225.277	-10.31
225.511	-5.71
225.746	3.69
225.98	10.89
226.215	16.09
226.449	16.09
226.683	25.29
226.918	22.49
227.152	29.69
227.387	30.49
227.621	38.29
227.856	48.89
228.09	42.29
228.324	47.89
228.559	53.69
228.793	57.89
229.027	61.69
229.262	67.09
229.496	63.89
229.73	69.69
229.964	71.69
230.199	68.49
230.433	76.69
230.667	84.49
230.901	80.89
231.136	78.09
231.37	82.89
231.604	80.29
231.838	77.49
232.072	84.09
232.306	81.29
232.541	81.29
232.775	82.49
233.009	82.49
233.243	78.29
233.477	84.49
233.711	86.09
233.945	76.29
234.179	83.49
234.413	81.89
234.647	82.49
234.881	78.49
235.115	77.09
235.349	79.69
235.583	79.69
235.817	76.89
236.051	73.89
236.285	85.29
236.519	86.69
236.753	82.29
236.987	75.69
237.221	85.89
237.455	75.49
237.689	79.09
237.922	82.09
238.156	73.69
238.39	77.09
238.624	81.69
238.858	78.89
239.091	69.69
239.325	78.49
239.559	82.09
239.793	77.89
240.027	86.29
240.26	79.69
240.494	78.89
240.728	80.69
240.961	79.89
241.195	82.29
241.429	86.29
241.662	81.09
241.896	72.89
242.13	83.69
242.363	76.89
242.597	80.29
242.83	86.29
243.064	79.49
243.298	86.29
243.531	80.09
243.765	80.69
243.998	80.69
244.232	78.49
244.465	83.49
244.699	82.49
244.932	79.69
245.166	82.29
245.399	82.89
245.633	83.69
245.866	78.29
246.099	78.29
246.333	80.49
246.566	79.29
246.8	80.09
247.033	82.09
247.266	83.29
247.5	83.29
247.733	77.89
247.966	83.29
248.2	83.89
248.433	84.09
248.666	77.89
248.899	82.69
249.133	79.29
249.366	86.49
249.599	80.49
249.832	84.69
250.066	83.09
250.299	78.29
250.532	81.09
250.765	84.69
250.998	76.49
251.231	82.09
251.465	79.89
251.698	86.89
251.931	93.09
252.164	86.69
252.397	82.29
252.63	85.69
252.863	86.29
253.096	89.09
253.329	87.09
253.562	83.49
253.795	83.89
254.028	90.69
254.261	86.69
254.494	79.09
254.727	96.89
254.96	90.29
255.193	89.69
255.426	83.69
255.659	84.29
255.892	87.89
256.124	87.29
256.357	85.89
256.59	87.09
256.823	93.69
257.056	89.89
257.289	84.49
257.521	89.49
257.754	91.49
257.987	98.09
258.22	95.09
258.452	90.09
258.685	86.49
258.918	93.89
259.151	92.89
259.383	93.49
259.616	91.09
259.849	90.09
260.081	89.09
260.314	93.69
260.547	94.89
260.779	89.69
261.012	109.09
261.244	101.89
261.477	120.89
261.71	113.09
261.942	104.89
262.175	99.89
262.407	94.69
262.64	89.29
262.872	92.49
263.105	90.69
263.337	85.89
263.57	94.49
263.802	94.89
264.035	96.29
264.267	85.09
264.499	91.29
264.732	104.49
264.964	96.69
265.197	98.09
265.429	97.89
265.661	94.29
265.894	90.69
266.126	96.89
266.358	103.29
266.591	105.89
266.823	107.29
267.055	96.09
267.287	92.09
267.52	92.49
267.752	87.69
267.984	98.69
268.216	85.29
268.448	89.29
268.681	89.09
268.913	90.69
269.145	88.49
269.377	92.09
269.609	93.89
269.841	99.29
270.073	93.49
270.306	84.69
270.538	93.29
270.77	89.09
271.002	88.89
271.234	89.89
271.466	85.89
271.698	89.89
271.93	89.29
272.162	99.89
272.394	88.09
272.626	90.09
272.858	86.09
273.09	93.89
273.322	89.29
273.553	93.29
273.785	93.29
274.017	93.29
274.249	90.69
274.481	88.89
274.713	98.09
274.945	90.09
275.176	90.69
275.408	92.69
275.64	86.09
275.872	94.09
276.104	92.49
276.335	93.09
276.567	93.49
276.799	90.09
277.031	87.89
277.262	99.29
277.494	93.49
277.726	96.69
277.957	92.49
278.189	97.69
278.421	99.69
278.652	101.49
278.884	98.69
279.115	97.89
279.347	104.29
279.579	113.89
279.81	115.69
280.042	127.69
280.273	145.49
280.505	138.89
280.736	119.49
280.968	108.69
281.199	102.09
281.431	100.89
281.662	105.69
281.894	102.29
282.125	105.69
282.356	104.69
282.588	108.29
282.819	103.49
283.051	106.49
283.282	118.09
283.513	132.69
283.745	116.49
283.976	103.09
284.207	97.29
284.439	95.69
284.67	100.09
284.901	97.29
285.132	97.89
285.364	94.89
285.595	97.89
285.826	96.69
286.057	104.69
286.288	98.49
286.52	99.89
286.751	99.69
286.982	105.29
287.213	113.49
287.444	119.69
287.675	108.49
287.906	96.49
288.138	104.89
288.369	101.29
288.6	105.49
288.831	91.69
289.062	97.29
289.293	93.09
289.524	91.49
289.755	99.29
289.986	89.69
290.217	90.09
290.448	94.29
290.679	98.89
290.91	95.09
291.141	101.89
291.371	97.69
291.602	96.69
291.833	93.09
292.064	95.29
292.295	89.09
292.526	96.49
292.757	98.89
292.987	96.69
293.218	95.09
293.449	95.69
293.68	90.89
293.91	100.29
294.141	96.69
294.372	96.49
294.603	100.69
294.833	101.89
295.064	96.49
295.295	99.29
295.525	101.29
295.756	94.49
295.987	96.09
296.217	95.69
296.448	96.89
296.679	95.49
296.909	99.89
297.14	96.49
297.37	103.89
297.601	101.09
297.831	92.69
298.062	102.69
298.292	92.89
298.523	92.29
298.753	96.09
298.984	96.29
299.214	91.29
299.445	98.29
299.675	102.49
299.905	96.09
300.136	102.69
300.366	87.09
300.597	94.69
300.827	95.29
301.057	90.69
301.288	101.29
301.518	99.89
301.748	92.09
301.979	110.09
302.209	96.29
302.439	91.69
302.669	93.69
302.9	101.89
303.13	103.89
303.36	92.89
303.59	96.69
303.82	99.89
304.051	105.09
304.281	102.29
304.511	101.29
304.741	99.09
304.971	95.69
305.201	97.69
305.431	102.49
305.661	91.29
305.891	96.09
306.121	105.49
306.352	96.09
306.582	96.29
306.812	98.29
307.042	97.09
307.272	96.49
307.502	100.09
307.731	95.69
307.961	93.29
308.191	92.49
308.421	95.29
308.651	100.29
308.881	101.29
309.111	102.49
309.341	97.49
309.571	95.89
309.8	99.89
310.03	96.09
310.26	89.69
310.49	104.09
310.72	101.69
310.949	92.09
311.179	101.69
311.409	97.69
311.639	104.49
311.868	103.29
312.098	101.09
312.328	93.09
312.557	101.69
312.787	98.69
313.017	105.29
313.246	96.09
313.476	97.49
313.706	103.89
313.935	99.29
314.165	97.49
314.394	100.29
314.624	101.29
314.853	108.69
315.083	106.89
315.312	102.49
315.542	114.49
315.771	98.89
316.001	103.69
316.23	102.09
316.46	93.89
316.689	106.09
316.919	104.49
317.148	94.69
317.377	103.09
317.607	102.89
317.836	105.69
318.065	102.09
318.295	96.89
318.524	104.69
318.753	97.89
318.983	95.49
319.212	101.29
319.441	101.09
319.67	106.89
319.9	104.49
320.129	94.49
320.358	97.29
320.587	98.09
320.816	99.09
321.046	99.89
321.275	98.29
321.504	98.69
321.733	94.49
321.962	95.49
322.191	93.89
322.42	97.49
322.649	97.89
322.878	98.89
323.108	98.89
323.337	98.89
323.566	101.69
323.795	97.89
324.024	102.09
324.253	96.89
324.482	95.49
324.71	104.89
324.939	102.29
325.168	105.09
325.397	95.69
325.626	97.09
325.855	101.09
326.084	96.09
326.313	100.89
326.542	98.29
326.77	100.49
326.999	100.69
327.228	101.09
327.457	98.69
327.686	105.69
327.914	103.89
328.143	104.69
328.372	101.09
328.6	99.49
328.829	98.69
329.058	103.29
329.287	96.49
329.515	103.69
329.744	100.49
329.972	103.29
330.201	98.49
330.43	99.49
330.658	99.29
330.887	103.49
331.115	100.89
331.344	102.49
331.572	101.09
331.801	98.89
332.03	100.09
332.258	98.29
332.486	100.29
332.715	98.09
332.943	106.69
333.172	103.29
333.4	103.69
333.629	99.29
333.857	96.29
334.085	91.09
334.314	101.09
334.542	94.89
334.771	98.29
334.999	94.49
335.227	102.29
335.455	102.69
335.684	105.09
335.912	98.09
336.14	104.89
336.369	99.09
336.597	101.09
336.825	99.89
337.053	94.89
337.281	100.09
337.51	100.69
337.738	104.49
337.966	94.09
338.194	91.69
338.422	98.49
338.65	96.89
338.878	99.89
339.106	103.29
339.334	104.29
339.562	99.49
339.79	99.49
340.018	99.49
340.246	99.69
340.474	104.29
340.702	99.29
340.93	102.29
341.158	95.09
341.386	100.69
341.614	96.89
341.842	100.29
342.07	99.29
342.298	96.69
342.526	96.09
342.754	101.69
342.981	98.69
343.209	99.29
343.437	107.49
343.665	105.49
343.893	102.69
344.12	105.09
344.348	107.89
344.576	104.49
344.804	102.09
345.031	100.49
345.259	99.89
345.487	101.69
345.714	106.69
345.942	99.09
346.17	97.69
346.397	97.49
346.625	98.89
346.853	96.89
347.08	91.29
347.308	95.29
347.535	102.09
347.763	111.09
347.99	106.09
348.218	100.09
348.445	97.09
348.673	101.89
348.9	93.49
349.128	102.69
349.355	96.29
349.583	106.89
349.81	100.09
350.037	98.89
350.265	95.89
350.492	97.89
350.72	94.49
350.947	101.09
351.174	104.49
351.402	92.29
351.629	93.49
351.856	102.89
352.083	101.09
352.311	101.89
352.538	96.09
352.765	96.89
352.992	103.89
353.22	98.89
353.447	99.09
353.674	96.09
353.901	98.49
354.128	99.49
354.355	101.29
354.583	99.09
354.81	103.69
355.037	105.69
355.264	100.49
355.491	96.89
355.718	97.09
355.945	98.49
356.172	105.49
356.399	109.29
356.626	103.89
356.853	112.29
357.08	134.09
357.307	147.89
357.534	149.89
357.761	126.69
357.988	113.09
358.215	114.49
358.441	106.69
358.668	104.69
358.895	107.49
359.122	99.49
359.349	101.29
359.576	98.69
359.802	103.29
360.029	102.29
360.256	105.49
360.483	106.49
360.709	109.09
360.936	104.29
361.163	102.49
361.39	98.29
361.616	97.89
361.843	99.49
362.07	103.89
362.296	105.09
362.523	96.09
362.749	102.69
362.976	98.89
363.203	113.49
363.429	112.69
363.656	128.89
363.882	162.89
364.109	181.09
364.335	152.89
364.562	119.09
364.788	109.89
365.015	112.29
365.241	112.29
365.468	106.09
365.694	112.69
365.92	110.09
366.147	103.49
366.373	101.09
366.599	100.49
366.826	103.89
367.052	114.29
367.278	122.69
367.505	123.09
367.731	127.09
367.957	129.89
368.184	174.09
368.41	201.09
368.636	188.69
368.862	147.89
369.089	125.49
369.315	120.09
369.541	113.69
369.767	109.69
369.993	104.29
370.219	109.09
370.445	109.09
370.672	102.49
370.898	99.09
371.124	92.29
371.35	100.69
371.576	100.69
371.802	102.29
372.028	106.49
372.254	97.69
372.48	102.49
372.706	99.69
372.932	100.09
373.158	102.69
373.384	108.29
373.61	122.69
373.835	143.29
374.061	161.09
374.287	155.09
374.513	121.69
374.739	114.09
374.965	113.09
375.191	106.09
375.416	105.69
375.642	110.69
375.868	110.69
376.094	108.29
376.319	104.69
376.545	98.09
376.771	102.89
376.997	99.29
377.222	105.29
377.448	95.69
377.674	98.09
377.899	96.29
378.125	100.69
378.35	105.49
378.576	101.69
378.802	102.29
379.027	104.49
379.253	100.29
379.478	99.89
379.704	100.49
379.929	97.29
380.155	98.29
380.38	93.69
380.606	102.09
380.831	100.69
381.057	102.69
381.282	101.09
381.507	100.89
381.733	103.89
381.958	101.89
382.184	101.29
382.409	99.29
382.634	102.89
382.86	104.09
383.085	98.09
383.31	101.89
383.535	98.89
383.761	101.29
383.986	102.49
384.211	104.69
384.436	103.09
384.662	101.09
384.887	104.89
385.112	98.09
385.337	107.49
385.562	105.49
385.787	100.29
386.013	95.49
386.238	104.69
386.463	103.49
386.688	111.09
386.913	94.29
387.138	97.09
387.363	102.69
387.588	105.89
387.813	97.29
388.038	104.09
388.263	98.69
388.488	108.09
388.713	100.09
388.938	96.29
389.163	94.69
389.387	103.09
389.612	104.29
389.837	101.49
390.062	100.09
390.287	101.69
390.512	95.49
390.736	98.69
390.961	103.29
391.186	93.49
391.411	101.89
391.636	97.49
391.86	99.49
392.085	101.89
392.31	102.09
392.534	99.49
392.759	102.49
392.984	97.09
393.208	111.69
393.433	102.69
393.658	101.29
393.882	105.49
394.107	103.09
394.331	100.29
394.556	96.09
394.78	104.09
395.005	107.69
395.229	99.29
395.454	95.89
395.678	102.89
395.903	102.69
396.127	105.89
396.352	103.09
396.576	104.69
396.801	100.69
397.025	101.29
397.249	102.69
397.474	103.09
397.698	104.69
397.922	103.09
398.147	101.49
398.371	105.29
398.595	109.69
398.82	100.49
399.044	100.29
399.268	108.89
399.492	107.29
399.717	110.29
399.941	107.49
400.165	107.09
400.389	110.49
400.613	100.69
400.837	113.09
401.062	106.49
401.286	105.29
401.51	108.09
401.734	107.89
401.958	115.09
402.182	105.49
402.406	105.29
402.63	105.89
402.854	104.89
403.078	106.49
403.302	108.69
403.526	109.49
403.75	110.49
403.974	108.49
404.198	106.89
404.422	106.29
404.645	119.69
404.869	124.49
405.093	131.49
405.317	147.89
405.541	179.49
405.765	254.69
405.988	282.49
406.212	212.49
406.436	167.89
406.66	149.89
406.883	132.69
407.107	127.09
407.331	123.09
407.555	115.69
407.778	111.89
408.002	108.49
408.226	112.29
408.449	116.09
408.673	116.89
408.896	111.49
409.12	108.89
409.344	115.49
409.567	107.89
409.791	111.69
410.014	117.89
410.238	102.89
410.461	106.89
410.685	107.09
410.908	101.49
411.132	105.29
411.355	111.09
411.578	113.29
411.802	106.89
412.025	106.89
412.249	107.89
412.472	109.49
412.695	111.29
412.919	104.29
413.142	109.69
413.365	106.29
413.589	106.29
413.812	107.89
414.035	106.89
414.258	106.89
414.482	106.89
414.705	116.29
414.928	106.89
415.151	107.49
415.374	104.89
415.597	114.29
415.821	105.89
416.044	102.89
416.267	105.29
416.49	113.89
416.713	112.69
416.936	108.69
417.159	107.69
417.382	104.69
417.605	102.09
417.828	111.49
418.051	104.09
418.274	106.29
418.497	109.09
418.72	109.09
418.943	106.29
419.166	107.09
419.389	110.89
419.611	115.09
419.834	109.49
420.057	113.49
420.28	107.89
420.503	105.09
420.726	104.09
420.948	108.49
421.171	111.49
421.394	107.29
421.617	113.89
421.839	113.69
422.062	117.69
422.285	107.89
422.507	115.89
422.73	112.49
422.953	116.69
423.175	118.29
423.398	114.09
423.621	116.29
423.843	123.69
424.066	130.69
424.288	147.49
424.511	163.69
424.733	172.89
424.956	162.29
425.178	149.09
425.401	135.09
425.623	134.49
425.846	123.29
426.068	123.09
426.291	123.29
426.513	114.29
426.735	126.69
426.958	110.49
427.18	118.09
427.402	114.09
427.625	113.49
427.847	110.29
428.069	112.29
428.292	112.49
428.514	109.29
428.736	109.49
428.958	112.09
429.181	101.89
429.403	107.69
429.625	101.49
429.847	108.69
430.069	112.69
430.292	116.09
430.514	102.89
430.736	109.69
430.958	110.49
431.18	107.29
431.402	108.49
431.624	101.29
431.846	103.69
432.068	106.69
432.29	106.09
432.512	113.49
432.734	116.29
432.956	105.89
433.178	114.49
433.4	115.09
433.622	109.09
433.844	112.29
434.066	111.69
434.287	110.09
434.509	105.29
434.731	112.89
434.953	109.29
435.175	109.49
435.397	116.49
435.618	105.29
435.84	112.89
436.062	109.09
436.284	108.29
436.505	103.69
436.727	111.29
436.949	109.69
437.17	113.29
437.392	116.49
437.614	120.29
437.835	117.69
438.057	117.69
438.278	130.69
438.5	143.69
438.721	155.49
438.943	163.49
439.165	154.09
439.386	148.49
439.608	138.89
439.829	139.89
440.05	133.29
440.272	136.09
440.493	125.49
440.715	138.29
440.936	142.89
441.158	134.69
441.379	135.89
441.6	130.29
441.822	122.49
442.043	124.69
442.264	114.29
442.486	121.09
442.707	125.09
442.928	118.69
443.149	114.69
443.371	117.69
443.592	121.29
443.813	116.89
444.034	114.29
444.255	122.09
444.476	116.29
444.698	114.69
444.919	115.09
445.14	190.69
445.361	149.29
445.582	113.69
445.803	114.69
446.024	117.09
446.245	115.89
446.466	110.69
446.687	115.29
446.908	106.49
447.129	115.69
447.35	110.09
447.571	116.69
447.792	111.09
448.013	117.49
448.234	112.69
448.455	111.09
448.675	110.09
448.896	112.69
449.117	112.89
449.338	107.09
449.559	108.89
449.779	112.29
450	112.49
450.221	105.09
450.442	109.69
450.662	104.49
450.883	104.09
451.104	104.69
451.324	110.49
451.545	111.29
451.766	101.29
451.986	106.29
452.207	101.89
452.428	103.89
452.648	109.89
452.869	102.49
453.089	107.69
453.31	97.29
453.53	102.09
453.751	104.69
453.971	103.49
454.192	105.69
454.412	102.09
454.633	105.69
454.853	108.89
455.073	110.49
455.294	104.49
455.514	108.29
455.734	110.69
455.955	101.49
456.175	104.69
456.395	101.69
456.616	109.69
456.836	111.29
457.056	111.09
457.276	104.09
457.497	98.29
457.717	106.09
457.937	107.29
458.157	106.49
458.377	99.89
458.598	102.29
458.818	98.09
459.038	94.69
459.258	101.49
459.478	106.29
459.698	104.49
459.918	96.89
460.138	110.29
460.358	108.89
460.578	104.89
460.798	106.09
461.018	109.89
461.238	105.69
461.458	104.29
461.678	107.69
461.898	101.29
462.118	105.89
462.338	108.09
462.558	115.09
462.777	108.89
462.997	111.09
463.217	105.29
463.437	106.89
463.657	105.29
463.876	104.89
464.096	109.09
464.316	104.29
464.536	109.49
464.755	103.89
464.975	108.29
465.195	109.49
465.414	108.69
465.634	103.09
465.854	102.29
466.073	104.29
466.293	109.09
466.512	106.09
466.732	107.69
466.951	107.89
467.171	105.09
467.391	107.09
467.61	104.89
467.829	107.29
468.049	102.09
468.268	105.49
468.488	103.09
468.707	100.09
468.927	103.09
469.146	107.29
469.365	107.69
469.585	107.69
469.804	105.09
470.023	112.29
470.243	103.29
470.462	105.89
470.681	109.89
470.901	102.89
471.12	107.49
471.339	106.49
471.558	107.09
471.777	105.69
471.997	110.09
472.216	106.89
472.435	113.69
472.654	109.09
472.873	102.69
473.092	107.29
473.311	106.09
473.53	104.09
473.749	114.09
473.968	107.69
474.187	105.29
474.406	105.49
474.625	107.29
474.844	108.69
475.063	107.69
475.282	110.69
475.501	106.29
475.72	114.69
475.939	103.29
476.158	105.09
476.377	109.69
476.596	108.49
476.814	110.89
477.033	104.69
477.252	106.89
477.471	111.89
477.69	111.49
477.908	113.89
478.127	111.89
478.346	108.89
478.564	107.89
478.783	106.69
479.002	105.49
479.22	112.29
479.439	106.09
479.658	102.89
479.876	106.29
480.095	100.69
480.313	107.49
480.532	115.89
480.751	109.69
480.969	111.09
481.188	110.89
481.406	107.69
481.624	99.89
481.843	108.09
482.061	106.29
482.28	111.89
482.498	109.49
482.717	110.49
482.935	110.29
483.153	118.09
483.372	119.89
483.59	112.69
483.808	109.49
484.027	113.29
484.245	111.49
484.463	116.89
484.681	120.09
484.9	112.89
485.118	113.49
485.336	111.29
485.554	105.49
485.772	110.89
485.99	105.49
486.209	108.89
486.427	111.09
486.645	107.89
486.863	109.69
487.081	108.29
487.299	110.89
487.517	116.29
487.735	109.29
487.953	110.49
488.171	115.49
488.389	113.89
488.607	116.29
488.825	117.09
489.043	110.29
489.261	108.29
489.479	112.29
489.696	115.09
489.914	109.09
490.132	112.29
490.35	112.89
490.568	110.49
490.786	121.69
491.003	122.29
491.221	114.29
491.439	118.49
491.657	111.49
491.874	114.49
492.092	124.09
492.31	120.69
492.527	118.69
492.745	116.49
492.963	118.09
493.18	122.29
493.398	119.89
493.615	114.89
493.833	115.29
494.05	109.49
494.268	112.89
494.485	120.69
494.703	116.49
494.92	117.89
495.138	117.09
495.355	116.69
495.573	119.09
495.79	120.69
496.008	129.89
496.225	121.69
496.442	118.49
496.66	123.09
496.877	119.69
497.094	124.09
497.312	111.69
497.529	114.49
497.746	120.49
497.963	123.69
498.181	123.29
498.398	113.29
498.615	123.29
498.832	123.89
499.049	125.09
499.267	120.49
499.484	121.09
499.701	124.69
499.918	136.69
500.135	134.89
500.352	136.29
500.569	151.69
500.786	150.89
501.003	144.69
501.22	134.09
501.437	131.49
501.654	129.49
501.871	129.09
502.088	120.49
502.305	123.89
502.522	120.89
502.739	124.49
502.956	118.49
503.172	125.29
503.389	121.69
503.606	124.09
503.823	113.09
504.04	132.49
504.256	121.89
504.473	128.69
504.69	129.49
504.907	138.09
505.123	125.29
505.34	118.49
505.557	129.69
505.773	119.69
505.99	120.49
506.207	118.89
506.423	125.49
506.64	114.89
506.856	120.69
507.073	110.29
507.289	116.69
507.506	112.49
507.722	117.29
507.939	116.89
508.155	117.69
508.372	109.09
508.588	111.09
