Data from TenMicroDelayPb_HRD10591_00003.txt Node
Date: Mon Nov 24 14:27:30 EST 2025
User: Yrep
Spectrometer: HR+D1059
Trigger mode: 0
Integration Time (sec): 1.000000E-1
Scans to average: 5
Electric dark correction enabled: true
Nonlinearity correction enabled: false
Boxcar width: 0
XAxis mode: Wavelengths
Number of Pixels in Spectrum: 2048
>>>>>Begin Spectral Data<<<<<
223.165	-11.51
223.4	-11.51
223.635	-11.51
223.869	-17.51
224.104	-25.11
224.338	-10.11
224.573	-20.51
224.808	-16.91
225.042	-11.51
225.277	-5.11
225.511	-0.91
225.746	7.09
225.98	13.49
226.215	11.09
226.449	17.09
226.683	29.69
226.918	21.89
227.152	18.89
227.387	31.69
227.621	41.09
227.856	46.89
228.09	47.89
228.324	55.69
228.559	57.89
228.793	54.09
229.027	61.09
229.262	61.89
229.496	69.69
229.73	67.89
229.964	77.29
230.199	74.29
230.433	81.49
230.667	81.29
230.901	78.09
231.136	76.29
231.37	80.89
231.604	85.49
231.838	79.29
232.072	87.89
232.306	79.89
232.541	82.29
232.775	79.29
233.009	86.89
233.243	89.49
233.477	84.49
233.711	81.69
233.945	87.49
234.179	81.29
234.413	82.69
234.647	83.09
234.881	87.09
235.115	79.29
235.349	86.09
235.583	84.29
235.817	86.49
236.051	84.89
236.285	80.29
236.519	81.49
236.753	79.49
236.987	77.09
237.221	80.69
237.455	76.09
237.689	83.49
237.922	74.69
238.156	75.29
238.39	79.29
238.624	77.89
238.858	78.09
239.091	75.69
239.325	88.09
239.559	82.09
239.793	85.09
240.027	86.69
240.26	80.09
240.494	86.89
240.728	82.09
240.961	76.09
241.195	86.89
241.429	76.69
241.662	84.89
241.896	83.69
242.13	77.49
242.363	83.69
242.597	77.49
242.83	85.89
243.064	84.29
243.298	85.49
243.531	81.89
243.765	84.29
243.998	82.49
244.232	81.89
244.465	81.29
244.699	85.89
244.932	80.49
245.166	83.29
245.399	73.69
245.633	77.69
245.866	79.29
246.099	84.89
246.333	82.49
246.566	81.09
246.8	84.89
247.033	77.89
247.266	79.69
247.5	79.49
247.733	81.49
247.966	87.89
248.2	86.89
248.433	87.89
248.666	91.69
248.899	91.89
249.133	86.29
249.366	90.09
249.599	81.49
249.832	83.89
250.066	88.09
250.299	88.49
250.532	92.09
250.765	88.89
250.998	88.09
251.231	91.49
251.465	89.09
251.698	86.89
251.931	81.49
252.164	85.89
252.397	92.49
252.63	87.29
252.863	83.89
253.096	91.09
253.329	91.09
253.562	90.09
253.795	88.69
254.028	87.09
254.261	86.89
254.494	88.09
254.727	91.49
254.96	86.49
255.193	85.29
255.426	87.09
255.659	88.09
255.892	90.69
256.124	83.89
256.357	96.09
256.59	97.49
256.823	86.89
257.056	90.69
257.289	90.49
257.521	97.69
257.754	92.89
257.987	99.29
258.22	98.49
258.452	95.29
258.685	100.89
258.918	90.49
259.151	89.69
259.383	91.49
259.616	94.09
259.849	86.29
260.081	97.09
260.314	89.29
260.547	90.09
260.779	96.29
261.012	101.49
261.244	107.49
261.477	122.29
261.71	121.89
261.942	105.69
262.175	96.49
262.407	98.69
262.64	99.49
262.872	93.69
263.105	93.29
263.337	93.49
263.57	95.69
263.802	92.09
264.035	97.49
264.267	96.09
264.499	98.69
264.732	94.09
264.964	93.29
265.197	99.29
265.429	96.09
265.661	93.09
265.894	94.89
266.126	103.09
266.358	107.69
266.591	102.89
266.823	92.09
267.055	95.69
267.287	95.29
267.52	90.89
267.752	97.49
267.984	94.69
268.216	91.89
268.448	99.49
268.681	99.69
268.913	95.89
269.145	91.09
269.377	96.69
269.609	94.09
269.841	92.89
270.073	95.89
270.306	94.89
270.538	94.29
270.77	86.89
271.002	91.69
271.234	95.49
271.466	84.89
271.698	94.29
271.93	92.09
272.162	97.49
272.394	98.69
272.626	90.29
272.858	81.89
273.09	100.69
273.322	95.89
273.553	89.89
273.785	91.49
274.017	92.09
274.249	91.09
274.481	93.09
274.713	93.49
274.945	98.09
275.176	85.89
275.408	95.69
275.64	87.09
275.872	94.29
276.104	91.89
276.335	95.09
276.567	91.09
276.799	102.09
277.031	97.09
277.262	95.09
277.494	101.89
277.726	99.89
277.957	96.49
278.189	98.29
278.421	101.29
278.652	99.49
278.884	99.69
279.115	105.09
279.347	106.49
279.579	111.49
279.81	122.89
280.042	138.09
280.273	152.69
280.505	135.09
280.736	112.09
280.968	106.49
281.199	107.69
281.431	102.89
281.662	99.09
281.894	107.69
282.125	108.69
282.356	114.69
282.588	116.89
282.819	102.69
283.051	110.49
283.282	124.09
283.513	129.29
283.745	117.89
283.976	109.89
284.207	111.09
284.439	104.29
284.67	99.49
284.901	94.69
285.132	105.49
285.364	98.09
285.595	99.49
285.826	106.29
286.057	100.89
286.288	98.29
286.52	98.09
286.751	100.09
286.982	105.29
287.213	115.69
287.444	122.89
287.675	111.69
287.906	98.29
288.138	96.89
288.369	100.29
288.6	96.69
288.831	101.49
289.062	102.69
289.293	97.29
289.524	101.29
289.755	99.89
289.986	101.89
290.217	99.69
290.448	94.09
290.679	90.49
290.91	94.29
291.141	94.89
291.371	94.69
291.602	97.09
291.833	94.69
292.064	99.89
292.295	95.89
292.526	96.69
292.757	97.09
292.987	97.89
293.218	93.69
293.449	96.49
293.68	99.69
293.91	94.69
294.141	103.89
294.372	103.29
294.603	101.29
294.833	93.89
295.064	95.89
295.295	94.09
295.525	106.09
295.756	100.89
295.987	99.29
296.217	107.69
296.448	94.69
296.679	98.89
296.909	98.29
297.14	96.69
297.37	93.89
297.601	96.49
297.831	99.69
298.062	99.09
298.292	93.49
298.523	96.29
298.753	98.69
298.984	101.89
299.214	100.89
299.445	103.29
299.675	99.89
299.905	93.49
300.136	98.49
300.366	98.09
300.597	102.69
300.827	101.89
301.057	91.89
301.288	99.49
301.518	107.69
301.748	99.09
301.979	111.89
302.209	99.29
302.439	97.29
302.669	100.09
302.9	94.69
303.13	99.49
303.36	98.49
303.59	93.89
303.82	94.49
304.051	104.29
304.281	103.49
304.511	103.29
304.741	97.49
304.971	103.69
305.201	100.89
305.431	96.69
305.661	93.09
305.891	95.09
306.121	106.29
306.352	103.69
306.582	98.09
306.812	102.49
307.042	104.49
307.272	95.89
307.502	96.89
307.731	100.09
307.961	103.29
308.191	100.89
308.421	94.69
308.651	97.89
308.881	101.49
309.111	102.09
309.341	94.69
309.571	100.49
309.8	96.69
310.03	105.09
310.26	102.49
310.49	102.09
310.72	100.69
310.949	98.09
311.179	100.89
311.409	99.69
311.639	96.29
311.868	99.89
312.098	99.69
312.328	106.69
312.557	93.69
312.787	97.09
313.017	107.49
313.246	101.49
313.476	102.29
313.706	106.89
313.935	103.49
314.165	104.69
314.394	104.29
314.624	104.09
314.853	103.29
315.083	98.09
315.312	104.29
315.542	104.49
315.771	105.49
316.001	105.49
316.23	99.69
316.46	105.69
316.689	104.89
316.919	105.49
317.148	100.09
317.377	107.69
317.607	108.29
317.836	103.89
318.065	100.49
318.295	108.09
318.524	102.29
318.753	107.29
318.983	105.09
319.212	104.29
319.441	106.09
319.67	99.09
319.9	99.69
320.129	105.49
320.358	104.89
320.587	99.49
320.816	102.29
321.046	97.49
321.275	104.49
321.504	99.69
321.733	97.29
321.962	102.09
322.191	99.69
322.42	93.69
322.649	102.49
322.878	100.29
323.108	99.49
323.337	102.69
323.566	102.49
323.795	98.09
324.024	106.29
324.253	100.49
324.482	100.89
324.71	102.29
324.939	102.29
325.168	102.89
325.397	103.49
325.626	104.49
325.855	103.89
326.084	95.49
326.313	105.89
326.542	101.89
326.77	97.09
326.999	101.49
327.228	100.89
327.457	106.49
327.686	107.49
327.914	102.89
328.143	99.09
328.372	102.29
328.6	103.09
328.829	105.09
329.058	99.89
329.287	92.89
329.515	99.09
329.744	105.89
329.972	102.09
330.201	102.69
330.43	105.49
330.658	101.89
330.887	102.09
331.115	107.09
331.344	106.09
331.572	107.09
331.801	103.09
332.03	98.69
332.258	109.49
332.486	103.09
332.715	98.69
332.943	107.09
333.172	104.69
333.4	99.49
333.629	103.29
333.857	100.49
334.085	98.89
334.314	102.49
334.542	95.09
334.771	95.29
334.999	102.89
335.227	97.09
335.455	100.89
335.684	101.69
335.912	103.89
336.14	100.49
336.369	99.69
336.597	102.49
336.825	98.89
337.053	99.89
337.281	95.89
337.51	95.29
337.738	96.09
337.966	96.69
338.194	101.29
338.422	100.89
338.65	104.49
338.878	97.09
339.106	95.29
339.334	98.49
339.562	91.49
339.79	97.29
340.018	97.29
340.246	94.29
340.474	101.89
340.702	97.69
340.93	104.69
341.158	93.89
341.386	90.89
341.614	102.89
341.842	100.49
342.07	97.29
342.298	94.29
342.526	102.49
342.754	99.89
342.981	98.09
343.209	96.49
343.437	108.49
343.665	100.69
343.893	99.89
344.12	105.49
344.348	107.69
344.576	99.49
344.804	103.49
345.031	106.49
345.259	97.89
345.487	98.89
345.714	100.09
345.942	102.69
346.17	105.29
346.397	102.49
346.625	99.49
346.853	103.89
347.08	102.09
347.308	106.89
347.535	103.09
347.763	96.29
347.99	101.09
348.218	107.09
348.445	101.69
348.673	103.69
348.9	109.49
349.128	103.49
349.355	101.69
349.583	100.69
349.81	97.49
350.037	99.69
350.265	102.49
350.492	102.69
350.72	95.69
350.947	101.49
351.174	98.09
351.402	90.69
351.629	101.49
351.856	102.09
352.083	92.49
352.311	102.09
352.538	97.09
352.765	103.89
352.992	103.49
353.22	99.29
353.447	96.29
353.674	104.49
353.901	102.89
354.128	98.09
354.355	101.49
354.583	98.69
354.81	100.09
355.037	100.89
355.264	105.29
355.491	103.89
355.718	96.69
355.945	106.09
356.172	101.09
356.399	102.89
356.626	110.89
356.853	119.09
357.08	136.09
357.307	147.09
357.534	154.29
357.761	130.49
357.988	121.69
358.215	115.29
358.441	114.89
358.668	109.69
358.895	105.89
359.122	105.29
359.349	106.69
359.576	103.49
359.802	102.89
360.029	105.49
360.256	100.89
360.483	98.89
360.709	107.09
360.936	105.69
361.163	102.89
361.39	104.69
361.616	102.49
361.843	105.09
362.07	107.09
362.296	104.29
362.523	111.89
362.749	106.29
362.976	106.09
363.203	108.69
363.429	117.49
363.656	132.29
363.882	155.09
364.109	176.89
364.335	153.69
364.562	123.89
364.788	109.29
365.015	111.49
365.241	108.69
365.468	116.49
365.694	98.09
365.92	108.69
366.147	104.29
366.373	106.29
366.599	106.89
366.826	116.69
367.052	118.29
367.278	128.29
367.505	119.09
367.731	123.09
367.957	136.29
368.184	173.49
368.41	210.89
368.636	195.89
368.862	148.89
369.089	129.09
369.315	121.89
369.541	123.29
369.767	115.69
369.993	109.89
370.219	108.89
370.445	106.49
370.672	105.49
370.898	106.89
371.124	106.09
371.35	112.09
371.576	102.49
371.802	104.09
372.028	105.29
372.254	108.49
372.48	108.29
372.706	112.29
372.932	105.49
373.158	109.69
373.384	115.29
373.61	123.29
373.835	141.29
374.061	156.09
374.287	151.09
374.513	127.89
374.739	114.09
374.965	107.09
375.191	104.89
375.416	106.69
375.642	111.09
375.868	102.49
376.094	110.29
376.319	105.69
376.545	109.49
376.771	103.09
376.997	100.49
377.222	96.49
377.448	101.89
377.674	104.29
377.899	105.49
378.125	98.29
378.35	100.09
378.576	104.89
378.802	105.69
379.027	106.09
379.253	118.29
379.478	107.69
379.704	104.89
379.929	102.49
380.155	101.69
380.38	103.69
380.606	104.09
380.831	109.29
381.057	103.69
381.282	100.09
381.507	98.69
381.733	103.69
381.958	104.29
382.184	101.09
382.409	100.29
382.634	103.89
382.86	101.89
383.085	108.09
383.31	110.89
383.535	99.29
383.761	107.69
383.986	107.89
384.211	103.29
384.436	105.09
384.662	105.89
384.887	103.89
385.112	101.29
385.337	100.49
385.562	101.09
385.787	110.49
386.013	105.89
386.238	102.49
386.463	102.69
386.688	113.49
386.913	102.49
387.138	96.09
387.363	101.49
387.588	101.29
387.813	99.49
388.038	100.49
388.263	102.89
388.488	107.89
388.713	101.09
388.938	108.89
389.163	108.09
389.387	106.29
389.612	100.09
389.837	104.09
390.062	101.89
390.287	103.69
390.512	107.89
390.736	104.49
390.961	104.29
391.186	112.29
391.411	98.29
391.636	103.29
391.86	105.29
392.085	108.29
392.31	103.69
392.534	106.49
392.759	103.49
392.984	109.69
393.208	107.49
393.433	102.89
393.658	99.29
393.882	108.69
394.107	101.49
394.331	102.29
394.556	108.89
394.78	101.09
395.005	104.29
395.229	102.49
395.454	111.29
395.678	100.89
395.903	107.89
396.127	112.29
396.352	103.69
396.576	104.09
396.801	103.29
397.025	104.69
397.249	97.29
397.474	108.29
397.698	105.49
397.922	110.09
398.147	108.49
398.371	98.89
398.595	109.29
398.82	106.69
399.044	111.49
399.268	113.69
399.492	112.49
399.717	108.49
399.941	103.09
400.165	110.89
400.389	112.49
400.613	105.49
400.837	101.49
401.062	107.29
401.286	108.49
401.51	122.09
401.734	115.09
401.958	120.29
402.182	118.69
402.406	110.89
402.63	115.49
402.854	108.29
403.078	105.89
403.302	111.49
403.526	114.29
403.75	109.89
403.974	109.69
404.198	114.69
404.422	117.49
404.645	119.29
404.869	121.49
405.093	126.09
405.317	141.89
405.541	197.49
405.765	264.69
405.988	288.49
406.212	222.49
406.436	170.89
406.66	149.69
406.883	135.09
407.107	124.49
407.331	121.29
407.555	120.29
407.778	115.09
408.002	115.69
408.226	124.09
408.449	118.49
408.673	107.69
408.896	113.89
409.12	112.69
409.344	112.69
409.567	111.89
409.791	107.49
410.014	107.29
410.238	110.69
410.461	109.29
410.685	108.89
410.908	114.09
411.132	113.49
411.355	108.09
411.578	111.29
411.802	103.49
412.025	112.49
412.249	108.29
412.472	104.09
412.695	109.69
412.919	111.09
413.142	111.09
413.365	108.49
413.589	120.49
413.812	105.69
414.035	116.89
414.258	114.69
414.482	110.29
414.705	109.69
414.928	111.29
415.151	109.89
415.374	103.69
415.597	108.49
415.821	108.29
416.044	109.69
416.267	109.89
416.49	106.89
416.713	115.09
416.936	116.49
417.159	114.89
417.382	116.69
417.605	108.09
417.828	107.89
418.051	101.09
418.274	110.29
418.497	103.89
418.72	111.49
418.943	111.49
419.166	112.49
419.389	106.29
419.611	115.29
419.834	107.89
420.057	113.49
420.28	107.89
420.503	107.09
420.726	105.29
420.948	116.29
421.171	113.29
421.394	107.69
421.617	114.29
421.839	115.09
422.062	108.09
422.285	104.09
422.507	114.89
422.73	115.89
422.953	113.29
423.175	121.09
423.398	122.09
423.621	129.09
423.843	122.09
424.066	128.49
424.288	154.29
424.511	156.29
424.733	166.69
424.956	167.09
425.178	145.29
425.401	133.49
425.623	130.09
425.846	130.29
426.068	127.09
426.291	129.49
426.513	119.09
426.735	119.69
426.958	118.69
427.18	119.29
427.402	114.89
427.625	113.89
427.847	115.09
428.069	115.09
428.292	112.29
428.514	114.29
428.736	111.69
428.958	111.89
429.181	116.49
429.403	111.49
429.625	112.69
429.847	110.69
430.069	112.29
430.292	108.09
430.514	109.69
430.736	116.49
430.958	109.69
431.18	108.29
431.402	102.09
431.624	111.49
431.846	114.49
432.068	107.69
432.29	111.29
432.512	111.49
432.734	104.29
432.956	119.29
433.178	110.09
433.4	111.09
433.622	113.49
433.844	116.69
434.066	112.29
434.287	115.09
434.509	114.69
434.731	110.49
434.953	110.29
435.175	112.29
435.397	110.69
435.618	113.69
435.84	106.49
436.062	114.29
436.284	113.89
436.505	107.89
436.727	116.89
436.949	117.49
437.17	114.49
437.392	118.69
437.614	125.69
437.835	122.49
438.057	122.49
438.278	125.49
438.5	141.69
438.721	160.69
438.943	166.29
439.165	158.89
439.386	141.29
439.608	146.49
439.829	137.69
440.05	134.29
440.272	141.89
440.493	140.09
440.715	133.89
440.936	144.69
441.158	138.09
441.379	128.69
441.6	122.49
441.822	127.89
442.043	124.89
442.264	122.09
442.486	116.89
442.707	115.29
442.928	120.49
443.149	125.69
443.371	119.09
443.592	114.89
443.813	118.29
444.034	117.49
444.255	118.09
444.476	114.89
444.698	123.29
444.919	118.89
445.14	201.69
445.361	144.89
445.582	117.49
445.803	111.29
446.024	116.49
446.245	114.69
446.466	114.49
446.687	109.29
446.908	117.29
447.129	117.49
447.35	112.89
447.571	115.09
447.792	110.89
448.013	107.69
448.234	113.49
448.455	119.89
448.675	109.09
448.896	115.49
449.117	113.09
449.338	106.89
449.559	109.69
449.779	105.09
450	109.69
450.221	102.69
450.442	110.89
450.662	108.09
450.883	110.09
451.104	112.69
451.324	107.09
451.545	104.09
451.766	105.09
451.986	107.09
452.207	104.09
452.428	103.69
452.648	106.49
452.869	109.09
453.089	103.89
453.31	107.49
453.53	106.49
453.751	105.09
453.971	98.09
454.192	105.49
454.412	106.09
454.633	106.89
454.853	106.89
455.073	107.89
455.294	103.29
455.514	105.29
455.734	105.69
455.955	105.89
456.175	105.09
456.395	105.49
456.616	100.49
456.836	103.09
457.056	106.29
457.276	102.49
457.497	101.69
457.717	102.29
457.937	105.49
458.157	99.49
458.377	107.89
458.598	108.09
458.818	104.89
459.038	105.09
459.258	100.89
459.478	96.89
459.698	106.89
459.918	111.69
460.138	106.69
460.358	104.49
460.578	106.09
460.798	107.49
461.018	104.49
461.238	110.69
461.458	112.69
461.678	110.09
461.898	109.89
462.118	108.29
462.338	108.29
462.558	110.69
462.777	104.29
462.997	113.09
463.217	113.89
463.437	116.49
463.657	108.89
463.876	108.09
464.096	105.89
464.316	115.49
464.536	106.29
464.755	106.29
464.975	108.69
465.195	109.29
465.414	105.69
465.634	106.69
465.854	102.29
466.073	106.69
466.293	117.09
466.512	110.69
466.732	100.29
466.951	102.09
467.171	101.69
467.391	105.29
467.61	107.69
467.829	102.49
468.049	108.49
468.268	104.09
468.488	109.29
468.707	110.29
468.927	107.29
469.146	103.09
469.365	106.49
469.585	108.89
469.804	113.89
470.023	105.69
470.243	109.29
470.462	113.69
470.681	111.49
470.901	109.69
471.12	115.09
471.339	100.49
471.558	107.29
471.777	107.69
471.997	112.69
472.216	105.89
472.435	101.69
472.654	107.49
472.873	109.09
473.092	103.09
473.311	104.09
473.53	110.29
473.749	110.29
473.968	104.89
474.187	110.09
474.406	105.89
474.625	112.69
474.844	106.69
475.063	109.49
475.282	106.09
475.501	109.29
475.72	114.49
475.939	110.09
476.158	111.49
476.377	109.49
476.596	102.29
476.814	106.09
477.033	104.29
477.252	111.29
477.471	109.69
477.69	106.89
477.908	121.29
478.127	118.89
478.346	117.69
478.564	114.49
478.783	112.49
479.002	122.89
479.22	113.09
479.439	108.49
479.658	111.09
479.876	111.49
480.095	112.49
480.313	116.29
480.532	109.09
480.751	114.69
480.969	111.89
481.188	105.49
481.406	115.69
481.624	108.49
481.843	105.49
482.061	107.69
482.28	113.69
482.498	111.89
482.717	110.89
482.935	113.09
483.153	114.49
483.372	117.89
483.59	113.89
483.808	108.89
484.027	118.29
484.245	114.69
484.463	112.49
484.681	119.49
484.9	111.69
485.118	119.69
485.336	106.49
485.554	110.29
485.772	110.49
485.99	104.49
486.209	117.49
486.427	104.09
486.645	108.09
486.863	112.29
487.081	112.69
487.299	115.69
487.517	119.29
487.735	120.29
487.953	111.09
488.171	119.89
488.389	111.69
488.607	113.09
488.825	107.89
489.043	115.49
489.261	121.49
489.479	122.49
489.696	117.69
489.914	117.09
490.132	113.29
490.35	117.09
490.568	118.09
490.786	117.29
491.003	107.89
491.221	114.09
491.439	120.69
491.657	120.89
491.874	125.09
492.092	121.89
492.31	120.49
492.527	118.89
492.745	118.69
492.963	118.69
493.18	121.09
493.398	122.69
493.615	121.09
493.833	119.89
494.05	115.69
494.268	124.49
494.485	118.49
494.703	121.89
494.92	111.49
495.138	114.89
495.355	122.29
495.573	125.89
495.79	115.29
496.008	123.29
496.225	117.89
496.442	120.49
496.66	123.49
496.877	119.09
497.094	125.49
497.312	120.49
497.529	115.69
497.746	115.89
497.963	115.69
498.181	123.89
498.398	116.69
498.615	120.69
498.832	113.89
499.049	119.29
499.267	119.69
499.484	131.29
499.701	126.09
499.918	130.09
500.135	131.09
500.352	146.49
500.569	150.89
500.786	163.49
501.003	140.89
501.22	140.69
501.437	131.29
501.654	122.69
501.871	131.69
502.088	123.49
502.305	119.49
502.522	124.89
502.739	130.49
502.956	126.49
503.172	126.09
503.389	126.69
503.606	121.49
503.823	133.29
504.04	127.29
504.256	122.69
504.473	127.69
504.69	132.09
504.907	126.49
505.123	124.29
505.34	130.49
505.557	124.09
505.773	124.29
505.99	120.69
506.207	121.09
506.423	118.29
506.64	119.29
506.856	117.69
507.073	121.29
507.289	120.49
507.506	118.69
