Data from TenMicroDelayPb_HRD10591_00014.txt Node
Date: Mon Nov 24 14:27:35 EST 2025
User: Yrep
Spectrometer: HR+D1059
Trigger mode: 0
Integration Time (sec): 1.000000E-1
Scans to average: 5
Electric dark correction enabled: true
Nonlinearity correction enabled: false
Boxcar width: 0
XAxis mode: Wavelengths
Number of Pixels in Spectrum: 2048
>>>>>Begin Spectral Data<<<<<
223.165	-17.01
223.4	-17.01
223.635	-17.01
223.869	-17.61
224.104	-23.61
224.338	-14.81
224.573	-14.61
224.808	-10.61
225.042	-8.61
225.277	-5.01
225.511	-0.41
225.746	-0.41
225.98	5.39
226.215	13.59
226.449	15.39
226.683	21.79
226.918	25.99
227.152	30.59
227.387	37.59
227.621	34.79
227.856	42.19
228.09	51.19
228.324	52.19
228.559	56.19
228.793	55.59
229.027	66.59
229.262	64.39
229.496	67.79
229.73	77.39
229.964	76.19
230.199	72.79
230.433	75.99
230.667	80.19
230.901	82.79
231.136	81.99
231.37	83.79
231.604	79.39
231.838	83.59
232.072	86.19
232.306	80.19
232.541	75.39
232.775	84.19
233.009	79.79
233.243	85.79
233.477	81.79
233.711	83.19
233.945	79.79
234.179	75.59
234.413	80.39
234.647	84.19
234.881	85.79
235.115	82.19
235.349	79.99
235.583	81.99
235.817	88.79
236.051	75.99
236.285	80.39
236.519	81.59
236.753	83.99
236.987	79.99
237.221	71.59
237.455	84.19
237.689	81.99
237.922	78.39
238.156	76.39
238.39	79.19
238.624	82.19
238.858	76.79
239.091	73.19
239.325	82.99
239.559	80.19
239.793	77.79
240.027	88.59
240.26	78.59
240.494	82.19
240.728	80.19
240.961	78.79
241.195	83.99
241.429	83.79
241.662	77.79
241.896	85.99
242.13	74.79
242.363	83.59
242.597	76.99
242.83	82.99
243.064	79.39
243.298	80.99
243.531	85.79
243.765	79.59
243.998	85.99
244.232	83.99
244.465	82.19
244.699	78.79
244.932	83.19
245.166	81.99
245.399	88.39
245.633	82.59
245.866	78.99
246.099	78.79
246.333	84.19
246.566	77.39
246.8	81.59
247.033	83.99
247.266	80.79
247.5	87.39
247.733	84.39
247.966	84.19
248.2	88.19
248.433	85.59
248.666	82.39
248.899	83.39
249.133	87.19
249.366	83.59
249.599	82.59
249.832	86.19
250.066	84.19
250.299	89.19
250.532	85.39
250.765	79.79
250.998	78.39
251.231	89.79
251.465	80.39
251.698	85.79
251.931	82.59
252.164	88.39
252.397	89.99
252.63	94.59
252.863	81.39
253.096	93.59
253.329	88.79
253.562	90.19
253.795	91.39
254.028	95.59
254.261	82.19
254.494	82.59
254.727	90.39
254.96	90.39
255.193	89.79
255.426	91.99
255.659	89.59
255.892	92.59
256.124	89.19
256.357	82.39
256.59	89.79
256.823	89.59
257.056	85.19
257.289	89.79
257.521	88.19
257.754	88.59
257.987	92.99
258.22	93.59
258.452	92.99
258.685	87.19
258.918	86.99
259.151	91.79
259.383	92.79
259.616	90.99
259.849	91.59
260.081	90.19
260.314	99.99
260.547	95.59
260.779	96.79
261.012	105.99
261.244	105.59
261.477	113.59
261.71	116.99
261.942	99.99
262.175	101.39
262.407	90.59
262.64	87.59
262.872	94.79
263.105	91.19
263.337	91.99
263.57	93.39
263.802	91.19
264.035	96.39
264.267	89.59
264.499	94.39
264.732	100.19
264.964	94.99
265.197	102.79
265.429	98.39
265.661	98.79
265.894	95.79
266.126	98.99
266.358	103.39
266.591	102.79
266.823	95.99
267.055	90.99
267.287	84.79
267.52	91.39
267.752	89.79
267.984	90.59
268.216	91.19
268.448	87.79
268.681	94.99
268.913	96.19
269.145	88.59
269.377	95.79
269.609	95.39
269.841	93.19
270.073	96.19
270.306	89.39
270.538	91.79
270.77	88.19
271.002	93.39
271.234	85.79
271.466	95.99
271.698	91.59
271.93	89.79
272.162	87.59
272.394	90.99
272.626	89.79
272.858	95.79
273.09	92.59
273.322	91.19
273.553	93.39
273.785	90.59
274.017	90.59
274.249	92.99
274.481	87.39
274.713	89.39
274.945	88.19
275.176	89.79
275.408	88.79
275.64	91.79
275.872	92.79
276.104	94.39
276.335	97.59
276.567	88.99
276.799	96.59
277.031	87.39
277.262	92.39
277.494	90.99
277.726	93.99
277.957	93.79
278.189	93.39
278.421	95.79
278.652	95.19
278.884	96.79
279.115	103.19
279.347	101.19
279.579	107.19
279.81	116.59
280.042	135.79
280.273	144.19
280.505	134.99
280.736	117.99
280.968	105.79
281.199	108.39
281.431	104.19
281.662	103.19
281.894	101.39
282.125	105.39
282.356	109.59
282.588	106.39
282.819	106.59
283.051	110.99
283.282	116.99
283.513	134.59
283.745	119.19
283.976	103.19
284.207	99.19
284.439	99.19
284.67	106.59
284.901	95.59
285.132	95.99
285.364	97.79
285.595	100.79
285.826	94.99
286.057	102.39
286.288	104.99
286.52	104.79
286.751	96.99
286.982	103.19
287.213	113.39
287.444	119.59
287.675	111.99
287.906	103.59
288.138	100.79
288.369	100.59
288.6	100.39
288.831	91.59
289.062	100.39
289.293	101.59
289.524	96.99
289.755	93.79
289.986	92.39
290.217	95.79
290.448	92.59
290.679	95.39
290.91	94.39
291.141	93.39
291.371	96.19
291.602	95.39
291.833	96.19
292.064	95.79
292.295	94.19
292.526	96.39
292.757	88.79
292.987	95.99
293.218	98.99
293.449	89.79
293.68	89.59
293.91	101.39
294.141	98.19
294.372	95.59
294.603	94.99
294.833	92.39
295.064	96.79
295.295	93.99
295.525	101.99
295.756	100.99
295.987	97.59
296.217	96.79
296.448	96.59
296.679	97.79
296.909	107.79
297.14	93.39
297.37	95.39
297.601	99.39
297.831	93.79
298.062	99.59
298.292	92.39
298.523	92.99
298.753	93.59
298.984	99.79
299.214	91.79
299.445	98.39
299.675	96.99
299.905	97.99
300.136	102.59
300.366	95.39
300.597	99.59
300.827	96.19
301.057	100.39
301.288	100.79
301.518	97.19
301.748	96.59
301.979	106.59
302.209	98.19
302.439	98.99
302.669	98.39
302.9	105.39
303.13	93.99
303.36	99.59
303.59	96.99
303.82	101.39
304.051	93.79
304.281	96.59
304.511	98.39
304.741	95.19
304.971	99.19
305.201	99.39
305.431	104.99
305.661	100.59
305.891	92.39
306.121	94.59
306.352	92.19
306.582	100.19
306.812	101.99
307.042	98.59
307.272	94.39
307.502	96.79
307.731	97.59
307.961	100.59
308.191	96.79
308.421	95.19
308.651	99.79
308.881	95.59
309.111	98.19
309.341	100.99
309.571	96.19
309.8	98.99
310.03	99.39
310.26	102.19
310.49	97.79
310.72	91.99
310.949	94.59
311.179	98.39
311.409	101.59
311.639	96.99
311.868	99.59
312.098	106.59
312.328	98.99
312.557	105.39
312.787	97.39
313.017	103.99
313.246	99.19
313.476	107.59
313.706	101.59
313.935	100.59
314.165	105.99
314.394	107.39
314.624	112.79
314.853	107.79
315.083	104.79
315.312	109.99
315.542	109.19
315.771	105.79
316.001	102.59
316.23	105.39
316.46	100.39
316.689	105.39
316.919	110.39
317.148	96.59
317.377	105.79
317.607	100.79
317.836	100.39
318.065	100.19
318.295	99.79
318.524	97.39
318.753	102.39
318.983	97.99
319.212	103.79
319.441	100.79
319.67	101.59
319.9	98.99
320.129	99.79
320.358	93.59
320.587	97.59
320.816	108.59
321.046	98.59
321.275	94.79
321.504	106.99
321.733	97.79
321.962	98.99
322.191	107.79
322.42	97.99
322.649	99.79
322.878	96.39
323.108	99.59
323.337	98.19
323.566	97.99
323.795	100.39
324.024	94.79
324.253	98.59
324.482	97.19
324.71	99.39
324.939	98.59
325.168	100.79
325.397	100.39
325.626	97.99
325.855	96.59
326.084	101.39
326.313	102.39
326.542	96.99
326.77	98.79
326.999	99.19
327.228	99.79
327.457	96.59
327.686	102.99
327.914	96.99
328.143	105.59
328.372	101.39
328.6	103.79
328.829	101.99
329.058	101.39
329.287	92.99
329.515	94.19
329.744	103.99
329.972	98.39
330.201	96.79
330.43	99.39
330.658	95.79
330.887	99.99
331.115	101.79
331.344	102.19
331.572	103.99
331.801	96.19
332.03	101.79
332.258	100.59
332.486	98.39
332.715	95.19
332.943	100.19
333.172	102.59
333.4	96.59
333.629	94.59
333.857	103.19
334.085	98.79
334.314	101.99
334.542	104.99
334.771	98.59
334.999	101.39
335.227	102.39
335.455	97.59
335.684	103.79
335.912	99.19
336.14	99.99
336.369	98.79
336.597	98.59
336.825	104.59
337.053	96.59
337.281	102.99
337.51	105.79
337.738	93.59
337.966	93.79
338.194	94.79
338.422	99.99
338.65	98.99
338.878	101.39
339.106	88.39
339.334	99.39
339.562	94.59
339.79	104.19
340.018	105.99
340.246	100.19
340.474	99.39
340.702	98.99
340.93	101.39
341.158	101.99
341.386	96.79
341.614	98.79
341.842	104.99
342.07	98.79
342.298	102.79
342.526	99.39
342.754	97.99
342.981	94.19
343.209	94.79
343.437	109.39
343.665	94.59
343.893	102.59
344.12	101.99
344.348	99.59
344.576	104.79
344.804	100.79
345.031	99.59
345.259	97.19
345.487	98.79
345.714	98.39
345.942	95.19
346.17	99.39
346.397	100.79
346.625	94.99
346.853	97.59
347.08	98.19
347.308	101.59
347.535	101.39
347.763	103.99
347.99	105.19
348.218	94.79
348.445	95.59
348.673	94.59
348.9	98.79
349.128	99.79
349.355	96.79
349.583	97.99
349.81	98.79
350.037	92.19
350.265	97.99
350.492	99.79
350.72	92.59
350.947	100.59
351.174	102.59
351.402	99.39
351.629	91.79
351.856	102.19
352.083	100.99
352.311	105.79
352.538	100.59
352.765	95.99
352.992	102.59
353.22	100.19
353.447	99.59
353.674	95.79
353.901	101.79
354.128	97.79
354.355	96.19
354.583	99.79
354.81	95.19
355.037	95.39
355.264	97.39
355.491	100.59
355.718	96.79
355.945	99.79
356.172	104.19
356.399	96.99
356.626	102.39
356.853	119.39
357.08	125.19
357.307	156.19
357.534	146.39
357.761	125.99
357.988	124.79
358.215	117.39
358.441	104.79
358.668	108.19
358.895	106.79
359.122	102.39
359.349	102.59
359.576	107.19
359.802	104.99
360.029	104.19
360.256	106.39
360.483	100.99
360.709	95.59
360.936	105.19
361.163	102.79
361.39	102.39
361.616	97.39
361.843	99.99
362.07	104.39
362.296	109.39
362.523	101.19
362.749	104.19
362.976	100.39
363.203	107.59
363.429	112.59
363.656	137.39
363.882	162.19
364.109	172.59
364.335	150.99
364.562	120.59
364.788	118.59
365.015	119.59
365.241	109.79
365.468	108.39
365.694	103.19
365.92	100.59
366.147	106.39
366.373	104.99
366.599	107.79
366.826	109.79
367.052	113.39
367.278	121.19
367.505	120.99
367.731	125.39
367.957	134.99
368.184	176.99
368.41	212.19
368.636	181.39
368.862	142.59
369.089	123.99
369.315	113.99
369.541	113.99
369.767	105.79
369.993	101.19
370.219	104.99
370.445	108.79
370.672	100.19
370.898	104.79
371.124	102.39
371.35	99.19
371.576	97.19
371.802	100.99
372.028	108.39
372.254	111.19
372.48	105.19
372.706	107.39
372.932	107.79
373.158	103.39
373.384	106.59
373.61	122.59
373.835	135.59
374.061	154.19
374.287	151.19
374.513	125.99
374.739	114.59
374.965	111.99
375.191	109.39
375.416	106.19
375.642	107.59
375.868	99.99
376.094	99.39
376.319	97.19
376.545	101.79
376.771	98.39
376.997	98.99
377.222	103.79
377.448	97.39
377.674	97.99
377.899	97.79
378.125	103.59
378.35	102.99
378.576	105.79
378.802	99.79
379.027	103.59
379.253	101.39
379.478	98.99
379.704	103.99
379.929	109.39
380.155	104.99
380.38	99.39
380.606	99.99
380.831	93.79
381.057	102.79
381.282	100.79
381.507	96.99
381.733	102.39
381.958	98.59
382.184	98.59
382.409	105.19
382.634	104.79
382.86	100.59
383.085	103.19
383.31	102.79
383.535	101.79
383.761	101.39
383.986	97.19
384.211	103.59
384.436	99.99
384.662	105.99
384.887	94.79
385.112	103.59
385.337	102.19
385.562	101.99
385.787	101.19
386.013	109.79
386.238	103.19
386.463	98.59
386.688	122.99
386.913	97.79
387.138	94.19
387.363	105.19
387.588	102.59
387.813	104.59
388.038	100.79
388.263	108.99
388.488	102.79
388.713	97.19
388.938	105.19
389.163	94.59
389.387	103.59
389.612	98.39
389.837	101.99
390.062	105.59
390.287	104.59
390.512	99.59
390.736	107.99
390.961	95.79
391.186	101.39
391.411	100.59
391.636	109.19
391.86	99.99
392.085	102.39
392.31	105.19
392.534	103.79
392.759	105.59
392.984	102.39
393.208	89.59
393.433	95.99
393.658	101.39
393.882	105.19
394.107	103.59
394.331	102.59
394.556	102.99
394.78	98.79
395.005	99.99
395.229	100.59
395.454	103.19
395.678	97.99
395.903	105.39
396.127	106.99
396.352	105.79
396.576	99.39
396.801	104.99
397.025	102.19
397.249	102.39
397.474	101.99
397.698	104.39
397.922	101.59
398.147	98.39
398.371	108.79
398.595	103.79
398.82	105.99
399.044	103.39
399.268	107.19
399.492	108.59
399.717	108.39
399.941	107.39
400.165	108.39
400.389	101.79
400.613	100.39
400.837	101.99
401.062	107.99
401.286	105.99
401.51	101.59
401.734	109.19
401.958	114.99
402.182	111.79
402.406	110.39
402.63	106.79
402.854	110.39
403.078	106.79
403.302	104.19
403.526	113.99
403.75	104.59
403.974	116.99
404.198	112.19
404.422	112.59
404.645	113.79
404.869	123.19
405.093	131.79
405.317	148.59
405.541	185.99
405.765	253.19
405.988	287.19
406.212	223.59
406.436	177.59
406.66	146.39
406.883	131.99
407.107	129.79
407.331	115.59
407.555	118.39
407.778	124.19
408.002	116.39
408.226	112.79
408.449	107.59
408.673	114.39
408.896	113.39
409.12	107.19
409.344	110.39
409.567	110.99
409.791	110.79
410.014	110.59
410.238	106.59
410.461	105.99
410.685	102.19
410.908	104.19
411.132	113.79
411.355	109.99
411.578	109.79
411.802	104.99
412.025	105.39
412.249	109.19
412.472	107.39
412.695	111.59
412.919	115.39
413.142	102.79
413.365	107.99
413.589	102.99
413.812	110.79
414.035	110.99
414.258	109.59
414.482	101.79
414.705	101.79
414.928	108.59
415.151	108.19
415.374	103.19
415.597	110.59
415.821	110.99
416.044	108.39
416.267	104.99
416.49	108.39
416.713	106.99
416.936	117.79
417.159	111.79
417.382	100.39
417.605	105.79
417.828	108.39
418.051	109.59
418.274	105.39
418.497	114.39
418.72	108.79
418.943	108.39
419.166	109.99
419.389	113.39
419.611	102.59
419.834	109.39
420.057	111.79
420.28	99.79
420.503	107.79
420.726	110.19
420.948	110.99
421.171	102.99
421.394	110.79
421.617	107.39
421.839	119.59
422.062	107.79
422.285	109.59
422.507	113.39
422.73	111.39
422.953	111.79
423.175	118.99
423.398	119.99
423.621	120.19
423.843	124.99
424.066	136.79
424.288	141.39
424.511	159.19
424.733	173.39
424.956	150.39
425.178	149.79
425.401	139.59
425.623	129.79
425.846	125.79
426.068	125.39
426.291	122.19
426.513	117.59
426.735	117.99
426.958	118.99
427.18	115.19
427.402	118.19
427.625	110.79
427.847	116.19
428.069	114.39
428.292	109.19
428.514	109.79
428.736	112.19
428.958	112.19
429.181	115.19
429.403	112.19
429.625	105.19
429.847	107.59
430.069	116.19
430.292	113.19
430.514	106.79
430.736	101.99
430.958	106.19
431.18	111.59
431.402	113.19
431.624	107.19
431.846	100.59
432.068	108.79
432.29	107.19
432.512	110.19
432.734	109.79
432.956	109.59
433.178	118.99
433.4	110.79
433.622	109.39
433.844	109.19
434.066	106.39
434.287	107.99
434.509	112.39
434.731	108.19
434.953	106.79
435.175	104.99
435.397	111.59
435.618	108.39
435.84	112.99
436.062	106.19
436.284	110.59
436.505	110.79
436.727	113.19
436.949	108.79
437.17	114.99
437.392	122.19
437.614	118.39
437.835	115.59
438.057	123.79
438.278	128.79
438.5	138.99
438.721	158.59
438.943	164.99
439.165	154.19
439.386	146.99
439.608	139.19
439.829	132.39
440.05	126.79
440.272	133.39
440.493	130.79
440.715	135.99
440.936	134.99
441.158	136.59
441.379	124.19
441.6	126.99
441.822	129.19
442.043	123.59
442.264	114.99
442.486	118.39
442.707	118.59
442.928	123.79
443.149	111.19
443.371	116.19
443.592	114.39
443.813	112.19
444.034	117.19
444.255	111.59
444.476	107.39
444.698	108.19
444.919	113.39
445.14	197.79
445.361	152.39
445.582	117.19
445.803	111.19
446.024	111.19
446.245	116.99
446.466	112.59
446.687	111.39
446.908	116.39
447.129	112.39
447.35	105.99
447.571	114.19
447.792	105.79
448.013	107.19
448.234	108.19
448.455	110.59
448.675	105.19
448.896	105.79
449.117	107.39
449.338	114.19
449.559	112.19
449.779	110.59
450	104.19
450.221	105.79
450.442	106.99
450.662	106.79
450.883	108.19
451.104	109.39
451.324	101.39
451.545	107.79
451.766	108.79
451.986	113.19
452.207	114.19
452.428	111.39
452.648	110.19
452.869	102.19
453.089	103.39
453.31	101.79
453.53	109.19
453.751	108.39
453.971	103.99
454.192	97.79
454.412	100.19
454.633	98.59
454.853	104.79
455.073	102.79
455.294	105.59
455.514	104.19
455.734	107.99
455.955	107.59
456.175	106.19
456.395	99.39
456.616	98.79
456.836	105.39
457.056	98.99
457.276	97.99
457.497	96.19
457.717	103.79
457.937	102.79
458.157	103.59
458.377	97.39
458.598	103.39
458.818	99.19
459.038	103.59
459.258	104.39
459.478	107.39
459.698	103.39
459.918	105.19
460.138	105.19
460.358	106.39
460.578	119.19
460.798	103.39
461.018	101.79
461.238	110.59
461.458	110.59
461.678	104.59
461.898	112.19
462.118	109.59
462.338	107.99
462.558	108.99
462.777	105.59
462.997	109.39
463.217	107.99
463.437	112.19
463.657	111.19
463.876	110.59
464.096	112.99
464.316	105.99
464.536	99.99
464.755	112.99
464.975	103.79
465.195	106.59
465.414	106.39
465.634	101.19
465.854	102.59
466.073	100.79
466.293	105.59
466.512	98.19
466.732	103.39
466.951	101.79
467.171	103.59
467.391	112.19
467.61	101.99
467.829	96.39
468.049	107.39
468.268	109.19
468.488	106.59
468.707	107.99
468.927	97.19
469.146	103.39
469.365	105.19
469.585	103.79
469.804	108.19
470.023	101.79
470.243	108.59
470.462	110.99
470.681	99.39
470.901	105.19
471.12	107.79
471.339	105.79
471.558	108.99
471.777	107.99
471.997	114.79
472.216	106.59
472.435	106.19
472.654	111.39
472.873	103.79
473.092	99.79
473.311	102.79
473.53	111.19
473.749	103.99
473.968	113.79
474.187	103.19
474.406	107.99
474.625	109.19
474.844	110.79
475.063	109.39
475.282	107.39
475.501	106.79
475.72	105.59
475.939	101.79
476.158	102.79
476.377	108.59
476.596	104.39
476.814	102.19
477.033	102.59
477.252	111.79
477.471	106.19
477.69	107.19
477.908	108.99
478.127	117.19
478.346	108.59
478.564	111.59
478.783	121.19
479.002	115.39
479.22	114.19
479.439	115.19
479.658	111.19
479.876	101.19
480.095	106.99
480.313	118.79
480.532	117.39
480.751	109.79
480.969	113.79
481.188	106.79
481.406	111.39
481.624	115.59
481.843	105.39
482.061	108.79
482.28	104.59
482.498	117.99
482.717	109.79
482.935	107.39
483.153	113.39
483.372	114.79
483.59	109.79
483.808	113.39
484.027	111.59
484.245	115.19
484.463	109.39
484.681	115.59
484.9	105.19
485.118	119.79
485.336	108.99
485.554	114.79
485.772	110.99
485.99	106.19
486.209	107.39
486.427	108.79
486.645	118.39
486.863	110.79
487.081	106.59
487.299	107.79
487.517	113.19
487.735	118.39
487.953	119.19
488.171	117.59
488.389	112.79
488.607	110.39
488.825	109.39
489.043	113.19
489.261	116.59
489.479	113.99
489.696	113.79
489.914	109.79
490.132	111.99
490.35	113.99
490.568	105.39
490.786	114.79
491.003	117.19
491.221	112.59
491.439	118.59
491.657	114.19
491.874	113.39
492.092	117.99
492.31	119.39
492.527	120.99
492.745	114.59
492.963	119.19
493.18	124.59
493.398	117.19
493.615	113.39
493.833	119.59
494.05	111.99
494.268	117.79
494.485	115.19
494.703	116.79
494.92	118.99
495.138	115.99
495.355	119.59
495.573	125.59
495.79	115.19
496.008	117.59
496.225	114.59
496.442	120.19
496.66	122.19
496.877	118.99
497.094	124.39
497.312	123.99
497.529	120.99
497.746	113.59
497.963	115.39
498.181	125.99
498.398	112.39
498.615	116.79
498.832	120.39
499.049	122.99
499.267	120.59
499.484	127.99
499.701	123.99
499.918	130.59
500.135	127.99
500.352	140.39
500.569	146.19
500.786	155.59
501.003	142.99
501.22	132.59
501.437	131.99
501.654	127.19
501.871	129.39
502.088	127.39
502.305	130.19
502.522	118.99
502.739	121.79
502.956	119.39
503.172	122.59
503.389	123.59
503.606	118.79
503.823	120.39
504.04	126.59
504.256	130.79
504.473	131.79
504.69	132.19
504.907	131.79
505.123	120.59
505.34	122.39
505.557	130.19
505.773	119.99
505.99	121.39
506.207	124.99
506.423	116.19
506.64	114.39
506.856	112.59
507.073	109.99
507.289	120.19
507.506	117.59
507.722	109.19
507.939	114.79
508.155	113.19
508.372	112.59
508.588	111.99
508.805	107.19
