Data from TenMicroDelayPb_HRD10591_00009.txt Node
Date: Mon Nov 24 14:27:33 EST 2025
User: Yrep
Spectrometer: HR+D1059
Trigger mode: 0
Integration Time (sec): 1.000000E-1
Scans to average: 5
Electric dark correction enabled: true
Nonlinearity correction enabled: false
Boxcar width: 0
XAxis mode: Wavelengths
Number of Pixels in Spectrum: 2048
>>>>>Begin Spectral Data<<<<<
223.165	-20.74
223.4	-20.74
223.635	-20.74
223.869	-13.94
224.104	-18.94
224.338	-14.14
224.573	-13.94
224.808	-13.14
225.042	-3.94
225.277	-1.14
225.511	-2.94
225.746	-0.54
225.98	2.86
226.215	8.86
226.449	15.06
226.683	16.26
226.918	27.06
227.152	33.26
227.387	32.66
227.621	36.86
227.856	42.46
228.09	51.06
228.324	51.66
228.559	64.66
228.793	62.66
229.027	70.86
229.262	69.06
229.496	69.46
229.73	75.06
229.964	80.06
230.199	72.86
230.433	73.46
230.667	76.46
230.901	82.06
231.136	86.46
231.37	89.26
231.604	83.86
231.838	83.86
232.072	74.66
232.306	88.26
232.541	84.26
232.775	89.26
233.009	88.86
233.243	85.06
233.477	82.06
233.711	77.66
233.945	79.06
234.179	80.46
234.413	88.46
234.647	81.26
234.881	80.86
235.115	85.66
235.349	83.66
235.583	77.26
235.817	75.46
236.051	82.26
236.285	84.86
236.519	76.26
236.753	79.06
236.987	89.06
237.221	78.26
237.455	81.86
237.689	81.46
237.922	77.26
238.156	78.06
238.39	71.06
238.624	74.86
238.858	85.46
239.091	85.46
239.325	77.26
239.559	78.66
239.793	80.26
240.027	83.46
240.26	86.06
240.494	82.86
240.728	80.06
240.961	78.66
241.195	82.46
241.429	81.86
241.662	80.26
241.896	80.46
242.13	78.66
242.363	74.66
242.597	82.06
242.83	82.66
243.064	84.46
243.298	74.26
243.531	81.86
243.765	80.46
243.998	83.46
244.232	84.06
244.465	85.26
244.699	82.26
244.932	82.66
245.166	85.86
245.399	79.86
245.633	85.86
245.866	79.66
246.099	85.86
246.333	82.06
246.566	84.06
246.8	87.86
247.033	80.06
247.266	75.66
247.5	82.26
247.733	89.46
247.966	87.46
248.2	87.26
248.433	83.86
248.666	81.66
248.899	79.06
249.133	91.26
249.366	92.06
249.599	82.86
249.832	83.46
250.066	92.66
250.299	83.06
250.532	88.86
250.765	88.46
250.998	83.86
251.231	84.06
251.465	89.06
251.698	83.06
251.931	88.86
252.164	82.46
252.397	85.86
252.63	94.86
252.863	89.26
253.096	90.46
253.329	88.26
253.562	88.46
253.795	94.86
254.028	90.26
254.261	93.46
254.494	92.46
254.727	100.46
254.96	85.86
255.193	93.86
255.426	86.46
255.659	88.66
255.892	93.26
256.124	86.26
256.357	91.66
256.59	92.66
256.823	95.46
257.056	89.06
257.289	95.46
257.521	93.46
257.754	93.86
257.987	92.86
258.22	94.86
258.452	89.86
258.685	92.26
258.918	94.46
259.151	96.26
259.383	91.86
259.616	95.06
259.849	93.46
260.081	94.86
260.314	87.46
260.547	93.26
260.779	95.86
261.012	96.66
261.244	100.86
261.477	114.86
261.71	114.06
261.942	108.06
262.175	98.26
262.407	92.26
262.64	92.06
262.872	90.06
263.105	93.66
263.337	93.26
263.57	100.06
263.802	92.06
264.035	92.26
264.267	96.46
264.499	97.26
264.732	96.86
264.964	95.86
265.197	95.66
265.429	92.66
265.661	96.86
265.894	101.26
266.126	101.26
266.358	101.26
266.591	108.06
266.823	98.46
267.055	98.26
267.287	97.46
267.52	89.66
267.752	94.46
267.984	93.66
268.216	92.26
268.448	90.06
268.681	88.26
268.913	91.26
269.145	88.66
269.377	90.86
269.609	99.86
269.841	95.26
270.073	90.26
270.306	89.06
270.538	90.06
270.77	95.46
271.002	90.66
271.234	93.86
271.466	86.86
271.698	92.86
271.93	90.46
272.162	92.06
272.394	91.26
272.626	97.26
272.858	86.66
273.09	95.26
273.322	94.86
273.553	88.46
273.785	100.26
274.017	88.26
274.249	92.26
274.481	96.06
274.713	92.26
274.945	97.26
275.176	85.86
275.408	93.86
275.64	88.06
275.872	93.86
276.104	97.86
276.335	88.86
276.567	85.86
276.799	87.86
277.031	97.06
277.262	95.86
277.494	99.86
277.726	97.26
277.957	93.46
278.189	93.06
278.421	99.46
278.652	101.66
278.884	100.86
279.115	112.66
279.347	108.26
279.579	110.86
279.81	126.26
280.042	134.46
280.273	144.46
280.505	132.66
280.736	116.66
280.968	110.66
281.199	110.86
281.431	101.66
281.662	98.26
281.894	96.86
282.125	100.26
282.356	114.46
282.588	111.66
282.819	110.06
283.051	115.26
283.282	120.26
283.513	127.06
283.745	123.86
283.976	102.26
284.207	108.06
284.439	98.66
284.67	100.26
284.901	97.86
285.132	105.06
285.364	96.46
285.595	96.66
285.826	98.26
286.057	97.66
286.288	99.26
286.52	101.26
286.751	97.46
286.982	108.26
287.213	114.86
287.444	127.66
287.675	112.66
287.906	102.86
288.138	99.06
288.369	103.06
288.6	96.26
288.831	101.86
289.062	95.06
289.293	90.26
289.524	94.06
289.755	96.86
289.986	99.06
290.217	96.66
290.448	95.66
290.679	98.66
290.91	99.66
291.141	96.06
291.371	92.46
291.602	99.06
291.833	95.86
292.064	96.66
292.295	89.66
292.526	90.06
292.757	93.46
292.987	101.86
293.218	96.06
293.449	97.46
293.68	101.06
293.91	96.86
294.141	99.66
294.372	94.26
294.603	100.46
294.833	104.66
295.064	95.46
295.295	101.26
295.525	100.66
295.756	101.86
295.987	97.26
296.217	97.86
296.448	93.46
296.679	94.86
296.909	96.86
297.14	96.26
297.37	102.26
297.601	98.06
297.831	97.26
298.062	98.06
298.292	97.66
298.523	95.66
298.753	91.66
298.984	99.26
299.214	97.46
299.445	97.86
299.675	101.26
299.905	103.66
300.136	98.26
300.366	98.86
300.597	99.46
300.827	101.66
301.057	99.86
301.288	100.46
301.518	100.86
301.748	95.86
301.979	111.46
302.209	100.66
302.439	92.66
302.669	104.46
302.9	98.06
303.13	97.66
303.36	96.26
303.59	105.26
303.82	100.86
304.051	98.06
304.281	101.06
304.511	102.46
304.741	100.46
304.971	91.66
305.201	97.86
305.431	100.06
305.661	98.86
305.891	97.26
306.121	96.06
306.352	96.26
306.582	97.66
306.812	96.46
307.042	100.86
307.272	96.46
307.502	97.06
307.731	99.66
307.961	101.66
308.191	109.86
308.421	98.86
308.651	99.26
308.881	101.06
309.111	100.06
309.341	102.26
309.571	98.66
309.8	98.26
310.03	98.26
310.26	98.06
310.49	103.26
310.72	98.06
310.949	99.66
311.179	98.26
311.409	100.06
311.639	108.46
311.868	104.46
312.098	98.26
312.328	95.46
312.557	98.86
312.787	96.06
313.017	96.86
313.246	103.66
313.476	109.46
313.706	100.66
313.935	101.66
314.165	103.66
314.394	104.86
314.624	108.66
314.853	105.66
315.083	104.86
315.312	108.66
315.542	103.66
315.771	107.06
316.001	107.06
316.23	105.26
316.46	100.66
316.689	105.26
316.919	100.46
317.148	99.26
317.377	105.06
317.607	106.06
317.836	97.86
318.065	104.26
318.295	101.66
318.524	101.26
318.753	97.06
318.983	102.06
319.212	103.06
319.441	100.86
319.67	101.26
319.9	101.46
320.129	103.86
320.358	103.46
320.587	105.46
320.816	96.26
321.046	101.26
321.275	99.66
321.504	105.46
321.733	105.86
321.962	99.86
322.191	100.86
322.42	92.86
322.649	96.26
322.878	99.26
323.108	95.46
323.337	99.66
323.566	100.46
323.795	102.86
324.024	101.26
324.253	104.46
324.482	101.86
324.71	97.26
324.939	105.46
325.168	101.46
325.397	101.06
325.626	100.46
325.855	99.06
326.084	99.46
326.313	105.66
326.542	96.26
326.77	99.06
326.999	100.26
327.228	97.06
327.457	102.46
327.686	103.46
327.914	94.86
328.143	103.46
328.372	96.86
328.6	100.46
328.829	106.06
329.058	109.46
329.287	100.86
329.515	98.46
329.744	99.06
329.972	100.86
330.201	105.46
330.43	96.46
330.658	96.06
330.887	99.86
331.115	94.66
331.344	107.66
331.572	102.06
331.801	96.46
332.03	101.26
332.258	100.86
332.486	100.46
332.715	100.86
332.943	100.06
333.172	103.86
333.4	100.26
333.629	98.06
333.857	95.66
334.085	98.46
334.314	106.26
334.542	100.46
334.771	101.86
334.999	106.86
335.227	104.46
335.455	100.66
335.684	102.66
335.912	98.66
336.14	107.66
336.369	98.46
336.597	102.26
336.825	104.06
337.053	94.66
337.281	100.46
337.51	98.26
337.738	100.46
337.966	101.26
338.194	93.66
338.422	101.06
338.65	97.06
338.878	102.66
339.106	104.66
339.334	97.66
339.562	105.86
339.79	102.06
340.018	100.86
340.246	97.06
340.474	96.06
340.702	102.46
340.93	92.66
341.158	104.46
341.386	100.66
341.614	99.26
341.842	110.26
342.07	99.46
342.298	102.46
342.526	95.86
342.754	99.06
342.981	93.46
343.209	96.86
343.437	109.46
343.665	104.66
343.893	97.46
344.12	100.46
344.348	94.86
344.576	95.66
344.804	103.26
345.031	105.06
345.259	102.86
345.487	100.06
345.714	102.06
345.942	101.26
346.17	101.06
346.397	107.46
346.625	101.46
346.853	101.06
347.08	103.46
347.308	106.86
347.535	97.26
347.763	96.06
347.99	104.26
348.218	97.86
348.445	100.06
348.673	97.46
348.9	100.86
349.128	100.86
349.355	93.46
349.583	106.26
349.81	103.06
350.037	101.66
350.265	98.66
350.492	98.86
350.72	101.06
350.947	90.06
351.174	100.26
351.402	99.26
351.629	102.26
351.856	102.26
352.083	104.46
352.311	99.46
352.538	99.66
352.765	102.46
352.992	112.86
353.22	101.86
353.447	95.46
353.674	101.86
353.901	101.06
354.128	99.26
354.355	95.26
354.583	95.46
354.81	103.46
355.037	106.26
355.264	104.46
355.491	104.46
355.718	102.86
355.945	102.66
356.172	101.06
356.399	104.86
356.626	103.66
356.853	121.46
357.08	129.66
357.307	149.66
357.534	149.66
357.761	131.06
357.988	124.46
358.215	116.66
358.441	113.66
358.668	106.46
358.895	108.66
359.122	111.26
359.349	104.66
359.576	103.06
359.802	101.26
360.029	107.26
360.256	102.86
360.483	106.26
360.709	107.66
360.936	109.66
361.163	104.86
361.39	99.86
361.616	98.66
361.843	103.86
362.07	103.46
362.296	105.86
362.523	105.06
362.749	104.86
362.976	110.06
363.203	109.46
363.429	112.46
363.656	129.46
363.882	160.06
364.109	173.26
364.335	150.26
364.562	130.46
364.788	112.66
365.015	114.06
365.241	113.06
365.468	108.86
365.694	106.66
365.92	113.06
366.147	110.46
366.373	98.26
366.599	105.46
366.826	112.86
367.052	118.46
367.278	124.86
367.505	123.46
367.731	123.46
367.957	134.86
368.184	170.46
368.41	205.06
368.636	192.86
368.862	148.26
369.089	130.86
369.315	122.86
369.541	109.86
369.767	109.46
369.993	109.26
370.219	107.46
370.445	108.86
370.672	101.06
370.898	99.86
371.124	108.06
371.35	103.66
371.576	99.46
371.802	106.86
372.028	109.46
372.254	101.26
372.48	103.26
372.706	107.06
372.932	107.26
373.158	106.46
373.384	110.66
373.61	122.26
373.835	147.46
374.061	165.26
374.287	152.66
374.513	126.46
374.739	118.26
374.965	113.86
375.191	113.46
375.416	106.06
375.642	111.06
375.868	111.86
376.094	102.66
376.319	97.06
376.545	100.06
376.771	105.26
376.997	104.26
377.222	108.26
377.448	103.06
377.674	105.66
377.899	98.46
378.125	104.86
378.35	106.86
378.576	99.86
378.802	109.26
379.027	110.26
379.253	110.26
379.478	106.06
379.704	103.26
379.929	102.06
380.155	107.06
380.38	103.66
380.606	101.26
380.831	97.26
381.057	108.46
381.282	98.26
381.507	100.06
381.733	96.26
381.958	104.26
382.184	100.06
382.409	105.26
382.634	95.66
382.86	99.26
383.085	101.26
383.31	104.46
383.535	110.86
383.761	103.86
383.986	104.66
384.211	101.66
384.436	107.06
384.662	97.66
384.887	101.06
385.112	107.46
385.337	103.86
385.562	97.66
385.787	98.06
386.013	104.66
386.238	104.86
386.463	100.66
386.688	119.86
386.913	95.66
387.138	104.46
387.363	98.86
387.588	103.26
387.813	108.26
388.038	99.46
388.263	100.86
388.488	103.46
388.713	102.26
388.938	103.86
389.163	95.06
389.387	104.26
389.612	96.86
389.837	98.46
390.062	104.86
390.287	109.26
390.512	104.86
390.736	95.46
390.961	90.46
391.186	104.26
391.411	105.06
391.636	105.26
391.86	102.46
392.085	103.06
392.31	99.86
392.534	105.46
392.759	103.66
392.984	102.86
393.208	103.06
393.433	100.66
393.658	104.06
393.882	95.46
394.107	100.46
394.331	103.06
394.556	97.86
394.78	101.86
395.005	101.46
395.229	100.06
395.454	103.46
395.678	99.06
395.903	105.86
396.127	104.86
396.352	109.06
396.576	98.06
396.801	94.26
397.025	98.46
397.249	105.86
397.474	108.06
397.698	106.26
397.922	107.86
398.147	99.46
398.371	104.26
398.595	104.26
398.82	108.66
399.044	107.46
399.268	102.86
399.492	114.66
399.717	114.66
399.941	103.26
400.165	109.26
400.389	110.86
400.613	110.06
400.837	105.06
401.062	109.46
401.286	106.66
401.51	110.06
401.734	115.06
401.958	116.86
402.182	110.86
402.406	103.66
402.63	107.06
402.854	107.06
403.078	110.46
403.302	110.66
403.526	112.86
403.75	113.26
403.974	116.66
404.198	108.66
404.422	114.46
404.645	116.26
404.869	121.86
405.093	127.26
405.317	140.66
405.541	189.66
405.765	261.26
405.988	292.46
406.212	220.66
406.436	182.06
406.66	149.86
406.883	130.46
407.107	128.06
407.331	122.06
407.555	126.06
407.778	116.46
408.002	122.86
408.226	119.26
408.449	116.66
408.673	108.06
408.896	111.06
409.12	105.86
409.344	107.86
409.567	108.26
409.791	114.46
410.014	114.06
410.238	106.66
410.461	109.86
410.685	103.86
410.908	110.06
411.132	109.66
411.355	104.26
411.578	112.86
411.802	101.86
412.025	112.66
412.249	106.86
412.472	109.86
412.695	111.26
412.919	110.46
413.142	115.06
413.365	103.86
413.589	100.66
413.812	100.46
414.035	117.66
414.258	110.46
414.482	103.66
414.705	109.26
414.928	105.66
415.151	103.66
415.374	109.86
415.597	108.06
415.821	103.06
416.044	112.46
416.267	109.46
416.49	107.66
416.713	110.26
416.936	120.06
417.159	115.86
417.382	114.26
417.605	113.46
417.828	116.46
418.051	109.66
418.274	110.66
418.497	115.46
418.72	112.66
418.943	114.26
419.166	111.66
419.389	113.26
419.611	107.46
419.834	112.66
420.057	112.66
420.28	111.46
420.503	111.06
420.726	108.06
420.948	108.86
421.171	108.86
421.394	111.46
421.617	110.66
421.839	114.86
422.062	116.46
422.285	114.46
422.507	115.66
422.73	111.46
422.953	125.86
423.175	116.46
423.398	109.66
423.621	119.26
423.843	127.86
424.066	134.86
424.288	139.66
424.511	161.46
424.733	168.06
424.956	157.06
425.178	142.26
425.401	138.86
425.623	141.46
425.846	136.66
426.068	126.86
426.291	125.86
426.513	126.06
426.735	119.86
426.958	122.66
427.18	115.46
427.402	121.66
427.625	108.06
427.847	114.26
428.069	118.46
428.292	108.86
428.514	117.86
428.736	114.26
428.958	114.86
429.181	106.86
429.403	107.46
429.625	111.66
429.847	113.86
430.069	110.46
430.292	113.66
430.514	116.06
430.736	112.26
430.958	118.26
431.18	115.46
431.402	107.26
431.624	104.46
431.846	108.66
432.068	110.26
432.29	106.06
432.512	112.06
432.734	102.66
432.956	107.66
433.178	119.46
433.4	112.86
433.622	117.26
433.844	117.66
434.066	111.86
434.287	111.66
434.509	110.26
434.731	104.06
434.953	108.26
435.175	116.66
435.397	106.66
435.618	110.26
435.84	111.46
436.062	110.46
436.284	105.26
436.505	110.86
436.727	111.86
436.949	112.86
437.17	116.06
437.392	120.66
437.614	120.86
437.835	116.86
438.057	120.26
438.278	135.46
438.5	145.46
438.721	161.26
438.943	168.26
439.165	159.46
439.386	144.46
439.608	143.46
439.829	137.06
440.05	136.26
440.272	127.86
440.493	132.26
440.715	141.26
440.936	139.46
441.158	127.06
441.379	133.46
441.6	131.46
441.822	129.46
442.043	123.66
442.264	129.06
442.486	119.66
442.707	118.06
442.928	112.86
443.149	114.46
443.371	119.66
443.592	117.66
443.813	121.86
444.034	121.06
444.255	121.46
444.476	113.46
444.698	110.66
444.919	122.66
445.14	188.26
445.361	151.46
445.582	116.86
445.803	114.06
446.024	118.06
446.245	119.26
446.466	112.86
446.687	112.66
446.908	110.66
447.129	109.46
447.35	111.46
447.571	112.66
447.792	107.06
448.013	116.06
448.234	107.26
448.455	107.86
448.675	118.06
448.896	109.06
449.117	108.86
449.338	117.06
449.559	116.86
449.779	110.86
450	106.86
450.221	102.86
450.442	119.66
450.662	115.46
450.883	109.06
451.104	109.86
451.324	108.46
451.545	112.06
451.766	109.06
451.986	114.26
452.207	109.06
452.428	106.46
452.648	112.46
452.869	105.86
453.089	99.26
453.31	104.46
453.53	101.66
453.751	107.26
453.971	110.66
454.192	97.06
454.412	109.66
454.633	106.66
454.853	106.66
455.073	104.06
455.294	98.86
455.514	104.26
455.734	108.46
455.955	107.06
456.175	100.66
456.395	104.86
456.616	105.26
456.836	99.86
457.056	106.26
457.276	108.86
457.497	101.46
457.717	103.86
457.937	101.06
458.157	102.06
458.377	105.66
458.598	104.86
458.818	101.06
459.038	104.06
459.258	110.06
459.478	107.06
459.698	106.26
459.918	111.66
460.138	106.06
460.358	107.06
460.578	114.46
460.798	102.46
461.018	104.86
461.238	108.86
461.458	113.86
461.678	108.86
461.898	113.86
462.118	106.26
462.338	102.86
462.558	107.66
462.777	107.66
462.997	113.06
463.217	107.06
463.437	106.66
463.657	108.46
463.876	112.86
464.096	108.46
464.316	113.86
464.536	111.66
464.755	105.46
464.975	105.06
465.195	106.46
465.414	108.26
465.634	110.06
465.854	105.26
466.073	107.06
466.293	104.26
466.512	106.26
466.732	109.86
466.951	105.66
467.171	102.86
467.391	102.06
467.61	101.86
467.829	107.06
468.049	105.66
468.268	105.66
468.488	108.26
468.707	102.06
468.927	103.06
469.146	103.86
469.365	112.26
469.585	106.86
469.804	109.06
470.023	104.66
470.243	103.06
470.462	105.66
470.681	109.66
470.901	105.86
471.12	108.06
471.339	111.86
471.558	109.86
471.777	108.66
471.997	100.86
472.216	102.06
472.435	103.86
472.654	104.66
472.873	104.86
473.092	111.86
473.311	110.46
473.53	104.26
473.749	107.06
473.968	107.86
474.187	104.26
474.406	97.46
474.625	106.86
474.844	109.66
475.063	107.06
475.282	108.46
475.501	106.06
475.72	114.66
475.939	103.66
476.158	106.46
476.377	108.26
476.596	106.06
476.814	101.86
477.033	109.46
477.252	102.06
477.471	109.86
477.69	104.66
477.908	113.86
478.127	115.06
478.346	112.86
478.564	110.46
478.783	112.06
479.002	114.06
479.22	115.46
479.439	116.26
479.658	108.66
479.876	110.66
480.095	110.06
480.313	109.86
480.532	111.26
480.751	108.66
480.969	112.46
481.188	104.66
481.406	108.86
481.624	116.46
481.843	108.86
482.061	109.86
482.28	111.66
482.498	107.86
482.717	106.46
482.935	110.26
483.153	116.66
483.372	114.26
483.59	110.46
483.808	106.86
484.027	105.46
484.245	101.06
484.463	106.06
484.681	117.46
484.9	112.86
485.118	108.86
485.336	110.66
485.554	111.06
485.772	109.06
485.99	105.86
486.209	114.46
486.427	110.26
486.645	109.46
486.863	115.86
487.081	113.66
487.299	118.26
487.517	111.26
487.735	109.86
487.953	121.06
488.171	117.66
488.389	113.46
488.607	110.86
488.825	112.06
489.043	115.86
489.261	121.06
489.479	118.26
489.696	122.46
489.914	115.86
490.132	109.26
490.35	119.66
490.568	119.66
490.786	119.46
491.003	110.06
491.221	113.46
491.439	115.26
491.657	116.46
491.874	122.26
492.092	124.06
492.31	126.26
492.527	120.06
492.745	120.26
492.963	122.06
493.18	114.26
493.398	124.86
493.615	104.86
493.833	114.86
494.05	112.66
494.268	116.86
494.485	116.26
494.703	126.26
494.92	120.26
495.138	120.26
495.355	120.66
495.573	123.06
495.79	120.46
496.008	119.86
496.225	118.06
496.442	121.66
496.66	119.86
496.877	115.46
497.094	123.06
497.312	121.26
497.529	116.66
497.746	114.86
497.963	122.66
498.181	115.26
498.398	118.46
498.615	117.86
498.832	124.26
499.049	120.26
499.267	127.66
499.484	126.26
499.701	131.06
499.918	134.46
500.135	137.26
500.352	145.26
500.569	146.26
500.786	161.26
501.003	143.46
501.22	136.26
501.437	126.06
501.654	130.26
501.871	122.46
502.088	127.66
502.305	134.06
502.522	130.06
502.739	124.06
502.956	122.66
503.172	119.06
503.389	120.86
503.606	122.06
503.823	125.86
504.04	123.26
504.256	136.46
504.473	134.26
504.69	132.86
504.907	126.86
505.123	121.86
505.34	131.66
505.557	127.46
505.773	125.86
505.99	118.26
506.207	117.86
506.423	123.86
506.64	118.46
506.856	121.66
507.073	113.46
507.289	115.86
507.506	108.26
507.722	108.26
507.939	113.66
