Data from TenMicroDelayPb_HRD10591_00007.txt Node
Date: Mon Nov 24 14:27:32 EST 2025
User: Yrep
Spectrometer: HR+D1059
Trigger mode: 0
Integration Time (sec): 1.000000E-1
Scans to average: 5
Electric dark correction enabled: true
Nonlinearity correction enabled: false
Boxcar width: 0
XAxis mode: Wavelengths
Number of Pixels in Spectrum: 2048
>>>>>Begin Spectral Data<<<<<
223.165	-14.86
223.4	-14.86
223.635	-14.86
223.869	-14.86
224.104	-22.66
224.338	-13.46
224.573	-17.66
224.808	-9.26
225.042	-6.66
225.277	-10.26
225.511	-3.86
225.746	0.74
225.98	7.54
226.215	6.34
226.449	13.54
226.683	24.14
226.918	27.34
227.152	33.94
227.387	34.14
227.621	42.74
227.856	40.14
228.09	50.74
228.324	53.54
228.559	55.54
228.793	68.54
229.027	69.34
229.262	69.74
229.496	68.34
229.73	74.34
229.964	77.54
230.199	73.74
230.433	75.34
230.667	79.74
230.901	76.34
231.136	79.74
231.37	74.94
231.604	79.54
231.838	83.74
232.072	79.74
232.306	82.54
232.541	84.14
232.775	79.74
233.009	84.14
233.243	78.54
233.477	84.14
233.711	88.94
233.945	84.54
234.179	81.94
234.413	80.14
234.647	76.54
234.881	81.94
235.115	84.94
235.349	79.54
235.583	77.94
235.817	75.94
236.051	88.14
236.285	79.94
236.519	75.94
236.753	82.54
236.987	77.34
237.221	78.94
237.455	82.54
237.689	79.94
237.922	84.34
238.156	76.74
238.39	72.94
238.624	73.94
238.858	74.74
239.091	70.94
239.325	80.54
239.559	82.14
239.793	75.74
240.027	80.34
240.26	78.14
240.494	82.34
240.728	77.94
240.961	81.34
241.195	82.94
241.429	86.94
241.662	85.74
241.896	83.94
242.13	76.74
242.363	83.54
242.597	75.94
242.83	72.54
243.064	88.34
243.298	77.94
243.531	81.14
243.765	76.54
243.998	83.94
244.232	83.74
244.465	84.34
244.699	83.94
244.932	79.94
245.166	83.14
245.399	79.94
245.633	81.74
245.866	82.54
246.099	84.34
246.333	82.54
246.566	83.54
246.8	83.54
247.033	83.94
247.266	86.94
247.5	78.54
247.733	83.94
247.966	85.14
248.2	86.54
248.433	77.54
248.666	84.74
248.899	86.94
249.133	81.14
249.366	94.74
249.599	89.54
249.832	85.74
250.066	84.34
250.299	87.74
250.532	85.54
250.765	85.74
250.998	84.14
251.231	83.94
251.465	89.74
251.698	89.74
251.931	90.94
252.164	82.54
252.397	85.94
252.63	88.74
252.863	81.94
253.096	85.14
253.329	83.14
253.562	88.34
253.795	91.14
254.028	89.74
254.261	85.54
254.494	93.74
254.727	91.54
254.96	85.34
255.193	94.34
255.426	90.54
255.659	93.14
255.892	86.34
256.124	90.74
256.357	90.14
256.59	91.54
256.823	91.34
257.056	83.74
257.289	95.14
257.521	95.54
257.754	93.14
257.987	92.34
258.22	94.94
258.452	87.94
258.685	87.34
258.918	94.94
259.151	87.74
259.383	90.94
259.616	90.74
259.849	97.94
260.081	91.14
260.314	92.74
260.547	91.14
260.779	97.34
261.012	106.74
261.244	107.54
261.477	121.94
261.71	118.54
261.942	106.14
262.175	100.14
262.407	93.54
262.64	96.14
262.872	97.34
263.105	92.14
263.337	88.34
263.57	90.94
263.802	98.34
264.035	93.54
264.267	90.74
264.499	94.74
264.732	89.74
264.964	92.34
265.197	95.34
265.429	95.94
265.661	92.54
265.894	89.94
266.126	100.34
266.358	98.94
266.591	109.14
266.823	99.94
267.055	92.54
267.287	93.74
267.52	94.74
267.752	93.94
267.984	92.74
268.216	94.14
268.448	92.54
268.681	93.74
268.913	89.74
269.145	96.34
269.377	92.74
269.609	88.34
269.841	100.74
270.073	92.54
270.306	90.54
270.538	96.14
270.77	95.14
271.002	88.74
271.234	86.94
271.466	94.34
271.698	88.34
271.93	90.54
272.162	79.34
272.394	96.14
272.626	88.54
272.858	97.34
273.09	93.74
273.322	88.14
273.553	90.94
273.785	88.94
274.017	94.74
274.249	91.54
274.481	94.34
274.713	95.34
274.945	94.54
275.176	96.34
275.408	99.14
275.64	100.14
275.872	93.54
276.104	91.34
276.335	90.74
276.567	95.74
276.799	95.74
277.031	99.14
277.262	95.94
277.494	90.94
277.726	97.14
277.957	94.74
278.189	89.94
278.421	98.14
278.652	101.34
278.884	100.14
279.115	112.34
279.347	103.14
279.579	106.94
279.81	116.54
280.042	130.34
280.273	151.74
280.505	133.74
280.736	114.74
280.968	101.94
281.199	104.74
281.431	106.34
281.662	104.14
281.894	103.34
282.125	108.34
282.356	117.14
282.588	112.14
282.819	113.94
283.051	110.14
283.282	121.14
283.513	130.94
283.745	117.14
283.976	106.34
284.207	104.14
284.439	100.14
284.67	93.54
284.901	90.74
285.132	96.74
285.364	101.14
285.595	95.94
285.826	94.94
286.057	102.34
286.288	96.74
286.52	98.34
286.751	101.54
286.982	114.94
287.213	113.34
287.444	118.34
287.675	113.94
287.906	98.74
288.138	101.14
288.369	98.94
288.6	99.34
288.831	102.54
289.062	100.94
289.293	98.54
289.524	97.94
289.755	95.74
289.986	93.94
290.217	96.34
290.448	101.14
290.679	99.54
290.91	98.54
291.141	91.14
291.371	93.34
291.602	102.94
291.833	91.54
292.064	100.74
292.295	92.14
292.526	94.34
292.757	105.34
292.987	95.34
293.218	97.14
293.449	94.14
293.68	98.54
293.91	99.34
294.141	103.54
294.372	97.94
294.603	99.94
294.833	101.74
295.064	99.14
295.295	102.94
295.525	102.94
295.756	92.94
295.987	101.14
296.217	91.94
296.448	97.74
296.679	95.34
296.909	97.34
297.14	99.14
297.37	104.34
297.601	93.94
297.831	99.34
298.062	101.54
298.292	97.74
298.523	98.34
298.753	99.14
298.984	97.14
299.214	97.54
299.445	99.14
299.675	96.94
299.905	94.54
300.136	94.54
300.366	97.34
300.597	98.54
300.827	99.74
301.057	103.54
301.288	99.14
301.518	96.14
301.748	97.14
301.979	109.34
302.209	100.74
302.439	99.74
302.669	100.54
302.9	98.14
303.13	95.94
303.36	102.14
303.59	93.74
303.82	96.14
304.051	98.54
304.281	94.34
304.511	99.74
304.741	97.14
304.971	98.54
305.201	99.94
305.431	97.34
305.661	107.54
305.891	99.14
306.121	101.74
306.352	96.34
306.582	94.34
306.812	97.74
307.042	98.54
307.272	101.34
307.502	98.74
307.731	96.94
307.961	97.54
308.191	100.94
308.421	97.14
308.651	98.14
308.881	100.34
309.111	104.34
309.341	95.14
309.571	97.94
309.8	103.14
310.03	99.74
310.26	96.94
310.49	99.14
310.72	99.54
310.949	97.14
311.179	95.74
311.409	99.54
311.639	100.74
311.868	98.74
312.098	100.74
312.328	103.14
312.557	101.14
312.787	103.34
313.017	100.34
313.246	101.74
313.476	103.94
313.706	106.14
313.935	102.54
314.165	103.94
314.394	108.94
314.624	104.34
314.853	103.14
315.083	105.94
315.312	106.54
315.542	98.34
315.771	106.34
316.001	108.74
316.23	100.54
316.46	99.74
316.689	102.54
316.919	107.34
317.148	106.94
317.377	105.74
317.607	103.34
317.836	111.34
318.065	103.94
318.295	103.34
318.524	98.74
318.753	107.34
318.983	99.54
319.212	105.74
319.441	98.14
319.67	103.74
319.9	98.94
320.129	107.14
320.358	98.94
320.587	99.94
320.816	87.14
321.046	95.74
321.275	105.14
321.504	98.74
321.733	102.34
321.962	97.94
322.191	100.34
322.42	95.14
322.649	100.94
322.878	102.34
323.108	99.74
323.337	101.14
323.566	97.94
323.795	102.34
324.024	103.14
324.253	105.54
324.482	95.54
324.71	103.74
324.939	100.34
325.168	103.14
325.397	103.34
325.626	99.54
325.855	104.54
326.084	102.54
326.313	105.14
326.542	92.94
326.77	102.54
326.999	105.54
327.228	108.54
327.457	104.14
327.686	107.54
327.914	105.54
328.143	99.54
328.372	98.34
328.6	98.14
328.829	94.54
329.058	103.34
329.287	97.34
329.515	100.54
329.744	100.94
329.972	100.34
330.201	89.54
330.43	101.94
330.658	100.74
330.887	101.34
331.115	103.94
331.344	101.74
331.572	99.74
331.801	96.74
332.03	98.74
332.258	106.74
332.486	101.54
332.715	105.74
332.943	102.34
333.172	102.74
333.4	102.14
333.629	108.94
333.857	109.54
334.085	104.14
334.314	93.34
334.542	98.54
334.771	102.54
334.999	105.94
335.227	101.34
335.455	96.94
335.684	108.54
335.912	99.34
336.14	105.34
336.369	107.34
336.597	106.14
336.825	100.74
337.053	94.14
337.281	100.54
337.51	97.14
337.738	97.54
337.966	103.74
338.194	101.14
338.422	99.34
338.65	105.54
338.878	106.54
339.106	105.14
339.334	98.14
339.562	102.94
339.79	103.94
340.018	101.94
340.246	99.14
340.474	102.54
340.702	103.34
340.93	100.74
341.158	96.34
341.386	109.34
341.614	102.94
341.842	100.54
342.07	106.54
342.298	101.14
342.526	103.34
342.754	102.54
342.981	99.74
343.209	101.14
343.437	105.94
343.665	98.94
343.893	100.94
344.12	104.94
344.348	103.94
344.576	103.54
344.804	102.34
345.031	99.14
345.259	97.14
345.487	96.14
345.714	103.74
345.942	100.94
346.17	100.14
346.397	101.94
346.625	91.34
346.853	97.74
347.08	104.54
347.308	98.74
347.535	96.94
347.763	106.54
347.99	103.14
348.218	98.34
348.445	104.94
348.673	101.14
348.9	95.14
349.128	104.14
349.355	104.54
349.583	100.94
349.81	102.74
350.037	94.14
350.265	103.94
350.492	103.94
350.72	102.34
350.947	98.14
351.174	97.34
351.402	100.54
351.629	101.14
351.856	97.94
352.083	99.54
352.311	101.54
352.538	100.54
352.765	99.74
352.992	99.74
353.22	103.94
353.447	103.34
353.674	104.34
353.901	106.34
354.128	106.54
354.355	104.54
354.583	98.14
354.81	97.14
355.037	97.34
355.264	99.54
355.491	101.14
355.718	103.54
355.945	104.74
356.172	98.94
356.399	101.94
356.626	106.34
356.853	110.74
357.08	143.54
357.307	153.34
357.534	151.54
357.761	128.74
357.988	121.94
358.215	114.14
358.441	109.74
358.668	114.94
358.895	116.74
359.122	104.74
359.349	103.94
359.576	105.54
359.802	98.94
360.029	99.34
360.256	107.34
360.483	107.54
360.709	100.14
360.936	109.14
361.163	103.74
361.39	101.94
361.616	103.54
361.843	106.54
362.07	98.94
362.296	110.94
362.523	104.54
362.749	107.54
362.976	105.94
363.203	115.14
363.429	119.14
363.656	140.54
363.882	163.14
364.109	173.34
364.335	144.74
364.562	122.14
364.788	111.54
365.015	113.34
365.241	110.14
365.468	108.14
365.694	100.34
365.92	107.14
366.147	103.34
366.373	98.54
366.599	109.74
366.826	109.74
367.052	121.94
367.278	121.74
367.505	115.74
367.731	127.94
367.957	129.74
368.184	173.74
368.41	208.34
368.636	188.94
368.862	139.34
369.089	130.14
369.315	125.34
369.541	117.34
369.767	109.54
369.993	111.54
370.219	109.94
370.445	106.34
370.672	110.14
370.898	103.14
371.124	105.74
371.35	104.34
371.576	107.54
371.802	110.54
372.028	107.94
372.254	107.34
372.48	109.14
372.706	105.14
372.932	108.34
373.158	105.14
373.384	108.94
373.61	119.14
373.835	138.54
374.061	161.14
374.287	150.54
374.513	126.94
374.739	119.54
374.965	105.74
375.191	105.54
375.416	102.74
375.642	109.54
375.868	106.14
376.094	100.94
376.319	107.54
376.545	99.94
376.771	97.14
376.997	100.14
377.222	98.54
377.448	110.54
377.674	103.54
377.899	106.74
378.125	104.14
378.35	104.54
378.576	107.54
378.802	104.94
379.027	105.34
379.253	104.34
379.478	103.94
379.704	103.34
379.929	102.94
380.155	98.94
380.38	106.34
380.606	101.54
380.831	105.94
381.057	104.14
381.282	95.74
381.507	101.94
381.733	97.94
381.958	103.14
382.184	102.14
382.409	102.74
382.634	103.94
382.86	102.54
383.085	102.34
383.31	103.54
383.535	107.14
383.761	100.94
383.986	107.34
384.211	101.54
384.436	104.74
384.662	102.94
384.887	100.34
385.112	99.74
385.337	101.54
385.562	101.54
385.787	106.94
386.013	101.94
386.238	105.94
386.463	103.34
386.688	110.74
386.913	103.94
387.138	102.74
387.363	98.14
387.588	107.54
387.813	108.54
388.038	107.34
388.263	107.14
388.488	104.74
388.713	103.54
388.938	100.34
389.163	100.14
389.387	104.54
389.612	101.94
389.837	102.54
390.062	102.94
390.287	100.94
390.512	106.14
390.736	104.54
390.961	101.34
391.186	98.14
391.411	102.34
391.636	105.54
391.86	106.74
392.085	103.14
392.31	107.34
392.534	106.94
392.759	111.74
392.984	103.74
393.208	106.14
393.433	104.34
393.658	107.54
393.882	106.34
394.107	105.14
394.331	103.94
394.556	98.54
394.78	102.34
395.005	97.94
395.229	102.94
395.454	106.94
395.678	109.14
395.903	103.14
396.127	104.94
396.352	107.14
396.576	102.74
396.801	106.74
397.025	104.14
397.249	101.74
397.474	107.54
397.698	107.14
397.922	106.34
398.147	105.14
398.371	109.94
398.595	107.94
398.82	103.14
399.044	107.34
399.268	104.34
399.492	114.14
399.717	108.34
399.941	98.34
400.165	106.14
400.389	104.14
400.613	115.34
400.837	108.34
401.062	110.34
401.286	110.14
401.51	112.34
401.734	114.54
401.958	119.14
402.182	118.94
402.406	106.14
402.63	100.54
402.854	108.54
403.078	107.34
403.302	106.14
403.526	106.74
403.75	110.74
403.974	116.14
404.198	110.94
404.422	117.34
404.645	112.74
404.869	120.94
405.093	128.54
405.317	142.54
405.541	193.54
405.765	261.54
405.988	287.14
406.212	214.94
406.436	172.14
406.66	149.74
406.883	136.74
407.107	126.14
407.331	120.94
407.555	127.14
407.778	121.54
408.002	113.54
408.226	109.94
408.449	115.34
408.673	114.74
408.896	117.54
409.12	112.54
409.344	106.34
409.567	107.94
409.791	109.14
410.014	112.94
410.238	118.74
410.461	115.14
410.685	109.74
410.908	109.74
411.132	111.74
411.355	109.94
411.578	113.74
411.802	109.74
412.025	111.34
412.249	109.94
412.472	109.34
412.695	107.94
412.919	106.14
413.142	115.14
413.365	107.34
413.589	107.94
413.812	112.74
414.035	108.54
414.258	105.94
414.482	104.34
414.705	101.94
414.928	107.34
415.151	112.34
415.374	106.34
415.597	111.74
415.821	105.14
416.044	109.94
416.267	109.94
416.49	111.34
416.713	113.34
416.936	111.74
417.159	111.94
417.382	111.34
417.605	108.94
417.828	111.14
418.051	112.14
418.274	113.54
418.497	106.14
418.72	109.34
418.943	108.34
419.166	115.14
419.389	109.14
419.611	108.94
419.834	106.54
420.057	114.54
420.28	105.74
420.503	107.34
420.726	108.94
420.948	105.14
421.171	113.54
421.394	108.14
421.617	113.14
421.839	111.74
422.062	108.54
422.285	114.14
422.507	114.74
422.73	114.54
422.953	113.14
423.175	117.14
423.398	116.74
423.621	131.34
423.843	126.94
424.066	135.34
424.288	150.54
424.511	158.94
424.733	166.74
424.956	158.14
425.178	158.34
425.401	140.94
425.623	133.94
425.846	117.14
426.068	131.74
426.291	119.74
426.513	127.34
426.735	123.54
426.958	121.74
427.18	116.34
427.402	131.94
427.625	120.54
427.847	111.34
428.069	122.74
428.292	113.14
428.514	117.54
428.736	112.74
428.958	113.14
429.181	102.74
429.403	110.34
429.625	115.14
429.847	113.14
430.069	106.74
430.292	111.54
430.514	108.14
430.736	115.34
430.958	117.14
431.18	108.94
431.402	114.94
431.624	106.94
431.846	105.34
432.068	110.74
432.29	110.94
432.512	112.54
432.734	117.94
432.956	115.94
433.178	116.14
433.4	108.34
433.622	112.14
433.844	121.54
434.066	111.14
434.287	114.74
434.509	110.14
434.731	107.14
434.953	113.74
435.175	105.94
435.397	110.54
435.618	107.14
435.84	109.74
436.062	108.34
436.284	112.94
436.505	117.34
436.727	112.74
436.949	117.54
437.17	115.54
437.392	121.94
437.614	123.34
437.835	111.94
438.057	127.94
438.278	125.74
438.5	144.34
438.721	163.34
438.943	166.54
439.165	156.74
439.386	142.14
439.608	142.94
439.829	136.34
440.05	133.34
440.272	132.74
440.493	128.74
440.715	137.94
440.936	136.74
441.158	146.14
441.379	130.94
441.6	130.54
441.822	123.54
442.043	120.74
442.264	121.34
442.486	118.34
442.707	125.14
442.928	121.34
443.149	116.14
443.371	121.74
443.592	119.54
443.813	123.94
444.034	113.74
444.255	109.54
444.476	115.94
444.698	115.14
444.919	115.34
445.14	183.74
445.361	150.74
445.582	115.94
445.803	109.34
446.024	117.54
446.245	112.94
446.466	113.74
446.687	115.14
446.908	116.14
447.129	120.74
447.35	119.14
447.571	112.74
447.792	118.74
448.013	117.34
448.234	113.94
448.455	111.94
448.675	111.34
448.896	110.54
449.117	109.94
449.338	107.34
449.559	116.54
449.779	115.74
450	116.94
450.221	112.54
450.442	113.74
450.662	107.74
450.883	108.94
451.104	107.54
451.324	110.94
451.545	111.74
451.766	110.14
451.986	109.34
452.207	109.14
452.428	103.94
452.648	105.54
452.869	108.14
453.089	112.74
453.31	104.14
453.53	102.94
453.751	110.54
453.971	106.94
454.192	105.94
454.412	106.94
454.633	103.74
454.853	96.94
455.073	101.54
455.294	109.74
455.514	111.14
455.734	105.14
455.955	107.54
456.175	102.34
456.395	101.94
456.616	108.54
456.836	100.74
457.056	99.74
457.276	104.14
457.497	108.94
457.717	104.94
457.937	105.34
458.157	99.94
458.377	103.14
458.598	104.14
458.818	100.54
459.038	101.34
459.258	106.14
459.478	100.34
459.698	106.94
459.918	104.94
460.138	104.74
460.358	100.14
460.578	109.14
460.798	106.54
461.018	105.54
461.238	109.94
461.458	108.14
461.678	110.54
461.898	116.54
462.118	112.14
462.338	104.34
462.558	113.14
462.777	108.34
462.997	107.74
463.217	109.14
463.437	113.14
463.657	105.54
463.876	109.74
464.096	106.74
464.316	108.94
464.536	108.54
464.755	103.94
464.975	107.74
465.195	109.34
465.414	106.14
465.634	113.14
465.854	109.34
466.073	111.14
466.293	108.94
466.512	104.34
466.732	104.14
466.951	107.94
467.171	112.54
467.391	106.54
467.61	111.14
467.829	104.54
468.049	107.14
468.268	109.34
468.488	103.54
468.707	108.14
468.927	111.14
469.146	111.34
469.365	109.54
469.585	112.34
469.804	111.34
470.023	112.14
470.243	105.14
470.462	114.14
470.681	112.94
470.901	109.14
471.12	106.94
471.339	106.94
471.558	105.94
471.777	113.14
471.997	109.54
472.216	109.74
472.435	100.14
472.654	106.34
472.873	109.94
473.092	114.94
473.311	107.34
473.53	112.34
473.749	103.14
473.968	100.74
474.187	104.94
474.406	104.54
474.625	111.34
474.844	113.54
475.063	104.94
475.282	111.94
475.501	103.94
475.72	112.94
475.939	107.14
476.158	107.14
476.377	115.54
476.596	103.74
476.814	104.14
477.033	110.54
477.252	111.34
477.471	112.34
477.69	107.34
477.908	106.14
478.127	115.54
478.346	112.14
478.564	113.74
478.783	117.74
479.002	118.34
479.22	116.14
479.439	115.94
479.658	115.94
479.876	112.34
480.095	107.74
480.313	114.14
480.532	118.34
480.751	113.34
480.969	108.14
481.188	109.34
481.406	107.14
481.624	108.54
481.843	106.54
482.061	112.74
482.28	113.54
482.498	117.74
482.717	116.34
482.935	112.74
483.153	120.54
483.372	116.14
483.59	114.14
483.808	110.14
484.027	112.94
484.245	107.74
484.463	115.14
484.681	113.14
484.9	114.14
485.118	105.34
485.336	113.54
485.554	105.74
485.772	108.14
485.99	114.74
486.209	114.54
486.427	109.94
486.645	113.94
486.863	112.54
487.081	118.94
487.299	113.74
487.517	115.14
487.735	111.14
487.953	118.14
488.171	119.54
488.389	122.94
488.607	115.34
488.825	113.54
489.043	115.74
489.261	117.14
489.479	111.14
489.696	119.94
489.914	117.14
490.132	108.94
490.35	115.14
490.568	110.54
490.786	116.54
491.003	122.74
491.221	119.14
491.439	120.74
491.657	113.94
491.874	121.94
492.092	124.14
492.31	122.34
492.527	119.54
492.745	114.34
492.963	116.54
493.18	122.54
493.398	111.54
493.615	115.54
493.833	119.54
494.05	122.74
494.268	118.54
494.485	124.74
494.703	115.54
494.92	116.74
495.138	122.94
495.355	124.94
495.573	119.14
495.79	111.54
496.008	116.74
496.225	121.94
496.442	124.34
496.66	121.14
496.877	123.14
497.094	119.34
497.312	118.34
497.529	117.34
497.746	117.34
497.963	115.14
498.181	113.14
498.398	121.74
498.615	117.14
498.832	121.34
499.049	121.34
499.267	124.14
499.484	125.14
499.701	128.34
499.918	133.94
500.135	131.54
500.352	133.94
500.569	151.34
500.786	163.14
501.003	140.94
501.22	129.54
501.437	134.14
501.654	131.74
501.871	124.34
502.088	123.94
502.305	128.14
502.522	118.94
502.739	125.54
502.956	119.74
503.172	123.94
503.389	119.74
503.606	122.34
503.823	125.54
504.04	126.34
504.256	132.94
504.473	130.94
504.69	132.54
504.907	131.74
505.123	126.74
505.34	122.54
505.557	125.74
505.773	116.74
505.99	118.94
506.207	121.54
506.423	121.34
506.64	122.74
506.856	118.54
507.073	113.54
507.289	118.14
507.506	116.34
507.722	112.94
