Data from TenMicroDelayPb_HRD10591_00005.txt Node
Date: Mon Nov 24 14:27:31 EST 2025
User: Yrep
Spectrometer: HR+D1059
Trigger mode: 0
Integration Time (sec): 1.000000E-1
Scans to average: 5
Electric dark correction enabled: true
Nonlinearity correction enabled: false
Boxcar width: 0
XAxis mode: Wavelengths
Number of Pixels in Spectrum: 2048
>>>>>Begin Spectral Data<<<<<
223.165	-19.04
223.4	-19.04
223.635	-19.04
223.869	-14.04
224.104	-18.84
224.338	-16.64
224.573	-14.44
224.808	-2.64
225.042	-9.24
225.277	-2.04
225.511	-1.24
225.746	5.56
225.98	1.96
226.215	11.16
226.449	5.16
226.683	20.16
226.918	26.56
227.152	27.56
227.387	27.76
227.621	40.56
227.856	50.36
228.09	45.96
228.324	54.96
228.559	51.16
228.793	53.56
229.027	64.16
229.262	63.56
229.496	65.56
229.73	72.76
229.964	76.16
230.199	68.56
230.433	79.96
230.667	77.76
230.901	78.36
231.136	75.56
231.37	78.96
231.604	82.36
231.838	79.56
232.072	83.76
232.306	82.56
232.541	74.96
232.775	80.96
233.009	75.56
233.243	71.76
233.477	81.16
233.711	74.76
233.945	76.16
234.179	76.36
234.413	77.76
234.647	84.56
234.881	74.56
235.115	81.56
235.349	79.36
235.583	78.76
235.817	82.96
236.051	73.96
236.285	78.56
236.519	76.76
236.753	78.76
236.987	77.96
237.221	72.76
237.455	73.76
237.689	73.36
237.922	78.16
238.156	78.76
238.39	72.56
238.624	71.76
238.858	83.56
239.091	78.36
239.325	85.76
239.559	85.56
239.793	76.96
240.027	74.76
240.26	80.56
240.494	78.56
240.728	83.56
240.961	85.16
241.195	75.36
241.429	81.36
241.662	74.76
241.896	75.16
242.13	76.36
242.363	83.16
242.597	77.36
242.83	81.96
243.064	78.76
243.298	73.96
243.531	79.16
243.765	82.16
243.998	83.56
244.232	77.76
244.465	82.76
244.699	83.36
244.932	90.36
245.166	89.76
245.399	85.16
245.633	79.36
245.866	79.16
246.099	74.76
246.333	83.36
246.566	79.56
246.8	77.96
247.033	80.36
247.266	82.96
247.5	77.36
247.733	78.56
247.966	84.76
248.2	86.56
248.433	80.16
248.666	82.56
248.899	91.56
249.133	79.16
249.366	86.76
249.599	79.56
249.832	80.56
250.066	87.76
250.299	79.16
250.532	76.76
250.765	82.76
250.998	80.76
251.231	87.16
251.465	87.16
251.698	78.76
251.931	78.36
252.164	85.76
252.397	91.36
252.63	83.76
252.863	79.96
253.096	84.76
253.329	97.76
253.562	91.16
253.795	81.76
254.028	88.76
254.261	87.16
254.494	87.76
254.727	84.96
254.96	90.96
255.193	91.56
255.426	88.16
255.659	91.56
255.892	99.76
256.124	90.36
256.357	88.16
256.59	89.76
256.823	89.56
257.056	82.76
257.289	82.76
257.521	87.76
257.754	92.16
257.987	92.56
258.22	99.16
258.452	89.36
258.685	93.36
258.918	91.76
259.151	96.16
259.383	93.56
259.616	90.96
259.849	92.16
260.081	88.16
260.314	92.56
260.547	88.76
260.779	95.36
261.012	96.56
261.244	105.16
261.477	119.96
261.71	115.36
261.942	105.16
262.175	95.36
262.407	88.76
262.64	88.76
262.872	91.36
263.105	92.76
263.337	86.56
263.57	89.96
263.802	90.36
264.035	94.56
264.267	93.16
264.499	89.96
264.732	99.36
264.964	97.96
265.197	102.16
265.429	106.16
265.661	98.56
265.894	93.56
266.126	93.56
266.358	103.16
266.591	108.36
266.823	100.36
267.055	96.36
267.287	86.56
267.52	89.16
267.752	92.56
267.984	91.16
268.216	86.16
268.448	88.16
268.681	89.76
268.913	91.96
269.145	95.76
269.377	94.16
269.609	90.16
269.841	94.56
270.073	92.56
270.306	92.76
270.538	94.56
270.77	88.96
271.002	84.56
271.234	89.76
271.466	85.56
271.698	90.96
271.93	89.96
272.162	93.76
272.394	92.56
272.626	91.16
272.858	91.76
273.09	93.76
273.322	92.96
273.553	89.36
273.785	89.76
274.017	94.56
274.249	94.16
274.481	92.16
274.713	88.96
274.945	85.56
275.176	89.56
275.408	93.96
275.64	95.56
275.872	90.76
276.104	91.16
276.335	94.96
276.567	92.96
276.799	92.56
277.031	94.36
277.262	91.76
277.494	86.76
277.726	91.76
277.957	91.76
278.189	97.96
278.421	100.36
278.652	97.36
278.884	102.96
279.115	97.36
279.347	100.96
279.579	110.36
279.81	115.76
280.042	129.76
280.273	133.56
280.505	136.96
280.736	118.56
280.968	104.56
281.199	105.16
281.431	101.76
281.662	93.76
281.894	106.36
282.125	109.76
282.356	107.96
282.588	107.96
282.819	104.96
283.051	110.96
283.282	118.96
283.513	127.16
283.745	118.76
283.976	106.76
284.207	99.16
284.439	100.36
284.67	104.16
284.901	90.36
285.132	93.76
285.364	91.36
285.595	96.76
285.826	103.96
286.057	94.96
286.288	91.96
286.52	102.16
286.751	104.56
286.982	104.76
287.213	102.96
287.444	116.36
287.675	115.56
287.906	100.96
288.138	101.76
288.369	95.36
288.6	96.56
288.831	97.96
289.062	93.56
289.293	94.96
289.524	95.36
289.755	95.36
289.986	93.16
290.217	91.76
290.448	92.76
290.679	97.16
290.91	97.16
291.141	99.36
291.371	96.16
291.602	93.76
291.833	94.16
292.064	102.36
292.295	95.56
292.526	97.96
292.757	94.76
292.987	101.56
293.218	96.56
293.449	98.36
293.68	96.16
293.91	93.76
294.141	94.76
294.372	101.16
294.603	92.56
294.833	100.76
295.064	98.16
295.295	95.96
295.525	96.76
295.756	98.96
295.987	101.36
296.217	93.56
296.448	105.36
296.679	96.36
296.909	93.16
297.14	97.96
297.37	94.76
297.601	95.36
297.831	97.76
298.062	98.36
298.292	94.56
298.523	99.96
298.753	95.56
298.984	96.36
299.214	96.96
299.445	99.76
299.675	100.56
299.905	96.36
300.136	96.76
300.366	97.76
300.597	100.76
300.827	95.96
301.057	102.56
301.288	97.96
301.518	100.76
301.748	99.16
301.979	116.76
302.209	100.56
302.439	93.76
302.669	95.36
302.9	93.56
303.13	98.36
303.36	91.36
303.59	99.16
303.82	105.56
304.051	97.16
304.281	94.76
304.511	103.36
304.741	103.36
304.971	95.36
305.201	101.76
305.431	99.76
305.661	96.76
305.891	93.96
306.121	97.56
306.352	96.76
306.582	99.16
306.812	102.96
307.042	96.56
307.272	98.36
307.502	96.56
307.731	88.56
307.961	93.16
308.191	98.76
308.421	101.36
308.651	92.96
308.881	100.96
309.111	98.76
309.341	101.36
309.571	94.36
309.8	90.56
310.03	97.56
310.26	99.56
310.49	97.36
310.72	102.36
310.949	100.76
311.179	97.56
311.409	93.36
311.639	101.56
311.868	96.76
312.098	99.56
312.328	98.36
312.557	101.16
312.787	96.56
313.017	102.16
313.246	104.36
313.476	104.96
313.706	105.16
313.935	103.36
314.165	99.76
314.394	102.96
314.624	98.56
314.853	104.76
315.083	106.76
315.312	99.56
315.542	97.96
315.771	104.56
316.001	97.56
316.23	99.16
316.46	98.56
316.689	101.96
316.919	98.56
317.148	101.36
317.377	101.56
317.607	99.56
317.836	102.36
318.065	96.76
318.295	103.16
318.524	98.56
318.753	99.56
318.983	100.16
319.212	101.76
319.441	101.16
319.67	95.76
319.9	90.76
320.129	98.56
320.358	100.16
320.587	97.56
320.816	97.96
321.046	98.96
321.275	106.16
321.504	98.56
321.733	98.96
321.962	103.76
322.191	95.56
322.42	98.76
322.649	103.16
322.878	95.96
323.108	100.56
323.337	104.16
323.566	100.96
323.795	103.36
324.024	97.16
324.253	94.56
324.482	95.16
324.71	95.76
324.939	100.96
325.168	98.56
325.397	100.36
325.626	94.56
325.855	100.36
326.084	99.36
326.313	108.36
326.542	103.16
326.77	97.76
326.999	95.56
327.228	108.96
327.457	99.76
327.686	99.36
327.914	96.96
328.143	100.16
328.372	100.96
328.6	97.76
328.829	94.16
329.058	91.56
329.287	96.96
329.515	98.76
329.744	102.56
329.972	95.36
330.201	101.76
330.43	93.56
330.658	102.96
330.887	98.76
331.115	103.36
331.344	104.56
331.572	102.56
331.801	103.96
332.03	97.96
332.258	100.36
332.486	99.16
332.715	94.16
332.943	97.76
333.172	102.76
333.4	93.76
333.629	100.56
333.857	97.36
334.085	103.76
334.314	97.96
334.542	102.36
334.771	96.76
334.999	97.36
335.227	100.56
335.455	102.56
335.684	100.56
335.912	99.56
336.14	100.96
336.369	96.96
336.597	95.76
336.825	97.96
337.053	99.96
337.281	105.36
337.51	95.76
337.738	99.76
337.966	98.16
338.194	101.56
338.422	104.56
338.65	97.56
338.878	98.96
339.106	102.76
339.334	100.36
339.562	100.16
339.79	94.96
340.018	98.16
340.246	91.96
340.474	92.76
340.702	96.96
340.93	100.56
341.158	100.16
341.386	97.16
341.614	101.16
341.842	94.96
342.07	92.56
342.298	94.56
342.526	98.16
342.754	100.96
342.981	92.96
343.209	93.76
343.437	111.76
343.665	100.36
343.893	99.96
344.12	105.36
344.348	100.96
344.576	98.36
344.804	98.76
345.031	94.56
345.259	90.56
345.487	109.56
345.714	97.16
345.942	99.16
346.17	96.36
346.397	97.76
346.625	96.36
346.853	94.56
347.08	91.76
347.308	98.96
347.535	102.56
347.763	95.16
347.99	106.96
348.218	101.36
348.445	94.36
348.673	100.56
348.9	96.76
349.128	102.76
349.355	92.96
349.583	94.76
349.81	94.76
350.037	104.76
350.265	103.16
350.492	98.16
350.72	100.76
350.947	97.76
351.174	97.36
351.402	99.76
351.629	106.16
351.856	104.16
352.083	106.16
352.311	96.76
352.538	90.76
352.765	96.16
352.992	113.36
353.22	97.56
353.447	105.56
353.674	97.16
353.901	98.16
354.128	101.16
354.355	106.16
354.583	100.76
354.81	100.36
355.037	101.76
355.264	104.36
355.491	101.96
355.718	101.56
355.945	104.56
356.172	101.96
356.399	102.96
356.626	106.16
356.853	114.56
357.08	133.56
357.307	149.16
357.534	153.76
357.761	130.96
357.988	122.56
358.215	108.16
358.441	108.76
358.668	102.36
358.895	108.76
359.122	110.76
359.349	107.96
359.576	98.76
359.802	105.76
360.029	101.36
360.256	109.16
360.483	98.36
360.709	99.76
360.936	105.96
361.163	105.96
361.39	99.16
361.616	101.56
361.843	99.96
362.07	104.16
362.296	100.96
362.523	96.16
362.749	106.56
362.976	97.76
363.203	115.36
363.429	115.96
363.656	136.76
363.882	154.76
364.109	172.16
364.335	143.96
364.562	122.36
364.788	109.76
365.015	103.36
365.241	105.36
365.468	103.96
365.694	107.16
365.92	113.16
366.147	105.56
366.373	103.96
366.599	104.76
366.826	113.36
367.052	108.96
367.278	121.76
367.505	118.76
367.731	125.96
367.957	144.16
368.184	168.16
368.41	202.96
368.636	185.36
368.862	140.56
369.089	123.76
369.315	117.16
369.541	106.36
369.767	114.16
369.993	105.56
370.219	113.36
370.445	103.96
370.672	99.16
370.898	101.76
371.124	101.76
371.35	103.96
371.576	108.16
371.802	107.36
372.028	105.36
372.254	100.56
372.48	99.96
372.706	105.36
372.932	100.16
373.158	104.76
373.384	113.16
373.61	113.36
373.835	139.96
374.061	164.56
374.287	151.16
374.513	126.36
374.739	112.76
374.965	105.16
375.191	103.56
375.416	99.76
375.642	106.76
375.868	109.16
376.094	98.76
376.319	103.56
376.545	105.16
376.771	100.36
376.997	101.16
377.222	98.16
377.448	104.56
377.674	101.96
377.899	101.36
378.125	102.76
378.35	100.36
378.576	102.76
378.802	106.36
379.027	101.56
379.253	105.56
379.478	102.76
379.704	101.96
379.929	108.96
380.155	99.96
380.38	102.56
380.606	105.36
380.831	96.76
381.057	106.96
381.282	98.76
381.507	96.36
381.733	103.56
381.958	99.56
382.184	108.56
382.409	96.96
382.634	97.96
382.86	103.96
383.085	100.96
383.31	99.76
383.535	111.56
383.761	103.96
383.986	101.56
384.211	100.36
384.436	102.76
384.662	100.56
384.887	102.76
385.112	99.36
385.337	100.96
385.562	103.96
385.787	101.96
386.013	106.76
386.238	99.76
386.463	103.56
386.688	108.56
386.913	101.56
387.138	104.36
387.363	99.96
387.588	105.56
387.813	107.16
388.038	99.76
388.263	97.76
388.488	97.96
388.713	102.56
388.938	106.16
389.163	97.16
389.387	101.16
389.612	103.16
389.837	104.36
390.062	104.36
390.287	106.56
390.512	104.56
390.736	100.16
390.961	97.16
391.186	100.16
391.411	99.96
391.636	102.96
391.86	110.16
392.085	104.36
392.31	105.96
392.534	104.16
392.759	100.36
392.984	95.56
393.208	99.56
393.433	104.76
393.658	98.16
393.882	103.16
394.107	98.56
394.331	100.36
394.556	100.76
394.78	106.76
395.005	98.56
395.229	104.36
395.454	103.36
395.678	101.96
395.903	109.76
396.127	106.96
396.352	99.76
396.576	97.96
396.801	92.56
397.025	97.56
397.249	95.56
397.474	99.56
397.698	108.96
397.922	97.96
398.147	107.16
398.371	98.16
398.595	105.56
398.82	104.56
399.044	106.36
399.268	107.56
399.492	107.36
399.717	111.76
399.941	102.36
400.165	110.56
400.389	99.96
400.613	103.36
400.837	105.96
401.062	107.36
401.286	113.36
401.51	102.76
401.734	112.56
401.958	114.36
402.182	108.96
402.406	104.76
402.63	106.16
402.854	104.16
403.078	107.76
403.302	110.76
403.526	112.76
403.75	110.56
403.974	111.16
404.198	110.16
404.422	116.16
404.645	115.96
404.869	118.96
405.093	129.16
405.317	143.76
405.541	187.56
405.765	257.96
405.988	278.56
406.212	212.16
406.436	168.56
406.66	147.36
406.883	130.16
407.107	126.96
407.331	123.96
407.555	125.76
407.778	116.76
408.002	113.56
408.226	117.96
408.449	108.36
408.673	109.56
408.896	112.96
409.12	108.76
409.344	114.76
409.567	112.56
409.791	106.96
410.014	116.16
410.238	114.96
410.461	109.56
410.685	111.56
410.908	108.56
411.132	109.56
411.355	100.96
411.578	112.76
411.802	103.96
412.025	111.96
412.249	108.36
412.472	105.36
412.695	104.36
412.919	106.56
413.142	104.36
413.365	108.16
413.589	105.56
413.812	105.16
414.035	112.56
414.258	107.56
414.482	105.56
414.705	100.96
414.928	108.56
415.151	102.96
415.374	98.56
415.597	104.56
415.821	106.16
416.044	104.16
416.267	109.16
416.49	107.36
416.713	110.16
416.936	108.76
417.159	106.96
417.382	107.96
417.605	103.36
417.828	105.76
418.051	106.76
418.274	109.16
418.497	102.76
418.72	111.96
418.943	105.16
419.166	103.76
419.389	115.16
419.611	107.56
419.834	108.16
420.057	104.96
420.28	109.76
420.503	111.76
420.726	109.16
420.948	107.36
421.171	107.16
421.394	107.96
421.617	108.56
421.839	112.56
422.062	112.16
422.285	104.36
422.507	108.56
422.73	110.76
422.953	118.56
423.175	117.56
423.398	115.96
423.621	125.16
423.843	121.36
424.066	136.36
424.288	143.16
424.511	156.36
424.733	175.16
424.956	163.76
425.178	143.56
425.401	138.36
425.623	131.56
425.846	128.36
426.068	121.36
426.291	121.16
426.513	124.96
426.735	115.56
426.958	121.96
427.18	115.96
427.402	114.56
427.625	112.76
427.847	113.76
428.069	113.96
428.292	114.96
428.514	106.76
428.736	106.96
428.958	101.16
429.181	107.56
429.403	110.76
429.625	120.56
429.847	105.16
430.069	109.96
430.292	112.16
430.514	116.36
430.736	105.16
430.958	111.76
431.18	113.76
431.402	108.96
431.624	106.56
431.846	110.16
432.068	106.16
432.29	108.36
432.512	111.36
432.734	104.56
432.956	112.16
433.178	112.56
433.4	114.56
433.622	115.76
433.844	118.76
434.066	114.56
434.287	104.76
434.509	103.16
434.731	113.36
434.953	104.96
435.175	109.96
435.397	111.96
435.618	104.56
435.84	108.76
436.062	109.96
436.284	111.96
436.505	111.96
436.727	111.56
436.949	111.16
437.17	120.76
437.392	109.96
437.614	114.36
437.835	114.76
438.057	119.56
438.278	129.56
438.5	137.56
438.721	155.16
438.943	164.96
439.165	160.16
439.386	149.96
439.608	143.96
439.829	144.56
440.05	133.16
440.272	132.96
440.493	132.56
440.715	131.16
440.936	134.36
441.158	135.96
441.379	128.56
441.6	129.16
441.822	128.76
442.043	119.16
442.264	122.76
442.486	116.16
442.707	117.56
442.928	122.16
443.149	119.96
443.371	115.96
443.592	112.16
443.813	114.96
444.034	121.56
444.255	118.56
444.476	111.16
444.698	116.76
444.919	121.76
445.14	185.56
445.361	145.36
445.582	123.96
445.803	114.36
446.024	113.16
446.245	108.36
446.466	108.56
446.687	115.96
446.908	115.56
447.129	113.16
447.35	109.96
447.571	114.56
447.792	105.76
448.013	110.36
448.234	104.16
448.455	106.76
448.675	115.36
448.896	111.96
449.117	108.76
449.338	113.76
449.559	112.56
449.779	107.56
450	105.56
450.221	103.16
450.442	110.36
450.662	104.76
450.883	107.96
451.104	104.36
451.324	103.56
451.545	112.36
451.766	105.16
451.986	106.96
452.207	109.76
452.428	108.96
452.648	111.36
452.869	107.36
453.089	107.56
453.31	105.96
453.53	102.56
453.751	100.16
453.971	105.76
454.192	93.56
454.412	102.36
454.633	104.96
454.853	107.76
455.073	109.96
455.294	107.96
455.514	102.36
455.734	99.56
455.955	105.56
456.175	104.36
456.395	108.16
456.616	101.36
456.836	106.76
457.056	105.96
457.276	101.16
457.497	98.36
457.717	104.36
457.937	98.56
458.157	100.16
458.377	98.96
458.598	95.36
458.818	100.76
459.038	103.56
459.258	104.96
459.478	104.16
459.698	101.76
459.918	101.56
460.138	101.36
460.358	109.96
460.578	108.36
460.798	97.36
461.018	110.96
461.238	110.96
461.458	103.16
461.678	106.56
461.898	110.36
462.118	105.96
462.338	110.56
462.558	107.56
462.777	105.16
462.997	112.56
463.217	115.76
463.437	108.76
463.657	105.96
463.876	103.56
464.096	99.76
464.316	102.56
464.536	107.56
464.755	107.56
464.975	109.76
465.195	110.16
465.414	103.76
465.634	108.36
465.854	105.56
466.073	100.96
466.293	100.96
466.512	111.96
466.732	113.36
466.951	106.36
467.171	103.76
467.391	102.16
467.61	104.36
467.829	96.56
468.049	111.76
468.268	103.16
468.488	110.16
468.707	95.16
468.927	111.36
469.146	108.16
469.365	108.36
469.585	102.76
469.804	109.16
470.023	101.96
470.243	107.96
470.462	106.76
470.681	107.36
470.901	106.76
471.12	106.76
471.339	110.76
471.558	109.96
471.777	105.76
471.997	110.36
472.216	110.56
472.435	105.16
472.654	102.16
472.873	111.76
473.092	107.16
473.311	109.56
473.53	112.16
473.749	110.76
473.968	109.16
474.187	107.16
474.406	107.36
474.625	109.96
474.844	110.16
475.063	108.96
475.282	105.16
475.501	105.56
475.72	110.16
475.939	106.96
476.158	101.56
476.377	106.36
476.596	113.36
476.814	111.96
477.033	107.16
477.252	101.56
477.471	113.96
477.69	110.96
477.908	114.76
478.127	112.16
478.346	109.56
478.564	112.16
478.783	114.56
479.002	116.76
479.22	115.36
479.439	115.16
479.658	111.76
479.876	110.76
480.095	105.36
480.313	112.96
480.532	107.96
480.751	112.36
480.969	107.76
481.188	108.36
481.406	113.76
481.624	108.36
481.843	102.76
482.061	108.36
482.28	112.36
482.498	110.16
482.717	114.36
482.935	112.96
483.153	114.16
483.372	107.76
483.59	107.76
483.808	106.96
484.027	105.96
484.245	115.56
484.463	109.16
484.681	124.36
484.9	113.16
485.118	111.36
485.336	108.56
485.554	108.76
485.772	111.76
485.99	110.16
486.209	103.16
486.427	106.96
486.645	111.36
486.863	103.16
487.081	114.36
487.299	112.16
487.517	116.56
487.735	115.76
487.953	124.16
488.171	117.96
488.389	117.36
488.607	107.16
488.825	108.36
489.043	112.76
489.261	115.76
489.479	106.96
489.696	115.56
489.914	112.76
490.132	112.96
490.35	111.16
490.568	112.96
490.786	116.56
491.003	113.16
491.221	114.96
491.439	117.36
491.657	110.16
491.874	115.16
492.092	120.76
492.31	121.36
492.527	118.16
492.745	113.56
492.963	116.36
493.18	121.56
493.398	121.76
493.615	113.76
493.833	120.76
494.05	116.96
494.268	115.36
494.485	116.76
494.703	111.36
494.92	115.96
495.138	115.76
495.355	116.96
495.573	123.76
495.79	119.76
496.008	118.96
496.225	114.76
496.442	117.96
496.66	112.96
496.877	115.76
497.094	110.36
497.312	123.16
497.529	119.76
497.746	116.16
497.963	121.76
498.181	120.56
498.398	114.76
498.615	125.96
498.832	122.16
499.049	121.56
499.267	123.56
499.484	126.56
499.701	127.56
499.918	126.56
500.135	129.76
500.352	135.16
500.569	144.16
500.786	163.36
501.003	138.96
501.22	132.36
501.437	129.36
501.654	132.56
501.871	125.16
502.088	118.36
502.305	127.36
502.522	117.56
502.739	121.96
502.956	120.56
503.172	123.96
503.389	127.76
503.606	125.36
503.823	126.96
504.04	127.16
504.256	120.96
504.473	124.36
504.69	127.76
504.907	123.96
505.123	124.36
505.34	125.16
505.557	123.16
505.773	119.56
505.99	119.16
506.207	114.36
506.423	115.76
506.64	122.16
506.856	121.16
507.073	120.76
507.289	115.96
507.506	115.96
507.722	112.96
507.939	120.36
508.155	115.76
508.372	113.36
508.588	102.76
508.805	112.16
