Data from TenMicroDelayPb_HRD10591_00015.txt Node
Date: Mon Nov 24 14:27:36 EST 2025
User: Yrep
Spectrometer: HR+D1059
Trigger mode: 0
Integration Time (sec): 1.000000E-1
Scans to average: 5
Electric dark correction enabled: true
Nonlinearity correction enabled: false
Boxcar width: 0
XAxis mode: Wavelengths
Number of Pixels in Spectrum: 2048
>>>>>Begin Spectral Data<<<<<
223.165	-19.1
223.4	-19.1
223.635	-19.1
223.869	-14.9
224.104	-18.1
224.338	-18.7
224.573	-15.3
224.808	-5.3
225.042	-4.3
225.277	-9.1
225.511	-6.3
225.746	5.3
225.98	10.1
226.215	8.5
226.449	10.9
226.683	21.3
226.918	23.7
227.152	31.3
227.387	34.3
227.621	36.7
227.856	44.7
228.09	44.7
228.324	51.5
228.559	55.1
228.793	68.3
229.027	64.1
229.262	70.7
229.496	70.9
229.73	73.1
229.964	79.5
230.199	72.7
230.433	72.7
230.667	82.1
230.901	74.7
231.136	82.1
231.37	79.3
231.604	83.3
231.838	83.1
232.072	85.1
232.306	82.3
232.541	83.3
232.775	83.3
233.009	86.9
233.243	78.9
233.477	86.3
233.711	81.3
233.945	84.3
234.179	81.9
234.413	81.9
234.647	81.3
234.881	81.7
235.115	81.1
235.349	76.1
235.583	86.1
235.817	81.7
236.051	79.3
236.285	81.7
236.519	83.5
236.753	85.5
236.987	83.9
237.221	80.7
237.455	82.1
237.689	85.1
237.922	76.7
238.156	85.1
238.39	84.1
238.624	80.9
238.858	81.5
239.091	79.3
239.325	80.7
239.559	80.9
239.793	82.7
240.027	80.9
240.26	85.1
240.494	87.3
240.728	86.3
240.961	78.5
241.195	83.3
241.429	75.7
241.662	76.7
241.896	84.7
242.13	80.1
242.363	80.5
242.597	81.7
242.83	84.3
243.064	77.9
243.298	82.3
243.531	87.1
243.765	81.5
243.998	86.3
244.232	76.3
244.465	86.1
244.699	83.5
244.932	83.3
245.166	87.3
245.399	82.3
245.633	82.5
245.866	79.5
246.099	80.5
246.333	82.3
246.566	80.3
246.8	75.3
247.033	82.3
247.266	84.3
247.5	81.3
247.733	88.3
247.966	86.5
248.2	88.7
248.433	80.3
248.666	83.3
248.899	86.5
249.133	82.7
249.366	89.5
249.599	84.7
249.832	85.3
250.066	88.1
250.299	91.5
250.532	91.5
250.765	90.5
250.998	85.3
251.231	82.5
251.465	92.9
251.698	82.1
251.931	85.7
252.164	88.3
252.397	78.3
252.63	87.9
252.863	89.3
253.096	86.5
253.329	89.9
253.562	96.1
253.795	91.9
254.028	85.1
254.261	94.1
254.494	88.5
254.727	98.3
254.96	86.1
255.193	90.1
255.426	89.9
255.659	86.9
255.892	89.7
256.124	87.7
256.357	90.5
256.59	91.9
256.823	87.5
257.056	89.3
257.289	91.7
257.521	94.5
257.754	98.3
257.987	88.5
258.22	98.9
258.452	98.1
258.685	91.3
258.918	93.3
259.151	84.5
259.383	98.3
259.616	95.9
259.849	95.9
260.081	97.3
260.314	99.5
260.547	97.3
260.779	96.9
261.012	98.9
261.244	108.5
261.477	118.1
261.71	120.7
261.942	104.3
262.175	100.9
262.407	92.9
262.64	102.3
262.872	98.7
263.105	90.9
263.337	91.5
263.57	91.3
263.802	90.9
264.035	89.9
264.267	89.7
264.499	93.9
264.732	99.5
264.964	101.3
265.197	96.5
265.429	102.3
265.661	93.3
265.894	93.3
266.126	102.1
266.358	107.1
266.591	108.9
266.823	102.5
267.055	95.1
267.287	96.1
267.52	96.5
267.752	97.7
267.984	92.3
268.216	84.3
268.448	86.5
268.681	91.1
268.913	82.3
269.145	87.1
269.377	96.1
269.609	87.3
269.841	92.9
270.073	93.3
270.306	90.1
270.538	94.1
270.77	85.1
271.002	93.3
271.234	92.9
271.466	93.5
271.698	95.5
271.93	92.7
272.162	85.9
272.394	94.7
272.626	92.7
272.858	86.1
273.09	84.5
273.322	92.1
273.553	92.1
273.785	86.3
274.017	92.5
274.249	93.9
274.481	89.7
274.713	90.5
274.945	99.3
275.176	93.3
275.408	97.3
275.64	95.9
275.872	87.7
276.104	95.5
276.335	90.7
276.567	91.1
276.799	94.9
277.031	95.7
277.262	90.9
277.494	94.9
277.726	90.5
277.957	105.7
278.189	99.3
278.421	96.5
278.652	93.3
278.884	94.5
279.115	107.5
279.347	98.5
279.579	105.3
279.81	120.1
280.042	134.7
280.273	144.7
280.505	134.3
280.736	113.5
280.968	104.9
281.199	97.5
281.431	97.5
281.662	106.1
281.894	101.9
282.125	106.5
282.356	109.3
282.588	110.9
282.819	106.3
283.051	114.7
283.282	117.9
283.513	127.3
283.745	115.3
283.976	109.1
284.207	108.7
284.439	102.3
284.67	102.1
284.901	99.5
285.132	96.5
285.364	95.7
285.595	99.3
285.826	97.7
286.057	98.3
286.288	98.5
286.52	102.5
286.751	101.1
286.982	102.7
287.213	117.7
287.444	115.1
287.675	115.9
287.906	102.7
288.138	105.1
288.369	102.5
288.6	98.7
288.831	99.9
289.062	94.3
289.293	94.5
289.524	95.9
289.755	97.1
289.986	97.1
290.217	103.9
290.448	98.1
290.679	102.3
290.91	95.9
291.141	90.3
291.371	100.9
291.602	93.5
291.833	93.5
292.064	91.9
292.295	96.9
292.526	105.3
292.757	99.3
292.987	101.1
293.218	93.5
293.449	100.1
293.68	100.1
293.91	101.9
294.141	90.3
294.372	91.7
294.603	97.7
294.833	95.7
295.064	102.1
295.295	92.9
295.525	92.9
295.756	99.7
295.987	99.1
296.217	97.7
296.448	99.5
296.679	98.5
296.909	98.3
297.14	101.9
297.37	98.1
297.601	98.7
297.831	95.5
298.062	94.7
298.292	93.3
298.523	101.9
298.753	93.7
298.984	103.3
299.214	98.3
299.445	97.5
299.675	97.9
299.905	100.3
300.136	94.1
300.366	97.3
300.597	99.9
300.827	101.9
301.057	98.5
301.288	98.1
301.518	95.7
301.748	94.3
301.979	110.3
302.209	99.3
302.439	101.1
302.669	98.1
302.9	94.5
303.13	100.1
303.36	93.1
303.59	98.7
303.82	100.7
304.051	95.1
304.281	101.7
304.511	104.9
304.741	104.3
304.971	102.1
305.201	97.7
305.431	104.3
305.661	102.7
305.891	98.5
306.121	101.1
306.352	101.7
306.582	96.9
306.812	96.1
307.042	96.7
307.272	97.3
307.502	96.1
307.731	99.7
307.961	95.3
308.191	101.3
308.421	98.3
308.651	102.1
308.881	98.7
309.111	105.7
309.341	97.1
309.571	96.9
309.8	95.5
310.03	98.1
310.26	100.1
310.49	106.7
310.72	104.9
310.949	103.1
311.179	103.3
311.409	104.1
311.639	101.5
311.868	108.3
312.098	103.9
312.328	106.5
312.557	103.1
312.787	98.7
313.017	99.7
313.246	101.7
313.476	101.5
313.706	101.9
313.935	99.3
314.165	102.7
314.394	104.7
314.624	104.9
314.853	112.1
315.083	105.3
315.312	106.5
315.542	106.7
315.771	96.5
316.001	104.9
316.23	107.3
316.46	98.3
316.689	102.1
316.919	101.9
317.148	103.1
317.377	104.9
317.607	108.7
317.836	101.7
318.065	102.9
318.295	105.9
318.524	101.3
318.753	98.7
318.983	104.1
319.212	104.5
319.441	100.9
319.67	104.1
319.9	100.7
320.129	101.5
320.358	100.3
320.587	109.5
320.816	97.9
321.046	93.1
321.275	98.9
321.504	101.5
321.733	104.7
321.962	101.3
322.191	104.5
322.42	94.7
322.649	99.3
322.878	105.7
323.108	101.1
323.337	104.3
323.566	105.3
323.795	98.1
324.024	101.5
324.253	102.5
324.482	101.7
324.71	98.5
324.939	104.1
325.168	101.3
325.397	103.1
325.626	104.5
325.855	102.1
326.084	97.7
326.313	104.3
326.542	99.7
326.77	102.3
326.999	99.1
327.228	111.9
327.457	96.7
327.686	100.1
327.914	99.1
328.143	97.3
328.372	100.5
328.6	95.7
328.829	105.1
329.058	102.9
329.287	102.7
329.515	106.7
329.744	101.1
329.972	98.7
330.201	94.9
330.43	101.1
330.658	99.1
330.887	95.9
331.115	101.1
331.344	101.1
331.572	109.7
331.801	98.3
332.03	100.7
332.258	102.7
332.486	104.9
332.715	101.7
332.943	102.5
333.172	100.9
333.4	97.9
333.629	100.7
333.857	100.1
334.085	99.9
334.314	100.7
334.542	97.3
334.771	106.1
334.999	96.7
335.227	101.3
335.455	104.5
335.684	107.7
335.912	104.9
336.14	102.7
336.369	95.7
336.597	102.5
336.825	101.5
337.053	99.5
337.281	104.7
337.51	98.1
337.738	111.1
337.966	98.5
338.194	101.1
338.422	101.5
338.65	101.3
338.878	100.1
339.106	102.9
339.334	97.5
339.562	101.5
339.79	103.3
340.018	105.7
340.246	101.1
340.474	97.9
340.702	100.5
340.93	103.7
341.158	96.3
341.386	105.5
341.614	96.5
341.842	99.7
342.07	98.1
342.298	99.1
342.526	101.1
342.754	98.7
342.981	101.9
343.209	99.9
343.437	112.3
343.665	105.5
343.893	102.9
344.12	111.3
344.348	102.9
344.576	101.5
344.804	101.9
345.031	106.7
345.259	97.9
345.487	106.1
345.714	101.9
345.942	101.1
346.17	102.1
346.397	107.3
346.625	106.7
346.853	104.1
347.08	99.5
347.308	98.3
347.535	97.9
347.763	99.7
347.99	97.3
348.218	103.7
348.445	97.7
348.673	95.9
348.9	96.5
349.128	104.7
349.355	97.9
349.583	93.7
349.81	97.3
350.037	103.9
350.265	96.1
350.492	94.9
350.72	94.7
350.947	107.3
351.174	102.1
351.402	100.5
351.629	99.7
351.856	103.9
352.083	97.7
352.311	99.3
352.538	98.5
352.765	97.3
352.992	104.7
353.22	107.1
353.447	97.5
353.674	107.5
353.901	102.7
354.128	101.5
354.355	100.7
354.583	98.7
354.81	101.1
355.037	101.5
355.264	102.7
355.491	105.5
355.718	94.3
355.945	104.9
356.172	108.9
356.399	110.9
356.626	109.1
356.853	119.3
357.08	135.1
357.307	148.5
357.534	152.3
357.761	134.7
357.988	117.9
358.215	119.1
358.441	106.1
358.668	114.7
358.895	113.3
359.122	110.7
359.349	100.9
359.576	105.5
359.802	102.7
360.029	98.9
360.256	108.9
360.483	103.5
360.709	102.7
360.936	106.5
361.163	103.5
361.39	105.9
361.616	103.1
361.843	94.5
362.07	103.3
362.296	100.9
362.523	100.9
362.749	97.3
362.976	106.3
363.203	118.1
363.429	117.7
363.656	132.7
363.882	155.5
364.109	174.5
364.335	136.3
364.562	121.1
364.788	108.7
365.015	108.1
365.241	107.9
365.468	107.9
365.694	110.9
365.92	105.5
366.147	105.7
366.373	102.7
366.599	119.5
366.826	111.9
367.052	120.7
367.278	122.7
367.505	122.3
367.731	119.9
367.957	136.7
368.184	166.1
368.41	201.9
368.636	185.5
368.862	141.1
369.089	126.5
369.315	118.7
369.541	117.5
369.767	109.1
369.993	109.3
370.219	108.3
370.445	107.9
370.672	105.7
370.898	101.3
371.124	101.1
371.35	106.3
371.576	102.7
371.802	103.5
372.028	96.7
372.254	102.5
372.48	106.5
372.706	98.9
372.932	109.7
373.158	111.3
373.384	119.3
373.61	121.5
373.835	140.7
374.061	157.1
374.287	146.9
374.513	130.7
374.739	118.3
374.965	113.7
375.191	113.3
375.416	108.7
375.642	104.7
375.868	111.7
376.094	103.7
376.319	105.5
376.545	97.5
376.771	99.1
376.997	106.9
377.222	104.1
377.448	108.5
377.674	101.9
377.899	103.9
378.125	99.1
378.35	101.7
378.576	98.3
378.802	91.9
379.027	99.5
379.253	101.7
379.478	101.9
379.704	103.9
379.929	100.1
380.155	99.9
380.38	103.5
380.606	95.5
380.831	106.5
381.057	104.9
381.282	107.9
381.507	104.1
381.733	101.9
381.958	112.7
382.184	100.5
382.409	97.1
382.634	94.7
382.86	98.5
383.085	104.3
383.31	105.5
383.535	102.9
383.761	100.3
383.986	109.3
384.211	101.5
384.436	105.7
384.662	105.7
384.887	100.7
385.112	99.7
385.337	108.3
385.562	101.1
385.787	105.9
386.013	107.1
386.238	108.3
386.463	100.5
386.688	108.7
386.913	95.9
387.138	100.5
387.363	102.1
387.588	103.9
387.813	99.1
388.038	101.3
388.263	110.3
388.488	98.1
388.713	98.5
388.938	107.3
389.163	96.3
389.387	100.7
389.612	106.1
389.837	102.3
390.062	100.3
390.287	102.7
390.512	105.1
390.736	102.9
390.961	99.5
391.186	101.3
391.411	100.5
391.636	99.3
391.86	101.7
392.085	99.9
392.31	103.7
392.534	107.1
392.759	106.9
392.984	101.5
393.208	98.5
393.433	105.7
393.658	99.1
393.882	108.1
394.107	101.3
394.331	105.5
394.556	99.9
394.78	104.5
395.005	104.9
395.229	102.3
395.454	101.1
395.678	100.9
395.903	107.9
396.127	99.5
396.352	106.9
396.576	102.9
396.801	100.1
397.025	99.1
397.249	102.9
397.474	100.5
397.698	102.7
397.922	102.5
398.147	98.5
398.371	100.3
398.595	108.1
398.82	101.3
399.044	106.3
399.268	111.3
399.492	111.5
399.717	110.5
399.941	110.5
400.165	105.9
400.389	109.3
400.613	104.9
400.837	106.5
401.062	111.7
401.286	109.7
401.51	113.1
401.734	108.3
401.958	118.9
402.182	114.5
402.406	113.9
402.63	112.5
402.854	111.7
403.078	115.1
403.302	107.3
403.526	113.3
403.75	114.5
403.974	110.9
404.198	118.5
404.422	113.3
404.645	115.9
404.869	122.5
405.093	123.5
405.317	147.9
405.541	178.7
405.765	250.7
405.988	278.5
406.212	209.5
406.436	173.9
406.66	139.1
406.883	127.9
407.107	126.5
407.331	129.7
407.555	120.3
407.778	119.1
408.002	118.1
408.226	114.1
408.449	114.1
408.673	109.3
408.896	118.1
409.12	107.1
409.344	109.5
409.567	112.1
409.791	100.9
410.014	109.9
410.238	103.1
410.461	110.9
410.685	108.5
410.908	111.7
411.132	108.7
411.355	106.9
411.578	112.7
411.802	110.7
412.025	107.5
412.249	106.5
412.472	105.9
412.695	106.9
412.919	108.1
413.142	112.7
413.365	108.9
413.589	110.1
413.812	108.3
414.035	109.3
414.258	109.7
414.482	105.1
414.705	107.9
414.928	111.5
415.151	101.7
415.374	104.1
415.597	106.7
415.821	108.9
416.044	113.5
416.267	113.1
416.49	110.9
416.713	112.3
416.936	113.1
417.159	110.5
417.382	108.7
417.605	107.7
417.828	111.3
418.051	113.1
418.274	105.9
418.497	106.5
418.72	110.3
418.943	109.1
419.166	108.5
419.389	106.1
419.611	107.1
419.834	115.1
420.057	109.9
420.28	108.1
420.503	108.3
420.726	108.9
420.948	101.9
421.171	104.1
421.394	107.3
421.617	109.7
421.839	117.3
422.062	108.9
422.285	116.7
422.507	117.3
422.73	115.7
422.953	117.7
423.175	114.7
423.398	124.5
423.621	126.7
423.843	126.3
424.066	135.3
424.288	148.5
424.511	161.9
424.733	172.1
424.956	154.3
425.178	150.7
425.401	148.3
425.623	132.9
425.846	126.9
426.068	121.1
426.291	123.9
426.513	129.9
426.735	122.3
426.958	122.3
427.18	114.1
427.402	116.5
427.625	119.7
427.847	112.3
428.069	114.1
428.292	114.9
428.514	111.3
428.736	103.1
428.958	110.9
429.181	115.5
429.403	111.5
429.625	117.7
429.847	108.3
430.069	109.7
430.292	116.1
430.514	117.5
430.736	107.7
430.958	108.1
431.18	109.9
431.402	104.5
431.624	105.3
431.846	107.9
432.068	103.9
432.29	105.3
432.512	107.7
432.734	116.1
432.956	110.9
433.178	109.7
433.4	115.9
433.622	112.3
433.844	112.7
434.066	112.1
434.287	115.5
434.509	118.1
434.731	110.3
434.953	111.5
435.175	110.5
435.397	113.9
435.618	108.9
435.84	111.7
436.062	110.7
436.284	116.9
436.505	113.5
436.727	110.5
436.949	113.9
437.17	109.3
437.392	120.3
437.614	114.3
437.835	118.7
438.057	119.9
438.278	128.9
438.5	143.9
438.721	154.7
438.943	162.5
439.165	148.7
439.386	139.3
439.608	137.1
439.829	139.7
440.05	142.9
440.272	137.5
440.493	129.7
440.715	138.5
440.936	139.9
441.158	144.5
441.379	130.7
441.6	128.1
441.822	120.3
442.043	117.5
442.264	119.3
442.486	114.5
442.707	119.5
442.928	116.5
443.149	118.7
443.371	115.1
443.592	118.5
443.813	116.7
444.034	118.5
444.255	118.9
444.476	113.1
444.698	117.1
444.919	115.3
445.14	191.9
445.361	150.5
445.582	117.1
445.803	114.1
446.024	112.1
446.245	114.3
446.466	112.9
446.687	109.5
446.908	114.3
447.129	113.5
447.35	110.1
447.571	110.7
447.792	111.1
448.013	111.7
448.234	110.5
448.455	113.7
448.675	104.1
448.896	110.5
449.117	107.5
449.338	119.5
449.559	110.5
449.779	113.3
450	114.3
450.221	104.3
450.442	114.1
450.662	117.5
450.883	113.7
451.104	117.1
451.324	109.9
451.545	110.9
451.766	107.9
451.986	111.9
452.207	108.3
452.428	105.1
452.648	104.3
452.869	104.7
453.089	108.3
453.31	109.3
453.53	109.1
453.751	109.3
453.971	104.1
454.192	104.7
454.412	108.7
454.633	110.3
454.853	108.3
455.073	106.3
455.294	101.7
455.514	105.1
455.734	101.7
455.955	106.9
456.175	109.1
456.395	105.7
456.616	109.1
456.836	105.5
457.056	104.9
457.276	104.1
457.497	103.9
457.717	103.5
457.937	103.5
458.157	106.9
458.377	98.5
458.598	100.3
458.818	106.7
459.038	98.3
459.258	107.3
459.478	104.5
459.698	100.9
459.918	98.1
460.138	109.5
460.358	105.5
460.578	105.3
460.798	101.7
461.018	103.5
461.238	106.9
461.458	108.3
461.678	115.5
461.898	111.9
462.118	111.7
462.338	107.1
462.558	114.9
462.777	109.9
462.997	107.9
463.217	108.7
463.437	110.3
463.657	112.3
463.876	108.9
464.096	104.9
464.316	110.1
464.536	109.9
464.755	105.5
464.975	113.1
465.195	109.9
465.414	108.3
465.634	111.1
465.854	109.3
466.073	106.1
466.293	109.9
466.512	108.3
466.732	110.7
466.951	107.5
467.171	109.1
467.391	104.9
467.61	114.3
467.829	103.3
468.049	106.3
468.268	103.9
468.488	109.9
468.707	102.3
468.927	107.7
469.146	108.1
469.365	104.1
469.585	109.3
469.804	105.7
470.023	108.5
470.243	110.9
470.462	107.7
470.681	109.9
470.901	107.7
471.12	109.1
471.339	104.7
471.558	110.7
471.777	102.7
471.997	105.1
472.216	111.9
472.435	109.3
472.654	102.5
472.873	104.3
473.092	101.3
473.311	108.3
473.53	106.3
473.749	109.1
473.968	102.5
474.187	107.5
474.406	107.7
474.625	104.3
474.844	111.1
475.063	105.9
475.282	114.7
475.501	107.1
475.72	109.7
475.939	100.9
476.158	109.1
476.377	102.9
476.596	103.1
476.814	107.1
477.033	103.1
477.252	106.1
477.471	107.1
477.69	107.7
477.908	114.1
478.127	112.9
478.346	114.7
478.564	110.9
478.783	113.7
479.002	114.1
479.22	109.5
479.439	113.5
479.658	114.3
479.876	114.9
480.095	116.5
480.313	111.9
480.532	109.9
480.751	111.9
480.969	105.5
481.188	113.3
481.406	104.3
481.624	108.7
481.843	108.1
482.061	112.1
482.28	105.3
482.498	108.5
482.717	109.1
482.935	114.9
483.153	117.7
483.372	118.7
483.59	112.5
483.808	112.5
484.027	112.3
484.245	116.3
484.463	108.5
484.681	115.9
484.9	109.1
485.118	115.9
485.336	112.5
485.554	110.1
485.772	113.3
485.99	109.9
486.209	106.9
486.427	111.5
486.645	114.1
486.863	111.7
487.081	114.3
487.299	112.3
487.517	115.7
487.735	114.3
487.953	118.5
488.171	121.5
488.389	118.7
488.607	112.9
488.825	114.5
489.043	107.3
489.261	116.7
489.479	119.1
489.696	115.7
489.914	117.1
490.132	116.5
490.35	118.5
490.568	115.7
490.786	115.7
491.003	114.7
491.221	113.3
491.439	111.1
491.657	119.7
491.874	123.5
492.092	115.3
492.31	125.1
492.527	118.3
492.745	120.5
492.963	123.5
493.18	116.5
493.398	120.9
493.615	117.7
493.833	117.7
494.05	119.1
494.268	112.9
494.485	120.9
494.703	112.9
494.92	117.7
495.138	120.1
495.355	126.1
495.573	122.5
495.79	123.3
496.008	121.1
496.225	116.9
496.442	121.3
496.66	117.3
496.877	124.9
497.094	120.9
497.312	120.9
497.529	122.1
497.746	117.7
497.963	118.1
498.181	121.7
498.398	126.7
498.615	123.7
498.832	119.1
499.049	122.9
499.267	131.1
499.484	123.5
499.701	129.3
499.918	131.9
500.135	134.5
500.352	133.1
500.569	141.9
500.786	152.9
501.003	146.5
501.22	140.9
501.437	126.1
501.654	135.1
501.871	128.7
502.088	127.1
502.305	129.7
502.522	125.3
502.739	122.5
502.956	122.7
503.172	120.1
503.389	125.5
503.606	124.7
503.823	117.7
504.04	130.1
504.256	126.3
504.473	132.5
504.69	129.7
504.907	132.9
505.123	124.5
505.34	119.7
505.557	118.9
505.773	123.7
505.99	120.9
506.207	126.1
506.423	122.1
506.64	118.3
506.856	115.5
507.073	111.1
507.289	119.3
507.506	116.9
507.722	115.7
507.939	112.7
508.155	114.9
508.372	122.5
508.588	120.5
508.805	117.9
509.021	114.5
509.238	114.7
509.454	108.9
509.67	108.7
509.887	111.3
510.103	111.9
510.319	112.9
510.536	110.9
510.752	105.7
510.968	106.5
511.184	113.9
511.401	117.1
511.617	110.1
511.833	112.9
512.049	109.1
512.265	108.7
512.481	107.9
512.698	113.3
512.914	108.3
513.13	113.1
513.346	111.9
513.562	104.7
513.778	115.3
513.994	115.3
514.21	114.1
514.426	114.3
514.642	109.7
514.858	108.1
515.074	110.3
515.29	117.9
515.506	113.9
515.721	117.7
515.937	118.5
516.153	119.3
516.369	111.1
516.585	112.3
516.801	119.1
517.016	116.3
517.232	113.5
517.448	111.3
517.664	110.5
517.879	109.5
518.095	108.5
518.311	111.7
518.527	112.5
518.742	110.5
518.958	112.3
519.173	119.5
519.389	115.1
519.605	115.1
519.82	106.9
520.036	107.1
520.251	116.9
520.467	104.9
520.682	109.1
520.898	110.9
521.113	105.9
521.329	107.9
521.544	107.1
521.76	113.7
521.975	115.1
522.19	111.3
522.406	109.7
522.621	114.9
522.836	116.1
523.052	118.9
523.267	117.3
523.482	111.9
523.698	114.3
523.913	105.7
524.128	110.5
524.343	111.9
524.559	111.7
524.774	111.7
524.989	109.9
525.204	111.1
525.419	106.5
525.634	105.7
525.849	104.9
526.064	110.5
