Data from TenMicroDelayPb_HRD10591_00010.txt Node
Date: Mon Nov 24 14:27:33 EST 2025
User: Yrep
Spectrometer: HR+D1059
Trigger mode: 0
Integration Time (sec): 1.000000E-1
Scans to average: 5
Electric dark correction enabled: true
Nonlinearity correction enabled: false
Boxcar width: 0
XAxis mode: Wavelengths
Number of Pixels in Spectrum: 2048
>>>>>Begin Spectral Data<<<<<
223.165	-16.61
223.4	-16.61
223.635	-16.61
223.869	-15.41
224.104	-20.81
224.338	-11.81
224.573	-11.01
224.808	-9.81
225.042	-13.41
225.277	-10.61
225.511	-2.61
225.746	-0.21
225.98	5.59
226.215	13.99
226.449	14.99
226.683	21.59
226.918	27.59
227.152	28.59
227.387	34.39
227.621	41.39
227.856	47.99
228.09	46.99
228.324	50.19
228.559	57.79
228.793	65.39
229.027	69.99
229.262	63.99
229.496	68.99
229.73	72.79
229.964	72.59
230.199	77.59
230.433	80.79
230.667	79.59
230.901	86.79
231.136	81.39
231.37	77.19
231.604	86.39
231.838	83.59
232.072	84.79
232.306	83.39
232.541	78.39
232.775	84.79
233.009	82.59
233.243	85.79
233.477	83.59
233.711	87.79
233.945	80.59
234.179	82.59
234.413	82.79
234.647	80.59
234.881	85.59
235.115	86.39
235.349	77.59
235.583	83.59
235.817	82.19
236.051	86.59
236.285	75.19
236.519	77.99
236.753	82.79
236.987	81.19
237.221	78.99
237.455	86.79
237.689	83.39
237.922	76.19
238.156	79.19
238.39	76.99
238.624	79.79
238.858	77.79
239.091	84.79
239.325	78.19
239.559	82.79
239.793	81.79
240.027	84.19
240.26	84.99
240.494	87.59
240.728	81.19
240.961	79.79
241.195	81.79
241.429	78.99
241.662	86.59
241.896	74.19
242.13	79.19
242.363	75.59
242.597	75.59
242.83	85.79
243.064	83.39
243.298	85.79
243.531	80.39
243.765	81.79
243.998	83.39
244.232	83.99
244.465	81.79
244.699	84.79
244.932	86.19
245.166	85.39
245.399	85.19
245.633	83.79
245.866	83.79
246.099	85.39
246.333	82.39
246.566	79.39
246.8	83.99
247.033	75.19
247.266	82.59
247.5	78.19
247.733	80.39
247.966	94.19
248.2	89.59
248.433	89.39
248.666	89.19
248.899	86.39
249.133	88.39
249.366	91.79
249.599	85.79
249.832	79.99
250.066	77.79
250.299	85.79
250.532	88.79
250.765	85.59
250.998	83.59
251.231	83.39
251.465	90.79
251.698	83.59
251.931	87.79
252.164	89.39
252.397	83.59
252.63	89.79
252.863	83.59
253.096	88.59
253.329	92.39
253.562	84.19
253.795	90.79
254.028	97.99
254.261	86.99
254.494	87.79
254.727	92.99
254.96	82.99
255.193	91.39
255.426	88.59
255.659	87.79
255.892	92.19
256.124	88.99
256.357	89.19
256.59	88.79
256.823	85.99
257.056	88.99
257.289	89.19
257.521	92.19
257.754	92.59
257.987	93.99
258.22	97.79
258.452	93.39
258.685	94.79
258.918	92.39
259.151	96.59
259.383	89.59
259.616	90.59
259.849	94.39
260.081	93.99
260.314	86.39
260.547	90.99
260.779	95.19
261.012	95.39
261.244	102.59
261.477	119.99
261.71	113.39
261.942	101.39
262.175	98.39
262.407	95.59
262.64	95.19
262.872	97.79
263.105	91.39
263.337	88.99
263.57	94.79
263.802	97.39
264.035	93.79
264.267	91.19
264.499	99.19
264.732	96.19
264.964	102.59
265.197	103.19
265.429	97.39
265.661	94.99
265.894	95.19
266.126	99.79
266.358	101.99
266.591	102.59
266.823	98.99
267.055	92.99
267.287	90.79
267.52	96.79
267.752	85.19
267.984	95.99
268.216	90.99
268.448	88.19
268.681	92.19
268.913	90.59
269.145	89.99
269.377	91.59
269.609	89.39
269.841	96.39
270.073	92.39
270.306	92.39
270.538	93.79
270.77	89.19
271.002	85.59
271.234	93.79
271.466	92.79
271.698	91.39
271.93	93.59
272.162	92.19
272.394	91.99
272.626	96.99
272.858	88.99
273.09	88.39
273.322	94.59
273.553	90.39
273.785	89.39
274.017	90.59
274.249	93.59
274.481	94.39
274.713	92.39
274.945	91.39
275.176	97.99
275.408	99.39
275.64	91.59
275.872	94.59
276.104	91.99
276.335	92.39
276.567	96.99
276.799	98.39
277.031	90.39
277.262	97.99
277.494	97.19
277.726	93.79
277.957	92.39
278.189	97.99
278.421	103.59
278.652	105.39
278.884	97.99
279.115	103.39
279.347	107.19
279.579	112.99
279.81	113.19
280.042	123.39
280.273	141.99
280.505	131.59
280.736	121.39
280.968	112.39
281.199	108.59
281.431	99.39
281.662	108.39
281.894	107.19
282.125	104.19
282.356	110.99
282.588	109.19
282.819	105.99
283.051	112.59
283.282	115.19
283.513	120.99
283.745	119.59
283.976	107.39
284.207	96.99
284.439	97.99
284.67	101.39
284.901	96.79
285.132	96.39
285.364	103.39
285.595	100.39
285.826	88.19
286.057	99.79
286.288	97.39
286.52	102.79
286.751	103.39
286.982	105.99
287.213	112.59
287.444	122.19
287.675	117.79
287.906	101.39
288.138	101.79
288.369	101.79
288.6	97.79
288.831	95.79
289.062	98.59
289.293	97.39
289.524	92.79
289.755	98.39
289.986	92.59
290.217	94.19
290.448	102.39
290.679	96.19
290.91	94.19
291.141	98.19
291.371	95.19
291.602	91.79
291.833	94.79
292.064	96.99
292.295	97.39
292.526	97.79
292.757	100.59
292.987	100.39
293.218	90.99
293.449	95.59
293.68	94.99
293.91	92.59
294.141	98.39
294.372	95.39
294.603	98.39
294.833	98.39
295.064	92.79
295.295	99.39
295.525	99.39
295.756	94.19
295.987	90.79
296.217	96.99
296.448	102.99
296.679	95.79
296.909	102.59
297.14	105.99
297.37	97.19
297.601	99.79
297.831	88.99
298.062	98.19
298.292	102.79
298.523	94.79
298.753	94.19
298.984	100.79
299.214	98.19
299.445	98.59
299.675	98.99
299.905	93.59
300.136	91.59
300.366	91.39
300.597	102.99
300.827	98.79
301.057	90.59
301.288	95.19
301.518	99.39
301.748	100.79
301.979	104.99
302.209	94.19
302.439	98.39
302.669	99.79
302.9	101.99
303.13	99.99
303.36	103.59
303.59	98.99
303.82	96.99
304.051	101.39
304.281	100.59
304.511	102.39
304.741	101.59
304.971	99.79
305.201	106.59
305.431	93.99
305.661	98.19
305.891	91.99
306.121	99.19
306.352	95.19
306.582	102.39
306.812	93.59
307.042	102.39
307.272	99.19
307.502	96.39
307.731	95.19
307.961	99.99
308.191	94.39
308.421	90.39
308.651	102.99
308.881	100.59
309.111	92.39
309.341	89.59
309.571	102.59
309.8	101.59
310.03	90.59
310.26	98.59
310.49	94.99
310.72	100.59
310.949	95.19
311.179	96.79
311.409	102.39
311.639	105.59
311.868	99.79
312.098	103.19
312.328	99.59
312.557	99.79
312.787	97.39
313.017	104.59
313.246	97.79
313.476	102.99
313.706	104.59
313.935	106.79
314.165	100.99
314.394	99.39
314.624	103.19
314.853	103.59
315.083	104.99
315.312	102.39
315.542	102.19
315.771	104.99
316.001	96.19
316.23	100.79
316.46	104.59
316.689	96.19
316.919	96.79
317.148	101.59
317.377	106.99
317.607	100.59
317.836	107.99
318.065	101.19
318.295	99.59
318.524	104.39
318.753	95.59
318.983	106.19
319.212	107.19
319.441	96.39
319.67	104.19
319.9	102.19
320.129	98.99
320.358	97.39
320.587	98.99
320.816	99.19
321.046	96.19
321.275	107.99
321.504	99.99
321.733	97.99
321.962	102.19
322.191	94.79
322.42	98.39
322.649	104.79
322.878	103.99
323.108	99.39
323.337	102.19
323.566	100.39
323.795	96.39
324.024	104.59
324.253	103.39
324.482	99.19
324.71	102.39
324.939	103.19
325.168	100.99
325.397	98.59
325.626	99.99
325.855	103.39
326.084	107.79
326.313	91.39
326.542	102.99
326.77	105.59
326.999	101.99
327.228	95.39
327.457	105.59
327.686	101.79
327.914	96.39
328.143	99.79
328.372	94.79
328.6	104.79
328.829	106.99
329.058	100.39
329.287	101.79
329.515	99.99
329.744	99.19
329.972	107.79
330.201	95.79
330.43	99.59
330.658	97.39
330.887	98.19
331.115	102.19
331.344	99.19
331.572	97.19
331.801	103.79
332.03	99.59
332.258	101.59
332.486	94.99
332.715	94.39
332.943	96.79
333.172	104.59
333.4	106.59
333.629	110.59
333.857	97.19
334.085	100.59
334.314	105.99
334.542	102.59
334.771	105.19
334.999	100.19
335.227	108.59
335.455	102.39
335.684	103.19
335.912	102.99
336.14	95.99
336.369	103.79
336.597	97.19
336.825	98.99
337.053	94.99
337.281	101.79
337.51	97.19
337.738	104.59
337.966	99.99
338.194	98.99
338.422	104.39
338.65	102.59
338.878	104.59
339.106	98.19
339.334	104.59
339.562	97.79
339.79	97.39
340.018	99.39
340.246	89.39
340.474	102.39
340.702	101.59
340.93	94.79
341.158	90.99
341.386	97.39
341.614	99.19
341.842	103.59
342.07	99.59
342.298	102.19
342.526	96.99
342.754	100.39
342.981	100.39
343.209	103.19
343.437	113.79
343.665	94.99
343.893	100.39
344.12	100.99
344.348	97.39
344.576	95.19
344.804	99.79
345.031	106.59
345.259	102.79
345.487	100.59
345.714	94.99
345.942	108.39
346.17	105.19
346.397	96.39
346.625	101.39
346.853	99.79
347.08	97.39
347.308	104.19
347.535	103.19
347.763	97.39
347.99	101.19
348.218	102.19
348.445	96.19
348.673	97.59
348.9	95.79
349.128	102.59
349.355	96.19
349.583	96.99
349.81	94.99
350.037	101.19
350.265	99.79
350.492	96.99
350.72	98.19
350.947	96.79
351.174	96.59
351.402	98.79
351.629	95.39
351.856	91.79
352.083	103.99
352.311	101.59
352.538	92.79
352.765	103.99
352.992	103.19
353.22	104.19
353.447	95.59
353.674	98.59
353.901	98.79
354.128	102.59
354.355	106.59
354.583	98.79
354.81	97.59
355.037	102.99
355.264	102.39
355.491	103.39
355.718	103.79
355.945	100.99
356.172	103.59
356.399	103.39
356.626	105.19
356.853	119.39
357.08	133.99
357.307	164.79
357.534	137.79
357.761	128.59
357.988	118.59
358.215	115.19
358.441	110.19
358.668	107.79
358.895	105.19
359.122	112.99
359.349	107.79
359.576	101.59
359.802	100.39
360.029	101.39
360.256	103.19
360.483	104.79
360.709	104.79
360.936	106.19
361.163	107.79
361.39	107.39
361.616	103.79
361.843	106.19
362.07	103.99
362.296	107.19
362.523	101.59
362.749	100.59
362.976	109.39
363.203	108.99
363.429	110.59
363.656	120.19
363.882	154.39
364.109	176.99
364.335	144.79
364.562	126.99
364.788	117.79
365.015	108.99
365.241	105.39
365.468	113.79
365.694	104.39
365.92	103.19
366.147	101.99
366.373	104.19
366.599	105.99
366.826	115.39
367.052	115.39
367.278	122.79
367.505	121.99
367.731	127.59
367.957	134.39
368.184	169.99
368.41	199.19
368.636	184.59
368.862	144.59
369.089	124.59
369.315	111.39
369.541	111.39
369.767	109.59
369.993	114.59
370.219	104.59
370.445	101.19
370.672	103.39
370.898	105.19
371.124	106.79
371.35	102.79
371.576	108.39
371.802	107.59
372.028	102.99
372.254	108.79
372.48	104.39
372.706	102.59
372.932	106.39
373.158	102.59
373.384	116.79
373.61	127.19
373.835	137.99
374.061	157.79
374.287	158.19
374.513	120.79
374.739	115.99
374.965	111.39
375.191	108.59
375.416	110.19
375.642	108.79
375.868	105.59
376.094	107.99
376.319	109.19
376.545	96.79
376.771	103.39
376.997	97.79
377.222	107.39
377.448	102.99
377.674	102.99
377.899	104.59
378.125	103.79
378.35	109.99
378.576	106.39
378.802	105.79
379.027	102.39
379.253	105.79
379.478	107.99
379.704	104.59
379.929	97.79
380.155	100.79
380.38	95.79
380.606	98.59
380.831	104.39
381.057	106.39
381.282	97.99
381.507	102.19
381.733	109.39
381.958	99.99
382.184	106.39
382.409	103.59
382.634	102.79
382.86	97.99
383.085	103.19
383.31	95.39
383.535	110.79
383.761	103.59
383.986	101.79
384.211	96.79
384.436	105.79
384.662	96.99
384.887	101.59
385.112	98.39
385.337	104.99
385.562	101.99
385.787	107.39
386.013	102.59
386.238	111.19
386.463	109.99
386.688	108.39
386.913	97.79
387.138	106.99
387.363	103.19
387.588	101.79
387.813	103.19
388.038	106.79
388.263	101.99
388.488	95.79
388.713	101.79
388.938	102.99
389.163	93.19
389.387	100.19
389.612	102.99
389.837	105.79
390.062	103.99
390.287	104.59
390.512	98.79
390.736	106.39
390.961	107.99
391.186	105.39
391.411	102.59
391.636	106.39
391.86	102.19
392.085	106.19
392.31	97.79
392.534	104.59
392.759	103.59
392.984	99.79
393.208	103.59
393.433	97.99
393.658	107.59
393.882	108.39
394.107	102.39
394.331	102.19
394.556	103.19
394.78	106.39
395.005	95.99
395.229	106.79
395.454	106.59
395.678	104.99
395.903	109.79
396.127	103.99
396.352	107.19
396.576	108.19
396.801	103.59
397.025	106.19
397.249	104.59
397.474	97.79
397.698	109.99
397.922	117.59
398.147	106.39
398.371	106.99
398.595	100.99
398.82	101.39
399.044	100.39
399.268	103.59
399.492	109.99
399.717	106.79
399.941	111.99
400.165	111.79
400.389	109.99
400.613	106.79
400.837	107.79
401.062	105.39
401.286	107.39
401.51	107.19
401.734	109.19
401.958	118.19
402.182	115.59
402.406	110.39
402.63	110.59
402.854	111.39
403.078	104.79
403.302	104.59
403.526	114.59
403.75	118.19
403.974	117.59
404.198	110.19
404.422	111.99
404.645	111.59
404.869	115.19
405.093	128.79
405.317	148.59
405.541	187.19
405.765	260.39
405.988	289.59
406.212	218.99
406.436	171.99
406.66	142.59
406.883	131.99
407.107	125.99
407.331	126.59
407.555	125.19
407.778	116.79
408.002	112.59
408.226	114.59
408.449	117.59
408.673	113.79
408.896	105.99
409.12	114.59
409.344	102.59
409.567	110.19
409.791	103.39
410.014	107.19
410.238	109.19
410.461	115.79
410.685	109.59
410.908	104.39
411.132	111.39
411.355	115.39
411.578	106.39
411.802	110.99
412.025	111.79
412.249	109.79
412.472	107.19
412.695	104.59
412.919	103.79
413.142	108.59
413.365	107.79
413.589	107.19
413.812	107.79
414.035	115.19
414.258	115.19
414.482	112.19
414.705	107.39
414.928	103.99
415.151	104.19
415.374	106.59
415.597	105.39
415.821	106.19
416.044	102.39
416.267	105.19
416.49	108.99
416.713	109.59
416.936	107.99
417.159	106.99
417.382	109.79
417.605	101.39
417.828	107.79
418.051	111.19
418.274	111.99
418.497	101.59
418.72	105.59
418.943	113.39
419.166	110.79
419.389	115.19
419.611	118.79
419.834	114.19
420.057	116.59
420.28	113.99
420.503	108.99
420.726	107.79
420.948	107.39
421.171	108.19
421.394	114.39
421.617	112.99
421.839	107.79
422.062	108.99
422.285	115.19
422.507	118.99
422.73	117.19
422.953	112.59
423.175	117.59
423.398	117.19
423.621	126.39
423.843	126.79
424.066	129.19
424.288	147.59
424.511	160.59
424.733	171.99
424.956	154.59
425.178	150.59
425.401	140.99
425.623	126.99
425.846	129.79
426.068	124.79
426.291	123.99
426.513	128.39
426.735	126.19
426.958	126.79
427.18	120.39
427.402	119.79
427.625	124.39
427.847	111.39
428.069	111.39
428.292	110.99
428.514	115.99
428.736	111.99
428.958	109.59
429.181	114.59
429.403	109.59
429.625	109.59
429.847	107.99
430.069	112.79
430.292	121.39
430.514	110.39
430.736	111.79
430.958	114.99
431.18	106.59
431.402	109.99
431.624	106.79
431.846	103.79
432.068	109.99
432.29	111.59
432.512	110.99
432.734	107.59
432.956	114.99
433.178	113.79
433.4	114.99
433.622	115.79
433.844	116.59
434.066	115.79
434.287	115.79
434.509	110.19
434.731	114.79
434.953	108.99
435.175	110.79
435.397	115.19
435.618	111.99
435.84	108.19
436.062	116.39
436.284	111.39
436.505	115.79
436.727	118.59
436.949	116.39
437.17	116.99
437.392	116.59
437.614	122.99
437.835	118.39
438.057	119.39
438.278	135.59
438.5	151.79
438.721	151.39
438.943	167.99
439.165	154.19
439.386	143.79
439.608	143.19
439.829	139.19
440.05	128.79
440.272	132.59
440.493	132.99
440.715	139.79
440.936	141.19
441.158	139.99
441.379	133.79
441.6	132.79
441.822	128.79
442.043	131.19
442.264	123.79
442.486	123.99
442.707	122.39
442.928	115.99
443.149	119.99
443.371	115.79
443.592	118.19
443.813	123.59
444.034	116.39
444.255	121.99
444.476	119.39
444.698	119.79
444.919	114.59
445.14	191.39
445.361	149.99
445.582	112.59
445.803	108.99
446.024	127.79
446.245	115.59
446.466	110.99
446.687	115.19
446.908	109.39
447.129	117.39
447.35	115.19
447.571	114.59
447.792	114.99
448.013	115.59
448.234	112.39
448.455	109.19
448.675	108.19
448.896	114.99
449.117	109.99
449.338	110.99
449.559	111.99
449.779	107.99
450	112.59
450.221	114.19
450.442	108.19
450.662	103.59
450.883	106.39
451.104	104.39
451.324	110.39
451.545	105.99
451.766	108.79
451.986	110.19
452.207	101.59
452.428	110.79
452.648	111.99
452.869	115.99
453.089	111.19
453.31	108.79
453.53	103.39
453.751	103.59
453.971	104.79
454.192	99.19
454.412	101.79
454.633	108.19
454.853	108.39
455.073	102.39
455.294	113.39
455.514	99.79
455.734	107.99
455.955	100.79
456.175	103.99
456.395	103.19
456.616	104.39
456.836	103.19
457.056	110.79
457.276	104.79
457.497	105.99
457.717	101.59
457.937	102.99
458.157	102.19
458.377	111.59
458.598	104.39
458.818	98.79
459.038	101.19
459.258	103.39
459.478	102.99
459.698	97.39
459.918	104.59
460.138	98.99
460.358	108.59
460.578	109.79
460.798	105.79
461.018	110.59
461.238	112.99
461.458	108.99
461.678	112.19
461.898	109.59
462.118	108.39
462.338	101.59
462.558	112.99
462.777	105.39
462.997	108.79
463.217	112.19
463.437	109.59
463.657	108.99
463.876	107.59
464.096	109.79
464.316	108.19
464.536	105.99
464.755	111.19
464.975	112.59
465.195	123.79
465.414	114.19
465.634	105.79
465.854	107.79
466.073	106.39
466.293	103.39
466.512	108.19
466.732	105.59
466.951	106.99
467.171	112.79
467.391	108.79
467.61	109.39
467.829	108.39
468.049	107.19
468.268	104.59
468.488	107.79
468.707	105.39
468.927	102.79
469.146	101.19
469.365	111.99
469.585	108.99
469.804	111.59
470.023	103.59
470.243	106.19
470.462	109.39
470.681	106.39
470.901	107.79
471.12	110.59
471.339	105.99
471.558	106.19
471.777	109.39
471.997	107.99
472.216	104.59
472.435	101.79
472.654	108.19
472.873	105.99
473.092	107.79
473.311	109.59
473.53	106.39
473.749	109.79
473.968	105.19
474.187	106.99
474.406	100.99
474.625	113.99
474.844	107.59
475.063	109.99
475.282	103.19
475.501	106.99
475.72	113.59
475.939	109.59
476.158	105.59
476.377	104.99
476.596	101.79
476.814	110.99
477.033	112.59
477.252	106.79
477.471	111.79
477.69	113.99
477.908	111.99
478.127	115.99
478.346	113.19
478.564	109.99
478.783	118.19
479.002	114.59
479.22	112.39
479.439	110.79
479.658	109.59
479.876	114.99
480.095	111.99
480.313	114.39
480.532	106.59
480.751	109.39
480.969	115.19
481.188	110.79
481.406	113.99
481.624	111.19
481.843	106.99
482.061	114.39
482.28	116.19
482.498	114.19
482.717	106.79
482.935	113.59
483.153	117.59
483.372	118.99
483.59	112.59
483.808	111.59
484.027	115.19
484.245	107.19
484.463	115.39
484.681	124.19
484.9	111.99
485.118	111.19
485.336	109.79
485.554	110.99
485.772	109.99
485.99	111.39
486.209	104.79
486.427	109.39
486.645	117.39
486.863	111.59
487.081	111.79
487.299	113.99
487.517	121.39
487.735	115.19
487.953	121.99
488.171	115.79
488.389	114.99
488.607	116.39
488.825	121.59
489.043	116.19
489.261	117.59
489.479	118.79
489.696	115.99
489.914	117.99
490.132	116.39
490.35	117.19
490.568	114.19
490.786	121.99
491.003	115.59
491.221	111.39
491.439	119.59
491.657	122.39
491.874	126.39
492.092	121.79
492.31	129.39
492.527	121.99
492.745	109.59
492.963	128.39
493.18	127.19
493.398	115.59
493.615	116.19
493.833	116.39
494.05	117.99
494.268	116.79
494.485	120.99
494.703	115.79
494.92	116.59
495.138	111.39
495.355	125.79
495.573	126.39
495.79	120.59
496.008	119.99
496.225	121.59
496.442	117.59
496.66	116.99
496.877	123.19
497.094	126.19
497.312	118.39
497.529	115.79
497.746	125.39
497.963	118.19
498.181	118.19
498.398	117.79
498.615	120.19
498.832	119.59
499.049	121.19
499.267	120.59
499.484	126.39
499.701	123.99
499.918	126.79
500.135	134.59
500.352	136.59
500.569	143.79
500.786	154.99
501.003	146.79
501.22	128.99
501.437	117.39
501.654	130.59
501.871	124.79
502.088	120.59
502.305	126.59
502.522	135.39
502.739	121.39
502.956	120.79
503.172	122.99
503.389	121.79
503.606	129.19
503.823	126.59
504.04	128.19
504.256	136.19
504.473	127.79
504.69	131.59
504.907	126.39
505.123	125.59
505.34	124.59
505.557	120.39
505.773	123.39
505.99	120.19
506.207	115.79
506.423	119.79
506.64	113.19
506.856	110.99
507.073	114.79
507.289	115.99
507.506	117.19
507.722	109.39
507.939	115.79
508.155	113.19
