Data from Uncirc_1992_H10_HRD10591_00003.txt Node
Date: Wed Jan 03 11:46:16 EST 2024
User: Yrep
Spectrometer: HR+D1059
Trigger mode: 1
Integration Time (sec): 1.000000E-1
Scans to average: 1
Electric dark correction enabled: true
Nonlinearity correction enabled: false
Boxcar width: 0
XAxis mode: Wavelengths
Number of Pixels in Spectrum: 2048
>>>>>Begin Spectral Data<<<<<
223.165	-18.25
223.4	-18.25
223.635	-18.25
223.869	-22.25
224.104	-24.25
224.338	-13.25
224.573	-11.25
224.808	-20.25
225.042	-6.25
225.277	10.75
225.511	2.75
225.746	4.75
225.98	-4.25
226.215	10.75
226.449	18.75
226.683	17.75
226.918	24.75
227.152	29.75
227.387	43.75
227.621	27.75
227.856	30.75
228.09	35.75
228.324	45.75
228.559	57.75
228.793	68.75
229.027	60.75
229.262	70.75
229.496	67.75
229.73	72.75
229.964	82.75
230.199	74.75
230.433	82.75
230.667	80.75
230.901	80.75
231.136	76.75
231.37	77.75
231.604	60.75
231.838	65.75
232.072	80.75
232.306	75.75
232.541	80.75
232.775	75.75
233.009	71.75
233.243	82.75
233.477	65.75
233.711	68.75
233.945	86.75
234.179	82.75
234.413	70.75
234.647	80.75
234.881	78.75
235.115	81.75
235.349	86.75
235.583	89.75
235.817	77.75
236.051	71.75
236.285	81.75
236.519	92.75
236.753	87.75
236.987	78.75
237.221	73.75
237.455	71.75
237.689	75.75
237.922	79.75
238.156	69.75
238.39	90.75
238.624	75.75
238.858	68.75
239.091	65.75
239.325	69.75
239.559	53.75
239.793	79.75
240.027	75.75
240.26	84.75
240.494	69.75
240.728	67.75
240.961	75.75
241.195	77.75
241.429	75.75
241.662	74.75
241.896	76.75
242.13	76.75
242.363	68.75
242.597	76.75
242.83	75.75
243.064	80.75
243.298	75.75
243.531	64.75
243.765	74.75
243.998	96.75
244.232	71.75
244.465	77.75
244.699	75.75
244.932	71.75
245.166	87.75
245.399	74.75
245.633	75.75
245.866	76.75
246.099	82.75
246.333	77.75
246.566	80.75
246.8	77.75
247.033	77.75
247.266	90.75
247.5	79.75
247.733	59.75
247.966	72.75
248.2	81.75
248.433	77.75
248.666	82.75
248.899	73.75
249.133	81.75
249.366	89.75
249.599	93.75
249.832	79.75
250.066	86.75
250.299	88.75
250.532	88.75
250.765	79.75
250.998	88.75
251.231	78.75
251.465	80.75
251.698	62.75
251.931	79.75
252.164	80.75
252.397	72.75
252.63	88.75
252.863	87.75
253.096	76.75
253.329	85.75
253.562	81.75
253.795	79.75
254.028	91.75
254.261	73.75
254.494	72.75
254.727	100.75
254.96	84.75
255.193	75.75
255.426	90.75
255.659	75.75
255.892	82.75
256.124	84.75
256.357	90.75
256.59	83.75
256.823	67.75
257.056	80.75
257.289	80.75
257.521	86.75
257.754	76.75
257.987	85.75
258.22	65.75
258.452	93.75
258.685	81.75
258.918	76.75
259.151	76.75
259.383	82.75
259.616	77.75
259.849	76.75
260.081	70.75
260.314	69.75
260.547	68.75
260.779	87.75
261.012	92.75
261.244	83.75
261.477	77.75
261.71	91.75
261.942	106.75
262.175	85.75
262.407	81.75
262.64	87.75
262.872	81.75
263.105	79.75
263.337	79.75
263.57	83.75
263.802	89.75
264.035	73.75
264.267	71.75
264.499	86.75
264.732	81.75
264.964	78.75
265.197	85.75
265.429	87.75
265.661	79.75
265.894	85.75
266.126	81.75
266.358	90.75
266.591	79.75
266.823	77.75
267.055	79.75
267.287	84.75
267.52	71.75
267.752	83.75
267.984	83.75
268.216	91.75
268.448	80.75
268.681	89.75
268.913	75.75
269.145	91.75
269.377	99.75
269.609	92.75
269.841	75.75
270.073	83.75
270.306	79.75
270.538	83.75
270.77	74.75
271.002	73.75
271.234	99.75
271.466	100.75
271.698	90.75
271.93	75.75
272.162	84.75
272.394	88.75
272.626	69.75
272.858	79.75
273.09	81.75
273.322	84.75
273.553	78.75
273.785	88.75
274.017	83.75
274.249	69.75
274.481	80.75
274.713	85.75
274.945	85.75
275.176	72.75
275.408	94.75
275.64	83.75
275.872	83.75
276.104	74.75
276.335	92.75
276.567	82.75
276.799	111.75
277.031	98.75
277.262	93.75
277.494	84.75
277.726	89.75
277.957	84.75
278.189	75.75
278.421	63.75
278.652	83.75
278.884	79.75
279.115	92.75
279.347	85.75
279.579	85.75
279.81	93.75
280.042	83.75
280.273	106.75
280.505	100.75
280.736	86.75
280.968	94.75
281.199	93.75
281.431	104.75
281.662	88.75
281.894	81.75
282.125	97.75
282.356	108.75
282.588	109.75
282.819	88.75
283.051	83.75
283.282	82.75
283.513	85.75
283.745	86.75
283.976	73.75
284.207	70.75
284.439	80.75
284.67	76.75
284.901	85.75
285.132	91.75
285.364	87.75
285.595	86.75
285.826	86.75
286.057	86.75
286.288	71.75
286.52	68.75
286.751	81.75
286.982	87.75
287.213	86.75
287.444	75.75
287.675	91.75
287.906	81.75
288.138	77.75
288.369	94.75
288.6	92.75
288.831	99.75
289.062	98.75
289.293	75.75
289.524	76.75
289.755	87.75
289.986	84.75
290.217	102.75
290.448	85.75
290.679	97.75
290.91	82.75
291.141	98.75
291.371	81.75
291.602	92.75
291.833	85.75
292.064	97.75
292.295	89.75
292.526	78.75
292.757	92.75
292.987	101.75
293.218	79.75
293.449	90.75
293.68	87.75
293.91	86.75
294.141	102.75
294.372	84.75
294.603	98.75
294.833	69.75
295.064	93.75
295.295	103.75
295.525	91.75
295.756	99.75
295.987	98.75
296.217	116.75
296.448	106.75
296.679	93.75
296.909	93.75
297.14	79.75
297.37	68.75
297.601	87.75
297.831	91.75
298.062	88.75
298.292	73.75
298.523	76.75
298.753	72.75
298.984	94.75
299.214	99.75
299.445	104.75
299.675	88.75
299.905	84.75
300.136	98.75
300.366	96.75
300.597	90.75
300.827	107.75
301.057	85.75
301.288	112.75
301.518	91.75
301.748	87.75
301.979	97.75
302.209	94.75
302.439	79.75
302.669	82.75
302.9	89.75
303.13	109.75
303.36	85.75
303.59	89.75
303.82	100.75
304.051	86.75
304.281	90.75
304.511	97.75
304.741	87.75
304.971	87.75
305.201	83.75
305.431	96.75
305.661	88.75
305.891	88.75
306.121	110.75
306.352	84.75
306.582	92.75
306.812	95.75
307.042	89.75
307.272	95.75
307.502	84.75
307.731	84.75
307.961	90.75
308.191	85.75
308.421	81.75
308.651	91.75
308.881	79.75
309.111	100.75
309.341	93.75
309.571	91.75
309.8	93.75
310.03	93.75
310.26	98.75
310.49	87.75
310.72	85.75
310.949	100.75
311.179	84.75
311.409	104.75
311.639	91.75
311.868	103.75
312.098	98.75
312.328	90.75
312.557	94.75
312.787	95.75
313.017	86.75
313.246	100.75
313.476	93.75
313.706	77.75
313.935	88.75
314.165	96.75
314.394	103.75
314.624	97.75
314.853	95.75
315.083	87.75
315.312	88.75
315.542	83.75
315.771	88.75
316.001	102.75
316.23	94.75
316.46	79.75
316.689	72.75
316.919	77.75
317.148	107.75
317.377	110.75
317.607	89.75
317.836	100.75
318.065	84.75
318.295	82.75
318.524	82.75
318.753	84.75
318.983	91.75
319.212	87.75
319.441	85.75
319.67	84.75
319.9	78.75
320.129	95.75
320.358	88.75
320.587	101.75
320.816	88.75
321.046	87.75
321.275	89.75
321.504	85.75
321.733	109.75
321.962	107.75
322.191	90.75
322.42	85.75
322.649	93.75
322.878	91.75
323.108	104.75
323.337	112.75
323.566	117.75
323.795	122.75
324.024	165.75
324.253	298.75
324.482	585.75
324.71	1191.75
324.939	1499.75
325.168	585.75
325.397	193.75
325.626	124.75
325.855	119.75
326.084	115.75
326.313	112.75
326.542	143.75
326.77	179.75
326.999	325.75
327.228	702.75
327.457	1220.75
327.686	970.75
327.914	274.75
328.143	162.75
328.372	113.75
328.6	107.75
328.829	88.75
329.058	118.75
329.287	111.75
329.515	115.75
329.744	99.75
329.972	99.75
330.201	97.75
330.43	104.75
330.658	85.75
330.887	109.75
331.115	107.75
331.344	82.75
331.572	114.75
331.801	101.75
332.03	88.75
332.258	85.75
332.486	95.75
332.715	98.75
332.943	83.75
333.172	93.75
333.4	81.75
333.629	105.75
333.857	94.75
334.085	113.75
334.314	101.75
334.542	91.75
334.771	82.75
334.999	89.75
335.227	97.75
335.455	100.75
335.684	82.75
335.912	107.75
336.14	98.75
336.369	87.75
336.597	97.75
336.825	87.75
337.053	88.75
337.281	80.75
337.51	84.75
337.738	91.75
337.966	92.75
338.194	91.75
338.422	99.75
338.65	88.75
338.878	81.75
339.106	82.75
339.334	95.75
339.562	75.75
339.79	91.75
340.018	85.75
340.246	92.75
340.474	70.75
340.702	75.75
340.93	92.75
341.158	103.75
341.386	95.75
341.614	83.75
341.842	77.75
342.07	86.75
342.298	73.75
342.526	78.75
342.754	88.75
342.981	79.75
343.209	72.75
343.437	93.75
343.665	82.75
343.893	94.75
344.12	93.75
344.348	85.75
344.576	80.75
344.804	89.75
345.031	76.75
345.259	87.75
345.487	95.75
345.714	104.75
345.942	95.75
346.17	81.75
346.397	65.75
346.625	91.75
346.853	99.75
347.08	86.75
347.308	99.75
347.535	90.75
347.763	96.75
347.99	105.75
348.218	90.75
348.445	80.75
348.673	84.75
348.9	97.75
349.128	95.75
349.355	82.75
349.583	92.75
349.81	113.75
350.037	79.75
350.265	88.75
350.492	100.75
350.72	80.75
350.947	109.75
351.174	109.75
351.402	103.75
351.629	91.75
351.856	86.75
352.083	94.75
352.311	101.75
352.538	99.75
352.765	102.75
352.992	98.75
353.22	97.75
353.447	97.75
353.674	89.75
353.901	93.75
354.128	96.75
354.355	103.75
354.583	90.75
354.81	102.75
355.037	97.75
355.264	103.75
355.491	87.75
355.718	90.75
355.945	93.75
356.172	91.75
356.399	89.75
356.626	94.75
356.853	93.75
357.08	84.75
357.307	80.75
357.534	84.75
357.761	83.75
357.988	93.75
358.215	98.75
358.441	95.75
358.668	76.75
358.895	83.75
359.122	107.75
359.349	87.75
359.576	89.75
359.802	89.75
360.029	97.75
360.256	95.75
360.483	86.75
360.709	77.75
360.936	88.75
361.163	80.75
361.39	85.75
361.616	91.75
361.843	93.75
362.07	92.75
362.296	90.75
362.523	85.75
362.749	83.75
362.976	92.75
363.203	89.75
363.429	93.75
363.656	97.75
363.882	82.75
364.109	96.75
364.335	91.75
364.562	82.75
364.788	83.75
365.015	95.75
365.241	90.75
365.468	89.75
365.694	106.75
365.92	77.75
366.147	95.75
366.373	90.75
366.599	64.75
366.826	100.75
367.052	81.75
367.278	79.75
367.505	100.75
367.731	87.75
367.957	87.75
368.184	86.75
368.41	109.75
368.636	107.75
368.862	109.75
369.089	88.75
369.315	97.75
369.541	92.75
369.767	88.75
369.993	95.75
370.219	75.75
370.445	84.75
370.672	76.75
370.898	79.75
371.124	88.75
371.35	78.75
371.576	73.75
371.802	88.75
372.028	90.75
372.254	104.75
372.48	87.75
372.706	98.75
372.932	82.75
373.158	80.75
373.384	77.75
373.61	77.75
373.835	75.75
374.061	74.75
374.287	83.75
374.513	91.75
374.739	82.75
374.965	75.75
375.191	80.75
375.416	90.75
375.642	81.75
375.868	97.75
376.094	75.75
376.319	87.75
376.545	95.75
376.771	86.75
376.997	84.75
377.222	93.75
377.448	85.75
377.674	87.75
377.899	91.75
378.125	77.75
378.35	84.75
378.576	82.75
378.802	82.75
379.027	107.75
379.253	94.75
379.478	92.75
379.704	98.75
379.929	111.75
380.155	88.75
380.38	91.75
380.606	81.75
380.831	89.75
381.057	105.75
381.282	96.75
381.507	99.75
381.733	106.75
381.958	91.75
382.184	93.75
382.409	103.75
382.634	97.75
382.86	107.75
383.085	110.75
383.31	103.75
383.535	95.75
383.761	104.75
383.986	114.75
384.211	89.75
384.436	79.75
384.662	101.75
384.887	94.75
385.112	99.75
385.337	108.75
385.562	97.75
385.787	88.75
386.013	112.75
386.238	95.75
386.463	82.75
386.688	89.75
386.913	89.75
387.138	105.75
387.363	100.75
387.588	97.75
387.813	96.75
388.038	92.75
388.263	110.75
388.488	96.75
388.713	90.75
388.938	89.75
389.163	98.75
389.387	95.75
389.612	97.75
389.837	87.75
390.062	90.75
390.287	88.75
390.512	83.75
390.736	81.75
390.961	92.75
391.186	100.75
391.411	92.75
391.636	95.75
391.86	79.75
392.085	84.75
392.31	95.75
392.534	88.75
392.759	92.75
392.984	91.75
393.208	94.75
393.433	103.75
393.658	95.75
393.882	93.75
394.107	97.75
394.331	83.75
394.556	77.75
394.78	83.75
395.005	92.75
395.229	83.75
395.454	85.75
395.678	79.75
395.903	96.75
396.127	89.75
396.352	84.75
396.576	91.75
396.801	93.75
397.025	96.75
397.249	82.75
397.474	77.75
397.698	81.75
397.922	73.75
398.147	82.75
398.371	77.75
398.595	77.75
398.82	81.75
399.044	77.75
399.268	84.75
399.492	84.75
399.717	91.75
399.941	104.75
400.165	91.75
400.389	92.75
400.613	91.75
400.837	77.75
401.062	72.75
401.286	83.75
401.51	100.75
401.734	87.75
401.958	89.75
402.182	92.75
402.406	97.75
402.63	100.75
402.854	93.75
403.078	76.75
403.302	84.75
403.526	91.75
403.75	92.75
403.974	99.75
404.198	86.75
404.422	98.75
404.645	92.75
404.869	88.75
405.093	87.75
405.317	74.75
405.541	86.75
405.765	91.75
405.988	106.75
406.212	151.75
406.436	163.75
406.66	108.75
406.883	91.75
407.107	93.75
407.331	97.75
407.555	85.75
407.778	94.75
408.002	91.75
408.226	80.75
408.449	93.75
408.673	91.75
408.896	88.75
409.12	87.75
409.344	79.75
409.567	72.75
409.791	74.75
410.014	96.75
410.238	89.75
410.461	90.75
410.685	93.75
410.908	90.75
411.132	102.75
411.355	97.75
411.578	89.75
411.802	75.75
412.025	76.75
412.249	89.75
412.472	77.75
412.695	89.75
412.919	72.75
413.142	89.75
413.365	89.75
413.589	86.75
413.812	85.75
414.035	79.75
414.258	98.75
414.482	88.75
414.705	94.75
414.928	86.75
415.151	94.75
415.374	91.75
415.597	90.75
415.821	76.75
416.044	91.75
416.267	99.75
416.49	74.75
416.713	100.75
416.936	96.75
417.159	74.75
417.382	89.75
417.605	75.75
417.828	83.75
418.051	92.75
418.274	91.75
418.497	83.75
418.72	90.75
418.943	94.75
419.166	87.75
419.389	78.75
419.611	84.75
419.834	90.75
420.057	96.75
420.28	83.75
420.503	84.75
420.726	85.75
420.948	97.75
421.171	91.75
421.394	82.75
421.617	77.75
421.839	80.75
422.062	82.75
422.285	95.75
422.507	96.75
422.73	106.75
422.953	101.75
423.175	83.75
423.398	93.75
423.621	78.75
423.843	66.75
424.066	75.75
424.288	79.75
424.511	87.75
424.733	92.75
424.956	107.75
425.178	97.75
425.401	88.75
425.623	92.75
425.846	89.75
426.068	98.75
426.291	80.75
426.513	89.75
426.735	92.75
426.958	85.75
427.18	86.75
427.402	103.75
427.625	128.75
427.847	104.75
428.069	85.75
428.292	93.75
428.514	88.75
428.736	78.75
428.958	84.75
429.181	80.75
429.403	82.75
429.625	72.75
429.847	90.75
430.069	83.75
430.292	95.75
430.514	87.75
430.736	93.75
430.958	85.75
431.18	90.75
431.402	71.75
431.624	81.75
431.846	93.75
432.068	65.75
432.29	92.75
432.512	81.75
432.734	95.75
432.956	81.75
433.178	105.75
433.4	84.75
433.622	79.75
433.844	92.75
434.066	82.75
434.287	85.75
434.509	95.75
434.731	80.75
434.953	85.75
435.175	88.75
435.397	79.75
435.618	92.75
435.84	99.75
436.062	98.75
436.284	84.75
436.505	105.75
436.727	99.75
436.949	89.75
437.17	78.75
437.392	81.75
437.614	87.75
437.835	74.75
438.057	95.75
438.278	99.75
438.5	80.75
438.721	99.75
438.943	82.75
439.165	81.75
439.386	93.75
439.608	89.75
439.829	91.75
440.05	119.75
440.272	114.75
440.493	93.75
440.715	79.75
440.936	85.75
441.158	98.75
441.379	79.75
441.6	80.75
441.822	75.75
442.043	89.75
442.264	100.75
442.486	85.75
442.707	91.75
442.928	94.75
443.149	116.75
443.371	102.75
443.592	96.75
443.813	122.75
444.034	100.75
444.255	83.75
444.476	103.75
444.698	75.75
444.919	77.75
445.14	135.75
445.361	108.75
445.582	95.75
445.803	112.75
446.024	120.75
446.245	109.75
446.466	88.75
446.687	88.75
446.908	91.75
447.129	91.75
447.35	85.75
447.571	87.75
447.792	85.75
448.013	100.75
448.234	85.75
448.455	93.75
448.675	109.75
448.896	96.75
449.117	105.75
449.338	89.75
449.559	99.75
449.779	114.75
450	80.75
450.221	103.75
450.442	88.75
450.662	97.75
450.883	94.75
451.104	99.75
451.324	67.75
451.545	83.75
451.766	91.75
451.986	84.75
452.207	86.75
452.428	103.75
452.648	98.75
452.869	96.75
453.089	102.75
453.31	86.75
453.53	98.75
453.751	88.75
453.971	94.75
454.192	96.75
454.412	82.75
454.633	82.75
454.853	87.75
455.073	79.75
455.294	80.75
455.514	93.75
455.734	92.75
455.955	89.75
456.175	84.75
456.395	77.75
456.616	70.75
456.836	85.75
457.056	73.75
457.276	81.75
457.497	79.75
457.717	96.75
457.937	100.75
458.157	83.75
458.377	76.75
458.598	98.75
458.818	123.75
459.038	119.75
459.258	96.75
459.478	80.75
459.698	80.75
459.918	94.75
460.138	82.75
460.358	89.75
460.578	82.75
460.798	76.75
461.018	89.75
461.238	76.75
461.458	100.75
461.678	80.75
461.898	82.75
462.118	89.75
462.338	98.75
462.558	91.75
462.777	86.75
462.997	83.75
463.217	94.75
463.437	82.75
463.657	91.75
463.876	91.75
464.096	81.75
464.316	76.75
464.536	79.75
464.755	91.75
464.975	92.75
465.195	122.75
465.414	129.75
465.634	98.75
465.854	87.75
466.073	95.75
466.293	92.75
466.512	77.75
466.732	80.75
466.951	83.75
467.171	96.75
467.391	96.75
467.61	97.75
467.829	90.75
468.049	76.75
468.268	71.75
468.488	79.75
468.707	75.75
468.927	75.75
469.146	93.75
469.365	91.75
469.585	87.75
469.804	87.75
470.023	96.75
470.243	95.75
470.462	84.75
470.681	100.75
470.901	94.75
471.12	83.75
471.339	91.75
471.558	86.75
471.777	84.75
471.997	87.75
472.216	81.75
472.435	107.75
472.654	100.75
472.873	97.75
473.092	80.75
473.311	84.75
473.53	81.75
473.749	99.75
473.968	77.75
474.187	94.75
474.406	85.75
474.625	87.75
474.844	95.75
475.063	91.75
475.282	91.75
475.501	83.75
475.72	87.75
475.939	98.75
476.158	77.75
476.377	83.75
476.596	99.75
476.814	81.75
477.033	98.75
477.252	89.75
477.471	87.75
477.69	80.75
477.908	85.75
478.127	92.75
478.346	89.75
478.564	100.75
478.783	80.75
479.002	88.75
479.22	92.75
479.439	90.75
479.658	95.75
479.876	88.75
480.095	80.75
480.313	100.75
480.532	98.75
480.751	84.75
480.969	99.75
481.188	90.75
481.406	99.75
481.624	83.75
481.843	68.75
482.061	84.75
482.28	86.75
482.498	81.75
482.717	92.75
482.935	94.75
483.153	73.75
483.372	91.75
483.59	85.75
483.808	81.75
484.027	74.75
484.245	82.75
484.463	94.75
484.681	91.75
484.9	89.75
485.118	93.75
485.336	95.75
485.554	79.75
485.772	96.75
485.99	97.75
486.209	98.75
486.427	89.75
486.645	97.75
486.863	101.75
487.081	100.75
487.299	84.75
487.517	99.75
487.735	97.75
487.953	91.75
488.171	84.75
488.389	86.75
488.607	96.75
488.825	96.75
489.043	92.75
489.261	81.75
489.479	87.75
489.696	93.75
489.914	87.75
490.132	83.75
490.35	74.75
490.568	90.75
490.786	81.75
491.003	76.75
491.221	83.75
491.439	101.75
491.657	94.75
491.874	81.75
492.092	81.75
492.31	104.75
492.527	99.75
492.745	104.75
492.963	94.75
493.18	95.75
493.398	89.75
493.615	98.75
493.833	106.75
494.05	97.75
494.268	77.75
494.485	96.75
494.703	79.75
494.92	87.75
495.138	91.75
495.355	84.75
495.573	95.75
495.79	82.75
496.008	102.75
496.225	98.75
496.442	89.75
496.66	81.75
496.877	83.75
497.094	105.75
497.312	85.75
497.529	93.75
497.746	94.75
497.963	96.75
498.181	85.75
498.398	82.75
498.615	108.75
498.832	88.75
499.049	98.75
499.267	101.75
499.484	85.75
499.701	86.75
499.918	103.75
500.135	87.75
500.352	82.75
500.569	83.75
500.786	82.75
501.003	81.75
501.22	91.75
501.437	87.75
501.654	97.75
501.871	102.75
502.088	79.75
502.305	96.75
502.522	95.75
502.739	77.75
502.956	91.75
503.172	88.75
503.389	93.75
503.606	96.75
503.823	87.75
504.04	95.75
504.256	91.75
504.473	75.75
504.69	81.75
504.907	88.75
505.123	91.75
505.34	92.75
505.557	99.75
505.773	91.75
505.99	93.75
506.207	95.75
506.423	93.75
506.64	100.75
506.856	90.75
507.073	100.75
507.289	100.75
507.506	89.75
507.722	107.75
507.939	103.75
508.155	95.75
508.372	81.75
508.588	88.75
508.805	90.75
509.021	107.75
509.238	74.75
509.454	91.75
509.67	88.75
509.887	105.75
510.103	126.75
510.319	161.75
510.536	563.75
510.752	1638.75
510.968	467.75
511.184	126.75
511.401	109.75
511.617	99.75
511.833	82.75
512.049	94.75
512.265	99.75
512.481	98.75
512.698	89.75
512.914	94.75
513.13	92.75
513.346	81.75
513.562	94.75
513.778	87.75
513.994	101.75
514.21	97.75
514.426	105.75
514.642	113.75
514.858	112.75
515.074	145.75
515.29	300.75
515.506	961.75
515.721	358.75
515.937	122.75
516.153	95.75
516.369	102.75
516.585	91.75
516.801	95.75
517.016	93.75
517.232	89.75
