Data from Uncirc_1992_H10_HRD10591_00007.txt Node
Date: Wed Jan 03 11:46:17 EST 2024
User: Yrep
Spectrometer: HR+D1059
Trigger mode: 1
Integration Time (sec): 1.000000E-1
Scans to average: 1
Electric dark correction enabled: true
Nonlinearity correction enabled: false
Boxcar width: 0
XAxis mode: Wavelengths
Number of Pixels in Spectrum: 2048
>>>>>Begin Spectral Data<<<<<
223.165	-10.31
223.4	-10.31
223.635	-10.31
223.869	-9.31
224.104	-25.31
224.338	-19.31
224.573	-23.31
224.808	-6.31
225.042	-6.31
225.277	-3.31
225.511	-0.31
225.746	3.69
225.98	4.69
226.215	20.69
226.449	17.69
226.683	20.69
226.918	18.69
227.152	17.69
227.387	22.69
227.621	43.69
227.856	52.69
228.09	50.69
228.324	45.69
228.559	54.69
228.793	59.69
229.027	70.69
229.262	63.69
229.496	67.69
229.73	70.69
229.964	70.69
230.199	69.69
230.433	71.69
230.667	83.69
230.901	78.69
231.136	68.69
231.37	86.69
231.604	72.69
231.838	84.69
232.072	93.69
232.306	70.69
232.541	86.69
232.775	75.69
233.009	97.69
233.243	86.69
233.477	77.69
233.711	78.69
233.945	85.69
234.179	86.69
234.413	87.69
234.647	67.69
234.881	81.69
235.115	74.69
235.349	96.69
235.583	88.69
235.817	86.69
236.051	90.69
236.285	87.69
236.519	86.69
236.753	93.69
236.987	79.69
237.221	96.69
237.455	87.69
237.689	86.69
237.922	71.69
238.156	76.69
238.39	66.69
238.624	70.69
238.858	78.69
239.091	78.69
239.325	81.69
239.559	68.69
239.793	69.69
240.027	76.69
240.26	78.69
240.494	98.69
240.728	64.69
240.961	68.69
241.195	79.69
241.429	70.69
241.662	74.69
241.896	78.69
242.13	75.69
242.363	83.69
242.597	65.69
242.83	78.69
243.064	74.69
243.298	87.69
243.531	69.69
243.765	71.69
243.998	81.69
244.232	87.69
244.465	78.69
244.699	74.69
244.932	85.69
245.166	85.69
245.399	88.69
245.633	67.69
245.866	68.69
246.099	74.69
246.333	71.69
246.566	80.69
246.8	79.69
247.033	78.69
247.266	92.69
247.5	74.69
247.733	81.69
247.966	77.69
248.2	85.69
248.433	70.69
248.666	77.69
248.899	66.69
249.133	79.69
249.366	85.69
249.599	94.69
249.832	85.69
250.066	79.69
250.299	83.69
250.532	76.69
250.765	87.69
250.998	81.69
251.231	74.69
251.465	63.69
251.698	74.69
251.931	84.69
252.164	75.69
252.397	86.69
252.63	79.69
252.863	96.69
253.096	87.69
253.329	82.69
253.562	80.69
253.795	77.69
254.028	86.69
254.261	91.69
254.494	84.69
254.727	87.69
254.96	80.69
255.193	74.69
255.426	82.69
255.659	85.69
255.892	80.69
256.124	74.69
256.357	78.69
256.59	80.69
256.823	79.69
257.056	89.69
257.289	85.69
257.521	87.69
257.754	65.69
257.987	97.69
258.22	87.69
258.452	83.69
258.685	93.69
258.918	87.69
259.151	86.69
259.383	94.69
259.616	72.69
259.849	77.69
260.081	98.69
260.314	74.69
260.547	78.69
260.779	90.69
261.012	100.69
261.244	95.69
261.477	85.69
261.71	78.69
261.942	111.69
262.175	124.69
262.407	94.69
262.64	77.69
262.872	85.69
263.105	94.69
263.337	94.69
263.57	98.69
263.802	78.69
264.035	80.69
264.267	83.69
264.499	83.69
264.732	70.69
264.964	93.69
265.197	79.69
265.429	77.69
265.661	87.69
265.894	81.69
266.126	95.69
266.358	92.69
266.591	93.69
266.823	86.69
267.055	76.69
267.287	84.69
267.52	79.69
267.752	87.69
267.984	92.69
268.216	82.69
268.448	66.69
268.681	88.69
268.913	96.69
269.145	79.69
269.377	89.69
269.609	98.69
269.841	68.69
270.073	87.69
270.306	86.69
270.538	87.69
270.77	80.69
271.002	82.69
271.234	82.69
271.466	74.69
271.698	93.69
271.93	88.69
272.162	93.69
272.394	80.69
272.626	94.69
272.858	88.69
273.09	100.69
273.322	85.69
273.553	100.69
273.785	72.69
274.017	90.69
274.249	97.69
274.481	81.69
274.713	92.69
274.945	78.69
275.176	69.69
275.408	92.69
275.64	86.69
275.872	86.69
276.104	98.69
276.335	87.69
276.567	87.69
276.799	103.69
277.031	93.69
277.262	87.69
277.494	90.69
277.726	85.69
277.957	81.69
278.189	88.69
278.421	87.69
278.652	81.69
278.884	91.69
279.115	88.69
279.347	99.69
279.579	87.69
279.81	91.69
280.042	78.69
280.273	87.69
280.505	87.69
280.736	90.69
280.968	75.69
281.199	87.69
281.431	87.69
281.662	94.69
281.894	99.69
282.125	95.69
282.356	104.69
282.588	133.69
282.819	109.69
283.051	68.69
283.282	74.69
283.513	86.69
283.745	81.69
283.976	95.69
284.207	86.69
284.439	82.69
284.67	75.69
284.901	77.69
285.132	88.69
285.364	85.69
285.595	92.69
285.826	89.69
286.057	97.69
286.288	79.69
286.52	90.69
286.751	84.69
286.982	74.69
287.213	94.69
287.444	101.69
287.675	90.69
287.906	85.69
288.138	104.69
288.369	92.69
288.6	98.69
288.831	96.69
289.062	100.69
289.293	95.69
289.524	90.69
289.755	92.69
289.986	78.69
290.217	80.69
290.448	77.69
290.679	87.69
290.91	97.69
291.141	96.69
291.371	87.69
291.602	93.69
291.833	85.69
292.064	83.69
292.295	82.69
292.526	94.69
292.757	95.69
292.987	93.69
293.218	90.69
293.449	88.69
293.68	109.69
293.91	96.69
294.141	95.69
294.372	77.69
294.603	92.69
294.833	88.69
295.064	83.69
295.295	94.69
295.525	107.69
295.756	95.69
295.987	99.69
296.217	122.69
296.448	114.69
296.679	76.69
296.909	92.69
297.14	75.69
297.37	95.69
297.601	95.69
297.831	91.69
298.062	79.69
298.292	87.69
298.523	91.69
298.753	80.69
298.984	85.69
299.214	82.69
299.445	78.69
299.675	96.69
299.905	90.69
300.136	95.69
300.366	82.69
300.597	100.69
300.827	85.69
301.057	87.69
301.288	92.69
301.518	113.69
301.748	88.69
301.979	97.69
302.209	88.69
302.439	83.69
302.669	99.69
302.9	95.69
303.13	92.69
303.36	86.69
303.59	109.69
303.82	98.69
304.051	87.69
304.281	90.69
304.511	96.69
304.741	82.69
304.971	97.69
305.201	84.69
305.431	103.69
305.661	90.69
305.891	87.69
306.121	76.69
306.352	104.69
306.582	88.69
306.812	90.69
307.042	85.69
307.272	81.69
307.502	85.69
307.731	102.69
307.961	79.69
308.191	87.69
308.421	80.69
308.651	93.69
308.881	77.69
309.111	99.69
309.341	91.69
309.571	82.69
309.8	88.69
310.03	86.69
310.26	91.69
310.49	100.69
310.72	109.69
310.949	95.69
311.179	102.69
311.409	88.69
311.639	87.69
311.868	90.69
312.098	102.69
312.328	84.69
312.557	97.69
312.787	97.69
313.017	87.69
313.246	84.69
313.476	100.69
313.706	98.69
313.935	87.69
314.165	85.69
314.394	107.69
314.624	89.69
314.853	101.69
315.083	86.69
315.312	89.69
315.542	92.69
315.771	96.69
316.001	88.69
316.23	95.69
316.46	75.69
316.689	102.69
316.919	94.69
317.148	98.69
317.377	94.69
317.607	93.69
317.836	96.69
318.065	92.69
318.295	107.69
318.524	92.69
318.753	91.69
318.983	97.69
319.212	104.69
319.441	101.69
319.67	115.69
319.9	100.69
320.129	88.69
320.358	93.69
320.587	104.69
320.816	106.69
321.046	88.69
321.275	101.69
321.504	91.69
321.733	92.69
321.962	92.69
322.191	86.69
322.42	101.69
322.649	91.69
322.878	100.69
323.108	116.69
323.337	107.69
323.566	117.69
323.795	132.69
324.024	164.69
324.253	300.69
324.482	581.69
324.71	1166.69
324.939	1496.69
325.168	558.69
325.397	189.69
325.626	125.69
325.855	112.69
326.084	116.69
326.313	111.69
326.542	126.69
326.77	187.69
326.999	346.69
327.228	670.69
327.457	1199.69
327.686	914.69
327.914	260.69
328.143	145.69
328.372	119.69
328.6	116.69
328.829	111.69
329.058	117.69
329.287	104.69
329.515	98.69
329.744	89.69
329.972	93.69
330.201	95.69
330.43	85.69
330.658	109.69
330.887	119.69
331.115	110.69
331.344	93.69
331.572	114.69
331.801	111.69
332.03	99.69
332.258	91.69
332.486	93.69
332.715	87.69
332.943	95.69
333.172	102.69
333.4	96.69
333.629	106.69
333.857	100.69
334.085	98.69
334.314	94.69
334.542	92.69
334.771	82.69
334.999	100.69
335.227	88.69
335.455	88.69
335.684	100.69
335.912	109.69
336.14	91.69
336.369	90.69
336.597	111.69
336.825	101.69
337.053	98.69
337.281	86.69
337.51	100.69
337.738	106.69
337.966	100.69
338.194	99.69
338.422	103.69
338.65	99.69
338.878	90.69
339.106	78.69
339.334	107.69
339.562	89.69
339.79	96.69
340.018	79.69
340.246	87.69
340.474	83.69
340.702	82.69
340.93	97.69
341.158	97.69
341.386	88.69
341.614	84.69
341.842	95.69
342.07	90.69
342.298	92.69
342.526	87.69
342.754	88.69
342.981	70.69
343.209	93.69
343.437	84.69
343.665	92.69
343.893	97.69
344.12	95.69
344.348	94.69
344.576	86.69
344.804	92.69
345.031	86.69
345.259	95.69
345.487	100.69
345.714	101.69
345.942	108.69
346.17	90.69
346.397	78.69
346.625	76.69
346.853	87.69
347.08	98.69
347.308	90.69
347.535	112.69
347.763	90.69
347.99	94.69
348.218	90.69
348.445	93.69
348.673	94.69
348.9	87.69
349.128	86.69
349.355	98.69
349.583	83.69
349.81	101.69
350.037	104.69
350.265	88.69
350.492	93.69
350.72	94.69
350.947	103.69
351.174	118.69
351.402	105.69
351.629	100.69
351.856	109.69
352.083	104.69
352.311	111.69
352.538	93.69
352.765	88.69
352.992	110.69
353.22	111.69
353.447	101.69
353.674	103.69
353.901	93.69
354.128	111.69
354.355	108.69
354.583	99.69
354.81	86.69
355.037	99.69
355.264	94.69
355.491	108.69
355.718	100.69
355.945	88.69
356.172	97.69
356.399	90.69
356.626	101.69
356.853	107.69
357.08	85.69
357.307	85.69
357.534	101.69
357.761	107.69
357.988	102.69
358.215	101.69
358.441	98.69
358.668	86.69
358.895	94.69
359.122	102.69
359.349	96.69
359.576	96.69
359.802	99.69
360.029	90.69
360.256	91.69
360.483	92.69
360.709	89.69
360.936	65.69
361.163	92.69
361.39	96.69
361.616	86.69
361.843	91.69
362.07	99.69
362.296	93.69
362.523	95.69
362.749	91.69
362.976	95.69
363.203	85.69
363.429	92.69
363.656	103.69
363.882	96.69
364.109	84.69
364.335	93.69
364.562	94.69
364.788	95.69
365.015	91.69
365.241	108.69
365.468	103.69
365.694	97.69
365.92	104.69
366.147	79.69
366.373	89.69
366.599	91.69
366.826	100.69
367.052	93.69
367.278	90.69
367.505	84.69
367.731	107.69
367.957	84.69
368.184	79.69
368.41	79.69
368.636	96.69
368.862	116.69
369.089	99.69
369.315	89.69
369.541	96.69
369.767	102.69
369.993	99.69
370.219	104.69
370.445	99.69
370.672	75.69
370.898	91.69
371.124	93.69
371.35	81.69
371.576	91.69
371.802	84.69
372.028	93.69
372.254	98.69
372.48	89.69
372.706	91.69
372.932	88.69
373.158	84.69
373.384	97.69
373.61	103.69
373.835	83.69
374.061	86.69
374.287	88.69
374.513	94.69
374.739	98.69
374.965	88.69
375.191	88.69
375.416	89.69
375.642	80.69
375.868	90.69
376.094	91.69
376.319	89.69
376.545	91.69
376.771	94.69
376.997	97.69
377.222	95.69
377.448	98.69
377.674	103.69
377.899	98.69
378.125	67.69
378.35	102.69
378.576	111.69
378.802	108.69
379.027	99.69
379.253	101.69
379.478	100.69
379.704	96.69
379.929	109.69
380.155	96.69
380.38	91.69
380.606	95.69
380.831	100.69
381.057	107.69
381.282	81.69
381.507	110.69
381.733	106.69
381.958	101.69
382.184	104.69
382.409	98.69
382.634	102.69
382.86	89.69
383.085	96.69
383.31	95.69
383.535	92.69
383.761	102.69
383.986	101.69
384.211	90.69
384.436	99.69
384.662	94.69
384.887	119.69
385.112	90.69
385.337	102.69
385.562	108.69
385.787	100.69
386.013	112.69
386.238	120.69
386.463	102.69
386.688	99.69
386.913	104.69
387.138	93.69
387.363	109.69
387.588	98.69
387.813	92.69
388.038	108.69
388.263	102.69
388.488	112.69
388.713	99.69
388.938	100.69
389.163	84.69
389.387	98.69
389.612	86.69
389.837	98.69
390.062	102.69
390.287	110.69
390.512	98.69
390.736	104.69
390.961	94.69
391.186	92.69
391.411	104.69
391.636	102.69
391.86	99.69
392.085	86.69
392.31	74.69
392.534	82.69
392.759	97.69
392.984	90.69
393.208	91.69
393.433	101.69
393.658	86.69
393.882	79.69
394.107	87.69
394.331	107.69
394.556	87.69
394.78	100.69
395.005	94.69
395.229	87.69
395.454	84.69
395.678	95.69
395.903	88.69
396.127	102.69
396.352	95.69
396.576	93.69
396.801	96.69
397.025	98.69
397.249	100.69
397.474	72.69
397.698	90.69
397.922	86.69
398.147	95.69
398.371	78.69
398.595	88.69
398.82	85.69
399.044	86.69
399.268	98.69
399.492	80.69
399.717	98.69
399.941	83.69
400.165	99.69
400.389	90.69
400.613	84.69
400.837	91.69
401.062	97.69
401.286	88.69
401.51	94.69
401.734	95.69
401.958	107.69
402.182	103.69
402.406	133.69
402.63	100.69
402.854	96.69
403.078	87.69
403.302	88.69
403.526	90.69
403.75	88.69
403.974	91.69
404.198	85.69
404.422	99.69
404.645	83.69
404.869	82.69
405.093	101.69
405.317	98.69
405.541	81.69
405.765	93.69
405.988	96.69
406.212	130.69
406.436	175.69
406.66	127.69
406.883	86.69
407.107	92.69
407.331	75.69
407.555	90.69
407.778	106.69
408.002	91.69
408.226	92.69
408.449	93.69
408.673	78.69
408.896	85.69
409.12	103.69
409.344	92.69
409.567	81.69
409.791	101.69
410.014	116.69
410.238	100.69
410.461	100.69
410.685	80.69
410.908	99.69
411.132	107.69
411.355	105.69
411.578	102.69
411.802	79.69
412.025	91.69
412.249	87.69
412.472	90.69
412.695	92.69
412.919	88.69
413.142	86.69
413.365	94.69
413.589	78.69
413.812	105.69
414.035	95.69
414.258	100.69
414.482	93.69
414.705	84.69
414.928	93.69
415.151	100.69
415.374	82.69
415.597	101.69
415.821	98.69
416.044	79.69
416.267	102.69
416.49	93.69
416.713	81.69
416.936	99.69
417.159	80.69
417.382	99.69
417.605	85.69
417.828	82.69
418.051	86.69
418.274	91.69
418.497	72.69
418.72	88.69
418.943	98.69
419.166	82.69
419.389	96.69
419.611	94.69
419.834	101.69
420.057	92.69
420.28	86.69
420.503	97.69
420.726	93.69
420.948	89.69
421.171	94.69
421.394	84.69
421.617	71.69
421.839	96.69
422.062	83.69
422.285	88.69
422.507	102.69
422.73	95.69
422.953	99.69
423.175	99.69
423.398	86.69
423.621	83.69
423.843	102.69
424.066	91.69
424.288	96.69
424.511	95.69
424.733	96.69
424.956	96.69
425.178	90.69
425.401	96.69
425.623	101.69
425.846	85.69
426.068	93.69
426.291	82.69
426.513	87.69
426.735	98.69
426.958	97.69
427.18	100.69
427.402	114.69
427.625	124.69
427.847	115.69
428.069	107.69
428.292	86.69
428.514	79.69
428.736	84.69
428.958	84.69
429.181	88.69
429.403	72.69
429.625	80.69
429.847	86.69
430.069	93.69
430.292	99.69
430.514	98.69
430.736	96.69
430.958	94.69
431.18	89.69
431.402	97.69
431.624	109.69
431.846	86.69
432.068	110.69
432.29	86.69
432.512	100.69
432.734	91.69
432.956	100.69
433.178	104.69
433.4	82.69
433.622	86.69
433.844	94.69
434.066	97.69
434.287	101.69
434.509	84.69
434.731	96.69
434.953	107.69
435.175	92.69
435.397	93.69
435.618	86.69
435.84	98.69
436.062	110.69
436.284	103.69
436.505	90.69
436.727	97.69
436.949	88.69
437.17	92.69
437.392	95.69
437.614	93.69
437.835	89.69
438.057	97.69
438.278	102.69
438.5	97.69
438.721	111.69
438.943	84.69
439.165	102.69
439.386	85.69
439.608	98.69
439.829	86.69
440.05	118.69
440.272	126.69
440.493	96.69
440.715	103.69
440.936	89.69
441.158	88.69
441.379	91.69
441.6	101.69
441.822	102.69
442.043	83.69
442.264	106.69
442.486	92.69
442.707	102.69
442.928	90.69
443.149	113.69
443.371	122.69
443.592	92.69
443.813	100.69
444.034	101.69
444.255	106.69
444.476	96.69
444.698	65.69
444.919	83.69
445.14	131.69
445.361	125.69
445.582	97.69
445.803	113.69
446.024	118.69
446.245	128.69
446.466	108.69
446.687	94.69
446.908	78.69
447.129	102.69
447.35	92.69
447.571	82.69
447.792	100.69
448.013	103.69
448.234	99.69
448.455	83.69
448.675	76.69
448.896	111.69
449.117	114.69
449.338	94.69
449.559	112.69
449.779	117.69
450	82.69
450.221	91.69
450.442	72.69
450.662	87.69
450.883	98.69
451.104	115.69
451.324	104.69
451.545	82.69
451.766	99.69
451.986	93.69
452.207	77.69
452.428	103.69
452.648	92.69
452.869	104.69
453.089	99.69
453.31	97.69
453.53	91.69
453.751	99.69
453.971	100.69
454.192	95.69
454.412	98.69
454.633	90.69
454.853	88.69
455.073	83.69
455.294	88.69
455.514	90.69
455.734	82.69
455.955	94.69
456.175	92.69
456.395	81.69
456.616	87.69
456.836	92.69
457.056	64.69
457.276	98.69
457.497	96.69
457.717	111.69
457.937	101.69
458.157	80.69
458.377	92.69
458.598	97.69
458.818	114.69
459.038	124.69
459.258	99.69
459.478	94.69
459.698	82.69
459.918	97.69
460.138	98.69
460.358	89.69
460.578	86.69
460.798	86.69
461.018	97.69
461.238	83.69
461.458	89.69
461.678	93.69
461.898	84.69
462.118	100.69
462.338	71.69
462.558	91.69
462.777	72.69
462.997	89.69
463.217	84.69
463.437	89.69
463.657	98.69
463.876	79.69
464.096	79.69
464.316	85.69
464.536	84.69
464.755	104.69
464.975	107.69
465.195	133.69
465.414	108.69
465.634	93.69
465.854	78.69
466.073	90.69
466.293	97.69
466.512	90.69
466.732	87.69
466.951	86.69
467.171	93.69
467.391	91.69
467.61	99.69
467.829	95.69
468.049	99.69
468.268	90.69
468.488	93.69
468.707	100.69
468.927	83.69
469.146	106.69
469.365	93.69
469.585	90.69
469.804	91.69
470.023	92.69
470.243	104.69
470.462	100.69
470.681	107.69
470.901	104.69
471.12	80.69
471.339	91.69
471.558	82.69
471.777	89.69
471.997	82.69
472.216	96.69
472.435	95.69
472.654	93.69
472.873	84.69
473.092	106.69
473.311	89.69
473.53	90.69
473.749	86.69
473.968	103.69
474.187	97.69
474.406	93.69
474.625	78.69
474.844	81.69
475.063	90.69
475.282	82.69
475.501	77.69
475.72	83.69
475.939	82.69
476.158	80.69
476.377	82.69
476.596	92.69
476.814	87.69
477.033	86.69
477.252	92.69
477.471	85.69
477.69	74.69
477.908	85.69
478.127	88.69
478.346	107.69
478.564	85.69
478.783	86.69
479.002	100.69
479.22	103.69
479.439	99.69
479.658	95.69
479.876	87.69
480.095	84.69
480.313	80.69
480.532	95.69
480.751	90.69
480.969	84.69
481.188	92.69
481.406	92.69
481.624	98.69
481.843	111.69
482.061	98.69
482.28	81.69
482.498	90.69
482.717	101.69
482.935	91.69
483.153	81.69
483.372	71.69
483.59	105.69
483.808	91.69
484.027	94.69
484.245	87.69
484.463	99.69
484.681	103.69
484.9	88.69
485.118	97.69
485.336	97.69
485.554	103.69
485.772	96.69
485.99	100.69
486.209	106.69
486.427	117.69
486.645	102.69
486.863	102.69
487.081	101.69
487.299	96.69
487.517	98.69
487.735	96.69
487.953	97.69
488.171	98.69
488.389	100.69
488.607	108.69
488.825	105.69
489.043	92.69
489.261	90.69
489.479	97.69
489.696	92.69
489.914	74.69
490.132	83.69
490.35	92.69
490.568	85.69
490.786	100.69
491.003	91.69
491.221	85.69
491.439	99.69
491.657	90.69
491.874	84.69
492.092	88.69
492.31	98.69
492.527	96.69
492.745	103.69
492.963	92.69
493.18	88.69
493.398	104.69
493.615	103.69
493.833	94.69
494.05	86.69
494.268	102.69
494.485	92.69
494.703	95.69
494.92	100.69
495.138	103.69
495.355	78.69
495.573	88.69
495.79	102.69
496.008	103.69
496.225	88.69
496.442	96.69
496.66	97.69
496.877	102.69
497.094	93.69
497.312	100.69
497.529	84.69
497.746	99.69
497.963	98.69
498.181	93.69
498.398	88.69
498.615	109.69
498.832	93.69
499.049	95.69
499.267	93.69
499.484	87.69
499.701	78.69
499.918	94.69
500.135	92.69
500.352	89.69
500.569	85.69
500.786	97.69
501.003	85.69
501.22	84.69
501.437	91.69
501.654	88.69
501.871	103.69
502.088	100.69
502.305	93.69
502.522	83.69
502.739	84.69
502.956	85.69
503.172	84.69
503.389	97.69
503.606	101.69
503.823	88.69
504.04	103.69
504.256	94.69
504.473	95.69
504.69	87.69
504.907	83.69
505.123	93.69
505.34	106.69
505.557	91.69
505.773	78.69
505.99	99.69
506.207	84.69
506.423	90.69
506.64	77.69
506.856	93.69
507.073	85.69
507.289	86.69
507.506	103.69
507.722	100.69
507.939	96.69
508.155	106.69
508.372	94.69
508.588	92.69
508.805	91.69
509.021	100.69
509.238	116.69
509.454	99.69
509.67	105.69
509.887	100.69
510.103	124.69
510.319	166.69
510.536	560.69
510.752	1596.69
510.968	464.69
511.184	129.69
511.401	110.69
511.617	102.69
511.833	95.69
512.049	91.69
512.265	98.69
512.481	98.69
512.698	90.69
512.914	81.69
513.13	103.69
513.346	105.69
513.562	102.69
513.778	88.69
513.994	99.69
514.21	85.69
514.426	109.69
514.642	106.69
514.858	120.69
515.074	130.69
515.29	335.69
515.506	953.69
515.721	373.69
