Data from Uncirc_1992_H10_HRD10591_00051.txt Node
Date: Wed Jan 03 11:46:26 EST 2024
User: Yrep
Spectrometer: HR+D1059
Trigger mode: 1
Integration Time (sec): 1.000000E-1
Scans to average: 1
Electric dark correction enabled: true
Nonlinearity correction enabled: false
Boxcar width: 0
XAxis mode: Wavelengths
Number of Pixels in Spectrum: 2048
>>>>>Begin Spectral Data<<<<<
223.165	-6.56
223.4	-6.56
223.635	-6.56
223.869	-18.56
224.104	-12.56
224.338	-25.56
224.573	-20.56
224.808	-0.56
225.042	-17.56
225.277	2.44
225.511	-12.56
225.746	8.44
225.98	6.44
226.215	7.44
226.449	19.44
226.683	18.44
226.918	22.44
227.152	29.44
227.387	32.44
227.621	53.44
227.856	50.44
228.09	49.44
228.324	57.44
228.559	60.44
228.793	49.44
229.027	65.44
229.262	78.44
229.496	62.44
229.73	64.44
229.964	76.44
230.199	71.44
230.433	70.44
230.667	87.44
230.901	73.44
231.136	77.44
231.37	89.44
231.604	85.44
231.838	73.44
232.072	90.44
232.306	81.44
232.541	75.44
232.775	79.44
233.009	91.44
233.243	91.44
233.477	83.44
233.711	70.44
233.945	79.44
234.179	79.44
234.413	92.44
234.647	82.44
234.881	72.44
235.115	75.44
235.349	67.44
235.583	79.44
235.817	73.44
236.051	85.44
236.285	96.44
236.519	79.44
236.753	70.44
236.987	73.44
237.221	78.44
237.455	81.44
237.689	79.44
237.922	73.44
238.156	75.44
238.39	79.44
238.624	78.44
238.858	83.44
239.091	68.44
239.325	77.44
239.559	79.44
239.793	78.44
240.027	71.44
240.26	79.44
240.494	95.44
240.728	82.44
240.961	69.44
241.195	83.44
241.429	77.44
241.662	77.44
241.896	75.44
242.13	83.44
242.363	81.44
242.597	72.44
242.83	75.44
243.064	80.44
243.298	68.44
243.531	70.44
243.765	75.44
243.998	67.44
244.232	70.44
244.465	86.44
244.699	63.44
244.932	88.44
245.166	65.44
245.399	78.44
245.633	81.44
245.866	81.44
246.099	75.44
246.333	82.44
246.566	75.44
246.8	77.44
247.033	94.44
247.266	77.44
247.5	70.44
247.733	74.44
247.966	86.44
248.2	79.44
248.433	80.44
248.666	90.44
248.899	73.44
249.133	89.44
249.366	95.44
249.599	78.44
249.832	77.44
250.066	82.44
250.299	80.44
250.532	85.44
250.765	77.44
250.998	86.44
251.231	73.44
251.465	68.44
251.698	68.44
251.931	74.44
252.164	87.44
252.397	85.44
252.63	84.44
252.863	81.44
253.096	96.44
253.329	75.44
253.562	83.44
253.795	83.44
254.028	81.44
254.261	86.44
254.494	80.44
254.727	82.44
254.96	90.44
255.193	79.44
255.426	85.44
255.659	81.44
255.892	80.44
256.124	77.44
256.357	80.44
256.59	83.44
256.823	77.44
257.056	87.44
257.289	76.44
257.521	93.44
257.754	82.44
257.987	75.44
258.22	77.44
258.452	93.44
258.685	92.44
258.918	99.44
259.151	67.44
259.383	83.44
259.616	75.44
259.849	84.44
260.081	89.44
260.314	87.44
260.547	77.44
260.779	78.44
261.012	85.44
261.244	98.44
261.477	89.44
261.71	80.44
261.942	106.44
262.175	102.44
262.407	69.44
262.64	84.44
262.872	79.44
263.105	90.44
263.337	83.44
263.57	77.44
263.802	89.44
264.035	91.44
264.267	75.44
264.499	96.44
264.732	87.44
264.964	87.44
265.197	85.44
265.429	68.44
265.661	89.44
265.894	86.44
266.126	83.44
266.358	91.44
266.591	96.44
266.823	96.44
267.055	84.44
267.287	87.44
267.52	83.44
267.752	97.44
267.984	81.44
268.216	91.44
268.448	84.44
268.681	75.44
268.913	82.44
269.145	87.44
269.377	84.44
269.609	97.44
269.841	89.44
270.073	93.44
270.306	86.44
270.538	97.44
270.77	63.44
271.002	70.44
271.234	76.44
271.466	95.44
271.698	96.44
271.93	85.44
272.162	86.44
272.394	79.44
272.626	77.44
272.858	90.44
273.09	85.44
273.322	82.44
273.553	80.44
273.785	81.44
274.017	96.44
274.249	86.44
274.481	81.44
274.713	92.44
274.945	82.44
275.176	74.44
275.408	91.44
275.64	95.44
275.872	96.44
276.104	103.44
276.335	100.44
276.567	81.44
276.799	93.44
277.031	83.44
277.262	86.44
277.494	75.44
277.726	80.44
277.957	82.44
278.189	83.44
278.421	93.44
278.652	76.44
278.884	93.44
279.115	88.44
279.347	66.44
279.579	95.44
279.81	86.44
280.042	87.44
280.273	87.44
280.505	98.44
280.736	75.44
280.968	85.44
281.199	80.44
281.431	89.44
281.662	99.44
281.894	84.44
282.125	91.44
282.356	105.44
282.588	142.44
282.819	105.44
283.051	98.44
283.282	108.44
283.513	108.44
283.745	93.44
283.976	76.44
284.207	88.44
284.439	89.44
284.67	86.44
284.901	84.44
285.132	80.44
285.364	82.44
285.595	101.44
285.826	90.44
286.057	87.44
286.288	77.44
286.52	81.44
286.751	87.44
286.982	92.44
287.213	86.44
287.444	100.44
287.675	89.44
287.906	99.44
288.138	89.44
288.369	95.44
288.6	81.44
288.831	85.44
289.062	91.44
289.293	90.44
289.524	86.44
289.755	91.44
289.986	89.44
290.217	85.44
290.448	78.44
290.679	79.44
290.91	61.44
291.141	77.44
291.371	97.44
291.602	96.44
291.833	89.44
292.064	88.44
292.295	85.44
292.526	94.44
292.757	101.44
292.987	93.44
293.218	84.44
293.449	88.44
293.68	94.44
293.91	96.44
294.141	99.44
294.372	100.44
294.603	92.44
294.833	91.44
295.064	82.44
295.295	91.44
295.525	96.44
295.756	104.44
295.987	95.44
296.217	115.44
296.448	117.44
296.679	80.44
296.909	91.44
297.14	95.44
297.37	93.44
297.601	94.44
297.831	91.44
298.062	94.44
298.292	86.44
298.523	75.44
298.753	101.44
298.984	91.44
299.214	90.44
299.445	96.44
299.675	95.44
299.905	90.44
300.136	83.44
300.366	80.44
300.597	77.44
300.827	98.44
301.057	85.44
301.288	91.44
301.518	96.44
301.748	96.44
301.979	101.44
302.209	107.44
302.439	96.44
302.669	87.44
302.9	95.44
303.13	80.44
303.36	94.44
303.59	84.44
303.82	101.44
304.051	101.44
304.281	95.44
304.511	86.44
304.741	89.44
304.971	87.44
305.201	94.44
305.431	98.44
305.661	101.44
305.891	100.44
306.121	95.44
306.352	97.44
306.582	94.44
306.812	108.44
307.042	85.44
307.272	87.44
307.502	93.44
307.731	90.44
307.961	96.44
308.191	96.44
308.421	93.44
308.651	90.44
308.881	75.44
309.111	93.44
309.341	94.44
309.571	105.44
309.8	93.44
310.03	86.44
310.26	93.44
310.49	90.44
310.72	98.44
310.949	85.44
311.179	90.44
311.409	93.44
311.639	93.44
311.868	98.44
312.098	97.44
312.328	88.44
312.557	111.44
312.787	104.44
313.017	93.44
313.246	91.44
313.476	85.44
313.706	109.44
313.935	91.44
314.165	91.44
314.394	106.44
314.624	77.44
314.853	95.44
315.083	93.44
315.312	89.44
315.542	85.44
315.771	93.44
316.001	105.44
316.23	104.44
316.46	96.44
316.689	90.44
316.919	96.44
317.148	96.44
317.377	105.44
317.607	94.44
317.836	95.44
318.065	104.44
318.295	85.44
318.524	92.44
318.753	87.44
318.983	80.44
319.212	97.44
319.441	97.44
319.67	100.44
319.9	101.44
320.129	85.44
320.358	84.44
320.587	91.44
320.816	92.44
321.046	96.44
321.275	95.44
321.504	86.44
321.733	89.44
321.962	98.44
322.191	103.44
322.42	89.44
322.649	84.44
322.878	103.44
323.108	107.44
323.337	125.44
323.566	116.44
323.795	141.44
324.024	181.44
324.253	331.44
324.482	653.44
324.71	1299.44
324.939	1685.44
325.168	655.44
325.397	211.44
325.626	135.44
325.855	140.44
326.084	136.44
326.313	123.44
326.542	137.44
326.77	209.44
326.999	380.44
327.228	758.44
327.457	1349.44
327.686	1044.44
327.914	295.44
328.143	156.44
328.372	145.44
328.6	118.44
328.829	104.44
329.058	103.44
329.287	115.44
329.515	106.44
329.744	115.44
329.972	103.44
330.201	102.44
330.43	98.44
330.658	119.44
330.887	114.44
331.115	97.44
331.344	101.44
331.572	91.44
331.801	97.44
332.03	76.44
332.258	101.44
332.486	79.44
332.715	94.44
332.943	87.44
333.172	94.44
333.4	90.44
333.629	119.44
333.857	97.44
334.085	107.44
334.314	90.44
334.542	92.44
334.771	109.44
334.999	104.44
335.227	99.44
335.455	103.44
335.684	102.44
335.912	104.44
336.14	103.44
336.369	102.44
336.597	93.44
336.825	108.44
337.053	111.44
337.281	97.44
337.51	90.44
337.738	100.44
337.966	102.44
338.194	94.44
338.422	102.44
338.65	86.44
338.878	80.44
339.106	98.44
339.334	82.44
339.562	93.44
339.79	89.44
340.018	95.44
340.246	92.44
340.474	98.44
340.702	88.44
340.93	101.44
341.158	81.44
341.386	103.44
341.614	96.44
341.842	90.44
342.07	82.44
342.298	97.44
342.526	81.44
342.754	82.44
342.981	96.44
343.209	93.44
343.437	94.44
343.665	109.44
343.893	101.44
344.12	91.44
344.348	94.44
344.576	91.44
344.804	86.44
345.031	92.44
345.259	91.44
345.487	87.44
345.714	96.44
345.942	93.44
346.17	86.44
346.397	73.44
346.625	89.44
346.853	93.44
347.08	86.44
347.308	98.44
347.535	86.44
347.763	89.44
347.99	100.44
348.218	111.44
348.445	114.44
348.673	97.44
348.9	87.44
349.128	86.44
349.355	100.44
349.583	97.44
349.81	98.44
350.037	100.44
350.265	84.44
350.492	89.44
350.72	102.44
350.947	105.44
351.174	105.44
351.402	107.44
351.629	107.44
351.856	101.44
352.083	101.44
352.311	107.44
352.538	93.44
352.765	98.44
352.992	109.44
353.22	110.44
353.447	95.44
353.674	97.44
353.901	125.44
354.128	82.44
354.355	85.44
354.583	103.44
354.81	99.44
355.037	100.44
355.264	84.44
355.491	96.44
355.718	100.44
355.945	87.44
356.172	92.44
356.399	106.44
356.626	83.44
356.853	80.44
357.08	91.44
357.307	110.44
357.534	84.44
357.761	98.44
357.988	88.44
358.215	108.44
358.441	91.44
358.668	89.44
358.895	99.44
359.122	91.44
359.349	91.44
359.576	94.44
359.802	103.44
360.029	117.44
360.256	102.44
360.483	87.44
360.709	83.44
360.936	97.44
361.163	97.44
361.39	90.44
361.616	83.44
361.843	104.44
362.07	93.44
362.296	86.44
362.523	105.44
362.749	98.44
362.976	102.44
363.203	90.44
363.429	90.44
363.656	90.44
363.882	91.44
364.109	87.44
364.335	74.44
364.562	98.44
364.788	105.44
365.015	87.44
365.241	92.44
365.468	100.44
365.694	100.44
365.92	94.44
366.147	83.44
366.373	89.44
366.599	76.44
366.826	79.44
367.052	97.44
367.278	102.44
367.505	88.44
367.731	94.44
367.957	90.44
368.184	82.44
368.41	96.44
368.636	94.44
368.862	120.44
369.089	98.44
369.315	92.44
369.541	93.44
369.767	84.44
369.993	82.44
370.219	83.44
370.445	95.44
370.672	73.44
370.898	97.44
371.124	86.44
371.35	84.44
371.576	95.44
371.802	97.44
372.028	91.44
372.254	85.44
372.48	81.44
372.706	93.44
372.932	74.44
373.158	91.44
373.384	100.44
373.61	98.44
373.835	93.44
374.061	83.44
374.287	91.44
374.513	98.44
374.739	92.44
374.965	81.44
375.191	88.44
375.416	95.44
375.642	97.44
375.868	85.44
376.094	92.44
376.319	93.44
376.545	104.44
376.771	93.44
376.997	79.44
377.222	93.44
377.448	91.44
377.674	85.44
377.899	78.44
378.125	86.44
378.35	80.44
378.576	93.44
378.802	79.44
379.027	89.44
379.253	93.44
379.478	88.44
379.704	86.44
379.929	85.44
380.155	90.44
380.38	102.44
380.606	95.44
380.831	90.44
381.057	95.44
381.282	98.44
381.507	94.44
381.733	93.44
381.958	78.44
382.184	104.44
382.409	100.44
382.634	110.44
382.86	95.44
383.085	93.44
383.31	82.44
383.535	107.44
383.761	96.44
383.986	90.44
384.211	94.44
384.436	97.44
384.662	92.44
384.887	96.44
385.112	101.44
385.337	92.44
385.562	115.44
385.787	99.44
386.013	105.44
386.238	97.44
386.463	106.44
386.688	108.44
386.913	94.44
387.138	99.44
387.363	102.44
387.588	97.44
387.813	86.44
388.038	106.44
388.263	108.44
388.488	102.44
388.713	89.44
388.938	91.44
389.163	83.44
389.387	93.44
389.612	84.44
389.837	96.44
390.062	89.44
390.287	89.44
390.512	83.44
390.736	89.44
390.961	85.44
391.186	80.44
391.411	90.44
391.636	99.44
391.86	83.44
392.085	102.44
392.31	85.44
392.534	92.44
392.759	90.44
392.984	90.44
393.208	74.44
393.433	84.44
393.658	103.44
393.882	87.44
394.107	81.44
394.331	85.44
394.556	79.44
394.78	91.44
395.005	99.44
395.229	89.44
395.454	80.44
395.678	88.44
395.903	83.44
396.127	93.44
396.352	96.44
396.576	85.44
396.801	96.44
397.025	98.44
397.249	98.44
397.474	95.44
397.698	105.44
397.922	107.44
398.147	91.44
398.371	89.44
398.595	87.44
398.82	95.44
399.044	87.44
399.268	77.44
399.492	99.44
399.717	95.44
399.941	89.44
400.165	98.44
400.389	87.44
400.613	81.44
400.837	105.44
401.062	90.44
401.286	77.44
401.51	95.44
401.734	99.44
401.958	94.44
402.182	123.44
402.406	142.44
402.63	113.44
402.854	97.44
403.078	89.44
403.302	90.44
403.526	77.44
403.75	79.44
403.974	86.44
404.198	93.44
404.422	90.44
404.645	94.44
404.869	93.44
405.093	81.44
405.317	92.44
405.541	82.44
405.765	92.44
405.988	107.44
406.212	150.44
406.436	202.44
406.66	119.44
406.883	114.44
407.107	92.44
407.331	91.44
407.555	98.44
407.778	112.44
408.002	95.44
408.226	83.44
408.449	83.44
408.673	91.44
408.896	86.44
409.12	92.44
409.344	99.44
409.567	75.44
409.791	84.44
410.014	93.44
410.238	89.44
410.461	93.44
410.685	89.44
410.908	88.44
411.132	118.44
411.355	88.44
411.578	85.44
411.802	85.44
412.025	87.44
412.249	80.44
412.472	78.44
412.695	103.44
412.919	94.44
413.142	79.44
413.365	84.44
413.589	89.44
413.812	88.44
414.035	91.44
414.258	90.44
414.482	84.44
414.705	90.44
414.928	93.44
415.151	94.44
415.374	93.44
415.597	92.44
415.821	88.44
416.044	91.44
416.267	86.44
416.49	82.44
416.713	90.44
416.936	85.44
417.159	91.44
417.382	85.44
417.605	81.44
417.828	82.44
418.051	99.44
418.274	94.44
418.497	90.44
418.72	93.44
418.943	92.44
419.166	98.44
419.389	107.44
419.611	96.44
419.834	88.44
420.057	87.44
420.28	94.44
420.503	88.44
420.726	98.44
420.948	97.44
421.171	97.44
421.394	95.44
421.617	89.44
421.839	69.44
422.062	95.44
422.285	86.44
422.507	90.44
422.73	90.44
422.953	87.44
423.175	86.44
423.398	77.44
423.621	87.44
423.843	90.44
424.066	82.44
424.288	77.44
424.511	98.44
424.733	83.44
424.956	100.44
425.178	102.44
425.401	91.44
425.623	103.44
425.846	85.44
426.068	84.44
426.291	86.44
426.513	89.44
426.735	93.44
426.958	89.44
427.18	105.44
427.402	123.44
427.625	130.44
427.847	115.44
428.069	93.44
428.292	77.44
428.514	74.44
428.736	100.44
428.958	89.44
429.181	87.44
429.403	85.44
429.625	99.44
429.847	91.44
430.069	82.44
430.292	92.44
430.514	93.44
430.736	77.44
430.958	87.44
431.18	77.44
431.402	85.44
431.624	90.44
431.846	97.44
432.068	85.44
432.29	99.44
432.512	69.44
432.734	77.44
432.956	91.44
433.178	92.44
433.4	93.44
433.622	94.44
433.844	84.44
434.066	98.44
434.287	102.44
434.509	94.44
434.731	105.44
434.953	91.44
435.175	90.44
435.397	89.44
435.618	103.44
435.84	86.44
436.062	116.44
436.284	107.44
436.505	88.44
436.727	105.44
436.949	83.44
437.17	76.44
437.392	90.44
437.614	99.44
437.835	94.44
438.057	96.44
438.278	94.44
438.5	96.44
438.721	109.44
438.943	93.44
439.165	112.44
439.386	84.44
439.608	102.44
439.829	103.44
440.05	108.44
440.272	132.44
440.493	93.44
440.715	83.44
440.936	88.44
441.158	84.44
441.379	97.44
441.6	101.44
441.822	102.44
442.043	99.44
442.264	105.44
442.486	90.44
442.707	93.44
442.928	98.44
443.149	129.44
443.371	130.44
443.592	107.44
443.813	117.44
444.034	105.44
444.255	102.44
444.476	93.44
444.698	95.44
444.919	85.44
445.14	131.44
445.361	109.44
445.582	112.44
445.803	122.44
446.024	112.44
446.245	123.44
446.466	94.44
446.687	85.44
446.908	88.44
447.129	87.44
447.35	86.44
447.571	70.44
447.792	82.44
448.013	85.44
448.234	98.44
448.455	107.44
448.675	94.44
448.896	103.44
449.117	92.44
449.338	96.44
449.559	108.44
449.779	126.44
450	101.44
450.221	81.44
450.442	88.44
450.662	93.44
450.883	100.44
451.104	106.44
451.324	77.44
451.545	98.44
451.766	81.44
451.986	99.44
452.207	82.44
452.428	93.44
452.648	94.44
452.869	99.44
453.089	102.44
453.31	93.44
453.53	99.44
453.751	96.44
453.971	97.44
454.192	94.44
454.412	86.44
454.633	94.44
454.853	77.44
455.073	90.44
455.294	85.44
455.514	90.44
455.734	87.44
455.955	84.44
456.175	101.44
456.395	80.44
456.616	76.44
456.836	88.44
457.056	87.44
457.276	91.44
457.497	78.44
457.717	100.44
457.937	85.44
458.157	84.44
458.377	81.44
458.598	101.44
458.818	148.44
459.038	167.44
459.258	114.44
459.478	92.44
459.698	87.44
459.918	101.44
460.138	94.44
460.358	91.44
460.578	96.44
460.798	91.44
461.018	96.44
461.238	70.44
461.458	77.44
461.678	81.44
461.898	83.44
462.118	82.44
462.338	84.44
462.558	101.44
462.777	94.44
462.997	86.44
463.217	79.44
463.437	81.44
463.657	91.44
463.876	102.44
464.096	98.44
464.316	88.44
464.536	81.44
464.755	90.44
464.975	89.44
465.195	142.44
465.414	153.44
465.634	89.44
465.854	70.44
466.073	87.44
466.293	89.44
466.512	88.44
466.732	91.44
466.951	94.44
467.171	94.44
467.391	95.44
467.61	91.44
467.829	89.44
468.049	98.44
468.268	97.44
468.488	85.44
468.707	82.44
468.927	86.44
469.146	81.44
469.365	85.44
469.585	82.44
469.804	99.44
470.023	110.44
470.243	80.44
470.462	104.44
470.681	95.44
470.901	83.44
471.12	78.44
471.339	91.44
471.558	78.44
471.777	76.44
471.997	94.44
472.216	92.44
472.435	100.44
472.654	96.44
472.873	93.44
473.092	102.44
473.311	79.44
473.53	83.44
473.749	91.44
473.968	93.44
474.187	94.44
474.406	106.44
474.625	84.44
474.844	86.44
475.063	86.44
475.282	83.44
475.501	93.44
475.72	92.44
475.939	97.44
476.158	89.44
476.377	84.44
476.596	81.44
476.814	85.44
477.033	93.44
477.252	81.44
477.471	84.44
477.69	90.44
477.908	83.44
478.127	90.44
478.346	84.44
478.564	93.44
478.783	90.44
479.002	92.44
479.22	82.44
479.439	102.44
479.658	94.44
479.876	96.44
480.095	90.44
480.313	98.44
480.532	92.44
480.751	91.44
480.969	101.44
481.188	97.44
481.406	94.44
481.624	94.44
481.843	77.44
482.061	85.44
482.28	94.44
482.498	79.44
482.717	92.44
482.935	101.44
483.153	91.44
483.372	89.44
483.59	94.44
483.808	89.44
484.027	98.44
484.245	97.44
484.463	94.44
484.681	94.44
484.9	90.44
485.118	85.44
485.336	100.44
485.554	99.44
485.772	102.44
485.99	91.44
486.209	103.44
486.427	102.44
486.645	119.44
486.863	103.44
487.081	97.44
487.299	111.44
487.517	101.44
487.735	97.44
487.953	73.44
488.171	86.44
488.389	82.44
488.607	98.44
488.825	86.44
489.043	91.44
489.261	88.44
489.479	83.44
489.696	89.44
489.914	94.44
490.132	88.44
490.35	81.44
490.568	97.44
490.786	87.44
491.003	90.44
491.221	83.44
491.439	76.44
491.657	87.44
491.874	97.44
492.092	83.44
492.31	81.44
492.527	90.44
492.745	86.44
492.963	93.44
493.18	97.44
493.398	103.44
493.615	93.44
493.833	92.44
494.05	97.44
494.268	84.44
494.485	97.44
494.703	94.44
494.92	90.44
495.138	82.44
495.355	91.44
495.573	94.44
495.79	100.44
496.008	103.44
496.225	78.44
496.442	87.44
496.66	88.44
496.877	97.44
497.094	98.44
497.312	97.44
497.529	86.44
497.746	101.44
497.963	84.44
498.181	98.44
498.398	102.44
498.615	110.44
498.832	103.44
499.049	71.44
499.267	90.44
499.484	95.44
499.701	93.44
499.918	84.44
500.135	83.44
500.352	83.44
500.569	82.44
500.786	93.44
501.003	92.44
501.22	83.44
501.437	103.44
501.654	94.44
501.871	97.44
502.088	81.44
502.305	112.44
502.522	92.44
502.739	87.44
502.956	92.44
503.172	89.44
503.389	85.44
503.606	103.44
503.823	89.44
504.04	91.44
504.256	108.44
504.473	86.44
504.69	96.44
504.907	83.44
505.123	79.44
505.34	100.44
505.557	92.44
505.773	84.44
505.99	87.44
506.207	87.44
506.423	88.44
506.64	75.44
506.856	83.44
507.073	99.44
507.289	85.44
507.506	101.44
507.722	99.44
507.939	102.44
508.155	87.44
508.372	98.44
508.588	97.44
508.805	92.44
509.021	96.44
509.238	96.44
509.454	103.44
509.67	99.44
509.887	101.44
510.103	124.44
510.319	204.44
510.536	724.44
510.752	2085.44
510.968	603.44
511.184	135.44
511.401	109.44
511.617	111.44
511.833	97.44
512.049	81.44
512.265	92.44
512.481	101.44
512.698	97.44
512.914	87.44
513.13	87.44
513.346	78.44
513.562	89.44
513.778	105.44
513.994	99.44
514.21	90.44
514.426	97.44
514.642	138.44
514.858	114.44
515.074	145.44
515.29	407.44
515.506	1255.44
515.721	458.44
515.937	139.44
516.153	124.44
516.369	96.44
