Data from Uncirc_1992_H10_HRD10591_00041.txt Node
Date: Wed Jan 03 11:46:24 EST 2024
User: Yrep
Spectrometer: HR+D1059
Trigger mode: 1
Integration Time (sec): 1.000000E-1
Scans to average: 1
Electric dark correction enabled: true
Nonlinearity correction enabled: false
Boxcar width: 0
XAxis mode: Wavelengths
Number of Pixels in Spectrum: 2048
>>>>>Begin Spectral Data<<<<<
223.165	-2.62
223.4	-2.62
223.635	-2.62
223.869	-18.62
224.104	-33.62
224.338	-17.62
224.573	-4.62
224.808	1.38
225.042	-7.62
225.277	-22.62
225.511	-3.62
225.746	0.38
225.98	2.38
226.215	24.38
226.449	22.38
226.683	22.38
226.918	17.38
227.152	20.38
227.387	35.38
227.621	34.38
227.856	53.38
228.09	42.38
228.324	49.38
228.559	51.38
228.793	56.38
229.027	53.38
229.262	52.38
229.496	60.38
229.73	68.38
229.964	69.38
230.199	71.38
230.433	71.38
230.667	89.38
230.901	82.38
231.136	77.38
231.37	74.38
231.604	67.38
231.838	85.38
232.072	81.38
232.306	95.38
232.541	89.38
232.775	86.38
233.009	77.38
233.243	69.38
233.477	79.38
233.711	75.38
233.945	79.38
234.179	85.38
234.413	86.38
234.647	75.38
234.881	77.38
235.115	84.38
235.349	66.38
235.583	91.38
235.817	95.38
236.051	86.38
236.285	80.38
236.519	71.38
236.753	77.38
236.987	91.38
237.221	68.38
237.455	69.38
237.689	77.38
237.922	84.38
238.156	74.38
238.39	80.38
238.624	81.38
238.858	81.38
239.091	93.38
239.325	92.38
239.559	75.38
239.793	76.38
240.027	86.38
240.26	70.38
240.494	79.38
240.728	90.38
240.961	70.38
241.195	66.38
241.429	78.38
241.662	80.38
241.896	64.38
242.13	62.38
242.363	89.38
242.597	81.38
242.83	89.38
243.064	86.38
243.298	68.38
243.531	85.38
243.765	68.38
243.998	66.38
244.232	84.38
244.465	87.38
244.699	84.38
244.932	79.38
245.166	74.38
245.399	91.38
245.633	71.38
245.866	71.38
246.099	69.38
246.333	75.38
246.566	86.38
246.8	90.38
247.033	73.38
247.266	68.38
247.5	83.38
247.733	77.38
247.966	95.38
248.2	71.38
248.433	79.38
248.666	64.38
248.899	69.38
249.133	73.38
249.366	87.38
249.599	107.38
249.832	68.38
250.066	68.38
250.299	88.38
250.532	90.38
250.765	81.38
250.998	91.38
251.231	74.38
251.465	70.38
251.698	87.38
251.931	80.38
252.164	75.38
252.397	96.38
252.63	82.38
252.863	86.38
253.096	85.38
253.329	75.38
253.562	81.38
253.795	81.38
254.028	88.38
254.261	83.38
254.494	81.38
254.727	96.38
254.96	75.38
255.193	85.38
255.426	86.38
255.659	70.38
255.892	70.38
256.124	84.38
256.357	91.38
256.59	77.38
256.823	77.38
257.056	76.38
257.289	92.38
257.521	81.38
257.754	86.38
257.987	79.38
258.22	75.38
258.452	85.38
258.685	85.38
258.918	82.38
259.151	89.38
259.383	60.38
259.616	82.38
259.849	88.38
260.081	81.38
260.314	89.38
260.547	83.38
260.779	78.38
261.012	80.38
261.244	86.38
261.477	86.38
261.71	96.38
261.942	97.38
262.175	109.38
262.407	77.38
262.64	78.38
262.872	85.38
263.105	87.38
263.337	81.38
263.57	79.38
263.802	74.38
264.035	85.38
264.267	76.38
264.499	86.38
264.732	92.38
264.964	80.38
265.197	92.38
265.429	69.38
265.661	77.38
265.894	75.38
266.126	84.38
266.358	89.38
266.591	68.38
266.823	94.38
267.055	66.38
267.287	79.38
267.52	85.38
267.752	82.38
267.984	90.38
268.216	78.38
268.448	80.38
268.681	96.38
268.913	88.38
269.145	90.38
269.377	86.38
269.609	88.38
269.841	83.38
270.073	78.38
270.306	72.38
270.538	82.38
270.77	81.38
271.002	90.38
271.234	85.38
271.466	85.38
271.698	84.38
271.93	87.38
272.162	81.38
272.394	91.38
272.626	88.38
272.858	85.38
273.09	93.38
273.322	80.38
273.553	78.38
273.785	83.38
274.017	93.38
274.249	76.38
274.481	81.38
274.713	86.38
274.945	94.38
275.176	86.38
275.408	79.38
275.64	88.38
275.872	101.38
276.104	80.38
276.335	75.38
276.567	92.38
276.799	99.38
277.031	103.38
277.262	91.38
277.494	82.38
277.726	85.38
277.957	78.38
278.189	80.38
278.421	79.38
278.652	77.38
278.884	82.38
279.115	89.38
279.347	78.38
279.579	70.38
279.81	78.38
280.042	85.38
280.273	85.38
280.505	93.38
280.736	75.38
280.968	69.38
281.199	93.38
281.431	86.38
281.662	89.38
281.894	99.38
282.125	91.38
282.356	113.38
282.588	129.38
282.819	110.38
283.051	93.38
283.282	87.38
283.513	93.38
283.745	84.38
283.976	85.38
284.207	87.38
284.439	91.38
284.67	97.38
284.901	73.38
285.132	84.38
285.364	92.38
285.595	79.38
285.826	85.38
286.057	97.38
286.288	96.38
286.52	87.38
286.751	85.38
286.982	93.38
287.213	88.38
287.444	91.38
287.675	95.38
287.906	85.38
288.138	70.38
288.369	88.38
288.6	97.38
288.831	85.38
289.062	97.38
289.293	95.38
289.524	89.38
289.755	101.38
289.986	82.38
290.217	97.38
290.448	81.38
290.679	87.38
290.91	83.38
291.141	80.38
291.371	81.38
291.602	91.38
291.833	86.38
292.064	96.38
292.295	94.38
292.526	89.38
292.757	92.38
292.987	76.38
293.218	85.38
293.449	100.38
293.68	88.38
293.91	78.38
294.141	81.38
294.372	63.38
294.603	93.38
294.833	92.38
295.064	97.38
295.295	86.38
295.525	93.38
295.756	105.38
295.987	103.38
296.217	128.38
296.448	113.38
296.679	92.38
296.909	94.38
297.14	92.38
297.37	82.38
297.601	93.38
297.831	77.38
298.062	93.38
298.292	90.38
298.523	96.38
298.753	95.38
298.984	91.38
299.214	97.38
299.445	95.38
299.675	91.38
299.905	95.38
300.136	73.38
300.366	113.38
300.597	96.38
300.827	95.38
301.057	100.38
301.288	95.38
301.518	95.38
301.748	90.38
301.979	109.38
302.209	104.38
302.439	106.38
302.669	81.38
302.9	89.38
303.13	97.38
303.36	101.38
303.59	96.38
303.82	97.38
304.051	101.38
304.281	95.38
304.511	82.38
304.741	86.38
304.971	91.38
305.201	99.38
305.431	93.38
305.661	82.38
305.891	86.38
306.121	95.38
306.352	108.38
306.582	116.38
306.812	106.38
307.042	93.38
307.272	86.38
307.502	84.38
307.731	91.38
307.961	98.38
308.191	102.38
308.421	102.38
308.651	81.38
308.881	85.38
309.111	99.38
309.341	109.38
309.571	87.38
309.8	101.38
310.03	84.38
310.26	90.38
310.49	85.38
310.72	90.38
310.949	95.38
311.179	106.38
311.409	91.38
311.639	94.38
311.868	85.38
312.098	98.38
312.328	90.38
312.557	98.38
312.787	98.38
313.017	95.38
313.246	91.38
313.476	95.38
313.706	101.38
313.935	102.38
314.165	96.38
314.394	83.38
314.624	90.38
314.853	96.38
315.083	94.38
315.312	85.38
315.542	110.38
315.771	79.38
316.001	93.38
316.23	83.38
316.46	87.38
316.689	83.38
316.919	93.38
317.148	91.38
317.377	96.38
317.607	87.38
317.836	104.38
318.065	79.38
318.295	75.38
318.524	86.38
318.753	98.38
318.983	102.38
319.212	102.38
319.441	106.38
319.67	106.38
319.9	94.38
320.129	94.38
320.358	97.38
320.587	93.38
320.816	100.38
321.046	103.38
321.275	96.38
321.504	90.38
321.733	97.38
321.962	86.38
322.191	104.38
322.42	89.38
322.649	113.38
322.878	117.38
323.108	109.38
323.337	130.38
323.566	129.38
323.795	146.38
324.024	175.38
324.253	326.38
324.482	671.38
324.71	1340.38
324.939	1689.38
325.168	650.38
325.397	215.38
325.626	131.38
325.855	120.38
326.084	112.38
326.313	133.38
326.542	133.38
326.77	199.38
326.999	363.38
327.228	747.38
327.457	1349.38
327.686	1045.38
327.914	305.38
328.143	168.38
328.372	142.38
328.6	122.38
328.829	119.38
329.058	115.38
329.287	100.38
329.515	122.38
329.744	106.38
329.972	101.38
330.201	112.38
330.43	92.38
330.658	108.38
330.887	132.38
331.115	116.38
331.344	102.38
331.572	102.38
331.801	110.38
332.03	89.38
332.258	95.38
332.486	98.38
332.715	92.38
332.943	102.38
333.172	83.38
333.4	101.38
333.629	93.38
333.857	112.38
334.085	106.38
334.314	85.38
334.542	102.38
334.771	99.38
334.999	97.38
335.227	99.38
335.455	82.38
335.684	79.38
335.912	113.38
336.14	107.38
336.369	94.38
336.597	83.38
336.825	89.38
337.053	86.38
337.281	80.38
337.51	97.38
337.738	88.38
337.966	97.38
338.194	86.38
338.422	97.38
338.65	82.38
338.878	68.38
339.106	92.38
339.334	92.38
339.562	81.38
339.79	91.38
340.018	108.38
340.246	91.38
340.474	98.38
340.702	82.38
340.93	80.38
341.158	98.38
341.386	90.38
341.614	100.38
341.842	92.38
342.07	99.38
342.298	79.38
342.526	78.38
342.754	85.38
342.981	77.38
343.209	91.38
343.437	84.38
343.665	106.38
343.893	77.38
344.12	92.38
344.348	92.38
344.576	99.38
344.804	98.38
345.031	100.38
345.259	92.38
345.487	87.38
345.714	100.38
345.942	70.38
346.17	78.38
346.397	92.38
346.625	80.38
346.853	94.38
347.08	91.38
347.308	111.38
347.535	93.38
347.763	107.38
347.99	100.38
348.218	113.38
348.445	109.38
348.673	95.38
348.9	91.38
349.128	103.38
349.355	91.38
349.583	86.38
349.81	91.38
350.037	99.38
350.265	92.38
350.492	93.38
350.72	103.38
350.947	94.38
351.174	108.38
351.402	112.38
351.629	112.38
351.856	100.38
352.083	91.38
352.311	94.38
352.538	105.38
352.765	100.38
352.992	113.38
353.22	121.38
353.447	96.38
353.674	95.38
353.901	101.38
354.128	97.38
354.355	100.38
354.583	100.38
354.81	91.38
355.037	109.38
355.264	86.38
355.491	95.38
355.718	85.38
355.945	106.38
356.172	108.38
356.399	89.38
356.626	91.38
356.853	90.38
357.08	93.38
357.307	101.38
357.534	93.38
357.761	99.38
357.988	99.38
358.215	94.38
358.441	100.38
358.668	93.38
358.895	81.38
359.122	84.38
359.349	106.38
359.576	92.38
359.802	88.38
360.029	110.38
360.256	98.38
360.483	78.38
360.709	77.38
360.936	91.38
361.163	82.38
361.39	97.38
361.616	85.38
361.843	100.38
362.07	103.38
362.296	107.38
362.523	74.38
362.749	89.38
362.976	93.38
363.203	112.38
363.429	92.38
363.656	101.38
363.882	85.38
364.109	82.38
364.335	97.38
364.562	81.38
364.788	83.38
365.015	99.38
365.241	113.38
365.468	109.38
365.694	100.38
365.92	94.38
366.147	91.38
366.373	92.38
366.599	90.38
366.826	87.38
367.052	89.38
367.278	91.38
367.505	77.38
367.731	90.38
367.957	99.38
368.184	87.38
368.41	98.38
368.636	114.38
368.862	124.38
369.089	94.38
369.315	86.38
369.541	91.38
369.767	106.38
369.993	92.38
370.219	97.38
370.445	84.38
370.672	81.38
370.898	85.38
371.124	84.38
371.35	77.38
371.576	96.38
371.802	84.38
372.028	92.38
372.254	84.38
372.48	82.38
372.706	75.38
372.932	83.38
373.158	94.38
373.384	104.38
373.61	89.38
373.835	96.38
374.061	75.38
374.287	78.38
374.513	87.38
374.739	92.38
374.965	80.38
375.191	93.38
375.416	85.38
375.642	70.38
375.868	96.38
376.094	99.38
376.319	88.38
376.545	85.38
376.771	91.38
376.997	91.38
377.222	89.38
377.448	84.38
377.674	83.38
377.899	96.38
378.125	111.38
378.35	104.38
378.576	82.38
378.802	95.38
379.027	94.38
379.253	89.38
379.478	64.38
379.704	89.38
379.929	111.38
380.155	95.38
380.38	103.38
380.606	81.38
380.831	92.38
381.057	104.38
381.282	90.38
381.507	96.38
381.733	89.38
381.958	83.38
382.184	101.38
382.409	90.38
382.634	93.38
382.86	101.38
383.085	93.38
383.31	111.38
383.535	103.38
383.761	92.38
383.986	106.38
384.211	102.38
384.436	98.38
384.662	98.38
384.887	93.38
385.112	99.38
385.337	89.38
385.562	97.38
385.787	115.38
386.013	107.38
386.238	109.38
386.463	103.38
386.688	100.38
386.913	90.38
387.138	94.38
387.363	89.38
387.588	80.38
387.813	87.38
388.038	91.38
388.263	111.38
388.488	97.38
388.713	91.38
388.938	89.38
389.163	85.38
389.387	98.38
389.612	114.38
389.837	84.38
390.062	92.38
390.287	89.38
390.512	89.38
390.736	84.38
390.961	102.38
391.186	92.38
391.411	97.38
391.636	108.38
391.86	89.38
392.085	77.38
392.31	69.38
392.534	96.38
392.759	92.38
392.984	104.38
393.208	91.38
393.433	99.38
393.658	97.38
393.882	92.38
394.107	84.38
394.331	78.38
394.556	92.38
394.78	101.38
395.005	92.38
395.229	101.38
395.454	102.38
395.678	69.38
395.903	68.38
396.127	69.38
396.352	95.38
396.576	86.38
396.801	83.38
397.025	96.38
397.249	104.38
397.474	88.38
397.698	90.38
397.922	89.38
398.147	79.38
398.371	85.38
398.595	77.38
398.82	90.38
399.044	77.38
399.268	88.38
399.492	93.38
399.717	77.38
399.941	82.38
400.165	92.38
400.389	92.38
400.613	82.38
400.837	97.38
401.062	101.38
401.286	91.38
401.51	85.38
401.734	74.38
401.958	100.38
402.182	111.38
402.406	125.38
402.63	119.38
402.854	96.38
403.078	81.38
403.302	85.38
403.526	90.38
403.75	94.38
403.974	87.38
404.198	86.38
404.422	95.38
404.645	97.38
404.869	99.38
405.093	86.38
405.317	106.38
405.541	79.38
405.765	102.38
405.988	111.38
406.212	155.38
406.436	205.38
406.66	127.38
406.883	97.38
407.107	82.38
407.331	89.38
407.555	93.38
407.778	86.38
408.002	89.38
408.226	94.38
408.449	92.38
408.673	97.38
408.896	85.38
409.12	94.38
409.344	84.38
409.567	90.38
409.791	90.38
410.014	93.38
410.238	97.38
410.461	88.38
410.685	100.38
410.908	94.38
411.132	92.38
411.355	98.38
411.578	82.38
411.802	82.38
412.025	76.38
412.249	82.38
412.472	82.38
412.695	89.38
412.919	88.38
413.142	88.38
413.365	86.38
413.589	95.38
413.812	83.38
414.035	83.38
414.258	94.38
414.482	88.38
414.705	94.38
414.928	83.38
415.151	100.38
415.374	101.38
415.597	92.38
415.821	82.38
416.044	91.38
416.267	85.38
416.49	82.38
416.713	84.38
416.936	81.38
417.159	100.38
417.382	90.38
417.605	90.38
417.828	90.38
418.051	104.38
418.274	92.38
418.497	94.38
418.72	83.38
418.943	99.38
419.166	95.38
419.389	78.38
419.611	94.38
419.834	97.38
420.057	83.38
420.28	79.38
420.503	88.38
420.726	71.38
420.948	86.38
421.171	93.38
421.394	78.38
421.617	85.38
421.839	99.38
422.062	90.38
422.285	96.38
422.507	109.38
422.73	111.38
422.953	110.38
423.175	79.38
423.398	90.38
423.621	85.38
423.843	91.38
424.066	98.38
424.288	83.38
424.511	105.38
424.733	91.38
424.956	103.38
425.178	94.38
425.401	87.38
425.623	95.38
425.846	101.38
426.068	83.38
426.291	85.38
426.513	90.38
426.735	70.38
426.958	107.38
427.18	81.38
427.402	126.38
427.625	137.38
427.847	101.38
428.069	101.38
428.292	91.38
428.514	86.38
428.736	82.38
428.958	85.38
429.181	96.38
429.403	90.38
429.625	91.38
429.847	95.38
430.069	107.38
430.292	84.38
430.514	86.38
430.736	97.38
430.958	87.38
431.18	91.38
431.402	69.38
431.624	79.38
431.846	93.38
432.068	85.38
432.29	89.38
432.512	85.38
432.734	85.38
432.956	93.38
433.178	101.38
433.4	89.38
433.622	91.38
433.844	87.38
434.066	73.38
434.287	82.38
434.509	84.38
434.731	82.38
434.953	92.38
435.175	86.38
435.397	87.38
435.618	89.38
435.84	86.38
436.062	110.38
436.284	101.38
436.505	99.38
436.727	96.38
436.949	107.38
437.17	88.38
437.392	86.38
437.614	92.38
437.835	111.38
438.057	115.38
438.278	98.38
438.5	106.38
438.721	109.38
438.943	84.38
439.165	97.38
439.386	84.38
439.608	91.38
439.829	95.38
440.05	110.38
440.272	117.38
440.493	84.38
440.715	75.38
440.936	98.38
441.158	93.38
441.379	83.38
441.6	79.38
441.822	86.38
442.043	90.38
442.264	92.38
442.486	101.38
442.707	82.38
442.928	108.38
443.149	110.38
443.371	129.38
443.592	109.38
443.813	99.38
444.034	95.38
444.255	89.38
444.476	92.38
444.698	79.38
444.919	64.38
445.14	122.38
445.361	118.38
445.582	106.38
445.803	104.38
446.024	116.38
446.245	119.38
446.466	109.38
446.687	95.38
446.908	93.38
447.129	92.38
447.35	88.38
447.571	94.38
447.792	94.38
448.013	97.38
448.234	97.38
448.455	98.38
448.675	107.38
448.896	108.38
449.117	109.38
449.338	99.38
449.559	132.38
449.779	94.38
450	86.38
450.221	78.38
450.442	85.38
450.662	87.38
450.883	106.38
451.104	96.38
451.324	85.38
451.545	94.38
451.766	80.38
451.986	89.38
452.207	99.38
452.428	87.38
452.648	92.38
452.869	102.38
453.089	109.38
453.31	112.38
453.53	101.38
453.751	100.38
453.971	112.38
454.192	91.38
454.412	74.38
454.633	89.38
454.853	101.38
455.073	88.38
455.294	89.38
455.514	78.38
455.734	94.38
455.955	81.38
456.175	91.38
456.395	77.38
456.616	75.38
456.836	90.38
457.056	95.38
457.276	85.38
457.497	86.38
457.717	87.38
457.937	96.38
458.157	86.38
458.377	92.38
458.598	95.38
458.818	124.38
459.038	135.38
459.258	101.38
459.478	83.38
459.698	85.38
459.918	91.38
460.138	94.38
460.358	93.38
460.578	104.38
460.798	81.38
461.018	82.38
461.238	99.38
461.458	82.38
461.678	76.38
461.898	79.38
462.118	88.38
462.338	76.38
462.558	93.38
462.777	71.38
462.997	71.38
463.217	82.38
463.437	68.38
463.657	74.38
463.876	82.38
464.096	93.38
464.316	83.38
464.536	83.38
464.755	100.38
464.975	85.38
465.195	140.38
465.414	121.38
465.634	87.38
465.854	91.38
466.073	91.38
466.293	85.38
466.512	88.38
466.732	83.38
466.951	80.38
467.171	95.38
467.391	92.38
467.61	94.38
467.829	84.38
468.049	93.38
468.268	85.38
468.488	84.38
468.707	81.38
468.927	81.38
469.146	92.38
469.365	98.38
469.585	82.38
469.804	106.38
470.023	107.38
470.243	90.38
470.462	96.38
470.681	95.38
470.901	82.38
471.12	89.38
471.339	89.38
471.558	70.38
471.777	79.38
471.997	71.38
472.216	101.38
472.435	91.38
472.654	94.38
472.873	87.38
473.092	80.38
473.311	108.38
473.53	83.38
473.749	98.38
473.968	98.38
474.187	92.38
474.406	73.38
474.625	77.38
474.844	86.38
475.063	91.38
475.282	83.38
475.501	76.38
475.72	70.38
475.939	77.38
476.158	88.38
476.377	96.38
476.596	84.38
476.814	89.38
477.033	99.38
477.252	99.38
477.471	85.38
477.69	96.38
477.908	91.38
478.127	99.38
478.346	89.38
478.564	88.38
478.783	101.38
479.002	98.38
479.22	91.38
479.439	94.38
479.658	96.38
479.876	91.38
480.095	102.38
480.313	94.38
480.532	94.38
480.751	86.38
480.969	85.38
481.188	92.38
481.406	92.38
481.624	87.38
481.843	89.38
482.061	86.38
482.28	93.38
482.498	86.38
482.717	93.38
482.935	81.38
483.153	90.38
483.372	84.38
483.59	92.38
483.808	84.38
484.027	94.38
484.245	90.38
484.463	91.38
484.681	93.38
484.9	89.38
485.118	92.38
485.336	94.38
485.554	108.38
485.772	98.38
485.99	102.38
486.209	99.38
486.427	97.38
486.645	99.38
486.863	95.38
487.081	81.38
487.299	108.38
487.517	91.38
487.735	101.38
487.953	79.38
488.171	85.38
488.389	102.38
488.607	93.38
488.825	84.38
489.043	96.38
489.261	88.38
489.479	83.38
489.696	80.38
489.914	91.38
490.132	79.38
490.35	82.38
490.568	91.38
490.786	100.38
491.003	87.38
491.221	85.38
491.439	93.38
491.657	77.38
491.874	85.38
492.092	98.38
492.31	89.38
492.527	82.38
492.745	106.38
492.963	98.38
493.18	92.38
493.398	100.38
493.615	91.38
493.833	96.38
494.05	81.38
494.268	91.38
494.485	100.38
494.703	87.38
494.92	74.38
495.138	86.38
495.355	85.38
495.573	89.38
495.79	98.38
496.008	87.38
496.225	81.38
496.442	83.38
496.66	90.38
496.877	90.38
497.094	95.38
497.312	92.38
497.529	98.38
497.746	86.38
497.963	91.38
498.181	103.38
498.398	88.38
498.615	98.38
498.832	94.38
499.049	94.38
499.267	92.38
499.484	71.38
499.701	81.38
499.918	91.38
500.135	93.38
500.352	93.38
500.569	90.38
500.786	82.38
501.003	85.38
501.22	78.38
501.437	84.38
501.654	98.38
501.871	109.38
502.088	83.38
502.305	98.38
502.522	93.38
502.739	89.38
502.956	101.38
503.172	86.38
503.389	81.38
503.606	95.38
503.823	108.38
504.04	104.38
504.256	87.38
504.473	106.38
504.69	91.38
504.907	98.38
505.123	97.38
505.34	82.38
505.557	86.38
505.773	91.38
505.99	96.38
506.207	83.38
506.423	93.38
506.64	94.38
506.856	86.38
507.073	92.38
507.289	98.38
507.506	89.38
507.722	109.38
507.939	109.38
508.155	100.38
508.372	89.38
508.588	91.38
508.805	82.38
509.021	91.38
509.238	96.38
509.454	99.38
509.67	96.38
509.887	105.38
510.103	119.38
510.319	181.38
510.536	682.38
510.752	2066.38
510.968	577.38
511.184	145.38
511.401	98.38
511.617	85.38
511.833	105.38
512.049	103.38
512.265	102.38
512.481	81.38
512.698	99.38
512.914	110.38
513.13	83.38
513.346	92.38
513.562	102.38
513.778	84.38
513.994	89.38
514.21	105.38
514.426	116.38
514.642	117.38
514.858	127.38
515.074	161.38
515.29	395.38
515.506	1214.38
515.721	464.38
515.937	137.38
516.153	107.38
516.369	103.38
