Data from Uncirc_1992_H10_HRD10591_00022.txt Node
Date: Wed Jan 03 11:46:20 EST 2024
User: Yrep
Spectrometer: HR+D1059
Trigger mode: 1
Integration Time (sec): 1.000000E-1
Scans to average: 1
Electric dark correction enabled: true
Nonlinearity correction enabled: false
Boxcar width: 0
XAxis mode: Wavelengths
Number of Pixels in Spectrum: 2048
>>>>>Begin Spectral Data<<<<<
223.165	-14.56
223.4	-14.56
223.635	-14.56
223.869	-15.56
224.104	-16.56
224.338	-12.56
224.573	-13.56
224.808	-14.56
225.042	-6.56
225.277	-12.56
225.511	-21.56
225.746	2.44
225.98	7.44
226.215	4.44
226.449	25.44
226.683	23.44
226.918	35.44
227.152	29.44
227.387	47.44
227.621	45.44
227.856	54.44
228.09	46.44
228.324	35.44
228.559	62.44
228.793	56.44
229.027	66.44
229.262	59.44
229.496	50.44
229.73	70.44
229.964	89.44
230.199	60.44
230.433	88.44
230.667	91.44
230.901	78.44
231.136	73.44
231.37	78.44
231.604	91.44
231.838	92.44
232.072	88.44
232.306	78.44
232.541	85.44
232.775	94.44
233.009	74.44
233.243	90.44
233.477	98.44
233.711	81.44
233.945	83.44
234.179	80.44
234.413	92.44
234.647	92.44
234.881	85.44
235.115	81.44
235.349	79.44
235.583	84.44
235.817	72.44
236.051	81.44
236.285	63.44
236.519	82.44
236.753	95.44
236.987	85.44
237.221	79.44
237.455	78.44
237.689	72.44
237.922	80.44
238.156	83.44
238.39	69.44
238.624	77.44
238.858	72.44
239.091	67.44
239.325	86.44
239.559	93.44
239.793	84.44
240.027	83.44
240.26	87.44
240.494	90.44
240.728	72.44
240.961	79.44
241.195	71.44
241.429	89.44
241.662	80.44
241.896	65.44
242.13	72.44
242.363	69.44
242.597	68.44
242.83	78.44
243.064	93.44
243.298	72.44
243.531	84.44
243.765	86.44
243.998	78.44
244.232	63.44
244.465	83.44
244.699	71.44
244.932	83.44
245.166	83.44
245.399	77.44
245.633	82.44
245.866	84.44
246.099	85.44
246.333	88.44
246.566	90.44
246.8	79.44
247.033	83.44
247.266	80.44
247.5	71.44
247.733	88.44
247.966	86.44
248.2	73.44
248.433	96.44
248.666	88.44
248.899	91.44
249.133	93.44
249.366	107.44
249.599	96.44
249.832	92.44
250.066	95.44
250.299	83.44
250.532	85.44
250.765	88.44
250.998	89.44
251.231	89.44
251.465	91.44
251.698	79.44
251.931	79.44
252.164	80.44
252.397	83.44
252.63	79.44
252.863	93.44
253.096	94.44
253.329	89.44
253.562	89.44
253.795	73.44
254.028	80.44
254.261	91.44
254.494	84.44
254.727	79.44
254.96	75.44
255.193	85.44
255.426	66.44
255.659	89.44
255.892	79.44
256.124	79.44
256.357	95.44
256.59	96.44
256.823	81.44
257.056	88.44
257.289	81.44
257.521	81.44
257.754	85.44
257.987	95.44
258.22	88.44
258.452	95.44
258.685	91.44
258.918	75.44
259.151	84.44
259.383	83.44
259.616	75.44
259.849	89.44
260.081	92.44
260.314	89.44
260.547	85.44
260.779	73.44
261.012	88.44
261.244	98.44
261.477	89.44
261.71	91.44
261.942	99.44
262.175	112.44
262.407	86.44
262.64	77.44
262.872	81.44
263.105	71.44
263.337	94.44
263.57	84.44
263.802	98.44
264.035	84.44
264.267	95.44
264.499	80.44
264.732	78.44
264.964	89.44
265.197	91.44
265.429	81.44
265.661	91.44
265.894	96.44
266.126	82.44
266.358	83.44
266.591	75.44
266.823	81.44
267.055	100.44
267.287	78.44
267.52	77.44
267.752	83.44
267.984	87.44
268.216	93.44
268.448	81.44
268.681	85.44
268.913	86.44
269.145	86.44
269.377	83.44
269.609	81.44
269.841	77.44
270.073	98.44
270.306	80.44
270.538	84.44
270.77	88.44
271.002	83.44
271.234	78.44
271.466	71.44
271.698	80.44
271.93	106.44
272.162	87.44
272.394	96.44
272.626	92.44
272.858	91.44
273.09	74.44
273.322	84.44
273.553	82.44
273.785	85.44
274.017	91.44
274.249	87.44
274.481	91.44
274.713	95.44
274.945	83.44
275.176	93.44
275.408	84.44
275.64	92.44
275.872	93.44
276.104	91.44
276.335	83.44
276.567	93.44
276.799	79.44
277.031	93.44
277.262	93.44
277.494	95.44
277.726	99.44
277.957	85.44
278.189	91.44
278.421	78.44
278.652	82.44
278.884	89.44
279.115	86.44
279.347	83.44
279.579	86.44
279.81	97.44
280.042	92.44
280.273	90.44
280.505	92.44
280.736	78.44
280.968	88.44
281.199	87.44
281.431	81.44
281.662	92.44
281.894	96.44
282.125	93.44
282.356	113.44
282.588	132.44
282.819	100.44
283.051	86.44
283.282	79.44
283.513	84.44
283.745	85.44
283.976	82.44
284.207	91.44
284.439	84.44
284.67	95.44
284.901	91.44
285.132	94.44
285.364	95.44
285.595	83.44
285.826	86.44
286.057	95.44
286.288	94.44
286.52	94.44
286.751	78.44
286.982	83.44
287.213	71.44
287.444	76.44
287.675	77.44
287.906	94.44
288.138	88.44
288.369	103.44
288.6	92.44
288.831	101.44
289.062	83.44
289.293	76.44
289.524	87.44
289.755	83.44
289.986	88.44
290.217	87.44
290.448	88.44
290.679	91.44
290.91	99.44
291.141	87.44
291.371	86.44
291.602	83.44
291.833	88.44
292.064	99.44
292.295	84.44
292.526	83.44
292.757	93.44
292.987	104.44
293.218	98.44
293.449	95.44
293.68	84.44
293.91	93.44
294.141	100.44
294.372	91.44
294.603	82.44
294.833	82.44
295.064	76.44
295.295	88.44
295.525	89.44
295.756	94.44
295.987	111.44
296.217	126.44
296.448	103.44
296.679	101.44
296.909	93.44
297.14	94.44
297.37	106.44
297.601	97.44
297.831	84.44
298.062	94.44
298.292	87.44
298.523	83.44
298.753	84.44
298.984	87.44
299.214	95.44
299.445	94.44
299.675	96.44
299.905	87.44
300.136	101.44
300.366	101.44
300.597	94.44
300.827	94.44
301.057	84.44
301.288	86.44
301.518	100.44
301.748	89.44
301.979	100.44
302.209	94.44
302.439	93.44
302.669	96.44
302.9	100.44
303.13	86.44
303.36	91.44
303.59	104.44
303.82	107.44
304.051	101.44
304.281	83.44
304.511	94.44
304.741	105.44
304.971	88.44
305.201	102.44
305.431	88.44
305.661	95.44
305.891	78.44
306.121	102.44
306.352	85.44
306.582	97.44
306.812	81.44
307.042	94.44
307.272	95.44
307.502	94.44
307.731	100.44
307.961	87.44
308.191	82.44
308.421	96.44
308.651	86.44
308.881	86.44
309.111	86.44
309.341	108.44
309.571	90.44
309.8	96.44
310.03	104.44
310.26	93.44
310.49	90.44
310.72	89.44
310.949	97.44
311.179	96.44
311.409	95.44
311.639	90.44
311.868	84.44
312.098	86.44
312.328	100.44
312.557	101.44
312.787	99.44
313.017	99.44
313.246	99.44
313.476	104.44
313.706	89.44
313.935	102.44
314.165	100.44
314.394	102.44
314.624	105.44
314.853	103.44
315.083	90.44
315.312	94.44
315.542	95.44
315.771	81.44
316.001	76.44
316.23	96.44
316.46	83.44
316.689	81.44
316.919	104.44
317.148	87.44
317.377	99.44
317.607	94.44
317.836	103.44
318.065	92.44
318.295	109.44
318.524	85.44
318.753	86.44
318.983	89.44
319.212	102.44
319.441	98.44
319.67	103.44
319.9	97.44
320.129	100.44
320.358	89.44
320.587	92.44
320.816	94.44
321.046	93.44
321.275	97.44
321.504	96.44
321.733	95.44
321.962	95.44
322.191	101.44
322.42	103.44
322.649	118.44
322.878	115.44
323.108	115.44
323.337	118.44
323.566	133.44
323.795	130.44
324.024	182.44
324.253	363.44
324.482	695.44
324.71	1438.44
324.939	1835.44
325.168	681.44
325.397	201.44
325.626	132.44
325.855	124.44
326.084	139.44
326.313	112.44
326.542	133.44
326.77	210.44
326.999	390.44
327.228	816.44
327.457	1435.44
327.686	1121.44
327.914	328.44
328.143	163.44
328.372	124.44
328.6	126.44
328.829	115.44
329.058	122.44
329.287	104.44
329.515	115.44
329.744	104.44
329.972	100.44
330.201	98.44
330.43	95.44
330.658	102.44
330.887	112.44
331.115	116.44
331.344	101.44
331.572	96.44
331.801	98.44
332.03	104.44
332.258	92.44
332.486	101.44
332.715	95.44
332.943	83.44
333.172	82.44
333.4	85.44
333.629	111.44
333.857	101.44
334.085	96.44
334.314	102.44
334.542	100.44
334.771	95.44
334.999	98.44
335.227	100.44
335.455	96.44
335.684	102.44
335.912	86.44
336.14	98.44
336.369	101.44
336.597	103.44
336.825	110.44
337.053	99.44
337.281	104.44
337.51	100.44
337.738	86.44
337.966	106.44
338.194	92.44
338.422	105.44
338.65	90.44
338.878	99.44
339.106	87.44
339.334	92.44
339.562	76.44
339.79	89.44
340.018	89.44
340.246	84.44
340.474	92.44
340.702	98.44
340.93	105.44
341.158	75.44
341.386	90.44
341.614	91.44
341.842	100.44
342.07	104.44
342.298	96.44
342.526	97.44
342.754	79.44
342.981	105.44
343.209	89.44
343.437	92.44
343.665	85.44
343.893	93.44
344.12	100.44
344.348	99.44
344.576	84.44
344.804	93.44
345.031	107.44
345.259	112.44
345.487	96.44
345.714	97.44
345.942	103.44
346.17	91.44
346.397	107.44
346.625	89.44
346.853	96.44
347.08	102.44
347.308	104.44
347.535	102.44
347.763	102.44
347.99	108.44
348.218	99.44
348.445	109.44
348.673	87.44
348.9	100.44
349.128	102.44
349.355	83.44
349.583	94.44
349.81	99.44
350.037	93.44
350.265	95.44
350.492	104.44
350.72	95.44
350.947	101.44
351.174	102.44
351.402	91.44
351.629	123.44
351.856	98.44
352.083	103.44
352.311	107.44
352.538	110.44
352.765	111.44
352.992	114.44
353.22	108.44
353.447	112.44
353.674	110.44
353.901	111.44
354.128	102.44
354.355	89.44
354.583	96.44
354.81	105.44
355.037	109.44
355.264	103.44
355.491	92.44
355.718	89.44
355.945	101.44
356.172	92.44
356.399	96.44
356.626	83.44
356.853	85.44
357.08	105.44
357.307	100.44
357.534	92.44
357.761	89.44
357.988	103.44
358.215	95.44
358.441	85.44
358.668	101.44
358.895	92.44
359.122	98.44
359.349	90.44
359.576	95.44
359.802	83.44
360.029	110.44
360.256	110.44
360.483	98.44
360.709	97.44
360.936	101.44
361.163	95.44
361.39	101.44
361.616	94.44
361.843	94.44
362.07	96.44
362.296	98.44
362.523	93.44
362.749	84.44
362.976	87.44
363.203	87.44
363.429	96.44
363.656	96.44
363.882	83.44
364.109	90.44
364.335	87.44
364.562	99.44
364.788	81.44
365.015	89.44
365.241	98.44
365.468	95.44
365.694	98.44
365.92	72.44
366.147	92.44
366.373	89.44
366.599	85.44
366.826	95.44
367.052	81.44
367.278	94.44
367.505	92.44
367.731	96.44
367.957	95.44
368.184	111.44
368.41	114.44
368.636	100.44
368.862	114.44
369.089	93.44
369.315	89.44
369.541	87.44
369.767	83.44
369.993	96.44
370.219	98.44
370.445	106.44
370.672	89.44
370.898	98.44
371.124	94.44
371.35	94.44
371.576	88.44
371.802	88.44
372.028	94.44
372.254	84.44
372.48	71.44
372.706	84.44
372.932	97.44
373.158	95.44
373.384	80.44
373.61	92.44
373.835	85.44
374.061	96.44
374.287	92.44
374.513	97.44
374.739	97.44
374.965	87.44
375.191	89.44
375.416	97.44
375.642	99.44
375.868	89.44
376.094	82.44
376.319	96.44
376.545	101.44
376.771	78.44
376.997	95.44
377.222	99.44
377.448	80.44
377.674	91.44
377.899	97.44
378.125	94.44
378.35	88.44
378.576	66.44
378.802	86.44
379.027	90.44
379.253	99.44
379.478	93.44
379.704	100.44
379.929	90.44
380.155	100.44
380.38	102.44
380.606	101.44
380.831	86.44
381.057	82.44
381.282	88.44
381.507	93.44
381.733	85.44
381.958	96.44
382.184	100.44
382.409	100.44
382.634	97.44
382.86	86.44
383.085	116.44
383.31	95.44
383.535	99.44
383.761	92.44
383.986	103.44
384.211	93.44
384.436	98.44
384.662	107.44
384.887	113.44
385.112	109.44
385.337	103.44
385.562	95.44
385.787	110.44
386.013	111.44
386.238	112.44
386.463	101.44
386.688	113.44
386.913	106.44
387.138	97.44
387.363	101.44
387.588	100.44
387.813	98.44
388.038	99.44
388.263	105.44
388.488	101.44
388.713	108.44
388.938	99.44
389.163	94.44
389.387	102.44
389.612	103.44
389.837	103.44
390.062	96.44
390.287	103.44
390.512	95.44
390.736	99.44
390.961	101.44
391.186	83.44
391.411	100.44
391.636	85.44
391.86	92.44
392.085	88.44
392.31	71.44
392.534	85.44
392.759	100.44
392.984	86.44
393.208	96.44
393.433	108.44
393.658	111.44
393.882	77.44
394.107	96.44
394.331	84.44
394.556	76.44
394.78	91.44
395.005	91.44
395.229	77.44
395.454	91.44
395.678	80.44
395.903	99.44
396.127	92.44
396.352	87.44
396.576	83.44
396.801	105.44
397.025	94.44
397.249	88.44
397.474	101.44
397.698	109.44
397.922	94.44
398.147	85.44
398.371	80.44
398.595	82.44
398.82	95.44
399.044	89.44
399.268	95.44
399.492	88.44
399.717	101.44
399.941	91.44
400.165	102.44
400.389	79.44
400.613	89.44
400.837	88.44
401.062	85.44
401.286	88.44
401.51	89.44
401.734	94.44
401.958	83.44
402.182	115.44
402.406	140.44
402.63	113.44
402.854	93.44
403.078	97.44
403.302	96.44
403.526	94.44
403.75	90.44
403.974	86.44
404.198	90.44
404.422	84.44
404.645	84.44
404.869	77.44
405.093	100.44
405.317	94.44
405.541	105.44
405.765	119.44
405.988	118.44
406.212	160.44
406.436	208.44
406.66	127.44
406.883	86.44
407.107	100.44
407.331	91.44
407.555	96.44
407.778	81.44
408.002	98.44
408.226	94.44
408.449	109.44
408.673	97.44
408.896	78.44
409.12	81.44
409.344	96.44
409.567	86.44
409.791	88.44
410.014	88.44
410.238	93.44
410.461	98.44
410.685	94.44
410.908	91.44
411.132	113.44
411.355	103.44
411.578	82.44
411.802	83.44
412.025	83.44
412.249	80.44
412.472	89.44
412.695	98.44
412.919	86.44
413.142	90.44
413.365	96.44
413.589	93.44
413.812	80.44
414.035	104.44
414.258	94.44
414.482	93.44
414.705	87.44
414.928	88.44
415.151	92.44
415.374	105.44
415.597	105.44
415.821	87.44
416.044	105.44
416.267	99.44
416.49	94.44
416.713	87.44
416.936	87.44
417.159	89.44
417.382	89.44
417.605	81.44
417.828	96.44
418.051	90.44
418.274	91.44
418.497	83.44
418.72	93.44
418.943	91.44
419.166	97.44
419.389	95.44
419.611	99.44
419.834	77.44
420.057	108.44
420.28	86.44
420.503	101.44
420.726	85.44
420.948	96.44
421.171	86.44
421.394	83.44
421.617	84.44
421.839	84.44
422.062	100.44
422.285	93.44
422.507	83.44
422.73	93.44
422.953	106.44
423.175	76.44
423.398	86.44
423.621	92.44
423.843	85.44
424.066	85.44
424.288	90.44
424.511	86.44
424.733	95.44
424.956	91.44
425.178	78.44
425.401	90.44
425.623	99.44
425.846	97.44
426.068	96.44
426.291	71.44
426.513	91.44
426.735	102.44
426.958	97.44
427.18	112.44
427.402	123.44
427.625	147.44
427.847	105.44
428.069	114.44
428.292	96.44
428.514	93.44
428.736	84.44
428.958	90.44
429.181	88.44
429.403	83.44
429.625	101.44
429.847	83.44
430.069	88.44
430.292	91.44
430.514	88.44
430.736	90.44
430.958	81.44
431.18	85.44
431.402	93.44
431.624	86.44
431.846	98.44
432.068	90.44
432.29	82.44
432.512	101.44
432.734	107.44
432.956	100.44
433.178	105.44
433.4	86.44
433.622	99.44
433.844	95.44
434.066	95.44
434.287	93.44
434.509	99.44
434.731	75.44
434.953	103.44
435.175	105.44
435.397	88.44
435.618	98.44
435.84	103.44
436.062	105.44
436.284	113.44
436.505	92.44
436.727	87.44
436.949	84.44
437.17	94.44
437.392	79.44
437.614	98.44
437.835	97.44
438.057	104.44
438.278	104.44
438.5	94.44
438.721	116.44
438.943	114.44
439.165	100.44
439.386	91.44
439.608	102.44
439.829	101.44
440.05	110.44
440.272	134.44
440.493	101.44
440.715	85.44
440.936	83.44
441.158	86.44
441.379	92.44
441.6	78.44
441.822	92.44
442.043	92.44
442.264	99.44
442.486	98.44
442.707	87.44
442.928	109.44
443.149	115.44
443.371	126.44
443.592	87.44
443.813	103.44
444.034	99.44
444.255	83.44
444.476	89.44
444.698	98.44
444.919	94.44
445.14	140.44
445.361	116.44
445.582	102.44
445.803	116.44
446.024	110.44
446.245	125.44
446.466	113.44
446.687	96.44
446.908	82.44
447.129	78.44
447.35	80.44
447.571	88.44
447.792	102.44
448.013	104.44
448.234	97.44
448.455	86.44
448.675	102.44
448.896	112.44
449.117	96.44
449.338	109.44
449.559	128.44
449.779	110.44
450	90.44
450.221	93.44
450.442	93.44
450.662	88.44
450.883	93.44
451.104	114.44
451.324	99.44
451.545	87.44
451.766	94.44
451.986	89.44
452.207	89.44
452.428	97.44
452.648	104.44
452.869	110.44
453.089	107.44
453.31	101.44
453.53	85.44
453.751	96.44
453.971	97.44
454.192	108.44
454.412	92.44
454.633	86.44
454.853	93.44
455.073	88.44
455.294	94.44
455.514	117.44
455.734	101.44
455.955	91.44
456.175	97.44
456.395	75.44
456.616	85.44
456.836	88.44
457.056	79.44
457.276	79.44
457.497	69.44
457.717	100.44
457.937	99.44
458.157	93.44
458.377	95.44
458.598	110.44
458.818	123.44
459.038	134.44
459.258	107.44
459.478	96.44
459.698	80.44
459.918	98.44
460.138	89.44
460.358	86.44
460.578	87.44
460.798	77.44
461.018	94.44
461.238	79.44
461.458	81.44
461.678	84.44
461.898	96.44
462.118	98.44
462.338	104.44
462.558	102.44
462.777	94.44
462.997	98.44
463.217	81.44
463.437	78.44
463.657	88.44
463.876	93.44
464.096	93.44
464.316	103.44
464.536	89.44
464.755	100.44
464.975	97.44
465.195	140.44
465.414	134.44
465.634	91.44
465.854	86.44
466.073	89.44
466.293	97.44
466.512	104.44
466.732	83.44
466.951	97.44
467.171	105.44
467.391	105.44
467.61	101.44
467.829	89.44
468.049	85.44
468.268	75.44
468.488	62.44
468.707	104.44
468.927	90.44
469.146	88.44
469.365	84.44
469.585	95.44
469.804	91.44
470.023	80.44
470.243	93.44
470.462	92.44
470.681	118.44
470.901	83.44
471.12	87.44
471.339	88.44
471.558	87.44
471.777	84.44
471.997	81.44
472.216	85.44
472.435	105.44
472.654	90.44
472.873	93.44
473.092	82.44
473.311	89.44
473.53	84.44
473.749	88.44
473.968	93.44
474.187	103.44
474.406	102.44
474.625	86.44
474.844	81.44
475.063	82.44
475.282	99.44
475.501	78.44
475.72	94.44
475.939	90.44
476.158	75.44
476.377	98.44
476.596	107.44
476.814	82.44
477.033	86.44
477.252	84.44
477.471	88.44
477.69	103.44
477.908	101.44
478.127	85.44
478.346	79.44
478.564	93.44
478.783	92.44
479.002	100.44
479.22	92.44
479.439	113.44
479.658	87.44
479.876	96.44
480.095	100.44
480.313	87.44
480.532	88.44
480.751	95.44
480.969	97.44
481.188	96.44
481.406	99.44
481.624	103.44
481.843	77.44
482.061	93.44
482.28	103.44
482.498	94.44
482.717	100.44
482.935	90.44
483.153	91.44
483.372	92.44
483.59	90.44
483.808	93.44
484.027	106.44
484.245	88.44
484.463	79.44
484.681	104.44
484.9	93.44
485.118	92.44
485.336	92.44
485.554	103.44
485.772	114.44
485.99	87.44
486.209	95.44
486.427	101.44
486.645	102.44
486.863	106.44
487.081	93.44
487.299	111.44
487.517	88.44
487.735	92.44
487.953	95.44
488.171	71.44
488.389	104.44
488.607	105.44
488.825	103.44
489.043	109.44
489.261	111.44
489.479	95.44
489.696	93.44
489.914	93.44
490.132	95.44
490.35	91.44
490.568	89.44
490.786	84.44
491.003	102.44
491.221	87.44
491.439	89.44
491.657	86.44
491.874	93.44
492.092	78.44
492.31	96.44
492.527	92.44
492.745	86.44
492.963	91.44
493.18	112.44
493.398	92.44
493.615	104.44
493.833	96.44
494.05	96.44
494.268	87.44
494.485	83.44
494.703	87.44
494.92	81.44
495.138	87.44
495.355	98.44
495.573	94.44
495.79	109.44
496.008	96.44
496.225	88.44
496.442	77.44
496.66	101.44
496.877	101.44
497.094	98.44
497.312	88.44
497.529	84.44
497.746	95.44
497.963	100.44
498.181	104.44
498.398	102.44
498.615	102.44
498.832	100.44
499.049	95.44
499.267	94.44
499.484	99.44
499.701	91.44
499.918	96.44
500.135	92.44
500.352	96.44
500.569	89.44
500.786	103.44
501.003	97.44
501.22	90.44
501.437	80.44
501.654	99.44
501.871	98.44
502.088	98.44
502.305	89.44
502.522	96.44
502.739	97.44
502.956	101.44
503.172	87.44
503.389	96.44
503.606	104.44
503.823	93.44
504.04	97.44
504.256	101.44
504.473	93.44
504.69	95.44
504.907	88.44
505.123	89.44
505.34	98.44
505.557	95.44
505.773	101.44
505.99	99.44
506.207	89.44
506.423	97.44
506.64	94.44
506.856	99.44
507.073	84.44
507.289	96.44
507.506	104.44
507.722	117.44
507.939	103.44
508.155	104.44
508.372	97.44
508.588	111.44
508.805	110.44
509.021	101.44
509.238	87.44
509.454	91.44
509.67	94.44
509.887	101.44
510.103	116.44
510.319	195.44
510.536	689.44
510.752	1992.44
510.968	587.44
511.184	158.44
511.401	106.44
511.617	100.44
511.833	92.44
512.049	85.44
512.265	112.44
512.481	98.44
512.698	101.44
512.914	79.44
513.13	95.44
513.346	96.44
513.562	88.44
513.778	100.44
513.994	100.44
514.21	112.44
514.426	106.44
514.642	129.44
514.858	126.44
515.074	160.44
