Data from Uncirc_1992_H10_HRD10591_00006.txt Node
Date: Wed Jan 03 11:46:17 EST 2024
User: Yrep
Spectrometer: HR+D1059
Trigger mode: 1
Integration Time (sec): 1.000000E-1
Scans to average: 1
Electric dark correction enabled: true
Nonlinearity correction enabled: false
Boxcar width: 0
XAxis mode: Wavelengths
Number of Pixels in Spectrum: 2048
>>>>>Begin Spectral Data<<<<<
223.165	-18.88
223.4	-18.88
223.635	-18.88
223.869	-23.88
224.104	-11.88
224.338	0.12
224.573	-15.88
224.808	0.12
225.042	-11.88
225.277	-5.88
225.511	1.12
225.746	8.12
225.98	13.12
226.215	2.12
226.449	11.12
226.683	12.12
226.918	11.12
227.152	29.12
227.387	38.12
227.621	37.12
227.856	51.12
228.09	42.12
228.324	52.12
228.559	53.12
228.793	61.12
229.027	67.12
229.262	68.12
229.496	66.12
229.73	80.12
229.964	75.12
230.199	66.12
230.433	64.12
230.667	58.12
230.901	85.12
231.136	70.12
231.37	71.12
231.604	74.12
231.838	79.12
232.072	76.12
232.306	64.12
232.541	92.12
232.775	85.12
233.009	71.12
233.243	72.12
233.477	80.12
233.711	73.12
233.945	88.12
234.179	84.12
234.413	79.12
234.647	76.12
234.881	61.12
235.115	76.12
235.349	73.12
235.583	79.12
235.817	77.12
236.051	72.12
236.285	71.12
236.519	79.12
236.753	75.12
236.987	75.12
237.221	76.12
237.455	73.12
237.689	79.12
237.922	88.12
238.156	68.12
238.39	72.12
238.624	76.12
238.858	74.12
239.091	65.12
239.325	77.12
239.559	79.12
239.793	73.12
240.027	85.12
240.26	71.12
240.494	82.12
240.728	66.12
240.961	83.12
241.195	64.12
241.429	67.12
241.662	67.12
241.896	72.12
242.13	75.12
242.363	81.12
242.597	84.12
242.83	81.12
243.064	76.12
243.298	74.12
243.531	78.12
243.765	71.12
243.998	75.12
244.232	73.12
244.465	81.12
244.699	81.12
244.932	71.12
245.166	84.12
245.399	77.12
245.633	77.12
245.866	77.12
246.099	79.12
246.333	80.12
246.566	74.12
246.8	62.12
247.033	78.12
247.266	82.12
247.5	71.12
247.733	75.12
247.966	76.12
248.2	67.12
248.433	67.12
248.666	80.12
248.899	73.12
249.133	80.12
249.366	95.12
249.599	88.12
249.832	75.12
250.066	79.12
250.299	81.12
250.532	98.12
250.765	79.12
250.998	75.12
251.231	73.12
251.465	81.12
251.698	75.12
251.931	71.12
252.164	81.12
252.397	82.12
252.63	81.12
252.863	98.12
253.096	71.12
253.329	80.12
253.562	69.12
253.795	68.12
254.028	81.12
254.261	72.12
254.494	85.12
254.727	86.12
254.96	79.12
255.193	85.12
255.426	77.12
255.659	83.12
255.892	81.12
256.124	75.12
256.357	93.12
256.59	83.12
256.823	80.12
257.056	56.12
257.289	83.12
257.521	83.12
257.754	80.12
257.987	83.12
258.22	83.12
258.452	78.12
258.685	75.12
258.918	96.12
259.151	89.12
259.383	81.12
259.616	71.12
259.849	86.12
260.081	84.12
260.314	80.12
260.547	99.12
260.779	78.12
261.012	87.12
261.244	83.12
261.477	81.12
261.71	91.12
261.942	103.12
262.175	103.12
262.407	94.12
262.64	89.12
262.872	80.12
263.105	82.12
263.337	81.12
263.57	86.12
263.802	56.12
264.035	77.12
264.267	85.12
264.499	103.12
264.732	81.12
264.964	78.12
265.197	78.12
265.429	84.12
265.661	93.12
265.894	75.12
266.126	85.12
266.358	93.12
266.591	78.12
266.823	76.12
267.055	72.12
267.287	92.12
267.52	84.12
267.752	87.12
267.984	97.12
268.216	84.12
268.448	84.12
268.681	88.12
268.913	89.12
269.145	77.12
269.377	79.12
269.609	91.12
269.841	92.12
270.073	90.12
270.306	76.12
270.538	84.12
270.77	66.12
271.002	79.12
271.234	96.12
271.466	83.12
271.698	83.12
271.93	80.12
272.162	71.12
272.394	94.12
272.626	79.12
272.858	91.12
273.09	112.12
273.322	87.12
273.553	79.12
273.785	74.12
274.017	93.12
274.249	79.12
274.481	82.12
274.713	80.12
274.945	96.12
275.176	69.12
275.408	88.12
275.64	74.12
275.872	77.12
276.104	89.12
276.335	97.12
276.567	96.12
276.799	90.12
277.031	93.12
277.262	101.12
277.494	96.12
277.726	66.12
277.957	76.12
278.189	80.12
278.421	89.12
278.652	85.12
278.884	94.12
279.115	91.12
279.347	82.12
279.579	81.12
279.81	79.12
280.042	85.12
280.273	89.12
280.505	85.12
280.736	83.12
280.968	77.12
281.199	90.12
281.431	95.12
281.662	85.12
281.894	87.12
282.125	86.12
282.356	99.12
282.588	128.12
282.819	99.12
283.051	89.12
283.282	84.12
283.513	75.12
283.745	85.12
283.976	88.12
284.207	87.12
284.439	85.12
284.67	79.12
284.901	80.12
285.132	95.12
285.364	85.12
285.595	63.12
285.826	90.12
286.057	79.12
286.288	84.12
286.52	75.12
286.751	76.12
286.982	83.12
287.213	92.12
287.444	80.12
287.675	77.12
287.906	100.12
288.138	82.12
288.369	91.12
288.6	89.12
288.831	90.12
289.062	92.12
289.293	96.12
289.524	95.12
289.755	92.12
289.986	83.12
290.217	92.12
290.448	75.12
290.679	80.12
290.91	99.12
291.141	83.12
291.371	96.12
291.602	89.12
291.833	86.12
292.064	71.12
292.295	83.12
292.526	82.12
292.757	89.12
292.987	95.12
293.218	84.12
293.449	87.12
293.68	86.12
293.91	89.12
294.141	97.12
294.372	87.12
294.603	79.12
294.833	83.12
295.064	82.12
295.295	81.12
295.525	92.12
295.756	107.12
295.987	100.12
296.217	109.12
296.448	100.12
296.679	81.12
296.909	90.12
297.14	83.12
297.37	87.12
297.601	71.12
297.831	91.12
298.062	90.12
298.292	72.12
298.523	76.12
298.753	100.12
298.984	85.12
299.214	87.12
299.445	86.12
299.675	89.12
299.905	93.12
300.136	105.12
300.366	84.12
300.597	81.12
300.827	94.12
301.057	99.12
301.288	89.12
301.518	80.12
301.748	75.12
301.979	99.12
302.209	82.12
302.439	74.12
302.669	96.12
302.9	91.12
303.13	85.12
303.36	87.12
303.59	103.12
303.82	111.12
304.051	98.12
304.281	85.12
304.511	94.12
304.741	90.12
304.971	84.12
305.201	92.12
305.431	97.12
305.661	89.12
305.891	98.12
306.121	85.12
306.352	84.12
306.582	103.12
306.812	87.12
307.042	83.12
307.272	81.12
307.502	92.12
307.731	94.12
307.961	98.12
308.191	95.12
308.421	91.12
308.651	75.12
308.881	91.12
309.111	100.12
309.341	99.12
309.571	105.12
309.8	97.12
310.03	93.12
310.26	108.12
310.49	95.12
310.72	80.12
310.949	89.12
311.179	108.12
311.409	88.12
311.639	93.12
311.868	104.12
312.098	96.12
312.328	95.12
312.557	91.12
312.787	96.12
313.017	94.12
313.246	98.12
313.476	93.12
313.706	88.12
313.935	85.12
314.165	88.12
314.394	83.12
314.624	77.12
314.853	89.12
315.083	88.12
315.312	94.12
315.542	81.12
315.771	99.12
316.001	98.12
316.23	91.12
316.46	74.12
316.689	84.12
316.919	95.12
317.148	95.12
317.377	92.12
317.607	101.12
317.836	81.12
318.065	93.12
318.295	80.12
318.524	91.12
318.753	76.12
318.983	94.12
319.212	103.12
319.441	109.12
319.67	98.12
319.9	94.12
320.129	75.12
320.358	103.12
320.587	92.12
320.816	100.12
321.046	77.12
321.275	94.12
321.504	92.12
321.733	88.12
321.962	91.12
322.191	93.12
322.42	84.12
322.649	111.12
322.878	104.12
323.108	103.12
323.337	119.12
323.566	128.12
323.795	139.12
324.024	165.12
324.253	316.12
324.482	634.12
324.71	1266.12
324.939	1581.12
325.168	594.12
325.397	204.12
325.626	135.12
325.855	123.12
326.084	83.12
326.313	114.12
326.542	134.12
326.77	199.12
326.999	378.12
327.228	746.12
327.457	1247.12
327.686	1008.12
327.914	287.12
328.143	146.12
328.372	125.12
328.6	126.12
328.829	99.12
329.058	110.12
329.287	116.12
329.515	91.12
329.744	99.12
329.972	101.12
330.201	115.12
330.43	112.12
330.658	112.12
330.887	102.12
331.115	111.12
331.344	95.12
331.572	108.12
331.801	103.12
332.03	93.12
332.258	96.12
332.486	72.12
332.715	97.12
332.943	90.12
333.172	94.12
333.4	93.12
333.629	103.12
333.857	89.12
334.085	89.12
334.314	103.12
334.542	93.12
334.771	95.12
334.999	83.12
335.227	103.12
335.455	91.12
335.684	91.12
335.912	90.12
336.14	90.12
336.369	80.12
336.597	92.12
336.825	89.12
337.053	84.12
337.281	98.12
337.51	83.12
337.738	91.12
337.966	100.12
338.194	84.12
338.422	93.12
338.65	87.12
338.878	98.12
339.106	92.12
339.334	94.12
339.562	101.12
339.79	98.12
340.018	92.12
340.246	89.12
340.474	87.12
340.702	99.12
340.93	91.12
341.158	85.12
341.386	88.12
341.614	97.12
341.842	85.12
342.07	93.12
342.298	100.12
342.526	83.12
342.754	87.12
342.981	83.12
343.209	77.12
343.437	97.12
343.665	95.12
343.893	83.12
344.12	98.12
344.348	87.12
344.576	77.12
344.804	64.12
345.031	95.12
345.259	86.12
345.487	90.12
345.714	91.12
345.942	90.12
346.17	104.12
346.397	100.12
346.625	87.12
346.853	91.12
347.08	94.12
347.308	105.12
347.535	104.12
347.763	74.12
347.99	94.12
348.218	90.12
348.445	93.12
348.673	93.12
348.9	97.12
349.128	94.12
349.355	113.12
349.583	102.12
349.81	97.12
350.037	94.12
350.265	92.12
350.492	91.12
350.72	96.12
350.947	97.12
351.174	103.12
351.402	100.12
351.629	105.12
351.856	104.12
352.083	98.12
352.311	97.12
352.538	109.12
352.765	104.12
352.992	101.12
353.22	108.12
353.447	101.12
353.674	100.12
353.901	104.12
354.128	99.12
354.355	95.12
354.583	101.12
354.81	97.12
355.037	101.12
355.264	94.12
355.491	92.12
355.718	105.12
355.945	95.12
356.172	81.12
356.399	109.12
356.626	104.12
356.853	87.12
357.08	92.12
357.307	89.12
357.534	88.12
357.761	96.12
357.988	96.12
358.215	96.12
358.441	108.12
358.668	93.12
358.895	95.12
359.122	86.12
359.349	101.12
359.576	92.12
359.802	83.12
360.029	104.12
360.256	96.12
360.483	99.12
360.709	93.12
360.936	88.12
361.163	97.12
361.39	87.12
361.616	89.12
361.843	92.12
362.07	94.12
362.296	83.12
362.523	88.12
362.749	91.12
362.976	87.12
363.203	91.12
363.429	96.12
363.656	93.12
363.882	76.12
364.109	101.12
364.335	87.12
364.562	91.12
364.788	82.12
365.015	98.12
365.241	100.12
365.468	103.12
365.694	106.12
365.92	97.12
366.147	91.12
366.373	83.12
366.599	83.12
366.826	94.12
367.052	96.12
367.278	90.12
367.505	90.12
367.731	106.12
367.957	109.12
368.184	93.12
368.41	100.12
368.636	93.12
368.862	96.12
369.089	107.12
369.315	94.12
369.541	93.12
369.767	87.12
369.993	93.12
370.219	96.12
370.445	90.12
370.672	74.12
370.898	92.12
371.124	89.12
371.35	78.12
371.576	88.12
371.802	87.12
372.028	87.12
372.254	93.12
372.48	92.12
372.706	86.12
372.932	84.12
373.158	78.12
373.384	96.12
373.61	97.12
373.835	88.12
374.061	97.12
374.287	76.12
374.513	81.12
374.739	92.12
374.965	89.12
375.191	108.12
375.416	91.12
375.642	83.12
375.868	95.12
376.094	83.12
376.319	99.12
376.545	90.12
376.771	92.12
376.997	71.12
377.222	92.12
377.448	99.12
377.674	97.12
377.899	98.12
378.125	99.12
378.35	84.12
378.576	76.12
378.802	96.12
379.027	89.12
379.253	107.12
379.478	105.12
379.704	93.12
379.929	93.12
380.155	90.12
380.38	89.12
380.606	80.12
380.831	95.12
381.057	109.12
381.282	96.12
381.507	94.12
381.733	102.12
381.958	105.12
382.184	97.12
382.409	98.12
382.634	90.12
382.86	99.12
383.085	109.12
383.31	107.12
383.535	107.12
383.761	104.12
383.986	102.12
384.211	92.12
384.436	103.12
384.662	99.12
384.887	96.12
385.112	98.12
385.337	96.12
385.562	113.12
385.787	116.12
386.013	96.12
386.238	114.12
386.463	108.12
386.688	107.12
386.913	109.12
387.138	102.12
387.363	104.12
387.588	84.12
387.813	113.12
388.038	115.12
388.263	92.12
388.488	97.12
388.713	96.12
388.938	95.12
389.163	98.12
389.387	103.12
389.612	96.12
389.837	93.12
390.062	79.12
390.287	89.12
390.512	93.12
390.736	88.12
390.961	91.12
391.186	100.12
391.411	105.12
391.636	97.12
391.86	77.12
392.085	84.12
392.31	96.12
392.534	79.12
392.759	87.12
392.984	97.12
393.208	92.12
393.433	100.12
393.658	98.12
393.882	81.12
394.107	82.12
394.331	87.12
394.556	87.12
394.78	98.12
395.005	93.12
395.229	89.12
395.454	94.12
395.678	101.12
395.903	91.12
396.127	76.12
396.352	95.12
396.576	94.12
396.801	95.12
397.025	79.12
397.249	94.12
397.474	90.12
397.698	88.12
397.922	72.12
398.147	91.12
398.371	80.12
398.595	77.12
398.82	89.12
399.044	91.12
399.268	84.12
399.492	89.12
399.717	84.12
399.941	77.12
400.165	84.12
400.389	81.12
400.613	100.12
400.837	87.12
401.062	81.12
401.286	100.12
401.51	90.12
401.734	94.12
401.958	91.12
402.182	129.12
402.406	148.12
402.63	109.12
402.854	93.12
403.078	93.12
403.302	92.12
403.526	79.12
403.75	88.12
403.974	76.12
404.198	88.12
404.422	81.12
404.645	83.12
404.869	78.12
405.093	112.12
405.317	95.12
405.541	105.12
405.765	93.12
405.988	117.12
406.212	128.12
406.436	181.12
406.66	132.12
406.883	87.12
407.107	88.12
407.331	94.12
407.555	91.12
407.778	85.12
408.002	81.12
408.226	81.12
408.449	81.12
408.673	81.12
408.896	83.12
409.12	97.12
409.344	87.12
409.567	80.12
409.791	92.12
410.014	97.12
410.238	81.12
410.461	86.12
410.685	87.12
410.908	96.12
411.132	106.12
411.355	100.12
411.578	77.12
411.802	92.12
412.025	78.12
412.249	81.12
412.472	97.12
412.695	87.12
412.919	88.12
413.142	102.12
413.365	87.12
413.589	85.12
413.812	85.12
414.035	91.12
414.258	103.12
414.482	92.12
414.705	93.12
414.928	98.12
415.151	86.12
415.374	91.12
415.597	95.12
415.821	96.12
416.044	91.12
416.267	97.12
416.49	101.12
416.713	92.12
416.936	74.12
417.159	84.12
417.382	91.12
417.605	98.12
417.828	101.12
418.051	77.12
418.274	95.12
418.497	92.12
418.72	82.12
418.943	85.12
419.166	93.12
419.389	83.12
419.611	75.12
419.834	83.12
420.057	98.12
420.28	73.12
420.503	74.12
420.726	74.12
420.948	87.12
421.171	93.12
421.394	85.12
421.617	75.12
421.839	102.12
422.062	91.12
422.285	80.12
422.507	105.12
422.73	98.12
422.953	97.12
423.175	96.12
423.398	100.12
423.621	87.12
423.843	90.12
424.066	95.12
424.288	87.12
424.511	91.12
424.733	95.12
424.956	96.12
425.178	91.12
425.401	86.12
425.623	94.12
425.846	95.12
426.068	91.12
426.291	85.12
426.513	91.12
426.735	94.12
426.958	80.12
427.18	95.12
427.402	110.12
427.625	136.12
427.847	112.12
428.069	114.12
428.292	97.12
428.514	85.12
428.736	96.12
428.958	80.12
429.181	80.12
429.403	85.12
429.625	98.12
429.847	87.12
430.069	77.12
430.292	108.12
430.514	89.12
430.736	103.12
430.958	75.12
431.18	84.12
431.402	77.12
431.624	68.12
431.846	91.12
432.068	96.12
432.29	91.12
432.512	90.12
432.734	96.12
432.956	90.12
433.178	74.12
433.4	92.12
433.622	73.12
433.844	77.12
434.066	99.12
434.287	76.12
434.509	74.12
434.731	97.12
434.953	78.12
435.175	83.12
435.397	91.12
435.618	82.12
435.84	111.12
436.062	109.12
436.284	108.12
436.505	105.12
436.727	106.12
436.949	112.12
437.17	89.12
437.392	89.12
437.614	85.12
437.835	97.12
438.057	107.12
438.278	89.12
438.5	99.12
438.721	101.12
438.943	93.12
439.165	74.12
439.386	72.12
439.608	91.12
439.829	97.12
440.05	109.12
440.272	125.12
440.493	90.12
440.715	96.12
440.936	93.12
441.158	95.12
441.379	94.12
441.6	81.12
441.822	90.12
442.043	88.12
442.264	98.12
442.486	104.12
442.707	96.12
442.928	94.12
443.149	124.12
443.371	111.12
443.592	108.12
443.813	107.12
444.034	101.12
444.255	83.12
444.476	77.12
444.698	75.12
444.919	89.12
445.14	122.12
445.361	122.12
445.582	106.12
445.803	109.12
446.024	108.12
446.245	131.12
446.466	87.12
446.687	83.12
446.908	106.12
447.129	84.12
447.35	92.12
447.571	88.12
447.792	89.12
448.013	111.12
448.234	91.12
448.455	83.12
448.675	106.12
448.896	90.12
449.117	90.12
449.338	95.12
449.559	112.12
449.779	110.12
450	85.12
450.221	85.12
450.442	91.12
450.662	80.12
450.883	93.12
451.104	93.12
451.324	88.12
451.545	92.12
451.766	86.12
451.986	94.12
452.207	93.12
452.428	91.12
452.648	89.12
452.869	113.12
453.089	96.12
453.31	115.12
453.53	104.12
453.751	93.12
453.971	108.12
454.192	96.12
454.412	85.12
454.633	88.12
454.853	106.12
455.073	81.12
455.294	76.12
455.514	87.12
455.734	93.12
455.955	92.12
456.175	90.12
456.395	78.12
456.616	65.12
456.836	83.12
457.056	86.12
457.276	80.12
457.497	91.12
457.717	97.12
457.937	89.12
458.157	84.12
458.377	83.12
458.598	107.12
458.818	130.12
459.038	136.12
459.258	93.12
459.478	80.12
459.698	77.12
459.918	78.12
460.138	75.12
460.358	92.12
460.578	89.12
460.798	80.12
461.018	97.12
461.238	84.12
461.458	83.12
461.678	76.12
461.898	82.12
462.118	95.12
462.338	88.12
462.558	95.12
462.777	79.12
462.997	89.12
463.217	89.12
463.437	68.12
463.657	83.12
463.876	71.12
464.096	80.12
464.316	86.12
464.536	92.12
464.755	85.12
464.975	94.12
465.195	131.12
465.414	139.12
465.634	94.12
465.854	83.12
466.073	82.12
466.293	89.12
466.512	87.12
466.732	100.12
466.951	90.12
467.171	85.12
467.391	80.12
467.61	83.12
467.829	78.12
468.049	83.12
468.268	88.12
468.488	100.12
468.707	83.12
468.927	99.12
469.146	91.12
469.365	99.12
469.585	87.12
469.804	93.12
470.023	90.12
470.243	96.12
470.462	93.12
470.681	100.12
470.901	94.12
471.12	91.12
471.339	76.12
471.558	93.12
471.777	83.12
471.997	73.12
472.216	75.12
472.435	83.12
472.654	76.12
472.873	87.12
473.092	101.12
473.311	87.12
473.53	86.12
473.749	84.12
473.968	69.12
474.187	97.12
474.406	77.12
474.625	77.12
474.844	85.12
475.063	95.12
475.282	96.12
475.501	95.12
475.72	79.12
475.939	75.12
476.158	81.12
476.377	85.12
476.596	81.12
476.814	69.12
477.033	82.12
477.252	87.12
477.471	82.12
477.69	95.12
477.908	90.12
478.127	88.12
478.346	80.12
478.564	79.12
478.783	97.12
479.002	91.12
479.22	75.12
479.439	96.12
479.658	99.12
479.876	85.12
480.095	86.12
480.313	95.12
480.532	96.12
480.751	95.12
480.969	89.12
481.188	78.12
481.406	99.12
481.624	97.12
481.843	73.12
482.061	87.12
482.28	84.12
482.498	84.12
482.717	90.12
482.935	96.12
483.153	86.12
483.372	92.12
483.59	87.12
483.808	87.12
484.027	91.12
484.245	82.12
484.463	98.12
484.681	101.12
484.9	95.12
485.118	92.12
485.336	88.12
485.554	84.12
485.772	108.12
485.99	93.12
486.209	104.12
486.427	98.12
486.645	99.12
486.863	110.12
487.081	101.12
487.299	87.12
487.517	82.12
487.735	85.12
487.953	96.12
488.171	99.12
488.389	86.12
488.607	80.12
488.825	109.12
489.043	95.12
489.261	95.12
489.479	100.12
489.696	85.12
489.914	90.12
490.132	93.12
490.35	92.12
490.568	100.12
490.786	82.12
491.003	81.12
491.221	90.12
491.439	89.12
491.657	90.12
491.874	86.12
492.092	94.12
492.31	97.12
492.527	97.12
492.745	77.12
492.963	95.12
493.18	88.12
493.398	104.12
493.615	91.12
493.833	92.12
494.05	99.12
494.268	92.12
494.485	91.12
494.703	91.12
494.92	95.12
495.138	78.12
495.355	91.12
495.573	100.12
495.79	100.12
496.008	101.12
496.225	100.12
496.442	81.12
496.66	100.12
496.877	93.12
497.094	94.12
497.312	99.12
497.529	86.12
497.746	85.12
497.963	87.12
498.181	87.12
498.398	96.12
498.615	116.12
498.832	96.12
499.049	87.12
499.267	93.12
499.484	93.12
499.701	83.12
499.918	91.12
500.135	91.12
500.352	90.12
500.569	89.12
500.786	91.12
501.003	88.12
501.22	81.12
501.437	92.12
501.654	95.12
501.871	75.12
502.088	85.12
502.305	77.12
502.522	80.12
502.739	93.12
502.956	102.12
503.172	97.12
503.389	93.12
503.606	88.12
503.823	84.12
504.04	81.12
504.256	93.12
504.473	75.12
504.69	93.12
504.907	90.12
505.123	88.12
505.34	88.12
505.557	96.12
505.773	89.12
505.99	75.12
506.207	91.12
506.423	81.12
506.64	89.12
506.856	99.12
507.073	95.12
507.289	112.12
507.506	87.12
507.722	122.12
507.939	105.12
508.155	91.12
508.372	81.12
508.588	95.12
508.805	94.12
509.021	82.12
509.238	103.12
509.454	105.12
509.67	117.12
509.887	104.12
510.103	119.12
510.319	174.12
510.536	626.12
510.752	1715.12
510.968	475.12
511.184	126.12
511.401	110.12
511.617	97.12
511.833	92.12
512.049	98.12
512.265	78.12
512.481	91.12
512.698	79.12
512.914	85.12
513.13	100.12
513.346	105.12
513.562	85.12
513.778	84.12
513.994	97.12
514.21	91.12
514.426	109.12
514.642	128.12
514.858	122.12
515.074	127.12
515.29	343.12
515.506	1056.12
515.721	381.12
515.937	119.12
516.153	101.12
516.369	97.12
516.585	84.12
516.801	88.12
