Data from Uncirc_1992_H10_HRD10591_00005.txt Node
Date: Wed Jan 03 11:46:17 EST 2024
User: Yrep
Spectrometer: HR+D1059
Trigger mode: 1
Integration Time (sec): 1.000000E-1
Scans to average: 1
Electric dark correction enabled: true
Nonlinearity correction enabled: false
Boxcar width: 0
XAxis mode: Wavelengths
Number of Pixels in Spectrum: 2048
>>>>>Begin Spectral Data<<<<<
223.165	-16.81
223.4	-16.81
223.635	-16.81
223.869	-14.81
224.104	-16.81
224.338	-15.81
224.573	-17.81
224.808	-14.81
225.042	-11.81
225.277	-9.81
225.511	8.19
225.746	-0.81
225.98	11.19
226.215	9.19
226.449	23.19
226.683	21.19
226.918	27.19
227.152	19.19
227.387	40.19
227.621	36.19
227.856	41.19
228.09	35.19
228.324	62.19
228.559	61.19
228.793	59.19
229.027	66.19
229.262	62.19
229.496	73.19
229.73	71.19
229.964	60.19
230.199	83.19
230.433	78.19
230.667	61.19
230.901	75.19
231.136	69.19
231.37	83.19
231.604	71.19
231.838	75.19
232.072	80.19
232.306	85.19
232.541	68.19
232.775	82.19
233.009	77.19
233.243	102.19
233.477	94.19
233.711	80.19
233.945	87.19
234.179	78.19
234.413	74.19
234.647	81.19
234.881	85.19
235.115	86.19
235.349	58.19
235.583	70.19
235.817	91.19
236.051	77.19
236.285	89.19
236.519	68.19
236.753	67.19
236.987	80.19
237.221	91.19
237.455	78.19
237.689	80.19
237.922	86.19
238.156	68.19
238.39	73.19
238.624	75.19
238.858	66.19
239.091	80.19
239.325	66.19
239.559	75.19
239.793	69.19
240.027	69.19
240.26	88.19
240.494	73.19
240.728	79.19
240.961	67.19
241.195	75.19
241.429	79.19
241.662	65.19
241.896	78.19
242.13	65.19
242.363	73.19
242.597	74.19
242.83	75.19
243.064	80.19
243.298	79.19
243.531	77.19
243.765	71.19
243.998	71.19
244.232	92.19
244.465	88.19
244.699	71.19
244.932	78.19
245.166	78.19
245.399	78.19
245.633	84.19
245.866	79.19
246.099	73.19
246.333	100.19
246.566	87.19
246.8	67.19
247.033	67.19
247.266	76.19
247.5	76.19
247.733	81.19
247.966	83.19
248.2	69.19
248.433	88.19
248.666	68.19
248.899	76.19
249.133	87.19
249.366	78.19
249.599	87.19
249.832	83.19
250.066	79.19
250.299	76.19
250.532	83.19
250.765	81.19
250.998	82.19
251.231	93.19
251.465	79.19
251.698	68.19
251.931	77.19
252.164	75.19
252.397	87.19
252.63	80.19
252.863	75.19
253.096	81.19
253.329	87.19
253.562	86.19
253.795	76.19
254.028	81.19
254.261	81.19
254.494	83.19
254.727	85.19
254.96	85.19
255.193	81.19
255.426	80.19
255.659	80.19
255.892	68.19
256.124	88.19
256.357	86.19
256.59	89.19
256.823	83.19
257.056	84.19
257.289	91.19
257.521	75.19
257.754	79.19
257.987	79.19
258.22	94.19
258.452	81.19
258.685	80.19
258.918	75.19
259.151	75.19
259.383	83.19
259.616	83.19
259.849	83.19
260.081	77.19
260.314	97.19
260.547	79.19
260.779	80.19
261.012	78.19
261.244	78.19
261.477	88.19
261.71	91.19
261.942	114.19
262.175	103.19
262.407	87.19
262.64	82.19
262.872	79.19
263.105	84.19
263.337	88.19
263.57	71.19
263.802	89.19
264.035	82.19
264.267	83.19
264.499	74.19
264.732	79.19
264.964	84.19
265.197	57.19
265.429	85.19
265.661	81.19
265.894	80.19
266.126	81.19
266.358	82.19
266.591	84.19
266.823	80.19
267.055	82.19
267.287	89.19
267.52	89.19
267.752	81.19
267.984	82.19
268.216	74.19
268.448	81.19
268.681	85.19
268.913	85.19
269.145	82.19
269.377	87.19
269.609	83.19
269.841	77.19
270.073	71.19
270.306	83.19
270.538	84.19
270.77	83.19
271.002	91.19
271.234	74.19
271.466	95.19
271.698	85.19
271.93	68.19
272.162	59.19
272.394	77.19
272.626	85.19
272.858	76.19
273.09	72.19
273.322	74.19
273.553	80.19
273.785	99.19
274.017	82.19
274.249	100.19
274.481	91.19
274.713	81.19
274.945	93.19
275.176	93.19
275.408	92.19
275.64	92.19
275.872	82.19
276.104	86.19
276.335	76.19
276.567	99.19
276.799	88.19
277.031	96.19
277.262	80.19
277.494	87.19
277.726	89.19
277.957	82.19
278.189	80.19
278.421	83.19
278.652	81.19
278.884	93.19
279.115	79.19
279.347	87.19
279.579	89.19
279.81	91.19
280.042	76.19
280.273	83.19
280.505	85.19
280.736	83.19
280.968	87.19
281.199	87.19
281.431	84.19
281.662	94.19
281.894	80.19
282.125	85.19
282.356	99.19
282.588	117.19
282.819	95.19
283.051	75.19
283.282	82.19
283.513	103.19
283.745	94.19
283.976	89.19
284.207	89.19
284.439	92.19
284.67	88.19
284.901	78.19
285.132	96.19
285.364	89.19
285.595	96.19
285.826	68.19
286.057	92.19
286.288	81.19
286.52	91.19
286.751	68.19
286.982	81.19
287.213	83.19
287.444	78.19
287.675	81.19
287.906	88.19
288.138	84.19
288.369	80.19
288.6	102.19
288.831	79.19
289.062	79.19
289.293	98.19
289.524	75.19
289.755	89.19
289.986	98.19
290.217	83.19
290.448	87.19
290.679	90.19
290.91	93.19
291.141	75.19
291.371	75.19
291.602	89.19
291.833	89.19
292.064	83.19
292.295	84.19
292.526	90.19
292.757	93.19
292.987	81.19
293.218	87.19
293.449	86.19
293.68	84.19
293.91	92.19
294.141	91.19
294.372	87.19
294.603	72.19
294.833	92.19
295.064	86.19
295.295	79.19
295.525	79.19
295.756	98.19
295.987	98.19
296.217	108.19
296.448	108.19
296.679	94.19
296.909	85.19
297.14	80.19
297.37	88.19
297.601	80.19
297.831	88.19
298.062	82.19
298.292	82.19
298.523	88.19
298.753	65.19
298.984	77.19
299.214	91.19
299.445	92.19
299.675	83.19
299.905	97.19
300.136	81.19
300.366	84.19
300.597	83.19
300.827	83.19
301.057	107.19
301.288	95.19
301.518	87.19
301.748	88.19
301.979	105.19
302.209	92.19
302.439	86.19
302.669	95.19
302.9	71.19
303.13	76.19
303.36	85.19
303.59	83.19
303.82	87.19
304.051	99.19
304.281	87.19
304.511	86.19
304.741	77.19
304.971	89.19
305.201	97.19
305.431	104.19
305.661	82.19
305.891	87.19
306.121	99.19
306.352	77.19
306.582	99.19
306.812	84.19
307.042	97.19
307.272	85.19
307.502	97.19
307.731	101.19
307.961	94.19
308.191	76.19
308.421	83.19
308.651	87.19
308.881	75.19
309.111	90.19
309.341	93.19
309.571	85.19
309.8	94.19
310.03	99.19
310.26	100.19
310.49	86.19
310.72	96.19
310.949	95.19
311.179	100.19
311.409	79.19
311.639	90.19
311.868	92.19
312.098	86.19
312.328	103.19
312.557	102.19
312.787	92.19
313.017	88.19
313.246	81.19
313.476	88.19
313.706	93.19
313.935	91.19
314.165	92.19
314.394	83.19
314.624	92.19
314.853	85.19
315.083	91.19
315.312	84.19
315.542	84.19
315.771	94.19
316.001	85.19
316.23	77.19
316.46	100.19
316.689	87.19
316.919	82.19
317.148	85.19
317.377	79.19
317.607	87.19
317.836	89.19
318.065	89.19
318.295	94.19
318.524	91.19
318.753	87.19
318.983	93.19
319.212	94.19
319.441	105.19
319.67	84.19
319.9	88.19
320.129	75.19
320.358	82.19
320.587	100.19
320.816	87.19
321.046	98.19
321.275	95.19
321.504	96.19
321.733	92.19
321.962	107.19
322.191	109.19
322.42	71.19
322.649	104.19
322.878	107.19
323.108	104.19
323.337	106.19
323.566	117.19
323.795	134.19
324.024	155.19
324.253	312.19
324.482	583.19
324.71	1189.19
324.939	1493.19
325.168	574.19
325.397	186.19
325.626	125.19
325.855	113.19
326.084	115.19
326.313	116.19
326.542	112.19
326.77	177.19
326.999	354.19
327.228	677.19
327.457	1249.19
327.686	989.19
327.914	270.19
328.143	169.19
328.372	132.19
328.6	102.19
328.829	87.19
329.058	106.19
329.287	114.19
329.515	106.19
329.744	91.19
329.972	96.19
330.201	95.19
330.43	88.19
330.658	92.19
330.887	116.19
331.115	107.19
331.344	101.19
331.572	90.19
331.801	96.19
332.03	86.19
332.258	98.19
332.486	80.19
332.715	81.19
332.943	79.19
333.172	81.19
333.4	77.19
333.629	100.19
333.857	80.19
334.085	108.19
334.314	100.19
334.542	80.19
334.771	97.19
334.999	89.19
335.227	96.19
335.455	96.19
335.684	93.19
335.912	85.19
336.14	93.19
336.369	90.19
336.597	93.19
336.825	83.19
337.053	94.19
337.281	75.19
337.51	83.19
337.738	92.19
337.966	92.19
338.194	90.19
338.422	98.19
338.65	93.19
338.878	89.19
339.106	96.19
339.334	80.19
339.562	96.19
339.79	88.19
340.018	90.19
340.246	90.19
340.474	91.19
340.702	85.19
340.93	95.19
341.158	81.19
341.386	75.19
341.614	98.19
341.842	89.19
342.07	100.19
342.298	93.19
342.526	92.19
342.754	88.19
342.981	90.19
343.209	93.19
343.437	85.19
343.665	88.19
343.893	93.19
344.12	85.19
344.348	99.19
344.576	90.19
344.804	104.19
345.031	86.19
345.259	90.19
345.487	96.19
345.714	94.19
345.942	77.19
346.17	83.19
346.397	96.19
346.625	85.19
346.853	80.19
347.08	77.19
347.308	82.19
347.535	91.19
347.763	91.19
347.99	94.19
348.218	91.19
348.445	98.19
348.673	90.19
348.9	93.19
349.128	78.19
349.355	84.19
349.583	93.19
349.81	76.19
350.037	90.19
350.265	78.19
350.492	79.19
350.72	98.19
350.947	83.19
351.174	101.19
351.402	105.19
351.629	84.19
351.856	106.19
352.083	100.19
352.311	92.19
352.538	96.19
352.765	103.19
352.992	100.19
353.22	114.19
353.447	90.19
353.674	99.19
353.901	88.19
354.128	84.19
354.355	99.19
354.583	96.19
354.81	103.19
355.037	87.19
355.264	99.19
355.491	85.19
355.718	80.19
355.945	87.19
356.172	93.19
356.399	101.19
356.626	92.19
356.853	89.19
357.08	80.19
357.307	81.19
357.534	98.19
357.761	89.19
357.988	83.19
358.215	100.19
358.441	83.19
358.668	92.19
358.895	95.19
359.122	100.19
359.349	87.19
359.576	98.19
359.802	95.19
360.029	82.19
360.256	104.19
360.483	84.19
360.709	87.19
360.936	105.19
361.163	87.19
361.39	91.19
361.616	82.19
361.843	107.19
362.07	94.19
362.296	105.19
362.523	85.19
362.749	79.19
362.976	83.19
363.203	82.19
363.429	90.19
363.656	77.19
363.882	73.19
364.109	80.19
364.335	80.19
364.562	91.19
364.788	77.19
365.015	89.19
365.241	104.19
365.468	95.19
365.694	86.19
365.92	92.19
366.147	93.19
366.373	80.19
366.599	99.19
366.826	77.19
367.052	86.19
367.278	87.19
367.505	84.19
367.731	96.19
367.957	78.19
368.184	82.19
368.41	82.19
368.636	101.19
368.862	109.19
369.089	100.19
369.315	93.19
369.541	91.19
369.767	81.19
369.993	93.19
370.219	101.19
370.445	75.19
370.672	81.19
370.898	82.19
371.124	92.19
371.35	88.19
371.576	99.19
371.802	84.19
372.028	96.19
372.254	78.19
372.48	88.19
372.706	92.19
372.932	86.19
373.158	83.19
373.384	97.19
373.61	102.19
373.835	99.19
374.061	93.19
374.287	83.19
374.513	82.19
374.739	78.19
374.965	87.19
375.191	92.19
375.416	99.19
375.642	103.19
375.868	79.19
376.094	89.19
376.319	90.19
376.545	85.19
376.771	71.19
376.997	92.19
377.222	87.19
377.448	90.19
377.674	101.19
377.899	83.19
378.125	92.19
378.35	89.19
378.576	95.19
378.802	89.19
379.027	89.19
379.253	83.19
379.478	100.19
379.704	82.19
379.929	81.19
380.155	100.19
380.38	89.19
380.606	81.19
380.831	71.19
381.057	92.19
381.282	91.19
381.507	91.19
381.733	91.19
381.958	98.19
382.184	86.19
382.409	79.19
382.634	97.19
382.86	93.19
383.085	99.19
383.31	96.19
383.535	93.19
383.761	99.19
383.986	98.19
384.211	87.19
384.436	94.19
384.662	89.19
384.887	93.19
385.112	99.19
385.337	108.19
385.562	102.19
385.787	111.19
386.013	104.19
386.238	118.19
386.463	102.19
386.688	109.19
386.913	94.19
387.138	104.19
387.363	107.19
387.588	115.19
387.813	106.19
388.038	113.19
388.263	102.19
388.488	99.19
388.713	93.19
388.938	94.19
389.163	88.19
389.387	98.19
389.612	83.19
389.837	93.19
390.062	97.19
390.287	86.19
390.512	101.19
390.736	98.19
390.961	74.19
391.186	82.19
391.411	93.19
391.636	90.19
391.86	89.19
392.085	92.19
392.31	77.19
392.534	95.19
392.759	83.19
392.984	81.19
393.208	97.19
393.433	109.19
393.658	88.19
393.882	73.19
394.107	82.19
394.331	68.19
394.556	90.19
394.78	86.19
395.005	89.19
395.229	79.19
395.454	93.19
395.678	94.19
395.903	73.19
396.127	91.19
396.352	85.19
396.576	80.19
396.801	92.19
397.025	78.19
397.249	84.19
397.474	90.19
397.698	94.19
397.922	76.19
398.147	71.19
398.371	71.19
398.595	88.19
398.82	95.19
399.044	93.19
399.268	96.19
399.492	96.19
399.717	77.19
399.941	93.19
400.165	103.19
400.389	89.19
400.613	81.19
400.837	81.19
401.062	74.19
401.286	100.19
401.51	99.19
401.734	95.19
401.958	83.19
402.182	95.19
402.406	109.19
402.63	91.19
402.854	60.19
403.078	83.19
403.302	84.19
403.526	98.19
403.75	91.19
403.974	82.19
404.198	84.19
404.422	88.19
404.645	70.19
404.869	82.19
405.093	82.19
405.317	101.19
405.541	86.19
405.765	93.19
405.988	105.19
406.212	136.19
406.436	158.19
406.66	112.19
406.883	100.19
407.107	94.19
407.331	97.19
407.555	83.19
407.778	87.19
408.002	83.19
408.226	74.19
408.449	89.19
408.673	78.19
408.896	84.19
409.12	74.19
409.344	83.19
409.567	76.19
409.791	97.19
410.014	101.19
410.238	92.19
410.461	94.19
410.685	74.19
410.908	97.19
411.132	111.19
411.355	98.19
411.578	92.19
411.802	82.19
412.025	85.19
412.249	89.19
412.472	84.19
412.695	93.19
412.919	89.19
413.142	99.19
413.365	90.19
413.589	89.19
413.812	83.19
414.035	82.19
414.258	92.19
414.482	92.19
414.705	83.19
414.928	81.19
415.151	95.19
415.374	99.19
415.597	95.19
415.821	85.19
416.044	76.19
416.267	80.19
416.49	85.19
416.713	83.19
416.936	76.19
417.159	81.19
417.382	80.19
417.605	84.19
417.828	111.19
418.051	78.19
418.274	93.19
418.497	96.19
418.72	84.19
418.943	94.19
419.166	90.19
419.389	80.19
419.611	98.19
419.834	83.19
420.057	75.19
420.28	63.19
420.503	68.19
420.726	88.19
420.948	84.19
421.171	100.19
421.394	85.19
421.617	92.19
421.839	76.19
422.062	96.19
422.285	83.19
422.507	92.19
422.73	97.19
422.953	94.19
423.175	96.19
423.398	78.19
423.621	90.19
423.843	71.19
424.066	93.19
424.288	91.19
424.511	84.19
424.733	76.19
424.956	96.19
425.178	95.19
425.401	84.19
425.623	91.19
425.846	97.19
426.068	85.19
426.291	97.19
426.513	98.19
426.735	87.19
426.958	85.19
427.18	100.19
427.402	104.19
427.625	120.19
427.847	80.19
428.069	104.19
428.292	89.19
428.514	94.19
428.736	96.19
428.958	75.19
429.181	87.19
429.403	79.19
429.625	90.19
429.847	82.19
430.069	94.19
430.292	90.19
430.514	86.19
430.736	71.19
430.958	90.19
431.18	96.19
431.402	99.19
431.624	87.19
431.846	78.19
432.068	90.19
432.29	82.19
432.512	77.19
432.734	86.19
432.956	89.19
433.178	99.19
433.4	101.19
433.622	96.19
433.844	93.19
434.066	88.19
434.287	93.19
434.509	81.19
434.731	87.19
434.953	73.19
435.175	83.19
435.397	96.19
435.618	88.19
435.84	85.19
436.062	105.19
436.284	107.19
436.505	93.19
436.727	98.19
436.949	96.19
437.17	96.19
437.392	84.19
437.614	88.19
437.835	98.19
438.057	104.19
438.278	98.19
438.5	96.19
438.721	102.19
438.943	95.19
439.165	90.19
439.386	80.19
439.608	87.19
439.829	98.19
440.05	112.19
440.272	108.19
440.493	100.19
440.715	98.19
440.936	93.19
441.158	73.19
441.379	91.19
441.6	105.19
441.822	80.19
442.043	85.19
442.264	103.19
442.486	97.19
442.707	93.19
442.928	85.19
443.149	105.19
443.371	105.19
443.592	97.19
443.813	91.19
444.034	98.19
444.255	101.19
444.476	89.19
444.698	89.19
444.919	77.19
445.14	140.19
445.361	117.19
445.582	95.19
445.803	92.19
446.024	99.19
446.245	113.19
446.466	98.19
446.687	89.19
446.908	98.19
447.129	71.19
447.35	92.19
447.571	86.19
447.792	85.19
448.013	93.19
448.234	101.19
448.455	94.19
448.675	100.19
448.896	109.19
449.117	89.19
449.338	99.19
449.559	119.19
449.779	123.19
450	88.19
450.221	85.19
450.442	79.19
450.662	89.19
450.883	94.19
451.104	85.19
451.324	86.19
451.545	65.19
451.766	82.19
451.986	91.19
452.207	89.19
452.428	89.19
452.648	107.19
452.869	85.19
453.089	94.19
453.31	95.19
453.53	82.19
453.751	82.19
453.971	91.19
454.192	107.19
454.412	93.19
454.633	87.19
454.853	102.19
455.073	85.19
455.294	99.19
455.514	103.19
455.734	89.19
455.955	79.19
456.175	87.19
456.395	89.19
456.616	92.19
456.836	77.19
457.056	91.19
457.276	91.19
457.497	76.19
457.717	92.19
457.937	78.19
458.157	65.19
458.377	93.19
458.598	87.19
458.818	104.19
459.038	120.19
459.258	108.19
459.478	98.19
459.698	88.19
459.918	91.19
460.138	69.19
460.358	87.19
460.578	71.19
460.798	91.19
461.018	90.19
461.238	90.19
461.458	90.19
461.678	97.19
461.898	65.19
462.118	76.19
462.338	84.19
462.558	91.19
462.777	76.19
462.997	79.19
463.217	87.19
463.437	84.19
463.657	83.19
463.876	81.19
464.096	81.19
464.316	94.19
464.536	91.19
464.755	100.19
464.975	101.19
465.195	130.19
465.414	119.19
465.634	88.19
465.854	82.19
466.073	90.19
466.293	100.19
466.512	79.19
466.732	76.19
466.951	80.19
467.171	75.19
467.391	91.19
467.61	77.19
467.829	83.19
468.049	77.19
468.268	85.19
468.488	79.19
468.707	86.19
468.927	79.19
469.146	72.19
469.365	83.19
469.585	83.19
469.804	89.19
470.023	89.19
470.243	85.19
470.462	83.19
470.681	101.19
470.901	98.19
471.12	92.19
471.339	84.19
471.558	94.19
471.777	83.19
471.997	88.19
472.216	82.19
472.435	85.19
472.654	80.19
472.873	99.19
473.092	80.19
473.311	84.19
473.53	96.19
473.749	87.19
473.968	95.19
474.187	89.19
474.406	83.19
474.625	81.19
474.844	82.19
475.063	84.19
475.282	90.19
475.501	84.19
475.72	93.19
475.939	97.19
476.158	87.19
476.377	99.19
476.596	85.19
476.814	92.19
477.033	97.19
477.252	99.19
477.471	87.19
477.69	77.19
477.908	81.19
478.127	84.19
478.346	64.19
478.564	85.19
478.783	87.19
479.002	89.19
479.22	88.19
479.439	97.19
479.658	89.19
479.876	85.19
480.095	106.19
480.313	91.19
480.532	98.19
480.751	74.19
480.969	84.19
481.188	84.19
481.406	98.19
481.624	86.19
481.843	83.19
482.061	89.19
482.28	84.19
482.498	84.19
482.717	72.19
482.935	73.19
483.153	84.19
483.372	83.19
483.59	89.19
483.808	90.19
484.027	87.19
484.245	98.19
484.463	93.19
484.681	95.19
484.9	89.19
485.118	104.19
485.336	93.19
485.554	92.19
485.772	105.19
485.99	93.19
486.209	101.19
486.427	104.19
486.645	94.19
486.863	109.19
487.081	89.19
487.299	91.19
487.517	85.19
487.735	94.19
487.953	97.19
488.171	91.19
488.389	79.19
488.607	81.19
488.825	84.19
489.043	88.19
489.261	100.19
489.479	85.19
489.696	92.19
489.914	106.19
490.132	93.19
490.35	95.19
490.568	90.19
490.786	90.19
491.003	91.19
491.221	76.19
491.439	90.19
491.657	84.19
491.874	76.19
492.092	91.19
492.31	97.19
492.527	98.19
492.745	95.19
492.963	99.19
493.18	87.19
493.398	84.19
493.615	85.19
493.833	97.19
494.05	98.19
494.268	80.19
494.485	93.19
494.703	90.19
494.92	91.19
495.138	94.19
495.355	84.19
495.573	81.19
495.79	98.19
496.008	80.19
496.225	91.19
496.442	87.19
496.66	96.19
496.877	85.19
497.094	105.19
497.312	105.19
497.529	92.19
497.746	98.19
497.963	84.19
498.181	77.19
498.398	97.19
498.615	100.19
498.832	101.19
499.049	83.19
499.267	89.19
499.484	84.19
499.701	84.19
499.918	97.19
500.135	95.19
500.352	84.19
500.569	93.19
500.786	92.19
501.003	85.19
501.22	89.19
501.437	85.19
501.654	97.19
501.871	101.19
502.088	91.19
502.305	89.19
502.522	91.19
502.739	88.19
502.956	83.19
503.172	75.19
503.389	79.19
503.606	103.19
503.823	90.19
504.04	92.19
504.256	94.19
504.473	94.19
504.69	88.19
504.907	83.19
505.123	88.19
505.34	95.19
505.557	84.19
505.773	85.19
505.99	84.19
506.207	81.19
506.423	84.19
506.64	91.19
506.856	95.19
507.073	94.19
507.289	90.19
507.506	99.19
507.722	91.19
507.939	114.19
508.155	83.19
508.372	89.19
508.588	84.19
508.805	91.19
509.021	87.19
509.238	91.19
509.454	88.19
509.67	85.19
509.887	109.19
510.103	117.19
510.319	175.19
510.536	555.19
510.752	1521.19
510.968	452.19
511.184	130.19
511.401	103.19
511.617	98.19
511.833	84.19
512.049	84.19
512.265	87.19
512.481	82.19
512.698	77.19
512.914	88.19
513.13	92.19
513.346	87.19
513.562	97.19
513.778	105.19
513.994	91.19
514.21	94.19
514.426	107.19
514.642	116.19
514.858	113.19
515.074	135.19
515.29	299.19
515.506	923.19
515.721	349.19
515.937	114.19
516.153	97.19
516.369	93.19
516.585	101.19
516.801	102.19
517.016	83.19
517.232	96.19
517.448	88.19
