Data from Uncirc_1992_H10_HRD10591_00096.txt Node
Date: Wed Jan 03 11:46:35 EST 2024
User: Yrep
Spectrometer: HR+D1059
Trigger mode: 1
Integration Time (sec): 1.000000E-1
Scans to average: 1
Electric dark correction enabled: true
Nonlinearity correction enabled: false
Boxcar width: 0
XAxis mode: Wavelengths
Number of Pixels in Spectrum: 2048
>>>>>Begin Spectral Data<<<<<
223.165	-7.44
223.4	-7.44
223.635	-7.44
223.869	-15.44
224.104	-18.44
224.338	-34.44
224.573	-30.44
224.808	-11.44
225.042	-3.44
225.277	-1.44
225.511	3.56
225.746	2.56
225.98	3.56
226.215	14.56
226.449	24.56
226.683	10.56
226.918	26.56
227.152	36.56
227.387	39.56
227.621	48.56
227.856	55.56
228.09	48.56
228.324	56.56
228.559	54.56
228.793	61.56
229.027	57.56
229.262	75.56
229.496	76.56
229.73	94.56
229.964	84.56
230.199	80.56
230.433	77.56
230.667	67.56
230.901	84.56
231.136	90.56
231.37	73.56
231.604	89.56
231.838	90.56
232.072	81.56
232.306	75.56
232.541	74.56
232.775	79.56
233.009	68.56
233.243	76.56
233.477	93.56
233.711	93.56
233.945	95.56
234.179	85.56
234.413	90.56
234.647	76.56
234.881	76.56
235.115	80.56
235.349	77.56
235.583	93.56
235.817	70.56
236.051	78.56
236.285	88.56
236.519	85.56
236.753	83.56
236.987	86.56
237.221	95.56
237.455	96.56
237.689	85.56
237.922	86.56
238.156	73.56
238.39	71.56
238.624	78.56
238.858	73.56
239.091	86.56
239.325	80.56
239.559	74.56
239.793	88.56
240.027	71.56
240.26	85.56
240.494	85.56
240.728	86.56
240.961	83.56
241.195	90.56
241.429	86.56
241.662	89.56
241.896	69.56
242.13	60.56
242.363	82.56
242.597	66.56
242.83	65.56
243.064	73.56
243.298	70.56
243.531	84.56
243.765	83.56
243.998	85.56
244.232	79.56
244.465	93.56
244.699	81.56
244.932	70.56
245.166	76.56
245.399	105.56
245.633	80.56
245.866	76.56
246.099	71.56
246.333	94.56
246.566	76.56
246.8	76.56
247.033	76.56
247.266	88.56
247.5	65.56
247.733	80.56
247.966	78.56
248.2	82.56
248.433	82.56
248.666	83.56
248.899	76.56
249.133	81.56
249.366	90.56
249.599	97.56
249.832	78.56
250.066	79.56
250.299	74.56
250.532	79.56
250.765	73.56
250.998	78.56
251.231	72.56
251.465	96.56
251.698	100.56
251.931	85.56
252.164	89.56
252.397	76.56
252.63	87.56
252.863	73.56
253.096	76.56
253.329	85.56
253.562	87.56
253.795	82.56
254.028	87.56
254.261	94.56
254.494	92.56
254.727	79.56
254.96	86.56
255.193	78.56
255.426	78.56
255.659	88.56
255.892	79.56
256.124	86.56
256.357	87.56
256.59	76.56
256.823	81.56
257.056	79.56
257.289	80.56
257.521	87.56
257.754	71.56
257.987	87.56
258.22	100.56
258.452	77.56
258.685	72.56
258.918	68.56
259.151	92.56
259.383	97.56
259.616	85.56
259.849	77.56
260.081	81.56
260.314	85.56
260.547	91.56
260.779	73.56
261.012	93.56
261.244	78.56
261.477	95.56
261.71	100.56
261.942	125.56
262.175	110.56
262.407	92.56
262.64	94.56
262.872	103.56
263.105	82.56
263.337	83.56
263.57	79.56
263.802	65.56
264.035	98.56
264.267	74.56
264.499	96.56
264.732	89.56
264.964	76.56
265.197	92.56
265.429	95.56
265.661	82.56
265.894	77.56
266.126	85.56
266.358	88.56
266.591	93.56
266.823	89.56
267.055	89.56
267.287	82.56
267.52	95.56
267.752	93.56
267.984	88.56
268.216	96.56
268.448	80.56
268.681	84.56
268.913	90.56
269.145	82.56
269.377	90.56
269.609	76.56
269.841	80.56
270.073	84.56
270.306	80.56
270.538	93.56
270.77	88.56
271.002	76.56
271.234	95.56
271.466	98.56
271.698	95.56
271.93	84.56
272.162	97.56
272.394	80.56
272.626	82.56
272.858	93.56
273.09	81.56
273.322	84.56
273.553	88.56
273.785	92.56
274.017	80.56
274.249	96.56
274.481	87.56
274.713	88.56
274.945	93.56
275.176	94.56
275.408	95.56
275.64	80.56
275.872	92.56
276.104	96.56
276.335	108.56
276.567	102.56
276.799	116.56
277.031	113.56
277.262	95.56
277.494	89.56
277.726	97.56
277.957	83.56
278.189	87.56
278.421	94.56
278.652	88.56
278.884	96.56
279.115	88.56
279.347	83.56
279.579	75.56
279.81	75.56
280.042	85.56
280.273	86.56
280.505	86.56
280.736	100.56
280.968	80.56
281.199	111.56
281.431	102.56
281.662	86.56
281.894	90.56
282.125	104.56
282.356	109.56
282.588	139.56
282.819	121.56
283.051	93.56
283.282	84.56
283.513	96.56
283.745	77.56
283.976	96.56
284.207	80.56
284.439	87.56
284.67	85.56
284.901	93.56
285.132	78.56
285.364	83.56
285.595	90.56
285.826	84.56
286.057	92.56
286.288	89.56
286.52	96.56
286.751	88.56
286.982	104.56
287.213	89.56
287.444	103.56
287.675	89.56
287.906	55.56
288.138	94.56
288.369	92.56
288.6	101.56
288.831	93.56
289.062	86.56
289.293	95.56
289.524	85.56
289.755	88.56
289.986	92.56
290.217	102.56
290.448	92.56
290.679	100.56
290.91	93.56
291.141	81.56
291.371	82.56
291.602	96.56
291.833	100.56
292.064	86.56
292.295	86.56
292.526	96.56
292.757	83.56
292.987	81.56
293.218	92.56
293.449	93.56
293.68	106.56
293.91	94.56
294.141	83.56
294.372	85.56
294.603	85.56
294.833	99.56
295.064	94.56
295.295	93.56
295.525	101.56
295.756	111.56
295.987	138.56
296.217	157.56
296.448	126.56
296.679	91.56
296.909	97.56
297.14	89.56
297.37	92.56
297.601	91.56
297.831	77.56
298.062	95.56
298.292	85.56
298.523	95.56
298.753	84.56
298.984	114.56
299.214	90.56
299.445	92.56
299.675	93.56
299.905	86.56
300.136	87.56
300.366	87.56
300.597	90.56
300.827	83.56
301.057	106.56
301.288	124.56
301.518	84.56
301.748	104.56
301.979	109.56
302.209	94.56
302.439	94.56
302.669	100.56
302.9	114.56
303.13	108.56
303.36	93.56
303.59	93.56
303.82	104.56
304.051	90.56
304.281	92.56
304.511	92.56
304.741	93.56
304.971	93.56
305.201	98.56
305.431	90.56
305.661	87.56
305.891	98.56
306.121	103.56
306.352	97.56
306.582	111.56
306.812	92.56
307.042	100.56
307.272	92.56
307.502	92.56
307.731	94.56
307.961	89.56
308.191	97.56
308.421	92.56
308.651	95.56
308.881	96.56
309.111	85.56
309.341	111.56
309.571	97.56
309.8	94.56
310.03	110.56
310.26	112.56
310.49	97.56
310.72	111.56
310.949	97.56
311.179	102.56
311.409	93.56
311.639	95.56
311.868	81.56
312.098	104.56
312.328	100.56
312.557	112.56
312.787	105.56
313.017	110.56
313.246	98.56
313.476	113.56
313.706	102.56
313.935	100.56
314.165	108.56
314.394	108.56
314.624	99.56
314.853	96.56
315.083	86.56
315.312	93.56
315.542	90.56
315.771	98.56
316.001	78.56
316.23	75.56
316.46	96.56
316.689	87.56
316.919	92.56
317.148	95.56
317.377	105.56
317.607	87.56
317.836	98.56
318.065	93.56
318.295	112.56
318.524	100.56
318.753	96.56
318.983	95.56
319.212	88.56
319.441	102.56
319.67	102.56
319.9	89.56
320.129	103.56
320.358	109.56
320.587	110.56
320.816	92.56
321.046	99.56
321.275	102.56
321.504	96.56
321.733	93.56
321.962	83.56
322.191	98.56
322.42	92.56
322.649	105.56
322.878	108.56
323.108	105.56
323.337	129.56
323.566	119.56
323.795	156.56
324.024	200.56
324.253	415.56
324.482	844.56
324.71	1681.56
324.939	2142.56
325.168	796.56
325.397	259.56
325.626	156.56
325.855	136.56
326.084	134.56
326.313	143.56
326.542	162.56
326.77	233.56
326.999	445.56
327.228	914.56
327.457	1616.56
327.686	1279.56
327.914	348.56
328.143	178.56
328.372	141.56
328.6	122.56
328.829	131.56
329.058	113.56
329.287	130.56
329.515	101.56
329.744	107.56
329.972	98.56
330.201	93.56
330.43	114.56
330.658	124.56
330.887	151.56
331.115	128.56
331.344	120.56
331.572	106.56
331.801	102.56
332.03	98.56
332.258	103.56
332.486	105.56
332.715	95.56
332.943	89.56
333.172	93.56
333.4	99.56
333.629	119.56
333.857	110.56
334.085	96.56
334.314	98.56
334.542	94.56
334.771	115.56
334.999	96.56
335.227	102.56
335.455	95.56
335.684	105.56
335.912	97.56
336.14	92.56
336.369	107.56
336.597	85.56
336.825	104.56
337.053	95.56
337.281	93.56
337.51	100.56
337.738	95.56
337.966	87.56
338.194	89.56
338.422	87.56
338.65	101.56
338.878	98.56
339.106	101.56
339.334	92.56
339.562	87.56
339.79	97.56
340.018	86.56
340.246	92.56
340.474	87.56
340.702	93.56
340.93	95.56
341.158	104.56
341.386	113.56
341.614	112.56
341.842	84.56
342.07	103.56
342.298	94.56
342.526	89.56
342.754	103.56
342.981	92.56
343.209	81.56
343.437	94.56
343.665	90.56
343.893	100.56
344.12	98.56
344.348	89.56
344.576	94.56
344.804	97.56
345.031	119.56
345.259	98.56
345.487	103.56
345.714	103.56
345.942	102.56
346.17	98.56
346.397	99.56
346.625	101.56
346.853	90.56
347.08	105.56
347.308	96.56
347.535	97.56
347.763	101.56
347.99	98.56
348.218	113.56
348.445	115.56
348.673	95.56
348.9	110.56
349.128	103.56
349.355	103.56
349.583	92.56
349.81	96.56
350.037	94.56
350.265	97.56
350.492	102.56
350.72	101.56
350.947	125.56
351.174	114.56
351.402	107.56
351.629	102.56
351.856	102.56
352.083	89.56
352.311	98.56
352.538	100.56
352.765	111.56
352.992	107.56
353.22	114.56
353.447	120.56
353.674	105.56
353.901	92.56
354.128	97.56
354.355	104.56
354.583	97.56
354.81	102.56
355.037	87.56
355.264	85.56
355.491	93.56
355.718	88.56
355.945	100.56
356.172	113.56
356.399	104.56
356.626	98.56
356.853	102.56
357.08	88.56
357.307	90.56
357.534	97.56
357.761	97.56
357.988	96.56
358.215	92.56
358.441	81.56
358.668	82.56
358.895	100.56
359.122	99.56
359.349	103.56
359.576	95.56
359.802	93.56
360.029	112.56
360.256	116.56
360.483	101.56
360.709	108.56
360.936	94.56
361.163	102.56
361.39	102.56
361.616	105.56
361.843	103.56
362.07	104.56
362.296	90.56
362.523	97.56
362.749	96.56
362.976	98.56
363.203	91.56
363.429	87.56
363.656	93.56
363.882	91.56
364.109	93.56
364.335	95.56
364.562	90.56
364.788	88.56
365.015	95.56
365.241	108.56
365.468	115.56
365.694	120.56
365.92	68.56
366.147	104.56
366.373	85.56
366.599	104.56
366.826	96.56
367.052	103.56
367.278	88.56
367.505	97.56
367.731	110.56
367.957	101.56
368.184	94.56
368.41	112.56
368.636	126.56
368.862	124.56
369.089	104.56
369.315	106.56
369.541	98.56
369.767	87.56
369.993	83.56
370.219	87.56
370.445	92.56
370.672	94.56
370.898	105.56
371.124	103.56
371.35	85.56
371.576	95.56
371.802	94.56
372.028	93.56
372.254	96.56
372.48	89.56
372.706	97.56
372.932	101.56
373.158	99.56
373.384	103.56
373.61	106.56
373.835	89.56
374.061	90.56
374.287	90.56
374.513	117.56
374.739	82.56
374.965	85.56
375.191	98.56
375.416	92.56
375.642	96.56
375.868	91.56
376.094	94.56
376.319	95.56
376.545	90.56
376.771	98.56
376.997	95.56
377.222	85.56
377.448	98.56
377.674	84.56
377.899	76.56
378.125	90.56
378.35	85.56
378.576	98.56
378.802	87.56
379.027	96.56
379.253	93.56
379.478	83.56
379.704	95.56
379.929	92.56
380.155	97.56
380.38	100.56
380.606	94.56
380.831	94.56
381.057	108.56
381.282	101.56
381.507	100.56
381.733	102.56
381.958	102.56
382.184	101.56
382.409	88.56
382.634	90.56
382.86	104.56
383.085	92.56
383.31	97.56
383.535	106.56
383.761	101.56
383.986	104.56
384.211	105.56
384.436	94.56
384.662	90.56
384.887	93.56
385.112	98.56
385.337	101.56
385.562	110.56
385.787	105.56
386.013	108.56
386.238	105.56
386.463	107.56
386.688	106.56
386.913	114.56
387.138	90.56
387.363	102.56
387.588	101.56
387.813	114.56
388.038	97.56
388.263	105.56
388.488	96.56
388.713	110.56
388.938	92.56
389.163	93.56
389.387	101.56
389.612	105.56
389.837	98.56
390.062	114.56
390.287	97.56
390.512	100.56
390.736	94.56
390.961	93.56
391.186	101.56
391.411	87.56
391.636	99.56
391.86	76.56
392.085	100.56
392.31	94.56
392.534	94.56
392.759	92.56
392.984	92.56
393.208	101.56
393.433	99.56
393.658	109.56
393.882	74.56
394.107	80.56
394.331	97.56
394.556	98.56
394.78	90.56
395.005	79.56
395.229	102.56
395.454	100.56
395.678	73.56
395.903	100.56
396.127	87.56
396.352	95.56
396.576	94.56
396.801	89.56
397.025	98.56
397.249	101.56
397.474	85.56
397.698	78.56
397.922	83.56
398.147	86.56
398.371	83.56
398.595	88.56
398.82	83.56
399.044	88.56
399.268	84.56
399.492	100.56
399.717	89.56
399.941	82.56
400.165	94.56
400.389	98.56
400.613	94.56
400.837	89.56
401.062	84.56
401.286	84.56
401.51	97.56
401.734	105.56
401.958	110.56
402.182	127.56
402.406	166.56
402.63	128.56
402.854	97.56
403.078	95.56
403.302	100.56
403.526	98.56
403.75	100.56
403.974	85.56
404.198	95.56
404.422	95.56
404.645	98.56
404.869	88.56
405.093	99.56
405.317	98.56
405.541	106.56
405.765	110.56
405.988	117.56
406.212	161.56
406.436	221.56
406.66	145.56
406.883	110.56
407.107	84.56
407.331	79.56
407.555	113.56
407.778	98.56
408.002	87.56
408.226	87.56
408.449	81.56
408.673	85.56
408.896	101.56
409.12	106.56
409.344	97.56
409.567	98.56
409.791	90.56
410.014	99.56
410.238	94.56
410.461	83.56
410.685	106.56
410.908	102.56
411.132	101.56
411.355	104.56
411.578	89.56
411.802	83.56
412.025	82.56
412.249	90.56
412.472	89.56
412.695	81.56
412.919	92.56
413.142	84.56
413.365	97.56
413.589	97.56
413.812	92.56
414.035	89.56
414.258	97.56
414.482	101.56
414.705	94.56
414.928	94.56
415.151	93.56
415.374	84.56
415.597	78.56
415.821	78.56
416.044	104.56
416.267	91.56
416.49	89.56
416.713	87.56
416.936	93.56
417.159	101.56
417.382	84.56
417.605	81.56
417.828	96.56
418.051	93.56
418.274	90.56
418.497	88.56
418.72	85.56
418.943	87.56
419.166	99.56
419.389	91.56
419.611	86.56
419.834	92.56
420.057	93.56
420.28	98.56
420.503	101.56
420.726	71.56
420.948	80.56
421.171	86.56
421.394	88.56
421.617	63.56
421.839	103.56
422.062	88.56
422.285	90.56
422.507	89.56
422.73	95.56
422.953	95.56
423.175	97.56
423.398	105.56
423.621	103.56
423.843	96.56
424.066	88.56
424.288	103.56
424.511	91.56
424.733	100.56
424.956	111.56
425.178	93.56
425.401	94.56
425.623	97.56
425.846	93.56
426.068	105.56
426.291	100.56
426.513	100.56
426.735	85.56
426.958	102.56
427.18	114.56
427.402	126.56
427.625	155.56
427.847	124.56
428.069	97.56
428.292	88.56
428.514	85.56
428.736	78.56
428.958	89.56
429.181	87.56
429.403	87.56
429.625	102.56
429.847	94.56
430.069	88.56
430.292	85.56
430.514	80.56
430.736	102.56
430.958	84.56
431.18	86.56
431.402	82.56
431.624	94.56
431.846	83.56
432.068	90.56
432.29	90.56
432.512	95.56
432.734	90.56
432.956	103.56
433.178	100.56
433.4	105.56
433.622	98.56
433.844	87.56
434.066	88.56
434.287	102.56
434.509	95.56
434.731	103.56
434.953	93.56
435.175	98.56
435.397	97.56
435.618	101.56
435.84	104.56
436.062	107.56
436.284	109.56
436.505	107.56
436.727	105.56
436.949	98.56
437.17	81.56
437.392	90.56
437.614	100.56
437.835	113.56
438.057	116.56
438.278	103.56
438.5	93.56
438.721	112.56
438.943	104.56
439.165	93.56
439.386	87.56
439.608	106.56
439.829	105.56
440.05	140.56
440.272	137.56
440.493	100.56
440.715	80.56
440.936	98.56
441.158	86.56
441.379	96.56
441.6	88.56
441.822	108.56
442.043	90.56
442.264	92.56
442.486	93.56
442.707	111.56
442.928	105.56
443.149	135.56
443.371	135.56
443.592	113.56
443.813	116.56
444.034	110.56
444.255	82.56
444.476	90.56
444.698	84.56
444.919	96.56
445.14	129.56
445.361	120.56
445.582	115.56
445.803	140.56
446.024	133.56
446.245	119.56
446.466	122.56
446.687	98.56
446.908	89.56
447.129	111.56
447.35	96.56
447.571	94.56
447.792	107.56
448.013	96.56
448.234	90.56
448.455	100.56
448.675	115.56
448.896	106.56
449.117	98.56
449.338	91.56
449.559	132.56
449.779	137.56
450	92.56
450.221	84.56
450.442	102.56
450.662	94.56
450.883	107.56
451.104	120.56
451.324	100.56
451.545	95.56
451.766	80.56
451.986	93.56
452.207	109.56
452.428	91.56
452.648	100.56
452.869	119.56
453.089	115.56
453.31	103.56
453.53	104.56
453.751	94.56
453.971	106.56
454.192	101.56
454.412	100.56
454.633	79.56
454.853	90.56
455.073	92.56
455.294	76.56
455.514	93.56
455.734	66.56
455.955	85.56
456.175	85.56
456.395	92.56
456.616	90.56
456.836	82.56
457.056	94.56
457.276	98.56
457.497	81.56
457.717	90.56
457.937	88.56
458.157	105.56
458.377	90.56
458.598	112.56
458.818	152.56
459.038	138.56
459.258	120.56
459.478	89.56
459.698	88.56
459.918	91.56
460.138	81.56
460.358	98.56
460.578	93.56
460.798	92.56
461.018	92.56
461.238	90.56
461.458	77.56
461.678	80.56
461.898	90.56
462.118	81.56
462.338	84.56
462.558	82.56
462.777	81.56
462.997	83.56
463.217	100.56
463.437	108.56
463.657	100.56
463.876	98.56
464.096	91.56
464.316	101.56
464.536	100.56
464.755	104.56
464.975	108.56
465.195	149.56
465.414	158.56
465.634	83.56
465.854	95.56
466.073	95.56
466.293	108.56
466.512	76.56
466.732	98.56
466.951	97.56
467.171	76.56
467.391	80.56
467.61	116.56
467.829	109.56
468.049	83.56
468.268	100.56
468.488	84.56
468.707	100.56
468.927	92.56
469.146	78.56
469.365	88.56
469.585	88.56
469.804	90.56
470.023	106.56
470.243	97.56
470.462	96.56
470.681	114.56
470.901	103.56
471.12	92.56
471.339	84.56
471.558	90.56
471.777	90.56
471.997	88.56
472.216	111.56
472.435	100.56
472.654	106.56
472.873	94.56
473.092	77.56
473.311	86.56
473.53	73.56
473.749	97.56
473.968	86.56
474.187	105.56
474.406	105.56
474.625	94.56
474.844	88.56
475.063	89.56
475.282	84.56
475.501	82.56
475.72	91.56
475.939	101.56
476.158	89.56
476.377	87.56
476.596	81.56
476.814	89.56
477.033	83.56
477.252	98.56
477.471	80.56
477.69	74.56
477.908	81.56
478.127	86.56
478.346	78.56
478.564	102.56
478.783	95.56
479.002	103.56
479.22	90.56
479.439	100.56
479.658	93.56
479.876	93.56
480.095	98.56
480.313	102.56
480.532	95.56
480.751	93.56
480.969	105.56
481.188	102.56
481.406	102.56
481.624	93.56
481.843	92.56
482.061	84.56
482.28	81.56
482.498	98.56
482.717	78.56
482.935	82.56
483.153	78.56
483.372	91.56
483.59	96.56
483.808	86.56
484.027	79.56
484.245	89.56
484.463	98.56
484.681	111.56
484.9	89.56
485.118	100.56
485.336	85.56
485.554	109.56
485.772	98.56
485.99	95.56
486.209	109.56
486.427	112.56
486.645	104.56
486.863	98.56
487.081	101.56
487.299	95.56
487.517	96.56
487.735	82.56
487.953	85.56
488.171	99.56
488.389	81.56
488.607	97.56
488.825	80.56
489.043	96.56
489.261	98.56
489.479	92.56
489.696	98.56
489.914	102.56
490.132	77.56
490.35	96.56
490.568	102.56
490.786	102.56
491.003	91.56
491.221	88.56
491.439	86.56
491.657	90.56
491.874	83.56
492.092	93.56
492.31	104.56
492.527	90.56
492.745	93.56
492.963	103.56
493.18	93.56
493.398	98.56
493.615	100.56
493.833	98.56
494.05	95.56
494.268	81.56
494.485	102.56
494.703	86.56
494.92	106.56
495.138	99.56
495.355	97.56
495.573	89.56
495.79	96.56
496.008	93.56
496.225	87.56
496.442	81.56
496.66	104.56
496.877	90.56
497.094	99.56
497.312	91.56
497.529	101.56
497.746	98.56
497.963	95.56
498.181	89.56
498.398	93.56
498.615	104.56
498.832	97.56
499.049	96.56
499.267	102.56
499.484	94.56
499.701	97.56
499.918	91.56
500.135	101.56
500.352	93.56
500.569	98.56
500.786	87.56
501.003	102.56
501.22	100.56
501.437	97.56
501.654	91.56
501.871	119.56
502.088	86.56
502.305	101.56
502.522	94.56
502.739	86.56
502.956	95.56
503.172	96.56
503.389	102.56
503.606	98.56
503.823	104.56
504.04	94.56
504.256	91.56
504.473	92.56
504.69	99.56
504.907	83.56
505.123	88.56
505.34	87.56
505.557	93.56
505.773	88.56
505.99	84.56
506.207	96.56
506.423	93.56
506.64	84.56
506.856	94.56
507.073	88.56
507.289	103.56
507.506	88.56
507.722	115.56
507.939	107.56
508.155	100.56
508.372	103.56
508.588	95.56
508.805	88.56
509.021	107.56
509.238	105.56
509.454	106.56
509.67	118.56
509.887	112.56
510.103	126.56
510.319	232.56
510.536	829.56
510.752	2470.56
510.968	672.56
511.184	157.56
511.401	110.56
511.617	88.56
511.833	106.56
512.049	88.56
512.265	91.56
512.481	112.56
512.698	105.56
512.914	98.56
513.13	101.56
513.346	91.56
513.562	102.56
513.778	105.56
513.994	92.56
514.21	117.56
