Data from Uncirc_1992_H10_HRD10591_00020.txt Node
Date: Wed Jan 03 11:46:20 EST 2024
User: Yrep
Spectrometer: HR+D1059
Trigger mode: 1
Integration Time (sec): 1.000000E-1
Scans to average: 1
Electric dark correction enabled: true
Nonlinearity correction enabled: false
Boxcar width: 0
XAxis mode: Wavelengths
Number of Pixels in Spectrum: 2048
>>>>>Begin Spectral Data<<<<<
223.165	-11.19
223.4	-11.19
223.635	-11.19
223.869	-36.19
224.104	-25.19
224.338	0.81
224.573	-27.19
224.808	-16.19
225.042	-9.19
225.277	-6.19
225.511	11.81
225.746	2.81
225.98	21.81
226.215	7.81
226.449	17.81
226.683	9.81
226.918	23.81
227.152	34.81
227.387	45.81
227.621	37.81
227.856	46.81
228.09	39.81
228.324	37.81
228.559	53.81
228.793	52.81
229.027	44.81
229.262	57.81
229.496	73.81
229.73	73.81
229.964	86.81
230.199	78.81
230.433	65.81
230.667	52.81
230.901	66.81
231.136	77.81
231.37	91.81
231.604	61.81
231.838	71.81
232.072	89.81
232.306	89.81
232.541	64.81
232.775	65.81
233.009	83.81
233.243	75.81
233.477	78.81
233.711	83.81
233.945	65.81
234.179	73.81
234.413	80.81
234.647	64.81
234.881	68.81
235.115	72.81
235.349	83.81
235.583	73.81
235.817	75.81
236.051	74.81
236.285	80.81
236.519	76.81
236.753	84.81
236.987	65.81
237.221	67.81
237.455	72.81
237.689	66.81
237.922	79.81
238.156	73.81
238.39	72.81
238.624	66.81
238.858	76.81
239.091	80.81
239.325	69.81
239.559	97.81
239.793	76.81
240.027	73.81
240.26	66.81
240.494	69.81
240.728	81.81
240.961	61.81
241.195	79.81
241.429	76.81
241.662	65.81
241.896	79.81
242.13	81.81
242.363	76.81
242.597	74.81
242.83	82.81
243.064	77.81
243.298	77.81
243.531	66.81
243.765	75.81
243.998	89.81
244.232	85.81
244.465	88.81
244.699	85.81
244.932	69.81
245.166	66.81
245.399	67.81
245.633	74.81
245.866	65.81
246.099	83.81
246.333	66.81
246.566	71.81
246.8	77.81
247.033	72.81
247.266	69.81
247.5	71.81
247.733	91.81
247.966	76.81
248.2	91.81
248.433	92.81
248.666	89.81
248.899	80.81
249.133	77.81
249.366	78.81
249.599	94.81
249.832	77.81
250.066	84.81
250.299	61.81
250.532	83.81
250.765	73.81
250.998	71.81
251.231	66.81
251.465	78.81
251.698	71.81
251.931	72.81
252.164	65.81
252.397	93.81
252.63	75.81
252.863	82.81
253.096	66.81
253.329	90.81
253.562	73.81
253.795	65.81
254.028	55.81
254.261	66.81
254.494	66.81
254.727	86.81
254.96	73.81
255.193	72.81
255.426	90.81
255.659	80.81
255.892	83.81
256.124	83.81
256.357	84.81
256.59	85.81
256.823	91.81
257.056	75.81
257.289	73.81
257.521	79.81
257.754	71.81
257.987	75.81
258.22	71.81
258.452	80.81
258.685	67.81
258.918	77.81
259.151	79.81
259.383	80.81
259.616	74.81
259.849	78.81
260.081	91.81
260.314	78.81
260.547	89.81
260.779	63.81
261.012	75.81
261.244	89.81
261.477	92.81
261.71	86.81
261.942	86.81
262.175	94.81
262.407	83.81
262.64	99.81
262.872	82.81
263.105	75.81
263.337	79.81
263.57	72.81
263.802	73.81
264.035	81.81
264.267	69.81
264.499	83.81
264.732	76.81
264.964	87.81
265.197	85.81
265.429	81.81
265.661	88.81
265.894	90.81
266.126	87.81
266.358	79.81
266.591	89.81
266.823	74.81
267.055	64.81
267.287	72.81
267.52	77.81
267.752	89.81
267.984	87.81
268.216	80.81
268.448	84.81
268.681	79.81
268.913	95.81
269.145	81.81
269.377	72.81
269.609	94.81
269.841	85.81
270.073	78.81
270.306	73.81
270.538	81.81
270.77	76.81
271.002	69.81
271.234	87.81
271.466	66.81
271.698	75.81
271.93	91.81
272.162	86.81
272.394	92.81
272.626	89.81
272.858	84.81
273.09	78.81
273.322	81.81
273.553	80.81
273.785	85.81
274.017	71.81
274.249	66.81
274.481	89.81
274.713	94.81
274.945	92.81
275.176	84.81
275.408	96.81
275.64	82.81
275.872	71.81
276.104	81.81
276.335	81.81
276.567	91.81
276.799	89.81
277.031	87.81
277.262	73.81
277.494	87.81
277.726	74.81
277.957	80.81
278.189	90.81
278.421	75.81
278.652	82.81
278.884	81.81
279.115	86.81
279.347	79.81
279.579	82.81
279.81	92.81
280.042	89.81
280.273	93.81
280.505	76.81
280.736	80.81
280.968	84.81
281.199	91.81
281.431	94.81
281.662	97.81
281.894	83.81
282.125	79.81
282.356	107.81
282.588	122.81
282.819	99.81
283.051	79.81
283.282	87.81
283.513	98.81
283.745	81.81
283.976	87.81
284.207	82.81
284.439	85.81
284.67	76.81
284.901	81.81
285.132	72.81
285.364	88.81
285.595	70.81
285.826	86.81
286.057	97.81
286.288	89.81
286.52	77.81
286.751	85.81
286.982	93.81
287.213	81.81
287.444	91.81
287.675	90.81
287.906	98.81
288.138	97.81
288.369	90.81
288.6	96.81
288.831	90.81
289.062	92.81
289.293	81.81
289.524	73.81
289.755	68.81
289.986	82.81
290.217	93.81
290.448	82.81
290.679	88.81
290.91	71.81
291.141	81.81
291.371	77.81
291.602	83.81
291.833	78.81
292.064	91.81
292.295	88.81
292.526	89.81
292.757	80.81
292.987	88.81
293.218	88.81
293.449	87.81
293.68	92.81
293.91	81.81
294.141	91.81
294.372	72.81
294.603	86.81
294.833	83.81
295.064	77.81
295.295	80.81
295.525	97.81
295.756	96.81
295.987	118.81
296.217	121.81
296.448	107.81
296.679	101.81
296.909	87.81
297.14	84.81
297.37	90.81
297.601	96.81
297.831	88.81
298.062	83.81
298.292	98.81
298.523	85.81
298.753	89.81
298.984	82.81
299.214	85.81
299.445	87.81
299.675	91.81
299.905	101.81
300.136	75.81
300.366	85.81
300.597	97.81
300.827	97.81
301.057	80.81
301.288	103.81
301.518	73.81
301.748	81.81
301.979	100.81
302.209	85.81
302.439	94.81
302.669	97.81
302.9	83.81
303.13	91.81
303.36	89.81
303.59	92.81
303.82	107.81
304.051	84.81
304.281	75.81
304.511	87.81
304.741	77.81
304.971	80.81
305.201	87.81
305.431	88.81
305.661	74.81
305.891	87.81
306.121	100.81
306.352	102.81
306.582	91.81
306.812	99.81
307.042	96.81
307.272	87.81
307.502	83.81
307.731	87.81
307.961	68.81
308.191	78.81
308.421	80.81
308.651	94.81
308.881	87.81
309.111	80.81
309.341	94.81
309.571	88.81
309.8	90.81
310.03	87.81
310.26	89.81
310.49	82.81
310.72	76.81
310.949	95.81
311.179	88.81
311.409	96.81
311.639	84.81
311.868	84.81
312.098	91.81
312.328	84.81
312.557	85.81
312.787	89.81
313.017	100.81
313.246	87.81
313.476	82.81
313.706	95.81
313.935	88.81
314.165	80.81
314.394	88.81
314.624	87.81
314.853	98.81
315.083	101.81
315.312	93.81
315.542	95.81
315.771	85.81
316.001	88.81
316.23	92.81
316.46	98.81
316.689	81.81
316.919	96.81
317.148	90.81
317.377	85.81
317.607	92.81
317.836	97.81
318.065	83.81
318.295	81.81
318.524	97.81
318.753	90.81
318.983	80.81
319.212	98.81
319.441	99.81
319.67	112.81
319.9	98.81
320.129	84.81
320.358	77.81
320.587	87.81
320.816	85.81
321.046	87.81
321.275	85.81
321.504	85.81
321.733	87.81
321.962	85.81
322.191	90.81
322.42	103.81
322.649	100.81
322.878	103.81
323.108	92.81
323.337	107.81
323.566	113.81
323.795	111.81
324.024	164.81
324.253	312.81
324.482	650.81
324.71	1298.81
324.939	1672.81
325.168	633.81
325.397	193.81
325.626	137.81
325.855	129.81
326.084	104.81
326.313	126.81
326.542	119.81
326.77	208.81
326.999	373.81
327.228	735.81
327.457	1303.81
327.686	1024.81
327.914	291.81
328.143	180.81
328.372	133.81
328.6	114.81
328.829	105.81
329.058	123.81
329.287	112.81
329.515	98.81
329.744	97.81
329.972	84.81
330.201	94.81
330.43	91.81
330.658	108.81
330.887	113.81
331.115	109.81
331.344	101.81
331.572	102.81
331.801	98.81
332.03	102.81
332.258	93.81
332.486	86.81
332.715	99.81
332.943	93.81
333.172	87.81
333.4	95.81
333.629	100.81
333.857	103.81
334.085	104.81
334.314	92.81
334.542	99.81
334.771	85.81
334.999	98.81
335.227	96.81
335.455	83.81
335.684	91.81
335.912	80.81
336.14	103.81
336.369	77.81
336.597	103.81
336.825	99.81
337.053	73.81
337.281	87.81
337.51	85.81
337.738	98.81
337.966	77.81
338.194	93.81
338.422	97.81
338.65	96.81
338.878	97.81
339.106	91.81
339.334	90.81
339.562	88.81
339.79	96.81
340.018	91.81
340.246	79.81
340.474	81.81
340.702	100.81
340.93	89.81
341.158	83.81
341.386	99.81
341.614	80.81
341.842	106.81
342.07	92.81
342.298	88.81
342.526	88.81
342.754	90.81
342.981	98.81
343.209	95.81
343.437	112.81
343.665	83.81
343.893	96.81
344.12	83.81
344.348	83.81
344.576	95.81
344.804	94.81
345.031	98.81
345.259	102.81
345.487	85.81
345.714	87.81
345.942	90.81
346.17	106.81
346.397	81.81
346.625	87.81
346.853	81.81
347.08	83.81
347.308	99.81
347.535	102.81
347.763	97.81
347.99	103.81
348.218	105.81
348.445	100.81
348.673	94.81
348.9	98.81
349.128	104.81
349.355	101.81
349.583	93.81
349.81	79.81
350.037	99.81
350.265	91.81
350.492	102.81
350.72	89.81
350.947	113.81
351.174	100.81
351.402	83.81
351.629	96.81
351.856	94.81
352.083	102.81
352.311	110.81
352.538	103.81
352.765	93.81
352.992	104.81
353.22	102.81
353.447	92.81
353.674	104.81
353.901	96.81
354.128	93.81
354.355	88.81
354.583	90.81
354.81	89.81
355.037	91.81
355.264	76.81
355.491	91.81
355.718	80.81
355.945	83.81
356.172	96.81
356.399	95.81
356.626	74.81
356.853	98.81
357.08	101.81
357.307	85.81
357.534	81.81
357.761	91.81
357.988	87.81
358.215	90.81
358.441	92.81
358.668	101.81
358.895	97.81
359.122	91.81
359.349	82.81
359.576	92.81
359.802	84.81
360.029	99.81
360.256	99.81
360.483	92.81
360.709	90.81
360.936	82.81
361.163	99.81
361.39	84.81
361.616	96.81
361.843	99.81
362.07	84.81
362.296	106.81
362.523	83.81
362.749	93.81
362.976	95.81
363.203	89.81
363.429	90.81
363.656	93.81
363.882	89.81
364.109	95.81
364.335	87.81
364.562	82.81
364.788	80.81
365.015	78.81
365.241	98.81
365.468	98.81
365.694	84.81
365.92	105.81
366.147	82.81
366.373	90.81
366.599	94.81
366.826	91.81
367.052	91.81
367.278	87.81
367.505	78.81
367.731	79.81
367.957	102.81
368.184	94.81
368.41	88.81
368.636	116.81
368.862	107.81
369.089	80.81
369.315	98.81
369.541	84.81
369.767	82.81
369.993	77.81
370.219	77.81
370.445	83.81
370.672	73.81
370.898	91.81
371.124	79.81
371.35	85.81
371.576	94.81
371.802	81.81
372.028	85.81
372.254	82.81
372.48	86.81
372.706	81.81
372.932	90.81
373.158	84.81
373.384	95.81
373.61	98.81
373.835	89.81
374.061	82.81
374.287	95.81
374.513	87.81
374.739	86.81
374.965	80.81
375.191	82.81
375.416	86.81
375.642	91.81
375.868	95.81
376.094	98.81
376.319	98.81
376.545	98.81
376.771	83.81
376.997	88.81
377.222	74.81
377.448	90.81
377.674	81.81
377.899	93.81
378.125	92.81
378.35	89.81
378.576	84.81
378.802	76.81
379.027	92.81
379.253	84.81
379.478	85.81
379.704	97.81
379.929	81.81
380.155	99.81
380.38	88.81
380.606	91.81
380.831	102.81
381.057	109.81
381.282	104.81
381.507	104.81
381.733	88.81
381.958	79.81
382.184	105.81
382.409	96.81
382.634	100.81
382.86	93.81
383.085	104.81
383.31	97.81
383.535	97.81
383.761	90.81
383.986	91.81
384.211	95.81
384.436	103.81
384.662	108.81
384.887	92.81
385.112	96.81
385.337	94.81
385.562	94.81
385.787	96.81
386.013	105.81
386.238	112.81
386.463	94.81
386.688	95.81
386.913	102.81
387.138	91.81
387.363	95.81
387.588	92.81
387.813	96.81
388.038	99.81
388.263	101.81
388.488	86.81
388.713	88.81
388.938	92.81
389.163	104.81
389.387	89.81
389.612	83.81
389.837	86.81
390.062	85.81
390.287	88.81
390.512	100.81
390.736	87.81
390.961	87.81
391.186	94.81
391.411	89.81
391.636	87.81
391.86	68.81
392.085	87.81
392.31	94.81
392.534	87.81
392.759	93.81
392.984	93.81
393.208	84.81
393.433	93.81
393.658	79.81
393.882	87.81
394.107	98.81
394.331	89.81
394.556	92.81
394.78	87.81
395.005	75.81
395.229	89.81
395.454	89.81
395.678	90.81
395.903	87.81
396.127	84.81
396.352	85.81
396.576	78.81
396.801	92.81
397.025	94.81
397.249	87.81
397.474	88.81
397.698	94.81
397.922	85.81
398.147	96.81
398.371	89.81
398.595	84.81
398.82	83.81
399.044	62.81
399.268	69.81
399.492	97.81
399.717	82.81
399.941	83.81
400.165	91.81
400.389	76.81
400.613	95.81
400.837	89.81
401.062	87.81
401.286	68.81
401.51	76.81
401.734	91.81
401.958	91.81
402.182	110.81
402.406	153.81
402.63	110.81
402.854	87.81
403.078	83.81
403.302	78.81
403.526	64.81
403.75	86.81
403.974	81.81
404.198	81.81
404.422	83.81
404.645	69.81
404.869	105.81
405.093	98.81
405.317	90.81
405.541	83.81
405.765	87.81
405.988	108.81
406.212	147.81
406.436	200.81
406.66	141.81
406.883	95.81
407.107	85.81
407.331	99.81
407.555	98.81
407.778	91.81
408.002	95.81
408.226	91.81
408.449	68.81
408.673	83.81
408.896	97.81
409.12	95.81
409.344	95.81
409.567	88.81
409.791	97.81
410.014	88.81
410.238	100.81
410.461	90.81
410.685	97.81
410.908	88.81
411.132	99.81
411.355	87.81
411.578	90.81
411.802	75.81
412.025	94.81
412.249	81.81
412.472	91.81
412.695	82.81
412.919	87.81
413.142	95.81
413.365	87.81
413.589	83.81
413.812	94.81
414.035	89.81
414.258	83.81
414.482	90.81
414.705	91.81
414.928	97.81
415.151	81.81
415.374	78.81
415.597	90.81
415.821	91.81
416.044	82.81
416.267	82.81
416.49	92.81
416.713	103.81
416.936	88.81
417.159	79.81
417.382	83.81
417.605	91.81
417.828	81.81
418.051	98.81
418.274	93.81
418.497	86.81
418.72	97.81
418.943	74.81
419.166	76.81
419.389	94.81
419.611	88.81
419.834	85.81
420.057	87.81
420.28	72.81
420.503	83.81
420.726	79.81
420.948	86.81
421.171	97.81
421.394	96.81
421.617	90.81
421.839	94.81
422.062	85.81
422.285	97.81
422.507	100.81
422.73	85.81
422.953	96.81
423.175	83.81
423.398	99.81
423.621	87.81
423.843	103.81
424.066	107.81
424.288	91.81
424.511	81.81
424.733	104.81
424.956	101.81
425.178	87.81
425.401	96.81
425.623	104.81
425.846	78.81
426.068	84.81
426.291	86.81
426.513	90.81
426.735	82.81
426.958	81.81
427.18	103.81
427.402	132.81
427.625	145.81
427.847	101.81
428.069	90.81
428.292	77.81
428.514	103.81
428.736	78.81
428.958	76.81
429.181	87.81
429.403	76.81
429.625	75.81
429.847	94.81
430.069	111.81
430.292	84.81
430.514	81.81
430.736	73.81
430.958	82.81
431.18	85.81
431.402	88.81
431.624	76.81
431.846	79.81
432.068	83.81
432.29	88.81
432.512	90.81
432.734	87.81
432.956	87.81
433.178	91.81
433.4	96.81
433.622	95.81
433.844	93.81
434.066	96.81
434.287	86.81
434.509	77.81
434.731	94.81
434.953	91.81
435.175	80.81
435.397	85.81
435.618	81.81
435.84	95.81
436.062	121.81
436.284	99.81
436.505	96.81
436.727	93.81
436.949	85.81
437.17	87.81
437.392	87.81
437.614	95.81
437.835	88.81
438.057	122.81
438.278	100.81
438.5	87.81
438.721	100.81
438.943	97.81
439.165	90.81
439.386	94.81
439.608	89.81
439.829	85.81
440.05	95.81
440.272	114.81
440.493	85.81
440.715	91.81
440.936	95.81
441.158	87.81
441.379	74.81
441.6	107.81
441.822	84.81
442.043	81.81
442.264	98.81
442.486	93.81
442.707	87.81
442.928	92.81
443.149	101.81
443.371	102.81
443.592	104.81
443.813	100.81
444.034	111.81
444.255	63.81
444.476	83.81
444.698	73.81
444.919	92.81
445.14	132.81
445.361	109.81
445.582	106.81
445.803	113.81
446.024	107.81
446.245	122.81
446.466	90.81
446.687	89.81
446.908	85.81
447.129	87.81
447.35	89.81
447.571	94.81
447.792	75.81
448.013	99.81
448.234	92.81
448.455	91.81
448.675	85.81
448.896	115.81
449.117	98.81
449.338	83.81
449.559	107.81
449.779	105.81
450	100.81
450.221	93.81
450.442	84.81
450.662	80.81
450.883	103.81
451.104	110.81
451.324	100.81
451.545	85.81
451.766	74.81
451.986	91.81
452.207	80.81
452.428	95.81
452.648	100.81
452.869	99.81
453.089	104.81
453.31	104.81
453.53	84.81
453.751	80.81
453.971	94.81
454.192	98.81
454.412	96.81
454.633	88.81
454.853	84.81
455.073	89.81
455.294	88.81
455.514	90.81
455.734	92.81
455.955	87.81
456.175	81.81
456.395	65.81
456.616	84.81
456.836	94.81
457.056	81.81
457.276	82.81
457.497	88.81
457.717	75.81
457.937	73.81
458.157	76.81
458.377	75.81
458.598	104.81
458.818	137.81
459.038	126.81
459.258	110.81
459.478	86.81
459.698	77.81
459.918	63.81
460.138	87.81
460.358	86.81
460.578	86.81
460.798	95.81
461.018	78.81
461.238	87.81
461.458	89.81
461.678	79.81
461.898	83.81
462.118	82.81
462.338	89.81
462.558	65.81
462.777	94.81
462.997	92.81
463.217	83.81
463.437	84.81
463.657	79.81
463.876	81.81
464.096	81.81
464.316	84.81
464.536	91.81
464.755	90.81
464.975	103.81
465.195	147.81
465.414	142.81
465.634	89.81
465.854	95.81
466.073	90.81
466.293	74.81
466.512	75.81
466.732	76.81
466.951	91.81
467.171	96.81
467.391	78.81
467.61	92.81
467.829	80.81
468.049	91.81
468.268	90.81
468.488	94.81
468.707	92.81
468.927	88.81
469.146	85.81
469.365	84.81
469.585	104.81
469.804	89.81
470.023	94.81
470.243	100.81
470.462	100.81
470.681	111.81
470.901	94.81
471.12	77.81
471.339	98.81
471.558	95.81
471.777	101.81
471.997	84.81
472.216	91.81
472.435	93.81
472.654	91.81
472.873	105.81
473.092	91.81
473.311	75.81
473.53	77.81
473.749	86.81
473.968	83.81
474.187	101.81
474.406	96.81
474.625	98.81
474.844	87.81
475.063	87.81
475.282	90.81
475.501	88.81
475.72	93.81
475.939	75.81
476.158	76.81
476.377	85.81
476.596	83.81
476.814	98.81
477.033	100.81
477.252	79.81
477.471	80.81
477.69	89.81
477.908	79.81
478.127	80.81
478.346	95.81
478.564	100.81
478.783	95.81
479.002	92.81
479.22	86.81
479.439	92.81
479.658	90.81
479.876	82.81
480.095	79.81
480.313	83.81
480.532	88.81
480.751	81.81
480.969	84.81
481.188	97.81
481.406	92.81
481.624	91.81
481.843	82.81
482.061	95.81
482.28	96.81
482.498	94.81
482.717	87.81
482.935	92.81
483.153	84.81
483.372	86.81
483.59	88.81
483.808	89.81
484.027	99.81
484.245	90.81
484.463	89.81
484.681	95.81
484.9	96.81
485.118	100.81
485.336	100.81
485.554	92.81
485.772	109.81
485.99	93.81
486.209	102.81
486.427	104.81
486.645	102.81
486.863	109.81
487.081	94.81
487.299	97.81
487.517	87.81
487.735	90.81
487.953	104.81
488.171	87.81
488.389	100.81
488.607	91.81
488.825	107.81
489.043	77.81
489.261	80.81
489.479	92.81
489.696	94.81
489.914	80.81
490.132	86.81
490.35	93.81
490.568	84.81
490.786	84.81
491.003	87.81
491.221	111.81
491.439	89.81
491.657	77.81
491.874	90.81
492.092	79.81
492.31	99.81
492.527	78.81
492.745	81.81
492.963	90.81
493.18	90.81
493.398	95.81
493.615	88.81
493.833	88.81
494.05	86.81
494.268	88.81
494.485	70.81
494.703	86.81
494.92	93.81
495.138	87.81
495.355	97.81
495.573	83.81
495.79	87.81
496.008	91.81
496.225	96.81
496.442	92.81
496.66	100.81
496.877	97.81
497.094	90.81
497.312	97.81
497.529	101.81
497.746	91.81
497.963	92.81
498.181	90.81
498.398	93.81
498.615	102.81
498.832	108.81
499.049	82.81
499.267	79.81
499.484	68.81
499.701	82.81
499.918	94.81
500.135	84.81
500.352	96.81
500.569	95.81
500.786	96.81
501.003	92.81
501.22	81.81
501.437	100.81
501.654	101.81
501.871	86.81
502.088	93.81
502.305	91.81
502.522	89.81
502.739	88.81
502.956	95.81
503.172	92.81
503.389	89.81
503.606	108.81
503.823	85.81
504.04	100.81
504.256	95.81
504.473	87.81
504.69	84.81
504.907	92.81
505.123	88.81
505.34	89.81
505.557	79.81
505.773	75.81
505.99	85.81
506.207	95.81
506.423	81.81
506.64	87.81
506.856	83.81
507.073	93.81
507.289	94.81
507.506	102.81
507.722	101.81
507.939	85.81
508.155	88.81
508.372	95.81
508.588	87.81
508.805	82.81
509.021	83.81
509.238	96.81
509.454	115.81
509.67	108.81
509.887	103.81
510.103	144.81
510.319	199.81
510.536	702.81
510.752	2059.81
510.968	563.81
511.184	135.81
511.401	100.81
511.617	87.81
511.833	93.81
512.049	84.81
512.265	80.81
512.481	104.81
512.698	82.81
512.914	85.81
513.13	80.81
513.346	95.81
513.562	102.81
513.778	84.81
513.994	88.81
514.21	107.81
514.426	97.81
514.642	122.81
514.858	121.81
515.074	153.81
515.29	404.81
515.506	1216.81
515.721	437.81
515.937	147.81
516.153	105.81
516.369	95.81
516.585	100.81
516.801	93.81
517.016	89.81
517.232	85.81
