Data from Uncirc_1992_H10_HRD10591_00063.txt Node
Date: Wed Jan 03 11:46:28 EST 2024
User: Yrep
Spectrometer: HR+D1059
Trigger mode: 1
Integration Time (sec): 1.000000E-1
Scans to average: 1
Electric dark correction enabled: true
Nonlinearity correction enabled: false
Boxcar width: 0
XAxis mode: Wavelengths
Number of Pixels in Spectrum: 2048
>>>>>Begin Spectral Data<<<<<
223.165	-20.69
223.4	-20.69
223.635	-20.69
223.869	-18.69
224.104	-35.69
224.338	-19.69
224.573	-24.69
224.808	-5.69
225.042	-5.69
225.277	2.31
225.511	-0.69
225.746	14.31
225.98	12.31
226.215	15.31
226.449	20.31
226.683	23.31
226.918	16.31
227.152	27.31
227.387	34.31
227.621	48.31
227.856	43.31
228.09	55.31
228.324	46.31
228.559	40.31
228.793	65.31
229.027	56.31
229.262	65.31
229.496	80.31
229.73	82.31
229.964	90.31
230.199	71.31
230.433	84.31
230.667	66.31
230.901	85.31
231.136	71.31
231.37	76.31
231.604	81.31
231.838	82.31
232.072	70.31
232.306	70.31
232.541	82.31
232.775	91.31
233.009	78.31
233.243	79.31
233.477	90.31
233.711	76.31
233.945	75.31
234.179	87.31
234.413	86.31
234.647	77.31
234.881	88.31
235.115	86.31
235.349	75.31
235.583	80.31
235.817	86.31
236.051	83.31
236.285	80.31
236.519	78.31
236.753	94.31
236.987	63.31
237.221	87.31
237.455	71.31
237.689	78.31
237.922	70.31
238.156	83.31
238.39	76.31
238.624	66.31
238.858	64.31
239.091	63.31
239.325	74.31
239.559	76.31
239.793	86.31
240.027	70.31
240.26	71.31
240.494	69.31
240.728	67.31
240.961	74.31
241.195	61.31
241.429	72.31
241.662	81.31
241.896	72.31
242.13	67.31
242.363	69.31
242.597	60.31
242.83	85.31
243.064	87.31
243.298	74.31
243.531	78.31
243.765	78.31
243.998	64.31
244.232	88.31
244.465	68.31
244.699	70.31
244.932	91.31
245.166	78.31
245.399	79.31
245.633	86.31
245.866	60.31
246.099	71.31
246.333	81.31
246.566	80.31
246.8	90.31
247.033	66.31
247.266	70.31
247.5	84.31
247.733	75.31
247.966	69.31
248.2	74.31
248.433	69.31
248.666	65.31
248.899	68.31
249.133	95.31
249.366	96.31
249.599	103.31
249.832	78.31
250.066	99.31
250.299	76.31
250.532	80.31
250.765	80.31
250.998	75.31
251.231	79.31
251.465	84.31
251.698	65.31
251.931	82.31
252.164	80.31
252.397	82.31
252.63	84.31
252.863	84.31
253.096	78.31
253.329	98.31
253.562	65.31
253.795	83.31
254.028	84.31
254.261	82.31
254.494	64.31
254.727	88.31
254.96	71.31
255.193	72.31
255.426	79.31
255.659	79.31
255.892	77.31
256.124	77.31
256.357	77.31
256.59	82.31
256.823	64.31
257.056	74.31
257.289	82.31
257.521	80.31
257.754	80.31
257.987	68.31
258.22	86.31
258.452	81.31
258.685	76.31
258.918	82.31
259.151	72.31
259.383	82.31
259.616	84.31
259.849	78.31
260.081	90.31
260.314	74.31
260.547	88.31
260.779	87.31
261.012	88.31
261.244	74.31
261.477	89.31
261.71	97.31
261.942	106.31
262.175	108.31
262.407	91.31
262.64	84.31
262.872	81.31
263.105	80.31
263.337	100.31
263.57	94.31
263.802	83.31
264.035	81.31
264.267	89.31
264.499	82.31
264.732	94.31
264.964	78.31
265.197	82.31
265.429	89.31
265.661	95.31
265.894	88.31
266.126	95.31
266.358	87.31
266.591	90.31
266.823	87.31
267.055	82.31
267.287	83.31
267.52	84.31
267.752	84.31
267.984	88.31
268.216	85.31
268.448	86.31
268.681	68.31
268.913	80.31
269.145	94.31
269.377	101.31
269.609	93.31
269.841	89.31
270.073	85.31
270.306	86.31
270.538	96.31
270.77	78.31
271.002	70.31
271.234	82.31
271.466	76.31
271.698	85.31
271.93	84.31
272.162	76.31
272.394	94.31
272.626	79.31
272.858	74.31
273.09	85.31
273.322	84.31
273.553	98.31
273.785	92.31
274.017	85.31
274.249	92.31
274.481	84.31
274.713	72.31
274.945	61.31
275.176	69.31
275.408	83.31
275.64	83.31
275.872	93.31
276.104	88.31
276.335	82.31
276.567	92.31
276.799	99.31
277.031	99.31
277.262	79.31
277.494	82.31
277.726	86.31
277.957	81.31
278.189	99.31
278.421	83.31
278.652	79.31
278.884	96.31
279.115	76.31
279.347	91.31
279.579	84.31
279.81	81.31
280.042	94.31
280.273	92.31
280.505	72.31
280.736	84.31
280.968	87.31
281.199	80.31
281.431	96.31
281.662	99.31
281.894	85.31
282.125	98.31
282.356	125.31
282.588	132.31
282.819	112.31
283.051	81.31
283.282	84.31
283.513	99.31
283.745	88.31
283.976	86.31
284.207	89.31
284.439	93.31
284.67	99.31
284.901	82.31
285.132	91.31
285.364	80.31
285.595	96.31
285.826	102.31
286.057	86.31
286.288	88.31
286.52	82.31
286.751	87.31
286.982	83.31
287.213	92.31
287.444	86.31
287.675	82.31
287.906	90.31
288.138	98.31
288.369	100.31
288.6	78.31
288.831	92.31
289.062	82.31
289.293	83.31
289.524	93.31
289.755	91.31
289.986	96.31
290.217	92.31
290.448	78.31
290.679	84.31
290.91	98.31
291.141	109.31
291.371	76.31
291.602	96.31
291.833	90.31
292.064	90.31
292.295	92.31
292.526	89.31
292.757	81.31
292.987	89.31
293.218	75.31
293.449	102.31
293.68	90.31
293.91	85.31
294.141	100.31
294.372	99.31
294.603	80.31
294.833	83.31
295.064	95.31
295.295	100.31
295.525	100.31
295.756	96.31
295.987	114.31
296.217	133.31
296.448	129.31
296.679	84.31
296.909	90.31
297.14	90.31
297.37	85.31
297.601	96.31
297.831	87.31
298.062	94.31
298.292	82.31
298.523	86.31
298.753	82.31
298.984	87.31
299.214	106.31
299.445	88.31
299.675	87.31
299.905	88.31
300.136	96.31
300.366	83.31
300.597	91.31
300.827	91.31
301.057	93.31
301.288	103.31
301.518	99.31
301.748	101.31
301.979	103.31
302.209	85.31
302.439	83.31
302.669	90.31
302.9	97.31
303.13	85.31
303.36	77.31
303.59	93.31
303.82	95.31
304.051	85.31
304.281	79.31
304.511	99.31
304.741	80.31
304.971	85.31
305.201	80.31
305.431	94.31
305.661	82.31
305.891	90.31
306.121	87.31
306.352	102.31
306.582	118.31
306.812	102.31
307.042	92.31
307.272	82.31
307.502	94.31
307.731	87.31
307.961	88.31
308.191	81.31
308.421	94.31
308.651	87.31
308.881	89.31
309.111	102.31
309.341	97.31
309.571	87.31
309.8	98.31
310.03	96.31
310.26	93.31
310.49	93.31
310.72	99.31
310.949	105.31
311.179	105.31
311.409	96.31
311.639	101.31
311.868	101.31
312.098	94.31
312.328	111.31
312.557	110.31
312.787	100.31
313.017	107.31
313.246	88.31
313.476	91.31
313.706	100.31
313.935	109.31
314.165	99.31
314.394	101.31
314.624	110.31
314.853	105.31
315.083	86.31
315.312	100.31
315.542	99.31
315.771	106.31
316.001	94.31
316.23	91.31
316.46	104.31
316.689	95.31
316.919	86.31
317.148	92.31
317.377	90.31
317.607	86.31
317.836	100.31
318.065	87.31
318.295	88.31
318.524	93.31
318.753	96.31
318.983	95.31
319.212	97.31
319.441	113.31
319.67	112.31
319.9	94.31
320.129	103.31
320.358	100.31
320.587	102.31
320.816	101.31
321.046	100.31
321.275	103.31
321.504	87.31
321.733	96.31
321.962	100.31
322.191	98.31
322.42	108.31
322.649	110.31
322.878	95.31
323.108	101.31
323.337	114.31
323.566	132.31
323.795	161.31
324.024	185.31
324.253	334.31
324.482	729.31
324.71	1446.31
324.939	1870.31
325.168	674.31
325.397	225.31
325.626	162.31
325.855	122.31
326.084	106.31
326.313	122.31
326.542	163.31
326.77	235.31
326.999	400.31
327.228	839.31
327.457	1455.31
327.686	1186.31
327.914	320.31
328.143	163.31
328.372	129.31
328.6	123.31
328.829	111.31
329.058	113.31
329.287	116.31
329.515	92.31
329.744	106.31
329.972	93.31
330.201	100.31
330.43	100.31
330.658	113.31
330.887	125.31
331.115	99.31
331.344	108.31
331.572	94.31
331.801	95.31
332.03	100.31
332.258	97.31
332.486	94.31
332.715	101.31
332.943	87.31
333.172	99.31
333.4	83.31
333.629	109.31
333.857	120.31
334.085	100.31
334.314	102.31
334.542	94.31
334.771	105.31
334.999	88.31
335.227	102.31
335.455	93.31
335.684	72.31
335.912	98.31
336.14	103.31
336.369	106.31
336.597	76.31
336.825	95.31
337.053	98.31
337.281	95.31
337.51	95.31
337.738	81.31
337.966	88.31
338.194	96.31
338.422	98.31
338.65	101.31
338.878	98.31
339.106	91.31
339.334	90.31
339.562	87.31
339.79	86.31
340.018	101.31
340.246	97.31
340.474	98.31
340.702	79.31
340.93	106.31
341.158	86.31
341.386	100.31
341.614	99.31
341.842	92.31
342.07	104.31
342.298	103.31
342.526	94.31
342.754	87.31
342.981	94.31
343.209	81.31
343.437	90.31
343.665	96.31
343.893	98.31
344.12	71.31
344.348	83.31
344.576	98.31
344.804	103.31
345.031	105.31
345.259	96.31
345.487	87.31
345.714	82.31
345.942	83.31
346.17	93.31
346.397	76.31
346.625	90.31
346.853	83.31
347.08	90.31
347.308	93.31
347.535	98.31
347.763	95.31
347.99	102.31
348.218	100.31
348.445	102.31
348.673	101.31
348.9	103.31
349.128	103.31
349.355	94.31
349.583	93.31
349.81	101.31
350.037	91.31
350.265	93.31
350.492	106.31
350.72	105.31
350.947	101.31
351.174	110.31
351.402	107.31
351.629	104.31
351.856	99.31
352.083	111.31
352.311	95.31
352.538	107.31
352.765	113.31
352.992	119.31
353.22	96.31
353.447	103.31
353.674	111.31
353.901	104.31
354.128	116.31
354.355	99.31
354.583	111.31
354.81	95.31
355.037	115.31
355.264	90.31
355.491	97.31
355.718	101.31
355.945	87.31
356.172	104.31
356.399	94.31
356.626	96.31
356.853	101.31
357.08	102.31
357.307	93.31
357.534	97.31
357.761	97.31
357.988	108.31
358.215	104.31
358.441	96.31
358.668	95.31
358.895	87.31
359.122	102.31
359.349	104.31
359.576	85.31
359.802	105.31
360.029	101.31
360.256	111.31
360.483	84.31
360.709	90.31
360.936	95.31
361.163	104.31
361.39	83.31
361.616	89.31
361.843	103.31
362.07	107.31
362.296	87.31
362.523	103.31
362.749	101.31
362.976	87.31
363.203	88.31
363.429	88.31
363.656	87.31
363.882	84.31
364.109	111.31
364.335	90.31
364.562	105.31
364.788	100.31
365.015	94.31
365.241	89.31
365.468	113.31
365.694	91.31
365.92	92.31
366.147	94.31
366.373	92.31
366.599	72.31
366.826	85.31
367.052	100.31
367.278	88.31
367.505	93.31
367.731	94.31
367.957	90.31
368.184	79.31
368.41	85.31
368.636	109.31
368.862	113.31
369.089	98.31
369.315	93.31
369.541	90.31
369.767	78.31
369.993	103.31
370.219	107.31
370.445	83.31
370.672	81.31
370.898	90.31
371.124	90.31
371.35	85.31
371.576	82.31
371.802	87.31
372.028	88.31
372.254	93.31
372.48	92.31
372.706	96.31
372.932	99.31
373.158	78.31
373.384	93.31
373.61	108.31
373.835	95.31
374.061	81.31
374.287	90.31
374.513	86.31
374.739	84.31
374.965	96.31
375.191	99.31
375.416	89.31
375.642	86.31
375.868	98.31
376.094	93.31
376.319	95.31
376.545	77.31
376.771	75.31
376.997	76.31
377.222	101.31
377.448	112.31
377.674	89.31
377.899	93.31
378.125	96.31
378.35	87.31
378.576	111.31
378.802	89.31
379.027	95.31
379.253	95.31
379.478	92.31
379.704	106.31
379.929	96.31
380.155	82.31
380.38	96.31
380.606	75.31
380.831	88.31
381.057	104.31
381.282	105.31
381.507	93.31
381.733	82.31
381.958	94.31
382.184	92.31
382.409	99.31
382.634	104.31
382.86	98.31
383.085	96.31
383.31	95.31
383.535	95.31
383.761	102.31
383.986	98.31
384.211	88.31
384.436	116.31
384.662	106.31
384.887	102.31
385.112	102.31
385.337	103.31
385.562	117.31
385.787	104.31
386.013	105.31
386.238	102.31
386.463	101.31
386.688	102.31
386.913	91.31
387.138	111.31
387.363	103.31
387.588	89.31
387.813	106.31
388.038	102.31
388.263	93.31
388.488	102.31
388.713	104.31
388.938	112.31
389.163	100.31
389.387	103.31
389.612	98.31
389.837	94.31
390.062	92.31
390.287	96.31
390.512	87.31
390.736	90.31
390.961	80.31
391.186	96.31
391.411	86.31
391.636	75.31
391.86	82.31
392.085	94.31
392.31	85.31
392.534	90.31
392.759	81.31
392.984	96.31
393.208	94.31
393.433	87.31
393.658	69.31
393.882	81.31
394.107	80.31
394.331	83.31
394.556	77.31
394.78	91.31
395.005	90.31
395.229	83.31
395.454	87.31
395.678	99.31
395.903	83.31
396.127	94.31
396.352	82.31
396.576	76.31
396.801	91.31
397.025	86.31
397.249	84.31
397.474	91.31
397.698	86.31
397.922	89.31
398.147	85.31
398.371	80.31
398.595	99.31
398.82	88.31
399.044	74.31
399.268	98.31
399.492	88.31
399.717	97.31
399.941	87.31
400.165	97.31
400.389	82.31
400.613	91.31
400.837	98.31
401.062	87.31
401.286	80.31
401.51	96.31
401.734	92.31
401.958	96.31
402.182	130.31
402.406	140.31
402.63	105.31
402.854	82.31
403.078	102.31
403.302	84.31
403.526	84.31
403.75	100.31
403.974	88.31
404.198	106.31
404.422	94.31
404.645	81.31
404.869	87.31
405.093	90.31
405.317	101.31
405.541	90.31
405.765	104.31
405.988	116.31
406.212	164.31
406.436	206.31
406.66	111.31
406.883	93.31
407.107	83.31
407.331	89.31
407.555	91.31
407.778	96.31
408.002	94.31
408.226	84.31
408.449	95.31
408.673	81.31
408.896	96.31
409.12	107.31
409.344	83.31
409.567	82.31
409.791	81.31
410.014	96.31
410.238	91.31
410.461	71.31
410.685	92.31
410.908	91.31
411.132	100.31
411.355	90.31
411.578	100.31
411.802	90.31
412.025	85.31
412.249	102.31
412.472	84.31
412.695	98.31
412.919	86.31
413.142	85.31
413.365	89.31
413.589	88.31
413.812	93.31
414.035	89.31
414.258	91.31
414.482	81.31
414.705	91.31
414.928	91.31
415.151	94.31
415.374	98.31
415.597	83.31
415.821	89.31
416.044	94.31
416.267	79.31
416.49	81.31
416.713	89.31
416.936	82.31
417.159	94.31
417.382	90.31
417.605	87.31
417.828	99.31
418.051	75.31
418.274	101.31
418.497	89.31
418.72	92.31
418.943	87.31
419.166	106.31
419.389	94.31
419.611	95.31
419.834	81.31
420.057	85.31
420.28	98.31
420.503	86.31
420.726	89.31
420.948	103.31
421.171	94.31
421.394	101.31
421.617	83.31
421.839	101.31
422.062	82.31
422.285	84.31
422.507	91.31
422.73	102.31
422.953	87.31
423.175	87.31
423.398	92.31
423.621	102.31
423.843	82.31
424.066	92.31
424.288	83.31
424.511	91.31
424.733	85.31
424.956	95.31
425.178	94.31
425.401	111.31
425.623	100.31
425.846	83.31
426.068	87.31
426.291	91.31
426.513	85.31
426.735	97.31
426.958	89.31
427.18	93.31
427.402	139.31
427.625	144.31
427.847	122.31
428.069	100.31
428.292	83.31
428.514	90.31
428.736	82.31
428.958	72.31
429.181	94.31
429.403	79.31
429.625	91.31
429.847	82.31
430.069	108.31
430.292	88.31
430.514	84.31
430.736	98.31
430.958	91.31
431.18	95.31
431.402	94.31
431.624	84.31
431.846	89.31
432.068	85.31
432.29	88.31
432.512	81.31
432.734	96.31
432.956	106.31
433.178	103.31
433.4	110.31
433.622	89.31
433.844	82.31
434.066	80.31
434.287	83.31
434.509	80.31
434.731	88.31
434.953	93.31
435.175	95.31
435.397	88.31
435.618	82.31
435.84	99.31
436.062	114.31
436.284	119.31
436.505	98.31
436.727	94.31
436.949	107.31
437.17	83.31
437.392	88.31
437.614	83.31
437.835	101.31
438.057	105.31
438.278	90.31
438.5	88.31
438.721	101.31
438.943	94.31
439.165	86.31
439.386	88.31
439.608	96.31
439.829	100.31
440.05	110.31
440.272	116.31
440.493	93.31
440.715	92.31
440.936	104.31
441.158	82.31
441.379	79.31
441.6	96.31
441.822	83.31
442.043	87.31
442.264	91.31
442.486	105.31
442.707	74.31
442.928	85.31
443.149	111.31
443.371	119.31
443.592	111.31
443.813	94.31
444.034	93.31
444.255	86.31
444.476	87.31
444.698	94.31
444.919	81.31
445.14	112.31
445.361	114.31
445.582	117.31
445.803	120.31
446.024	129.31
446.245	131.31
446.466	110.31
446.687	100.31
446.908	78.31
447.129	84.31
447.35	96.31
447.571	97.31
447.792	106.31
448.013	87.31
448.234	114.31
448.455	110.31
448.675	99.31
448.896	108.31
449.117	82.31
449.338	94.31
449.559	120.31
449.779	117.31
450	101.31
450.221	89.31
450.442	83.31
450.662	97.31
450.883	84.31
451.104	107.31
451.324	89.31
451.545	86.31
451.766	70.31
451.986	93.31
452.207	79.31
452.428	95.31
452.648	90.31
452.869	117.31
453.089	96.31
453.31	120.31
453.53	91.31
453.751	96.31
453.971	98.31
454.192	101.31
454.412	85.31
454.633	89.31
454.853	109.31
455.073	99.31
455.294	90.31
455.514	99.31
455.734	89.31
455.955	96.31
456.175	97.31
456.395	80.31
456.616	78.31
456.836	84.31
457.056	86.31
457.276	93.31
457.497	94.31
457.717	94.31
457.937	89.31
458.157	95.31
458.377	79.31
458.598	113.31
458.818	134.31
459.038	142.31
459.258	105.31
459.478	98.31
459.698	81.31
459.918	74.31
460.138	102.31
460.358	83.31
460.578	87.31
460.798	91.31
461.018	95.31
461.238	100.31
461.458	99.31
461.678	90.31
461.898	94.31
462.118	99.31
462.338	94.31
462.558	89.31
462.777	83.31
462.997	94.31
463.217	88.31
463.437	87.31
463.657	87.31
463.876	98.31
464.096	88.31
464.316	96.31
464.536	90.31
464.755	91.31
464.975	99.31
465.195	150.31
465.414	141.31
465.634	89.31
465.854	100.31
466.073	77.31
466.293	95.31
466.512	81.31
466.732	80.31
466.951	85.31
467.171	86.31
467.391	104.31
467.61	95.31
467.829	98.31
468.049	96.31
468.268	92.31
468.488	91.31
468.707	75.31
468.927	79.31
469.146	95.31
469.365	80.31
469.585	98.31
469.804	90.31
470.023	93.31
470.243	83.31
470.462	101.31
470.681	100.31
470.901	97.31
471.12	91.31
471.339	100.31
471.558	92.31
471.777	86.31
471.997	83.31
472.216	84.31
472.435	84.31
472.654	64.31
472.873	84.31
473.092	90.31
473.311	76.31
473.53	85.31
473.749	88.31
473.968	92.31
474.187	98.31
474.406	88.31
474.625	86.31
474.844	84.31
475.063	92.31
475.282	84.31
475.501	85.31
475.72	96.31
475.939	80.31
476.158	86.31
476.377	94.31
476.596	88.31
476.814	90.31
477.033	82.31
477.252	82.31
477.471	91.31
477.69	88.31
477.908	70.31
478.127	80.31
478.346	88.31
478.564	93.31
478.783	96.31
479.002	89.31
479.22	85.31
479.439	94.31
479.658	100.31
479.876	103.31
480.095	85.31
480.313	84.31
480.532	93.31
480.751	75.31
480.969	91.31
481.188	99.31
481.406	101.31
481.624	86.31
481.843	98.31
482.061	78.31
482.28	93.31
482.498	74.31
482.717	87.31
482.935	94.31
483.153	103.31
483.372	88.31
483.59	90.31
483.808	103.31
484.027	94.31
484.245	92.31
484.463	97.31
484.681	94.31
484.9	86.31
485.118	102.31
485.336	90.31
485.554	102.31
485.772	101.31
485.99	100.31
486.209	106.31
486.427	106.31
486.645	114.31
486.863	121.31
487.081	108.31
487.299	84.31
487.517	111.31
487.735	105.31
487.953	94.31
488.171	99.31
488.389	98.31
488.607	104.31
488.825	87.31
489.043	87.31
489.261	103.31
489.479	90.31
489.696	101.31
489.914	90.31
490.132	94.31
490.35	86.31
490.568	97.31
490.786	84.31
491.003	87.31
491.221	77.31
491.439	81.31
491.657	108.31
491.874	98.31
492.092	90.31
492.31	92.31
492.527	104.31
492.745	103.31
492.963	103.31
493.18	88.31
493.398	86.31
493.615	106.31
493.833	98.31
494.05	92.31
494.268	81.31
494.485	99.31
494.703	91.31
494.92	81.31
495.138	76.31
495.355	96.31
495.573	83.31
495.79	83.31
496.008	108.31
496.225	94.31
496.442	93.31
496.66	97.31
496.877	96.31
497.094	109.31
497.312	93.31
497.529	93.31
497.746	90.31
497.963	95.31
498.181	90.31
498.398	92.31
498.615	112.31
498.832	98.31
499.049	90.31
499.267	86.31
499.484	85.31
499.701	102.31
499.918	80.31
500.135	97.31
500.352	81.31
500.569	91.31
500.786	96.31
501.003	103.31
501.22	90.31
501.437	95.31
501.654	96.31
501.871	99.31
502.088	93.31
502.305	85.31
502.522	110.31
502.739	87.31
502.956	102.31
503.172	85.31
503.389	95.31
503.606	105.31
503.823	89.31
504.04	84.31
504.256	80.31
504.473	80.31
504.69	92.31
504.907	76.31
505.123	97.31
505.34	95.31
505.557	84.31
505.773	88.31
505.99	79.31
506.207	92.31
506.423	94.31
506.64	97.31
506.856	82.31
507.073	90.31
507.289	75.31
507.506	104.31
507.722	126.31
507.939	110.31
508.155	97.31
508.372	102.31
508.588	87.31
508.805	98.31
509.021	103.31
509.238	91.31
509.454	105.31
509.67	99.31
509.887	102.31
510.103	130.31
510.319	192.31
510.536	717.31
510.752	2076.31
510.968	601.31
511.184	136.31
511.401	101.31
511.617	94.31
511.833	94.31
512.049	93.31
512.265	90.31
512.481	87.31
512.698	107.31
512.914	103.31
513.13	103.31
513.346	88.31
513.562	88.31
513.778	89.31
513.994	100.31
514.21	105.31
514.426	102.31
514.642	124.31
514.858	133.31
515.074	138.31
515.29	390.31
515.506	1273.31
