Data from Uncirc_1992_H10_HRD10591_00079.txt Node
Date: Wed Jan 03 11:46:32 EST 2024
User: Yrep
Spectrometer: HR+D1059
Trigger mode: 1
Integration Time (sec): 1.000000E-1
Scans to average: 1
Electric dark correction enabled: true
Nonlinearity correction enabled: false
Boxcar width: 0
XAxis mode: Wavelengths
Number of Pixels in Spectrum: 2048
>>>>>Begin Spectral Data<<<<<
223.165	-19.62
223.4	-19.62
223.635	-19.62
223.869	-18.62
224.104	-19.62
224.338	-21.62
224.573	-20.62
224.808	-15.62
225.042	-2.62
225.277	-3.62
225.511	1.38
225.746	0.38
225.98	8.38
226.215	17.38
226.449	11.38
226.683	25.38
226.918	29.38
227.152	28.38
227.387	24.38
227.621	35.38
227.856	40.38
228.09	45.38
228.324	39.38
228.559	50.38
228.793	65.38
229.027	83.38
229.262	65.38
229.496	62.38
229.73	85.38
229.964	73.38
230.199	63.38
230.433	66.38
230.667	81.38
230.901	69.38
231.136	81.38
231.37	70.38
231.604	80.38
231.838	69.38
232.072	77.38
232.306	71.38
232.541	74.38
232.775	85.38
233.009	77.38
233.243	76.38
233.477	80.38
233.711	79.38
233.945	80.38
234.179	79.38
234.413	77.38
234.647	75.38
234.881	67.38
235.115	90.38
235.349	75.38
235.583	80.38
235.817	80.38
236.051	68.38
236.285	79.38
236.519	75.38
236.753	77.38
236.987	63.38
237.221	72.38
237.455	81.38
237.689	66.38
237.922	67.38
238.156	64.38
238.39	80.38
238.624	74.38
238.858	78.38
239.091	79.38
239.325	56.38
239.559	71.38
239.793	82.38
240.027	66.38
240.26	79.38
240.494	71.38
240.728	69.38
240.961	72.38
241.195	76.38
241.429	62.38
241.662	82.38
241.896	79.38
242.13	74.38
242.363	57.38
242.597	77.38
242.83	73.38
243.064	63.38
243.298	71.38
243.531	79.38
243.765	80.38
243.998	71.38
244.232	88.38
244.465	94.38
244.699	78.38
244.932	81.38
245.166	67.38
245.399	80.38
245.633	77.38
245.866	61.38
246.099	57.38
246.333	74.38
246.566	81.38
246.8	75.38
247.033	77.38
247.266	59.38
247.5	79.38
247.733	72.38
247.966	73.38
248.2	70.38
248.433	85.38
248.666	78.38
248.899	79.38
249.133	74.38
249.366	97.38
249.599	107.38
249.832	101.38
250.066	73.38
250.299	93.38
250.532	78.38
250.765	69.38
250.998	80.38
251.231	80.38
251.465	71.38
251.698	78.38
251.931	77.38
252.164	67.38
252.397	76.38
252.63	66.38
252.863	75.38
253.096	76.38
253.329	84.38
253.562	78.38
253.795	59.38
254.028	84.38
254.261	78.38
254.494	79.38
254.727	90.38
254.96	70.38
255.193	69.38
255.426	95.38
255.659	72.38
255.892	74.38
256.124	74.38
256.357	84.38
256.59	81.38
256.823	66.38
257.056	71.38
257.289	89.38
257.521	80.38
257.754	85.38
257.987	73.38
258.22	56.38
258.452	74.38
258.685	86.38
258.918	80.38
259.151	89.38
259.383	79.38
259.616	74.38
259.849	81.38
260.081	85.38
260.314	79.38
260.547	81.38
260.779	67.38
261.012	71.38
261.244	82.38
261.477	99.38
261.71	84.38
261.942	91.38
262.175	100.38
262.407	72.38
262.64	73.38
262.872	88.38
263.105	75.38
263.337	89.38
263.57	86.38
263.802	87.38
264.035	85.38
264.267	84.38
264.499	81.38
264.732	77.38
264.964	87.38
265.197	83.38
265.429	81.38
265.661	86.38
265.894	79.38
266.126	67.38
266.358	83.38
266.591	82.38
266.823	87.38
267.055	98.38
267.287	94.38
267.52	83.38
267.752	85.38
267.984	79.38
268.216	83.38
268.448	79.38
268.681	71.38
268.913	66.38
269.145	73.38
269.377	75.38
269.609	80.38
269.841	63.38
270.073	95.38
270.306	80.38
270.538	81.38
270.77	94.38
271.002	90.38
271.234	79.38
271.466	66.38
271.698	77.38
271.93	79.38
272.162	81.38
272.394	88.38
272.626	84.38
272.858	87.38
273.09	83.38
273.322	97.38
273.553	74.38
273.785	91.38
274.017	92.38
274.249	91.38
274.481	84.38
274.713	88.38
274.945	84.38
275.176	74.38
275.408	62.38
275.64	77.38
275.872	85.38
276.104	97.38
276.335	90.38
276.567	81.38
276.799	90.38
277.031	84.38
277.262	85.38
277.494	87.38
277.726	79.38
277.957	76.38
278.189	87.38
278.421	82.38
278.652	71.38
278.884	89.38
279.115	78.38
279.347	91.38
279.579	85.38
279.81	82.38
280.042	74.38
280.273	82.38
280.505	71.38
280.736	77.38
280.968	76.38
281.199	82.38
281.431	77.38
281.662	78.38
281.894	79.38
282.125	84.38
282.356	106.38
282.588	127.38
282.819	108.38
283.051	82.38
283.282	77.38
283.513	82.38
283.745	89.38
283.976	84.38
284.207	78.38
284.439	84.38
284.67	66.38
284.901	83.38
285.132	82.38
285.364	87.38
285.595	81.38
285.826	90.38
286.057	93.38
286.288	66.38
286.52	98.38
286.751	75.38
286.982	84.38
287.213	79.38
287.444	90.38
287.675	75.38
287.906	78.38
288.138	80.38
288.369	81.38
288.6	98.38
288.831	83.38
289.062	94.38
289.293	67.38
289.524	79.38
289.755	89.38
289.986	69.38
290.217	82.38
290.448	75.38
290.679	83.38
290.91	83.38
291.141	86.38
291.371	81.38
291.602	79.38
291.833	83.38
292.064	78.38
292.295	87.38
292.526	78.38
292.757	86.38
292.987	84.38
293.218	87.38
293.449	83.38
293.68	82.38
293.91	83.38
294.141	81.38
294.372	94.38
294.603	95.38
294.833	90.38
295.064	62.38
295.295	77.38
295.525	94.38
295.756	103.38
295.987	93.38
296.217	133.38
296.448	114.38
296.679	85.38
296.909	83.38
297.14	82.38
297.37	79.38
297.601	72.38
297.831	80.38
298.062	69.38
298.292	85.38
298.523	99.38
298.753	77.38
298.984	79.38
299.214	75.38
299.445	82.38
299.675	91.38
299.905	105.38
300.136	78.38
300.366	91.38
300.597	78.38
300.827	107.38
301.057	94.38
301.288	92.38
301.518	79.38
301.748	82.38
301.979	101.38
302.209	80.38
302.439	94.38
302.669	83.38
302.9	101.38
303.13	93.38
303.36	84.38
303.59	85.38
303.82	102.38
304.051	96.38
304.281	78.38
304.511	94.38
304.741	88.38
304.971	86.38
305.201	87.38
305.431	89.38
305.661	94.38
305.891	95.38
306.121	83.38
306.352	96.38
306.582	91.38
306.812	88.38
307.042	89.38
307.272	87.38
307.502	77.38
307.731	97.38
307.961	84.38
308.191	97.38
308.421	83.38
308.651	82.38
308.881	84.38
309.111	92.38
309.341	89.38
309.571	90.38
309.8	80.38
310.03	93.38
310.26	82.38
310.49	93.38
310.72	81.38
310.949	95.38
311.179	82.38
311.409	82.38
311.639	97.38
311.868	86.38
312.098	82.38
312.328	85.38
312.557	83.38
312.787	91.38
313.017	85.38
313.246	95.38
313.476	76.38
313.706	82.38
313.935	78.38
314.165	86.38
314.394	92.38
314.624	104.38
314.853	99.38
315.083	89.38
315.312	95.38
315.542	84.38
315.771	71.38
316.001	92.38
316.23	90.38
316.46	91.38
316.689	78.38
316.919	84.38
317.148	83.38
317.377	93.38
317.607	89.38
317.836	86.38
318.065	88.38
318.295	93.38
318.524	87.38
318.753	83.38
318.983	94.38
319.212	87.38
319.441	99.38
319.67	95.38
319.9	106.38
320.129	94.38
320.358	79.38
320.587	87.38
320.816	88.38
321.046	105.38
321.275	96.38
321.504	86.38
321.733	95.38
321.962	93.38
322.191	93.38
322.42	99.38
322.649	107.38
322.878	113.38
323.108	113.38
323.337	107.38
323.566	112.38
323.795	122.38
324.024	180.38
324.253	330.38
324.482	671.38
324.71	1379.38
324.939	1809.38
325.168	665.38
325.397	201.38
325.626	123.38
325.855	118.38
326.084	105.38
326.313	117.38
326.542	145.38
326.77	202.38
326.999	378.38
327.228	768.38
327.457	1394.38
327.686	1113.38
327.914	308.38
328.143	179.38
328.372	131.38
328.6	121.38
328.829	98.38
329.058	113.38
329.287	110.38
329.515	106.38
329.744	98.38
329.972	88.38
330.201	98.38
330.43	98.38
330.658	109.38
330.887	108.38
331.115	113.38
331.344	88.38
331.572	85.38
331.801	105.38
332.03	94.38
332.258	95.38
332.486	95.38
332.715	91.38
332.943	97.38
333.172	84.38
333.4	82.38
333.629	99.38
333.857	81.38
334.085	103.38
334.314	92.38
334.542	81.38
334.771	90.38
334.999	95.38
335.227	90.38
335.455	91.38
335.684	81.38
335.912	105.38
336.14	95.38
336.369	92.38
336.597	92.38
336.825	88.38
337.053	93.38
337.281	82.38
337.51	69.38
337.738	86.38
337.966	86.38
338.194	85.38
338.422	85.38
338.65	96.38
338.878	79.38
339.106	92.38
339.334	78.38
339.562	82.38
339.79	74.38
340.018	75.38
340.246	93.38
340.474	82.38
340.702	84.38
340.93	84.38
341.158	96.38
341.386	112.38
341.614	94.38
341.842	83.38
342.07	75.38
342.298	102.38
342.526	91.38
342.754	93.38
342.981	89.38
343.209	98.38
343.437	98.38
343.665	81.38
343.893	81.38
344.12	83.38
344.348	95.38
344.576	101.38
344.804	84.38
345.031	85.38
345.259	96.38
345.487	87.38
345.714	81.38
345.942	86.38
346.17	84.38
346.397	86.38
346.625	87.38
346.853	103.38
347.08	84.38
347.308	111.38
347.535	99.38
347.763	74.38
347.99	77.38
348.218	80.38
348.445	87.38
348.673	85.38
348.9	78.38
349.128	80.38
349.355	83.38
349.583	83.38
349.81	95.38
350.037	91.38
350.265	101.38
350.492	79.38
350.72	74.38
350.947	88.38
351.174	100.38
351.402	107.38
351.629	97.38
351.856	97.38
352.083	98.38
352.311	117.38
352.538	117.38
352.765	87.38
352.992	109.38
353.22	101.38
353.447	91.38
353.674	79.38
353.901	75.38
354.128	82.38
354.355	95.38
354.583	89.38
354.81	93.38
355.037	107.38
355.264	98.38
355.491	93.38
355.718	79.38
355.945	98.38
356.172	95.38
356.399	81.38
356.626	82.38
356.853	98.38
357.08	89.38
357.307	88.38
357.534	81.38
357.761	82.38
357.988	90.38
358.215	84.38
358.441	96.38
358.668	82.38
358.895	82.38
359.122	87.38
359.349	90.38
359.576	90.38
359.802	77.38
360.029	98.38
360.256	93.38
360.483	114.38
360.709	89.38
360.936	80.38
361.163	89.38
361.39	88.38
361.616	81.38
361.843	76.38
362.07	80.38
362.296	94.38
362.523	85.38
362.749	79.38
362.976	65.38
363.203	83.38
363.429	86.38
363.656	79.38
363.882	94.38
364.109	82.38
364.335	88.38
364.562	86.38
364.788	89.38
365.015	93.38
365.241	97.38
365.468	85.38
365.694	71.38
365.92	109.38
366.147	76.38
366.373	83.38
366.599	96.38
366.826	83.38
367.052	78.38
367.278	89.38
367.505	88.38
367.731	87.38
367.957	86.38
368.184	91.38
368.41	80.38
368.636	96.38
368.862	110.38
369.089	105.38
369.315	76.38
369.541	79.38
369.767	89.38
369.993	87.38
370.219	95.38
370.445	75.38
370.672	79.38
370.898	86.38
371.124	79.38
371.35	88.38
371.576	76.38
371.802	89.38
372.028	107.38
372.254	80.38
372.48	103.38
372.706	95.38
372.932	83.38
373.158	86.38
373.384	79.38
373.61	90.38
373.835	94.38
374.061	79.38
374.287	76.38
374.513	87.38
374.739	83.38
374.965	98.38
375.191	77.38
375.416	81.38
375.642	76.38
375.868	90.38
376.094	86.38
376.319	85.38
376.545	87.38
376.771	73.38
376.997	81.38
377.222	86.38
377.448	85.38
377.674	86.38
377.899	85.38
378.125	86.38
378.35	89.38
378.576	83.38
378.802	90.38
379.027	83.38
379.253	79.38
379.478	89.38
379.704	91.38
379.929	94.38
380.155	76.38
380.38	85.38
380.606	90.38
380.831	84.38
381.057	86.38
381.282	88.38
381.507	98.38
381.733	98.38
381.958	84.38
382.184	103.38
382.409	96.38
382.634	84.38
382.86	95.38
383.085	94.38
383.31	97.38
383.535	87.38
383.761	88.38
383.986	92.38
384.211	96.38
384.436	79.38
384.662	101.38
384.887	94.38
385.112	83.38
385.337	104.38
385.562	93.38
385.787	88.38
386.013	94.38
386.238	92.38
386.463	106.38
386.688	102.38
386.913	89.38
387.138	105.38
387.363	76.38
387.588	89.38
387.813	101.38
388.038	102.38
388.263	104.38
388.488	98.38
388.713	88.38
388.938	66.38
389.163	90.38
389.387	85.38
389.612	87.38
389.837	88.38
390.062	96.38
390.287	92.38
390.512	83.38
390.736	94.38
390.961	93.38
391.186	85.38
391.411	96.38
391.636	85.38
391.86	79.38
392.085	91.38
392.31	90.38
392.534	91.38
392.759	99.38
392.984	87.38
393.208	85.38
393.433	84.38
393.658	74.38
393.882	97.38
394.107	86.38
394.331	81.38
394.556	69.38
394.78	88.38
395.005	87.38
395.229	70.38
395.454	74.38
395.678	73.38
395.903	93.38
396.127	78.38
396.352	84.38
396.576	87.38
396.801	91.38
397.025	67.38
397.249	81.38
397.474	73.38
397.698	87.38
397.922	69.38
398.147	78.38
398.371	89.38
398.595	83.38
398.82	88.38
399.044	85.38
399.268	82.38
399.492	76.38
399.717	75.38
399.941	89.38
400.165	93.38
400.389	79.38
400.613	84.38
400.837	82.38
401.062	94.38
401.286	82.38
401.51	90.38
401.734	72.38
401.958	105.38
402.182	122.38
402.406	147.38
402.63	103.38
402.854	82.38
403.078	85.38
403.302	73.38
403.526	82.38
403.75	75.38
403.974	87.38
404.198	85.38
404.422	93.38
404.645	81.38
404.869	81.38
405.093	88.38
405.317	95.38
405.541	87.38
405.765	97.38
405.988	106.38
406.212	145.38
406.436	208.38
406.66	109.38
406.883	99.38
407.107	101.38
407.331	89.38
407.555	81.38
407.778	92.38
408.002	99.38
408.226	82.38
408.449	80.38
408.673	81.38
408.896	67.38
409.12	93.38
409.344	90.38
409.567	81.38
409.791	81.38
410.014	90.38
410.238	89.38
410.461	84.38
410.685	84.38
410.908	103.38
411.132	101.38
411.355	83.38
411.578	94.38
411.802	86.38
412.025	78.38
412.249	87.38
412.472	83.38
412.695	94.38
412.919	78.38
413.142	93.38
413.365	89.38
413.589	77.38
413.812	89.38
414.035	79.38
414.258	87.38
414.482	85.38
414.705	83.38
414.928	83.38
415.151	91.38
415.374	73.38
415.597	82.38
415.821	79.38
416.044	75.38
416.267	91.38
416.49	78.38
416.713	79.38
416.936	85.38
417.159	83.38
417.382	82.38
417.605	82.38
417.828	103.38
418.051	93.38
418.274	85.38
418.497	95.38
418.72	82.38
418.943	81.38
419.166	92.38
419.389	88.38
419.611	77.38
419.834	94.38
420.057	79.38
420.28	81.38
420.503	84.38
420.726	88.38
420.948	77.38
421.171	99.38
421.394	85.38
421.617	105.38
421.839	88.38
422.062	75.38
422.285	82.38
422.507	83.38
422.73	90.38
422.953	72.38
423.175	86.38
423.398	76.38
423.621	86.38
423.843	75.38
424.066	89.38
424.288	87.38
424.511	79.38
424.733	86.38
424.956	93.38
425.178	90.38
425.401	88.38
425.623	100.38
425.846	94.38
426.068	80.38
426.291	89.38
426.513	73.38
426.735	83.38
426.958	85.38
427.18	93.38
427.402	113.38
427.625	136.38
427.847	95.38
428.069	96.38
428.292	91.38
428.514	85.38
428.736	91.38
428.958	86.38
429.181	76.38
429.403	99.38
429.625	78.38
429.847	77.38
430.069	106.38
430.292	77.38
430.514	84.38
430.736	73.38
430.958	85.38
431.18	89.38
431.402	77.38
431.624	80.38
431.846	75.38
432.068	95.38
432.29	90.38
432.512	81.38
432.734	77.38
432.956	78.38
433.178	98.38
433.4	89.38
433.622	89.38
433.844	75.38
434.066	88.38
434.287	103.38
434.509	74.38
434.731	84.38
434.953	77.38
435.175	81.38
435.397	81.38
435.618	78.38
435.84	97.38
436.062	96.38
436.284	118.38
436.505	87.38
436.727	94.38
436.949	90.38
437.17	87.38
437.392	84.38
437.614	87.38
437.835	98.38
438.057	99.38
438.278	92.38
438.5	89.38
438.721	82.38
438.943	87.38
439.165	87.38
439.386	87.38
439.608	93.38
439.829	98.38
440.05	108.38
440.272	121.38
440.493	93.38
440.715	76.38
440.936	78.38
441.158	86.38
441.379	79.38
441.6	90.38
441.822	87.38
442.043	90.38
442.264	101.38
442.486	89.38
442.707	95.38
442.928	107.38
443.149	107.38
443.371	100.38
443.592	106.38
443.813	98.38
444.034	91.38
444.255	90.38
444.476	79.38
444.698	85.38
444.919	78.38
445.14	107.38
445.361	106.38
445.582	103.38
445.803	116.38
446.024	129.38
446.245	123.38
446.466	94.38
446.687	69.38
446.908	75.38
447.129	83.38
447.35	80.38
447.571	70.38
447.792	80.38
448.013	82.38
448.234	92.38
448.455	94.38
448.675	103.38
448.896	108.38
449.117	82.38
449.338	103.38
449.559	111.38
449.779	116.38
450	89.38
450.221	94.38
450.442	81.38
450.662	86.38
450.883	98.38
451.104	103.38
451.324	81.38
451.545	81.38
451.766	84.38
451.986	82.38
452.207	70.38
452.428	86.38
452.648	89.38
452.869	104.38
453.089	105.38
453.31	101.38
453.53	93.38
453.751	97.38
453.971	90.38
454.192	106.38
454.412	103.38
454.633	79.38
454.853	78.38
455.073	82.38
455.294	90.38
455.514	86.38
455.734	81.38
455.955	83.38
456.175	81.38
456.395	78.38
456.616	71.38
456.836	82.38
457.056	85.38
457.276	76.38
457.497	87.38
457.717	98.38
457.937	79.38
458.157	84.38
458.377	100.38
458.598	98.38
458.818	133.38
459.038	134.38
459.258	108.38
459.478	71.38
459.698	96.38
459.918	81.38
460.138	77.38
460.358	83.38
460.578	80.38
460.798	79.38
461.018	91.38
461.238	80.38
461.458	89.38
461.678	98.38
461.898	81.38
462.118	90.38
462.338	92.38
462.558	76.38
462.777	90.38
462.997	79.38
463.217	77.38
463.437	64.38
463.657	88.38
463.876	80.38
464.096	76.38
464.316	90.38
464.536	99.38
464.755	91.38
464.975	87.38
465.195	137.38
465.414	153.38
465.634	80.38
465.854	81.38
466.073	83.38
466.293	98.38
466.512	83.38
466.732	85.38
466.951	71.38
467.171	81.38
467.391	104.38
467.61	91.38
467.829	87.38
468.049	100.38
468.268	81.38
468.488	77.38
468.707	88.38
468.927	81.38
469.146	89.38
469.365	82.38
469.585	88.38
469.804	92.38
470.023	91.38
470.243	93.38
470.462	93.38
470.681	90.38
470.901	81.38
471.12	81.38
471.339	85.38
471.558	88.38
471.777	79.38
471.997	86.38
472.216	74.38
472.435	86.38
472.654	86.38
472.873	86.38
473.092	90.38
473.311	100.38
473.53	86.38
473.749	90.38
473.968	97.38
474.187	92.38
474.406	88.38
474.625	80.38
474.844	81.38
475.063	88.38
475.282	77.38
475.501	68.38
475.72	75.38
475.939	86.38
476.158	92.38
476.377	85.38
476.596	83.38
476.814	91.38
477.033	79.38
477.252	66.38
477.471	87.38
477.69	97.38
477.908	90.38
478.127	83.38
478.346	90.38
478.564	85.38
478.783	90.38
479.002	88.38
479.22	89.38
479.439	95.38
479.658	86.38
479.876	84.38
480.095	96.38
480.313	73.38
480.532	72.38
480.751	83.38
480.969	77.38
481.188	93.38
481.406	96.38
481.624	81.38
481.843	97.38
482.061	86.38
482.28	79.38
482.498	97.38
482.717	86.38
482.935	86.38
483.153	77.38
483.372	88.38
483.59	77.38
483.808	87.38
484.027	86.38
484.245	88.38
484.463	82.38
484.681	81.38
484.9	88.38
485.118	83.38
485.336	97.38
485.554	82.38
485.772	85.38
485.99	111.38
486.209	83.38
486.427	84.38
486.645	113.38
486.863	102.38
487.081	89.38
487.299	99.38
487.517	93.38
487.735	86.38
487.953	102.38
488.171	89.38
488.389	97.38
488.607	65.38
488.825	71.38
489.043	92.38
489.261	69.38
489.479	87.38
489.696	78.38
489.914	98.38
490.132	93.38
490.35	91.38
490.568	66.38
490.786	85.38
491.003	101.38
491.221	81.38
491.439	83.38
491.657	93.38
491.874	91.38
492.092	80.38
492.31	75.38
492.527	80.38
492.745	77.38
492.963	76.38
493.18	85.38
493.398	76.38
493.615	83.38
493.833	81.38
494.05	75.38
494.268	78.38
494.485	91.38
494.703	73.38
494.92	82.38
495.138	88.38
495.355	89.38
495.573	102.38
495.79	66.38
496.008	99.38
496.225	93.38
496.442	83.38
496.66	89.38
496.877	89.38
497.094	94.38
497.312	77.38
497.529	83.38
497.746	101.38
497.963	78.38
498.181	101.38
498.398	87.38
498.615	110.38
498.832	95.38
499.049	82.38
499.267	76.38
499.484	78.38
499.701	87.38
499.918	87.38
500.135	90.38
500.352	87.38
500.569	89.38
500.786	89.38
501.003	82.38
501.22	83.38
501.437	87.38
501.654	89.38
501.871	98.38
502.088	98.38
502.305	82.38
502.522	81.38
502.739	85.38
502.956	82.38
503.172	96.38
503.389	110.38
503.606	99.38
503.823	100.38
504.04	92.38
504.256	77.38
504.473	72.38
504.69	70.38
504.907	86.38
505.123	88.38
505.34	92.38
505.557	87.38
505.773	82.38
505.99	81.38
506.207	87.38
506.423	87.38
506.64	100.38
506.856	67.38
507.073	83.38
507.289	93.38
507.506	102.38
507.722	93.38
507.939	102.38
508.155	93.38
508.372	94.38
508.588	88.38
508.805	87.38
509.021	99.38
509.238	91.38
509.454	90.38
509.67	97.38
509.887	107.38
510.103	124.38
510.319	185.38
510.536	706.38
510.752	2103.38
510.968	563.38
511.184	153.38
511.401	97.38
511.617	101.38
511.833	89.38
512.049	91.38
512.265	84.38
512.481	103.38
512.698	95.38
512.914	83.38
513.13	83.38
513.346	88.38
513.562	93.38
513.778	89.38
513.994	91.38
514.21	103.38
514.426	98.38
514.642	117.38
514.858	114.38
515.074	141.38
515.29	363.38
515.506	1238.38
515.721	449.38
515.937	127.38
516.153	101.38
516.369	85.38
516.585	103.38
516.801	93.38
517.016	81.38
517.232	88.38
517.448	91.38
517.664	83.38
