Data from Uncirc_1992_H10_HRD10591_00083.txt Node
Date: Wed Jan 03 11:46:32 EST 2024
User: Yrep
Spectrometer: HR+D1059
Trigger mode: 1
Integration Time (sec): 1.000000E-1
Scans to average: 1
Electric dark correction enabled: true
Nonlinearity correction enabled: false
Boxcar width: 0
XAxis mode: Wavelengths
Number of Pixels in Spectrum: 2048
>>>>>Begin Spectral Data<<<<<
223.165	-8.38
223.4	-8.38
223.635	-8.38
223.869	-10.38
224.104	-26.38
224.338	-16.38
224.573	-23.38
224.808	-11.38
225.042	-6.38
225.277	-1.38
225.511	-20.38
225.746	-1.38
225.98	2.62
226.215	16.62
226.449	10.62
226.683	25.62
226.918	28.62
227.152	41.62
227.387	33.62
227.621	33.62
227.856	52.62
228.09	35.62
228.324	45.62
228.559	64.62
228.793	62.62
229.027	53.62
229.262	55.62
229.496	62.62
229.73	74.62
229.964	72.62
230.199	79.62
230.433	78.62
230.667	74.62
230.901	90.62
231.136	79.62
231.37	82.62
231.604	74.62
231.838	67.62
232.072	69.62
232.306	77.62
232.541	89.62
232.775	81.62
233.009	66.62
233.243	72.62
233.477	82.62
233.711	75.62
233.945	77.62
234.179	76.62
234.413	87.62
234.647	84.62
234.881	76.62
235.115	76.62
235.349	88.62
235.583	66.62
235.817	76.62
236.051	74.62
236.285	82.62
236.519	92.62
236.753	81.62
236.987	79.62
237.221	84.62
237.455	101.62
237.689	66.62
237.922	69.62
238.156	61.62
238.39	68.62
238.624	81.62
238.858	82.62
239.091	84.62
239.325	78.62
239.559	84.62
239.793	87.62
240.027	72.62
240.26	64.62
240.494	70.62
240.728	64.62
240.961	65.62
241.195	66.62
241.429	80.62
241.662	76.62
241.896	66.62
242.13	65.62
242.363	62.62
242.597	69.62
242.83	85.62
243.064	97.62
243.298	69.62
243.531	69.62
243.765	70.62
243.998	77.62
244.232	74.62
244.465	79.62
244.699	79.62
244.932	70.62
245.166	78.62
245.399	66.62
245.633	77.62
245.866	82.62
246.099	73.62
246.333	76.62
246.566	74.62
246.8	68.62
247.033	63.62
247.266	83.62
247.5	75.62
247.733	66.62
247.966	74.62
248.2	81.62
248.433	76.62
248.666	61.62
248.899	83.62
249.133	69.62
249.366	94.62
249.599	90.62
249.832	76.62
250.066	89.62
250.299	76.62
250.532	68.62
250.765	72.62
250.998	78.62
251.231	81.62
251.465	78.62
251.698	69.62
251.931	75.62
252.164	68.62
252.397	88.62
252.63	65.62
252.863	82.62
253.096	69.62
253.329	80.62
253.562	82.62
253.795	78.62
254.028	87.62
254.261	85.62
254.494	82.62
254.727	87.62
254.96	83.62
255.193	88.62
255.426	87.62
255.659	69.62
255.892	72.62
256.124	83.62
256.357	73.62
256.59	72.62
256.823	75.62
257.056	66.62
257.289	81.62
257.521	92.62
257.754	67.62
257.987	76.62
258.22	72.62
258.452	83.62
258.685	81.62
258.918	66.62
259.151	78.62
259.383	81.62
259.616	73.62
259.849	83.62
260.081	92.62
260.314	84.62
260.547	64.62
260.779	91.62
261.012	84.62
261.244	78.62
261.477	89.62
261.71	80.62
261.942	95.62
262.175	98.62
262.407	81.62
262.64	80.62
262.872	74.62
263.105	86.62
263.337	64.62
263.57	101.62
263.802	88.62
264.035	69.62
264.267	74.62
264.499	85.62
264.732	94.62
264.964	80.62
265.197	91.62
265.429	72.62
265.661	95.62
265.894	86.62
266.126	84.62
266.358	74.62
266.591	85.62
266.823	77.62
267.055	80.62
267.287	75.62
267.52	81.62
267.752	85.62
267.984	77.62
268.216	82.62
268.448	92.62
268.681	78.62
268.913	68.62
269.145	84.62
269.377	87.62
269.609	89.62
269.841	79.62
270.073	67.62
270.306	83.62
270.538	83.62
270.77	76.62
271.002	81.62
271.234	92.62
271.466	85.62
271.698	93.62
271.93	89.62
272.162	80.62
272.394	80.62
272.626	72.62
272.858	92.62
273.09	82.62
273.322	80.62
273.553	83.62
273.785	78.62
274.017	83.62
274.249	89.62
274.481	79.62
274.713	84.62
274.945	94.62
275.176	69.62
275.408	83.62
275.64	89.62
275.872	68.62
276.104	76.62
276.335	92.62
276.567	83.62
276.799	96.62
277.031	101.62
277.262	93.62
277.494	82.62
277.726	86.62
277.957	89.62
278.189	86.62
278.421	89.62
278.652	90.62
278.884	76.62
279.115	83.62
279.347	73.62
279.579	104.62
279.81	83.62
280.042	85.62
280.273	88.62
280.505	84.62
280.736	77.62
280.968	89.62
281.199	96.62
281.431	84.62
281.662	90.62
281.894	94.62
282.125	84.62
282.356	103.62
282.588	120.62
282.819	107.62
283.051	88.62
283.282	82.62
283.513	92.62
283.745	91.62
283.976	92.62
284.207	84.62
284.439	98.62
284.67	90.62
284.901	84.62
285.132	80.62
285.364	86.62
285.595	96.62
285.826	85.62
286.057	85.62
286.288	81.62
286.52	89.62
286.751	85.62
286.982	78.62
287.213	78.62
287.444	96.62
287.675	86.62
287.906	75.62
288.138	92.62
288.369	77.62
288.6	90.62
288.831	89.62
289.062	96.62
289.293	80.62
289.524	92.62
289.755	87.62
289.986	89.62
290.217	76.62
290.448	84.62
290.679	78.62
290.91	92.62
291.141	82.62
291.371	90.62
291.602	84.62
291.833	84.62
292.064	85.62
292.295	101.62
292.526	104.62
292.757	98.62
292.987	84.62
293.218	93.62
293.449	95.62
293.68	95.62
293.91	73.62
294.141	81.62
294.372	79.62
294.603	96.62
294.833	93.62
295.064	84.62
295.295	86.62
295.525	98.62
295.756	91.62
295.987	112.62
296.217	134.62
296.448	127.62
296.679	88.62
296.909	94.62
297.14	85.62
297.37	97.62
297.601	94.62
297.831	86.62
298.062	95.62
298.292	78.62
298.523	72.62
298.753	87.62
298.984	92.62
299.214	89.62
299.445	93.62
299.675	89.62
299.905	97.62
300.136	92.62
300.366	90.62
300.597	95.62
300.827	68.62
301.057	100.62
301.288	106.62
301.518	104.62
301.748	88.62
301.979	93.62
302.209	86.62
302.439	81.62
302.669	67.62
302.9	80.62
303.13	94.62
303.36	85.62
303.59	82.62
303.82	99.62
304.051	91.62
304.281	81.62
304.511	87.62
304.741	99.62
304.971	89.62
305.201	93.62
305.431	89.62
305.661	82.62
305.891	79.62
306.121	107.62
306.352	96.62
306.582	88.62
306.812	93.62
307.042	84.62
307.272	101.62
307.502	95.62
307.731	94.62
307.961	82.62
308.191	90.62
308.421	81.62
308.651	76.62
308.881	97.62
309.111	88.62
309.341	93.62
309.571	91.62
309.8	90.62
310.03	73.62
310.26	98.62
310.49	87.62
310.72	88.62
310.949	91.62
311.179	97.62
311.409	97.62
311.639	100.62
311.868	80.62
312.098	106.62
312.328	90.62
312.557	107.62
312.787	95.62
313.017	91.62
313.246	100.62
313.476	88.62
313.706	89.62
313.935	79.62
314.165	96.62
314.394	89.62
314.624	85.62
314.853	91.62
315.083	98.62
315.312	68.62
315.542	89.62
315.771	90.62
316.001	104.62
316.23	98.62
316.46	100.62
316.689	104.62
316.919	98.62
317.148	77.62
317.377	97.62
317.607	82.62
317.836	92.62
318.065	77.62
318.295	77.62
318.524	91.62
318.753	92.62
318.983	74.62
319.212	92.62
319.441	78.62
319.67	86.62
319.9	95.62
320.129	87.62
320.358	97.62
320.587	95.62
320.816	94.62
321.046	97.62
321.275	89.62
321.504	89.62
321.733	103.62
321.962	78.62
322.191	98.62
322.42	106.62
322.649	114.62
322.878	92.62
323.108	108.62
323.337	112.62
323.566	128.62
323.795	137.62
324.024	190.62
324.253	350.62
324.482	689.62
324.71	1363.62
324.939	1783.62
325.168	690.62
325.397	208.62
325.626	141.62
325.855	125.62
326.084	120.62
326.313	115.62
326.542	138.62
326.77	198.62
326.999	384.62
327.228	762.62
327.457	1397.62
327.686	1105.62
327.914	320.62
328.143	156.62
328.372	137.62
328.6	104.62
328.829	128.62
329.058	123.62
329.287	114.62
329.515	97.62
329.744	98.62
329.972	99.62
330.201	102.62
330.43	88.62
330.658	107.62
330.887	137.62
331.115	105.62
331.344	102.62
331.572	93.62
331.801	100.62
332.03	92.62
332.258	82.62
332.486	97.62
332.715	93.62
332.943	98.62
333.172	103.62
333.4	87.62
333.629	108.62
333.857	121.62
334.085	89.62
334.314	98.62
334.542	79.62
334.771	99.62
334.999	93.62
335.227	111.62
335.455	99.62
335.684	102.62
335.912	103.62
336.14	90.62
336.369	94.62
336.597	102.62
336.825	88.62
337.053	102.62
337.281	88.62
337.51	80.62
337.738	88.62
337.966	99.62
338.194	97.62
338.422	91.62
338.65	82.62
338.878	90.62
339.106	100.62
339.334	90.62
339.562	75.62
339.79	90.62
340.018	90.62
340.246	82.62
340.474	79.62
340.702	106.62
340.93	97.62
341.158	91.62
341.386	81.62
341.614	92.62
341.842	85.62
342.07	83.62
342.298	79.62
342.526	89.62
342.754	99.62
342.981	99.62
343.209	89.62
343.437	104.62
343.665	86.62
343.893	74.62
344.12	89.62
344.348	82.62
344.576	97.62
344.804	96.62
345.031	89.62
345.259	82.62
345.487	99.62
345.714	98.62
345.942	81.62
346.17	89.62
346.397	86.62
346.625	93.62
346.853	92.62
347.08	67.62
347.308	82.62
347.535	97.62
347.763	93.62
347.99	101.62
348.218	98.62
348.445	89.62
348.673	96.62
348.9	98.62
349.128	97.62
349.355	101.62
349.583	95.62
349.81	102.62
350.037	95.62
350.265	88.62
350.492	98.62
350.72	95.62
350.947	103.62
351.174	90.62
351.402	96.62
351.629	93.62
351.856	84.62
352.083	102.62
352.311	93.62
352.538	102.62
352.765	97.62
352.992	112.62
353.22	110.62
353.447	97.62
353.674	102.62
353.901	93.62
354.128	98.62
354.355	95.62
354.583	92.62
354.81	108.62
355.037	81.62
355.264	101.62
355.491	95.62
355.718	94.62
355.945	105.62
356.172	74.62
356.399	114.62
356.626	99.62
356.853	94.62
357.08	94.62
357.307	98.62
357.534	93.62
357.761	101.62
357.988	116.62
358.215	98.62
358.441	82.62
358.668	94.62
358.895	95.62
359.122	97.62
359.349	89.62
359.576	98.62
359.802	88.62
360.029	111.62
360.256	96.62
360.483	95.62
360.709	114.62
360.936	97.62
361.163	91.62
361.39	77.62
361.616	111.62
361.843	97.62
362.07	84.62
362.296	91.62
362.523	89.62
362.749	85.62
362.976	90.62
363.203	104.62
363.429	99.62
363.656	76.62
363.882	94.62
364.109	96.62
364.335	98.62
364.562	94.62
364.788	89.62
365.015	95.62
365.241	89.62
365.468	96.62
365.694	109.62
365.92	90.62
366.147	106.62
366.373	100.62
366.599	89.62
366.826	91.62
367.052	96.62
367.278	91.62
367.505	83.62
367.731	102.62
367.957	89.62
368.184	79.62
368.41	105.62
368.636	94.62
368.862	106.62
369.089	99.62
369.315	78.62
369.541	99.62
369.767	90.62
369.993	84.62
370.219	77.62
370.445	99.62
370.672	82.62
370.898	86.62
371.124	97.62
371.35	94.62
371.576	87.62
371.802	95.62
372.028	87.62
372.254	87.62
372.48	91.62
372.706	81.62
372.932	84.62
373.158	94.62
373.384	104.62
373.61	99.62
373.835	72.62
374.061	92.62
374.287	91.62
374.513	99.62
374.739	85.62
374.965	82.62
375.191	77.62
375.416	80.62
375.642	91.62
375.868	102.62
376.094	92.62
376.319	82.62
376.545	92.62
376.771	78.62
376.997	88.62
377.222	90.62
377.448	85.62
377.674	87.62
377.899	94.62
378.125	84.62
378.35	84.62
378.576	81.62
378.802	93.62
379.027	87.62
379.253	87.62
379.478	92.62
379.704	97.62
379.929	95.62
380.155	91.62
380.38	88.62
380.606	80.62
380.831	93.62
381.057	93.62
381.282	98.62
381.507	85.62
381.733	88.62
381.958	86.62
382.184	84.62
382.409	106.62
382.634	97.62
382.86	100.62
383.085	103.62
383.31	94.62
383.535	97.62
383.761	89.62
383.986	94.62
384.211	90.62
384.436	93.62
384.662	100.62
384.887	108.62
385.112	94.62
385.337	101.62
385.562	102.62
385.787	99.62
386.013	111.62
386.238	108.62
386.463	100.62
386.688	100.62
386.913	97.62
387.138	84.62
387.363	95.62
387.588	101.62
387.813	91.62
388.038	92.62
388.263	94.62
388.488	105.62
388.713	102.62
388.938	80.62
389.163	85.62
389.387	95.62
389.612	92.62
389.837	93.62
390.062	88.62
390.287	96.62
390.512	91.62
390.736	94.62
390.961	85.62
391.186	85.62
391.411	92.62
391.636	88.62
391.86	81.62
392.085	85.62
392.31	79.62
392.534	88.62
392.759	88.62
392.984	93.62
393.208	80.62
393.433	87.62
393.658	92.62
393.882	83.62
394.107	89.62
394.331	97.62
394.556	92.62
394.78	88.62
395.005	88.62
395.229	86.62
395.454	79.62
395.678	88.62
395.903	94.62
396.127	95.62
396.352	94.62
396.576	84.62
396.801	96.62
397.025	89.62
397.249	76.62
397.474	89.62
397.698	96.62
397.922	68.62
398.147	77.62
398.371	89.62
398.595	88.62
398.82	76.62
399.044	85.62
399.268	81.62
399.492	86.62
399.717	90.62
399.941	94.62
400.165	100.62
400.389	84.62
400.613	87.62
400.837	69.62
401.062	74.62
401.286	79.62
401.51	108.62
401.734	97.62
401.958	110.62
402.182	112.62
402.406	155.62
402.63	105.62
402.854	98.62
403.078	96.62
403.302	90.62
403.526	89.62
403.75	96.62
403.974	87.62
404.198	88.62
404.422	84.62
404.645	85.62
404.869	82.62
405.093	78.62
405.317	93.62
405.541	96.62
405.765	91.62
405.988	110.62
406.212	142.62
406.436	194.62
406.66	128.62
406.883	107.62
407.107	95.62
407.331	103.62
407.555	97.62
407.778	97.62
408.002	102.62
408.226	84.62
408.449	87.62
408.673	74.62
408.896	95.62
409.12	89.62
409.344	77.62
409.567	78.62
409.791	89.62
410.014	107.62
410.238	99.62
410.461	90.62
410.685	80.62
410.908	89.62
411.132	106.62
411.355	96.62
411.578	90.62
411.802	84.62
412.025	93.62
412.249	76.62
412.472	105.62
412.695	96.62
412.919	78.62
413.142	96.62
413.365	81.62
413.589	80.62
413.812	92.62
414.035	91.62
414.258	90.62
414.482	88.62
414.705	89.62
414.928	95.62
415.151	89.62
415.374	84.62
415.597	85.62
415.821	88.62
416.044	88.62
416.267	81.62
416.49	97.62
416.713	82.62
416.936	94.62
417.159	76.62
417.382	101.62
417.605	88.62
417.828	85.62
418.051	88.62
418.274	92.62
418.497	87.62
418.72	96.62
418.943	93.62
419.166	81.62
419.389	82.62
419.611	91.62
419.834	87.62
420.057	80.62
420.28	96.62
420.503	75.62
420.726	96.62
420.948	84.62
421.171	89.62
421.394	104.62
421.617	90.62
421.839	97.62
422.062	94.62
422.285	83.62
422.507	87.62
422.73	98.62
422.953	99.62
423.175	85.62
423.398	77.62
423.621	89.62
423.843	91.62
424.066	80.62
424.288	81.62
424.511	86.62
424.733	97.62
424.956	95.62
425.178	92.62
425.401	95.62
425.623	93.62
425.846	85.62
426.068	83.62
426.291	94.62
426.513	88.62
426.735	94.62
426.958	85.62
427.18	84.62
427.402	124.62
427.625	142.62
427.847	113.62
428.069	102.62
428.292	52.62
428.514	82.62
428.736	84.62
428.958	87.62
429.181	82.62
429.403	76.62
429.625	96.62
429.847	78.62
430.069	87.62
430.292	90.62
430.514	95.62
430.736	88.62
430.958	84.62
431.18	88.62
431.402	83.62
431.624	93.62
431.846	68.62
432.068	74.62
432.29	101.62
432.512	84.62
432.734	90.62
432.956	85.62
433.178	90.62
433.4	95.62
433.622	94.62
433.844	76.62
434.066	83.62
434.287	84.62
434.509	86.62
434.731	81.62
434.953	100.62
435.175	90.62
435.397	81.62
435.618	84.62
435.84	98.62
436.062	109.62
436.284	114.62
436.505	106.62
436.727	85.62
436.949	99.62
437.17	97.62
437.392	73.62
437.614	88.62
437.835	96.62
438.057	98.62
438.278	107.62
438.5	89.62
438.721	100.62
438.943	80.62
439.165	88.62
439.386	94.62
439.608	80.62
439.829	97.62
440.05	116.62
440.272	124.62
440.493	91.62
440.715	86.62
440.936	101.62
441.158	99.62
441.379	77.62
441.6	90.62
441.822	81.62
442.043	91.62
442.264	100.62
442.486	92.62
442.707	83.62
442.928	95.62
443.149	125.62
443.371	122.62
443.592	103.62
443.813	113.62
444.034	93.62
444.255	84.62
444.476	95.62
444.698	84.62
444.919	86.62
445.14	121.62
445.361	113.62
445.582	104.62
445.803	124.62
446.024	110.62
446.245	113.62
446.466	105.62
446.687	84.62
446.908	83.62
447.129	91.62
447.35	93.62
447.571	87.62
447.792	88.62
448.013	102.62
448.234	90.62
448.455	106.62
448.675	99.62
448.896	111.62
449.117	102.62
449.338	93.62
449.559	105.62
449.779	117.62
450	90.62
450.221	96.62
450.442	85.62
450.662	88.62
450.883	84.62
451.104	110.62
451.324	84.62
451.545	87.62
451.766	80.62
451.986	80.62
452.207	86.62
452.428	84.62
452.648	89.62
452.869	114.62
453.089	106.62
453.31	102.62
453.53	79.62
453.751	83.62
453.971	89.62
454.192	101.62
454.412	99.62
454.633	81.62
454.853	77.62
455.073	77.62
455.294	94.62
455.514	89.62
455.734	100.62
455.955	84.62
456.175	79.62
456.395	88.62
456.616	93.62
456.836	81.62
457.056	86.62
457.276	90.62
457.497	88.62
457.717	71.62
457.937	89.62
458.157	83.62
458.377	95.62
458.598	94.62
458.818	140.62
459.038	146.62
459.258	108.62
459.478	78.62
459.698	76.62
459.918	77.62
460.138	74.62
460.358	84.62
460.578	88.62
460.798	101.62
461.018	90.62
461.238	73.62
461.458	81.62
461.678	80.62
461.898	84.62
462.118	101.62
462.338	88.62
462.558	94.62
462.777	82.62
462.997	94.62
463.217	85.62
463.437	87.62
463.657	82.62
463.876	73.62
464.096	98.62
464.316	100.62
464.536	95.62
464.755	94.62
464.975	90.62
465.195	141.62
465.414	132.62
465.634	88.62
465.854	83.62
466.073	81.62
466.293	84.62
466.512	89.62
466.732	106.62
466.951	75.62
467.171	86.62
467.391	96.62
467.61	92.62
467.829	68.62
468.049	83.62
468.268	93.62
468.488	84.62
468.707	78.62
468.927	86.62
469.146	74.62
469.365	91.62
469.585	92.62
469.804	99.62
470.023	100.62
470.243	105.62
470.462	83.62
470.681	98.62
470.901	86.62
471.12	88.62
471.339	88.62
471.558	91.62
471.777	88.62
471.997	98.62
472.216	102.62
472.435	108.62
472.654	89.62
472.873	88.62
473.092	86.62
473.311	82.62
473.53	91.62
473.749	84.62
473.968	91.62
474.187	96.62
474.406	93.62
474.625	89.62
474.844	80.62
475.063	96.62
475.282	100.62
475.501	96.62
475.72	94.62
475.939	84.62
476.158	77.62
476.377	81.62
476.596	96.62
476.814	82.62
477.033	73.62
477.252	95.62
477.471	84.62
477.69	92.62
477.908	97.62
478.127	93.62
478.346	96.62
478.564	96.62
478.783	98.62
479.002	91.62
479.22	79.62
479.439	109.62
479.658	99.62
479.876	97.62
480.095	92.62
480.313	90.62
480.532	85.62
480.751	87.62
480.969	91.62
481.188	89.62
481.406	103.62
481.624	86.62
481.843	85.62
482.061	75.62
482.28	99.62
482.498	97.62
482.717	89.62
482.935	98.62
483.153	89.62
483.372	91.62
483.59	86.62
483.808	82.62
484.027	85.62
484.245	89.62
484.463	84.62
484.681	102.62
484.9	85.62
485.118	93.62
485.336	83.62
485.554	82.62
485.772	98.62
485.99	99.62
486.209	97.62
486.427	88.62
486.645	99.62
486.863	94.62
487.081	100.62
487.299	86.62
487.517	98.62
487.735	89.62
487.953	94.62
488.171	73.62
488.389	90.62
488.607	92.62
488.825	88.62
489.043	96.62
489.261	85.62
489.479	87.62
489.696	96.62
489.914	89.62
490.132	94.62
490.35	98.62
490.568	84.62
490.786	87.62
491.003	80.62
491.221	88.62
491.439	85.62
491.657	89.62
491.874	98.62
492.092	82.62
492.31	89.62
492.527	84.62
492.745	78.62
492.963	86.62
493.18	102.62
493.398	92.62
493.615	88.62
493.833	94.62
494.05	74.62
494.268	88.62
494.485	101.62
494.703	97.62
494.92	81.62
495.138	68.62
495.355	83.62
495.573	99.62
495.79	84.62
496.008	87.62
496.225	85.62
496.442	97.62
496.66	81.62
496.877	85.62
497.094	75.62
497.312	81.62
497.529	105.62
497.746	94.62
497.963	86.62
498.181	84.62
498.398	91.62
498.615	110.62
498.832	84.62
499.049	99.62
499.267	97.62
499.484	78.62
499.701	91.62
499.918	88.62
500.135	85.62
500.352	97.62
500.569	90.62
500.786	99.62
501.003	90.62
501.22	65.62
501.437	78.62
501.654	89.62
501.871	116.62
502.088	90.62
502.305	93.62
502.522	82.62
502.739	83.62
502.956	91.62
503.172	80.62
503.389	89.62
503.606	101.62
503.823	97.62
504.04	93.62
504.256	89.62
504.473	99.62
504.69	89.62
504.907	81.62
505.123	85.62
505.34	84.62
505.557	89.62
505.773	83.62
505.99	95.62
506.207	77.62
506.423	97.62
506.64	83.62
506.856	89.62
507.073	86.62
507.289	102.62
507.506	95.62
507.722	103.62
507.939	100.62
508.155	95.62
508.372	94.62
508.588	85.62
508.805	88.62
509.021	112.62
509.238	101.62
509.454	96.62
509.67	100.62
509.887	112.62
510.103	122.62
510.319	193.62
510.536	686.62
510.752	2061.62
510.968	571.62
511.184	158.62
511.401	109.62
511.617	97.62
511.833	85.62
512.049	86.62
512.265	93.62
512.481	89.62
512.698	107.62
512.914	88.62
513.13	80.62
513.346	78.62
513.562	101.62
513.778	94.62
513.994	101.62
514.21	97.62
514.426	113.62
514.642	120.62
514.858	104.62
515.074	155.62
515.29	401.62
515.506	1260.62
515.721	437.62
515.937	131.62
516.153	119.62
516.369	106.62
516.585	97.62
516.801	78.62
517.016	91.62
