Data from Uncirc_1992_H10_HRD10591_00067.txt Node
Date: Wed Jan 03 11:46:29 EST 2024
User: Yrep
Spectrometer: HR+D1059
Trigger mode: 1
Integration Time (sec): 1.000000E-1
Scans to average: 1
Electric dark correction enabled: true
Nonlinearity correction enabled: false
Boxcar width: 0
XAxis mode: Wavelengths
Number of Pixels in Spectrum: 2048
>>>>>Begin Spectral Data<<<<<
223.165	-9.69
223.4	-9.69
223.635	-9.69
223.869	-16.69
224.104	-18.69
224.338	-18.69
224.573	-17.69
224.808	-23.69
225.042	-0.69
225.277	-12.69
225.511	-7.69
225.746	-0.69
225.98	7.31
226.215	20.31
226.449	26.31
226.683	26.31
226.918	20.31
227.152	26.31
227.387	33.31
227.621	36.31
227.856	39.31
228.09	48.31
228.324	63.31
228.559	63.31
228.793	56.31
229.027	53.31
229.262	63.31
229.496	63.31
229.73	68.31
229.964	68.31
230.199	85.31
230.433	80.31
230.667	76.31
230.901	80.31
231.136	83.31
231.37	84.31
231.604	70.31
231.838	80.31
232.072	78.31
232.306	67.31
232.541	83.31
232.775	71.31
233.009	80.31
233.243	83.31
233.477	84.31
233.711	74.31
233.945	69.31
234.179	86.31
234.413	85.31
234.647	69.31
234.881	76.31
235.115	81.31
235.349	82.31
235.583	69.31
235.817	76.31
236.051	80.31
236.285	64.31
236.519	78.31
236.753	84.31
236.987	75.31
237.221	90.31
237.455	82.31
237.689	77.31
237.922	68.31
238.156	86.31
238.39	79.31
238.624	69.31
238.858	63.31
239.091	86.31
239.325	78.31
239.559	76.31
239.793	98.31
240.027	75.31
240.26	86.31
240.494	86.31
240.728	78.31
240.961	79.31
241.195	74.31
241.429	80.31
241.662	79.31
241.896	70.31
242.13	78.31
242.363	77.31
242.597	79.31
242.83	85.31
243.064	82.31
243.298	79.31
243.531	84.31
243.765	105.31
243.998	84.31
244.232	81.31
244.465	85.31
244.699	85.31
244.932	66.31
245.166	85.31
245.399	69.31
245.633	77.31
245.866	78.31
246.099	89.31
246.333	86.31
246.566	74.31
246.8	89.31
247.033	80.31
247.266	84.31
247.5	77.31
247.733	85.31
247.966	76.31
248.2	76.31
248.433	85.31
248.666	86.31
248.899	89.31
249.133	78.31
249.366	85.31
249.599	91.31
249.832	74.31
250.066	70.31
250.299	74.31
250.532	70.31
250.765	74.31
250.998	86.31
251.231	61.31
251.465	72.31
251.698	78.31
251.931	78.31
252.164	82.31
252.397	72.31
252.63	79.31
252.863	84.31
253.096	80.31
253.329	77.31
253.562	93.31
253.795	83.31
254.028	91.31
254.261	78.31
254.494	85.31
254.727	88.31
254.96	88.31
255.193	77.31
255.426	81.31
255.659	82.31
255.892	84.31
256.124	81.31
256.357	68.31
256.59	90.31
256.823	84.31
257.056	80.31
257.289	87.31
257.521	88.31
257.754	77.31
257.987	82.31
258.22	96.31
258.452	102.31
258.685	89.31
258.918	84.31
259.151	70.31
259.383	80.31
259.616	80.31
259.849	79.31
260.081	78.31
260.314	81.31
260.547	71.31
260.779	81.31
261.012	75.31
261.244	92.31
261.477	76.31
261.71	89.31
261.942	124.31
262.175	105.31
262.407	91.31
262.64	94.31
262.872	83.31
263.105	87.31
263.337	72.31
263.57	85.31
263.802	82.31
264.035	87.31
264.267	84.31
264.499	98.31
264.732	85.31
264.964	82.31
265.197	84.31
265.429	82.31
265.661	86.31
265.894	100.31
266.126	99.31
266.358	92.31
266.591	81.31
266.823	82.31
267.055	94.31
267.287	91.31
267.52	84.31
267.752	82.31
267.984	85.31
268.216	77.31
268.448	70.31
268.681	94.31
268.913	84.31
269.145	87.31
269.377	89.31
269.609	83.31
269.841	95.31
270.073	82.31
270.306	78.31
270.538	85.31
270.77	76.31
271.002	90.31
271.234	82.31
271.466	72.31
271.698	78.31
271.93	95.31
272.162	86.31
272.394	86.31
272.626	93.31
272.858	82.31
273.09	74.31
273.322	70.31
273.553	90.31
273.785	89.31
274.017	81.31
274.249	82.31
274.481	82.31
274.713	88.31
274.945	102.31
275.176	87.31
275.408	78.31
275.64	97.31
275.872	81.31
276.104	88.31
276.335	87.31
276.567	115.31
276.799	103.31
277.031	101.31
277.262	93.31
277.494	85.31
277.726	81.31
277.957	82.31
278.189	85.31
278.421	93.31
278.652	77.31
278.884	111.31
279.115	76.31
279.347	98.31
279.579	92.31
279.81	95.31
280.042	84.31
280.273	88.31
280.505	78.31
280.736	85.31
280.968	76.31
281.199	100.31
281.431	86.31
281.662	80.31
281.894	91.31
282.125	101.31
282.356	110.31
282.588	126.31
282.819	109.31
283.051	85.31
283.282	96.31
283.513	82.31
283.745	97.31
283.976	97.31
284.207	84.31
284.439	84.31
284.67	90.31
284.901	101.31
285.132	82.31
285.364	72.31
285.595	80.31
285.826	76.31
286.057	103.31
286.288	84.31
286.52	74.31
286.751	90.31
286.982	74.31
287.213	100.31
287.444	85.31
287.675	83.31
287.906	87.31
288.138	84.31
288.369	99.31
288.6	87.31
288.831	74.31
289.062	90.31
289.293	81.31
289.524	81.31
289.755	97.31
289.986	77.31
290.217	94.31
290.448	75.31
290.679	103.31
290.91	97.31
291.141	97.31
291.371	80.31
291.602	98.31
291.833	86.31
292.064	90.31
292.295	104.31
292.526	106.31
292.757	99.31
292.987	78.31
293.218	94.31
293.449	91.31
293.68	90.31
293.91	85.31
294.141	95.31
294.372	87.31
294.603	102.31
294.833	99.31
295.064	99.31
295.295	86.31
295.525	86.31
295.756	91.31
295.987	110.31
296.217	123.31
296.448	133.31
296.679	99.31
296.909	97.31
297.14	82.31
297.37	82.31
297.601	93.31
297.831	80.31
298.062	90.31
298.292	107.31
298.523	100.31
298.753	90.31
298.984	88.31
299.214	106.31
299.445	94.31
299.675	89.31
299.905	86.31
300.136	87.31
300.366	89.31
300.597	98.31
300.827	97.31
301.057	94.31
301.288	94.31
301.518	91.31
301.748	93.31
301.979	104.31
302.209	76.31
302.439	101.31
302.669	102.31
302.9	83.31
303.13	87.31
303.36	104.31
303.59	105.31
303.82	108.31
304.051	82.31
304.281	82.31
304.511	91.31
304.741	97.31
304.971	106.31
305.201	87.31
305.431	72.31
305.661	95.31
305.891	84.31
306.121	94.31
306.352	106.31
306.582	98.31
306.812	83.31
307.042	78.31
307.272	90.31
307.502	86.31
307.731	102.31
307.961	98.31
308.191	81.31
308.421	82.31
308.651	98.31
308.881	89.31
309.111	102.31
309.341	91.31
309.571	89.31
309.8	95.31
310.03	104.31
310.26	104.31
310.49	91.31
310.72	93.31
310.949	110.31
311.179	97.31
311.409	104.31
311.639	97.31
311.868	105.31
312.098	111.31
312.328	81.31
312.557	92.31
312.787	118.31
313.017	108.31
313.246	88.31
313.476	105.31
313.706	97.31
313.935	84.31
314.165	99.31
314.394	103.31
314.624	92.31
314.853	92.31
315.083	95.31
315.312	84.31
315.542	76.31
315.771	95.31
316.001	90.31
316.23	85.31
316.46	84.31
316.689	85.31
316.919	86.31
317.148	101.31
317.377	97.31
317.607	97.31
317.836	96.31
318.065	78.31
318.295	94.31
318.524	101.31
318.753	110.31
318.983	97.31
319.212	92.31
319.441	108.31
319.67	112.31
319.9	101.31
320.129	94.31
320.358	92.31
320.587	87.31
320.816	98.31
321.046	83.31
321.275	90.31
321.504	103.31
321.733	101.31
321.962	102.31
322.191	105.31
322.42	93.31
322.649	107.31
322.878	110.31
323.108	111.31
323.337	128.31
323.566	128.31
323.795	134.31
324.024	193.31
324.253	361.31
324.482	728.31
324.71	1474.31
324.939	1922.31
325.168	708.31
325.397	227.31
325.626	131.31
325.855	123.31
326.084	127.31
326.313	121.31
326.542	139.31
326.77	218.31
326.999	423.31
327.228	826.31
327.457	1506.31
327.686	1188.31
327.914	342.31
328.143	171.31
328.372	135.31
328.6	108.31
328.829	114.31
329.058	113.31
329.287	128.31
329.515	114.31
329.744	113.31
329.972	82.31
330.201	96.31
330.43	104.31
330.658	115.31
330.887	134.31
331.115	108.31
331.344	85.31
331.572	101.31
331.801	87.31
332.03	114.31
332.258	100.31
332.486	99.31
332.715	109.31
332.943	103.31
333.172	102.31
333.4	89.31
333.629	102.31
333.857	116.31
334.085	106.31
334.314	84.31
334.542	90.31
334.771	113.31
334.999	99.31
335.227	92.31
335.455	102.31
335.684	104.31
335.912	87.31
336.14	92.31
336.369	91.31
336.597	91.31
336.825	101.31
337.053	76.31
337.281	86.31
337.51	87.31
337.738	97.31
337.966	99.31
338.194	84.31
338.422	94.31
338.65	92.31
338.878	95.31
339.106	84.31
339.334	90.31
339.562	94.31
339.79	89.31
340.018	96.31
340.246	91.31
340.474	103.31
340.702	89.31
340.93	92.31
341.158	100.31
341.386	93.31
341.614	88.31
341.842	77.31
342.07	100.31
342.298	92.31
342.526	94.31
342.754	87.31
342.981	90.31
343.209	86.31
343.437	99.31
343.665	77.31
343.893	94.31
344.12	84.31
344.348	99.31
344.576	86.31
344.804	92.31
345.031	99.31
345.259	87.31
345.487	96.31
345.714	106.31
345.942	82.31
346.17	81.31
346.397	94.31
346.625	74.31
346.853	84.31
347.08	85.31
347.308	104.31
347.535	106.31
347.763	107.31
347.99	103.31
348.218	107.31
348.445	99.31
348.673	87.31
348.9	88.31
349.128	94.31
349.355	100.31
349.583	95.31
349.81	96.31
350.037	84.31
350.265	102.31
350.492	101.31
350.72	95.31
350.947	98.31
351.174	95.31
351.402	100.31
351.629	94.31
351.856	115.31
352.083	106.31
352.311	98.31
352.538	109.31
352.765	108.31
352.992	104.31
353.22	106.31
353.447	96.31
353.674	91.31
353.901	84.31
354.128	109.31
354.355	83.31
354.583	93.31
354.81	103.31
355.037	110.31
355.264	99.31
355.491	96.31
355.718	102.31
355.945	93.31
356.172	94.31
356.399	110.31
356.626	103.31
356.853	90.31
357.08	92.31
357.307	94.31
357.534	91.31
357.761	89.31
357.988	96.31
358.215	80.31
358.441	101.31
358.668	94.31
358.895	87.31
359.122	82.31
359.349	91.31
359.576	90.31
359.802	103.31
360.029	102.31
360.256	111.31
360.483	102.31
360.709	96.31
360.936	82.31
361.163	84.31
361.39	91.31
361.616	93.31
361.843	101.31
362.07	98.31
362.296	92.31
362.523	86.31
362.749	96.31
362.976	93.31
363.203	92.31
363.429	102.31
363.656	89.31
363.882	84.31
364.109	87.31
364.335	93.31
364.562	111.31
364.788	94.31
365.015	87.31
365.241	91.31
365.468	111.31
365.694	104.31
365.92	89.31
366.147	83.31
366.373	77.31
366.599	86.31
366.826	95.31
367.052	99.31
367.278	95.31
367.505	80.31
367.731	103.31
367.957	91.31
368.184	111.31
368.41	103.31
368.636	122.31
368.862	107.31
369.089	112.31
369.315	95.31
369.541	93.31
369.767	90.31
369.993	92.31
370.219	100.31
370.445	95.31
370.672	91.31
370.898	89.31
371.124	79.31
371.35	89.31
371.576	94.31
371.802	91.31
372.028	86.31
372.254	90.31
372.48	97.31
372.706	86.31
372.932	80.31
373.158	100.31
373.384	82.31
373.61	88.31
373.835	91.31
374.061	94.31
374.287	98.31
374.513	101.31
374.739	100.31
374.965	89.31
375.191	95.31
375.416	102.31
375.642	94.31
375.868	96.31
376.094	85.31
376.319	95.31
376.545	85.31
376.771	93.31
376.997	84.31
377.222	87.31
377.448	93.31
377.674	87.31
377.899	99.31
378.125	92.31
378.35	87.31
378.576	91.31
378.802	100.31
379.027	88.31
379.253	95.31
379.478	92.31
379.704	82.31
379.929	95.31
380.155	90.31
380.38	102.31
380.606	98.31
380.831	86.31
381.057	92.31
381.282	92.31
381.507	98.31
381.733	95.31
381.958	94.31
382.184	90.31
382.409	104.31
382.634	104.31
382.86	102.31
383.085	95.31
383.31	102.31
383.535	94.31
383.761	101.31
383.986	94.31
384.211	82.31
384.436	94.31
384.662	91.31
384.887	106.31
385.112	109.31
385.337	111.31
385.562	108.31
385.787	107.31
386.013	96.31
386.238	118.31
386.463	108.31
386.688	100.31
386.913	98.31
387.138	101.31
387.363	104.31
387.588	92.31
387.813	87.31
388.038	107.31
388.263	104.31
388.488	105.31
388.713	99.31
388.938	103.31
389.163	101.31
389.387	96.31
389.612	83.31
389.837	90.31
390.062	89.31
390.287	104.31
390.512	100.31
390.736	99.31
390.961	115.31
391.186	108.31
391.411	85.31
391.636	91.31
391.86	76.31
392.085	63.31
392.31	80.31
392.534	94.31
392.759	83.31
392.984	79.31
393.208	93.31
393.433	87.31
393.658	96.31
393.882	91.31
394.107	76.31
394.331	97.31
394.556	99.31
394.78	101.31
395.005	81.31
395.229	100.31
395.454	95.31
395.678	93.31
395.903	84.31
396.127	94.31
396.352	80.31
396.576	102.31
396.801	104.31
397.025	98.31
397.249	100.31
397.474	88.31
397.698	87.31
397.922	96.31
398.147	103.31
398.371	98.31
398.595	99.31
398.82	90.31
399.044	93.31
399.268	88.31
399.492	82.31
399.717	76.31
399.941	89.31
400.165	111.31
400.389	96.31
400.613	90.31
400.837	88.31
401.062	95.31
401.286	101.31
401.51	83.31
401.734	92.31
401.958	98.31
402.182	124.31
402.406	143.31
402.63	127.31
402.854	97.31
403.078	87.31
403.302	92.31
403.526	85.31
403.75	86.31
403.974	83.31
404.198	87.31
404.422	71.31
404.645	81.31
404.869	99.31
405.093	93.31
405.317	88.31
405.541	101.31
405.765	90.31
405.988	102.31
406.212	156.31
406.436	223.31
406.66	146.31
406.883	103.31
407.107	101.31
407.331	97.31
407.555	93.31
407.778	98.31
408.002	100.31
408.226	81.31
408.449	90.31
408.673	86.31
408.896	82.31
409.12	94.31
409.344	92.31
409.567	97.31
409.791	92.31
410.014	92.31
410.238	88.31
410.461	92.31
410.685	109.31
410.908	87.31
411.132	95.31
411.355	87.31
411.578	88.31
411.802	87.31
412.025	107.31
412.249	85.31
412.472	91.31
412.695	92.31
412.919	87.31
413.142	91.31
413.365	90.31
413.589	88.31
413.812	89.31
414.035	98.31
414.258	87.31
414.482	88.31
414.705	84.31
414.928	76.31
415.151	93.31
415.374	93.31
415.597	103.31
415.821	82.31
416.044	80.31
416.267	78.31
416.49	78.31
416.713	81.31
416.936	79.31
417.159	69.31
417.382	82.31
417.605	99.31
417.828	101.31
418.051	91.31
418.274	90.31
418.497	89.31
418.72	90.31
418.943	103.31
419.166	80.31
419.389	100.31
419.611	87.31
419.834	90.31
420.057	88.31
420.28	99.31
420.503	82.31
420.726	84.31
420.948	84.31
421.171	86.31
421.394	85.31
421.617	90.31
421.839	93.31
422.062	95.31
422.285	91.31
422.507	98.31
422.73	85.31
422.953	94.31
423.175	93.31
423.398	87.31
423.621	100.31
423.843	88.31
424.066	86.31
424.288	89.31
424.511	99.31
424.733	97.31
424.956	117.31
425.178	96.31
425.401	83.31
425.623	88.31
425.846	95.31
426.068	93.31
426.291	94.31
426.513	96.31
426.735	85.31
426.958	87.31
427.18	96.31
427.402	124.31
427.625	162.31
427.847	123.31
428.069	104.31
428.292	86.31
428.514	78.31
428.736	70.31
428.958	101.31
429.181	84.31
429.403	87.31
429.625	88.31
429.847	85.31
430.069	104.31
430.292	96.31
430.514	83.31
430.736	79.31
430.958	87.31
431.18	75.31
431.402	88.31
431.624	98.31
431.846	86.31
432.068	93.31
432.29	88.31
432.512	93.31
432.734	71.31
432.956	92.31
433.178	91.31
433.4	92.31
433.622	95.31
433.844	103.31
434.066	93.31
434.287	92.31
434.509	103.31
434.731	102.31
434.953	95.31
435.175	87.31
435.397	104.31
435.618	94.31
435.84	108.31
436.062	120.31
436.284	114.31
436.505	100.31
436.727	87.31
436.949	79.31
437.17	102.31
437.392	83.31
437.614	81.31
437.835	96.31
438.057	108.31
438.278	103.31
438.5	93.31
438.721	99.31
438.943	103.31
439.165	83.31
439.386	84.31
439.608	91.31
439.829	111.31
440.05	119.31
440.272	124.31
440.493	104.31
440.715	85.31
440.936	104.31
441.158	93.31
441.379	91.31
441.6	83.31
441.822	102.31
442.043	90.31
442.264	100.31
442.486	94.31
442.707	85.31
442.928	82.31
443.149	123.31
443.371	128.31
443.592	93.31
443.813	109.31
444.034	99.31
444.255	87.31
444.476	99.31
444.698	95.31
444.919	71.31
445.14	110.31
445.361	116.31
445.582	102.31
445.803	125.31
446.024	131.31
446.245	119.31
446.466	113.31
446.687	99.31
446.908	91.31
447.129	95.31
447.35	86.31
447.571	97.31
447.792	93.31
448.013	82.31
448.234	94.31
448.455	91.31
448.675	98.31
448.896	118.31
449.117	109.31
449.338	97.31
449.559	122.31
449.779	134.31
450	105.31
450.221	90.31
450.442	86.31
450.662	96.31
450.883	96.31
451.104	106.31
451.324	87.31
451.545	96.31
451.766	84.31
451.986	79.31
452.207	83.31
452.428	99.31
452.648	96.31
452.869	106.31
453.089	114.31
453.31	117.31
453.53	101.31
453.751	98.31
453.971	101.31
454.192	98.31
454.412	95.31
454.633	97.31
454.853	94.31
455.073	79.31
455.294	111.31
455.514	103.31
455.734	97.31
455.955	80.31
456.175	91.31
456.395	92.31
456.616	92.31
456.836	88.31
457.056	72.31
457.276	85.31
457.497	88.31
457.717	91.31
457.937	84.31
458.157	95.31
458.377	93.31
458.598	100.31
458.818	140.31
459.038	156.31
459.258	116.31
459.478	94.31
459.698	94.31
459.918	86.31
460.138	86.31
460.358	97.31
460.578	82.31
460.798	95.31
461.018	83.31
461.238	86.31
461.458	78.31
461.678	73.31
461.898	87.31
462.118	97.31
462.338	84.31
462.558	79.31
462.777	79.31
462.997	86.31
463.217	85.31
463.437	89.31
463.657	90.31
463.876	94.31
464.096	81.31
464.316	92.31
464.536	83.31
464.755	99.31
464.975	106.31
465.195	142.31
465.414	134.31
465.634	98.31
465.854	86.31
466.073	80.31
466.293	90.31
466.512	92.31
466.732	88.31
466.951	86.31
467.171	109.31
467.391	77.31
467.61	86.31
467.829	103.31
468.049	90.31
468.268	87.31
468.488	91.31
468.707	78.31
468.927	84.31
469.146	87.31
469.365	81.31
469.585	93.31
469.804	101.31
470.023	106.31
470.243	105.31
470.462	95.31
470.681	114.31
470.901	89.31
471.12	82.31
471.339	90.31
471.558	87.31
471.777	94.31
471.997	94.31
472.216	83.31
472.435	95.31
472.654	76.31
472.873	101.31
473.092	83.31
473.311	80.31
473.53	81.31
473.749	102.31
473.968	85.31
474.187	79.31
474.406	94.31
474.625	88.31
474.844	82.31
475.063	84.31
475.282	95.31
475.501	80.31
475.72	83.31
475.939	103.31
476.158	97.31
476.377	96.31
476.596	95.31
476.814	101.31
477.033	83.31
477.252	87.31
477.471	72.31
477.69	87.31
477.908	90.31
478.127	95.31
478.346	93.31
478.564	91.31
478.783	104.31
479.002	93.31
479.22	85.31
479.439	79.31
479.658	94.31
479.876	102.31
480.095	95.31
480.313	84.31
480.532	97.31
480.751	95.31
480.969	87.31
481.188	103.31
481.406	90.31
481.624	108.31
481.843	77.31
482.061	85.31
482.28	84.31
482.498	100.31
482.717	80.31
482.935	71.31
483.153	94.31
483.372	89.31
483.59	96.31
483.808	106.31
484.027	90.31
484.245	94.31
484.463	94.31
484.681	102.31
484.9	85.31
485.118	98.31
485.336	100.31
485.554	101.31
485.772	105.31
485.99	102.31
486.209	102.31
486.427	99.31
486.645	97.31
486.863	110.31
487.081	105.31
487.299	93.31
487.517	93.31
487.735	77.31
487.953	85.31
488.171	99.31
488.389	90.31
488.607	113.31
488.825	87.31
489.043	83.31
489.261	93.31
489.479	91.31
489.696	81.31
489.914	76.31
490.132	90.31
490.35	96.31
490.568	80.31
490.786	89.31
491.003	87.31
491.221	86.31
491.439	91.31
491.657	95.31
491.874	97.31
492.092	87.31
492.31	89.31
492.527	82.31
492.745	88.31
492.963	87.31
493.18	94.31
493.398	93.31
493.615	91.31
493.833	100.31
494.05	103.31
494.268	94.31
494.485	99.31
494.703	97.31
494.92	90.31
495.138	82.31
495.355	95.31
495.573	91.31
495.79	91.31
496.008	98.31
496.225	98.31
496.442	104.31
496.66	93.31
496.877	87.31
497.094	88.31
497.312	92.31
497.529	85.31
497.746	100.31
497.963	81.31
498.181	92.31
498.398	106.31
498.615	125.31
498.832	103.31
499.049	78.31
499.267	93.31
499.484	98.31
499.701	102.31
499.918	78.31
500.135	86.31
500.352	80.31
500.569	87.31
500.786	79.31
501.003	84.31
501.22	86.31
501.437	73.31
501.654	90.31
501.871	106.31
502.088	94.31
502.305	93.31
502.522	102.31
502.739	93.31
502.956	94.31
503.172	103.31
503.389	99.31
503.606	95.31
503.823	113.31
504.04	104.31
504.256	89.31
504.473	104.31
504.69	81.31
504.907	97.31
505.123	91.31
505.34	90.31
505.557	94.31
505.773	95.31
505.99	94.31
506.207	98.31
506.423	88.31
506.64	95.31
506.856	96.31
507.073	87.31
507.289	90.31
507.506	100.31
507.722	101.31
507.939	98.31
508.155	87.31
508.372	91.31
508.588	101.31
508.805	92.31
509.021	91.31
509.238	87.31
509.454	98.31
509.67	110.31
509.887	118.31
510.103	132.31
510.319	194.31
510.536	723.31
510.752	2136.31
510.968	602.31
511.184	131.31
511.401	121.31
511.617	97.31
511.833	98.31
512.049	83.31
512.265	102.31
512.481	98.31
512.698	90.31
512.914	98.31
513.13	93.31
513.346	78.31
513.562	98.31
513.778	100.31
513.994	114.31
514.21	103.31
514.426	119.31
514.642	111.31
514.858	122.31
515.074	147.31
515.29	416.31
515.506	1284.31
