Data from Uncirc_1992_H10_HRD10591_00085.txt Node
Date: Wed Jan 03 11:46:33 EST 2024
User: Yrep
Spectrometer: HR+D1059
Trigger mode: 1
Integration Time (sec): 1.000000E-1
Scans to average: 1
Electric dark correction enabled: true
Nonlinearity correction enabled: false
Boxcar width: 0
XAxis mode: Wavelengths
Number of Pixels in Spectrum: 2048
>>>>>Begin Spectral Data<<<<<
223.165	-14.12
223.4	-14.12
223.635	-14.12
223.869	-18.12
224.104	-24.12
224.338	-10.12
224.573	-14.12
224.808	-22.12
225.042	-15.12
225.277	-1.12
225.511	0.88
225.746	10.88
225.98	3.88
226.215	16.88
226.449	8.88
226.683	17.88
226.918	27.88
227.152	31.88
227.387	28.88
227.621	32.88
227.856	38.88
228.09	34.88
228.324	59.88
228.559	60.88
228.793	51.88
229.027	65.88
229.262	74.88
229.496	79.88
229.73	66.88
229.964	77.88
230.199	80.88
230.433	59.88
230.667	80.88
230.901	75.88
231.136	88.88
231.37	78.88
231.604	68.88
231.838	78.88
232.072	76.88
232.306	81.88
232.541	71.88
232.775	86.88
233.009	75.88
233.243	76.88
233.477	86.88
233.711	66.88
233.945	81.88
234.179	75.88
234.413	74.88
234.647	82.88
234.881	87.88
235.115	75.88
235.349	69.88
235.583	94.88
235.817	81.88
236.051	75.88
236.285	67.88
236.519	81.88
236.753	79.88
236.987	63.88
237.221	68.88
237.455	83.88
237.689	83.88
237.922	71.88
238.156	83.88
238.39	83.88
238.624	68.88
238.858	88.88
239.091	71.88
239.325	66.88
239.559	82.88
239.793	81.88
240.027	77.88
240.26	69.88
240.494	78.88
240.728	75.88
240.961	64.88
241.195	78.88
241.429	67.88
241.662	74.88
241.896	78.88
242.13	72.88
242.363	73.88
242.597	81.88
242.83	70.88
243.064	65.88
243.298	73.88
243.531	67.88
243.765	96.88
243.998	89.88
244.232	83.88
244.465	71.88
244.699	86.88
244.932	67.88
245.166	68.88
245.399	74.88
245.633	81.88
245.866	82.88
246.099	65.88
246.333	62.88
246.566	58.88
246.8	88.88
247.033	78.88
247.266	69.88
247.5	75.88
247.733	73.88
247.966	86.88
248.2	88.88
248.433	82.88
248.666	83.88
248.899	73.88
249.133	89.88
249.366	102.88
249.599	99.88
249.832	82.88
250.066	84.88
250.299	98.88
250.532	73.88
250.765	72.88
250.998	85.88
251.231	98.88
251.465	79.88
251.698	75.88
251.931	81.88
252.164	74.88
252.397	73.88
252.63	89.88
252.863	85.88
253.096	80.88
253.329	72.88
253.562	75.88
253.795	81.88
254.028	85.88
254.261	75.88
254.494	87.88
254.727	85.88
254.96	71.88
255.193	79.88
255.426	68.88
255.659	61.88
255.892	82.88
256.124	77.88
256.357	79.88
256.59	83.88
256.823	78.88
257.056	95.88
257.289	95.88
257.521	91.88
257.754	80.88
257.987	95.88
258.22	65.88
258.452	82.88
258.685	93.88
258.918	78.88
259.151	71.88
259.383	84.88
259.616	85.88
259.849	80.88
260.081	67.88
260.314	64.88
260.547	90.88
260.779	64.88
261.012	72.88
261.244	79.88
261.477	99.88
261.71	99.88
261.942	93.88
262.175	90.88
262.407	84.88
262.64	79.88
262.872	74.88
263.105	88.88
263.337	83.88
263.57	66.88
263.802	82.88
264.035	98.88
264.267	84.88
264.499	77.88
264.732	77.88
264.964	77.88
265.197	80.88
265.429	90.88
265.661	75.88
265.894	80.88
266.126	78.88
266.358	84.88
266.591	92.88
266.823	75.88
267.055	83.88
267.287	78.88
267.52	82.88
267.752	83.88
267.984	88.88
268.216	67.88
268.448	85.88
268.681	76.88
268.913	76.88
269.145	78.88
269.377	65.88
269.609	72.88
269.841	87.88
270.073	94.88
270.306	73.88
270.538	76.88
270.77	83.88
271.002	80.88
271.234	87.88
271.466	90.88
271.698	77.88
271.93	89.88
272.162	75.88
272.394	82.88
272.626	84.88
272.858	84.88
273.09	82.88
273.322	77.88
273.553	79.88
273.785	94.88
274.017	91.88
274.249	95.88
274.481	85.88
274.713	83.88
274.945	79.88
275.176	89.88
275.408	79.88
275.64	91.88
275.872	80.88
276.104	90.88
276.335	86.88
276.567	92.88
276.799	100.88
277.031	95.88
277.262	87.88
277.494	79.88
277.726	84.88
277.957	96.88
278.189	80.88
278.421	78.88
278.652	85.88
278.884	84.88
279.115	75.88
279.347	71.88
279.579	92.88
279.81	83.88
280.042	79.88
280.273	79.88
280.505	77.88
280.736	85.88
280.968	87.88
281.199	89.88
281.431	91.88
281.662	91.88
281.894	88.88
282.125	91.88
282.356	121.88
282.588	105.88
282.819	94.88
283.051	85.88
283.282	81.88
283.513	91.88
283.745	93.88
283.976	79.88
284.207	95.88
284.439	80.88
284.67	77.88
284.901	80.88
285.132	98.88
285.364	76.88
285.595	74.88
285.826	92.88
286.057	94.88
286.288	76.88
286.52	87.88
286.751	83.88
286.982	87.88
287.213	89.88
287.444	81.88
287.675	75.88
287.906	74.88
288.138	88.88
288.369	88.88
288.6	92.88
288.831	83.88
289.062	85.88
289.293	87.88
289.524	86.88
289.755	93.88
289.986	89.88
290.217	69.88
290.448	98.88
290.679	90.88
290.91	80.88
291.141	77.88
291.371	82.88
291.602	78.88
291.833	95.88
292.064	97.88
292.295	100.88
292.526	84.88
292.757	92.88
292.987	81.88
293.218	83.88
293.449	91.88
293.68	104.88
293.91	83.88
294.141	88.88
294.372	81.88
294.603	86.88
294.833	103.88
295.064	83.88
295.295	81.88
295.525	90.88
295.756	95.88
295.987	114.88
296.217	141.88
296.448	107.88
296.679	89.88
296.909	89.88
297.14	91.88
297.37	92.88
297.601	95.88
297.831	88.88
298.062	95.88
298.292	86.88
298.523	88.88
298.753	78.88
298.984	85.88
299.214	79.88
299.445	82.88
299.675	95.88
299.905	87.88
300.136	75.88
300.366	87.88
300.597	91.88
300.827	98.88
301.057	93.88
301.288	103.88
301.518	83.88
301.748	71.88
301.979	98.88
302.209	92.88
302.439	79.88
302.669	98.88
302.9	98.88
303.13	95.88
303.36	98.88
303.59	95.88
303.82	112.88
304.051	88.88
304.281	84.88
304.511	92.88
304.741	78.88
304.971	79.88
305.201	92.88
305.431	84.88
305.661	85.88
305.891	81.88
306.121	91.88
306.352	100.88
306.582	89.88
306.812	85.88
307.042	89.88
307.272	96.88
307.502	87.88
307.731	92.88
307.961	89.88
308.191	97.88
308.421	88.88
308.651	101.88
308.881	91.88
309.111	92.88
309.341	106.88
309.571	85.88
309.8	95.88
310.03	83.88
310.26	89.88
310.49	90.88
310.72	107.88
310.949	104.88
311.179	100.88
311.409	87.88
311.639	95.88
311.868	88.88
312.098	96.88
312.328	103.88
312.557	98.88
312.787	106.88
313.017	101.88
313.246	94.88
313.476	97.88
313.706	85.88
313.935	94.88
314.165	93.88
314.394	94.88
314.624	102.88
314.853	83.88
315.083	84.88
315.312	93.88
315.542	92.88
315.771	98.88
316.001	80.88
316.23	79.88
316.46	92.88
316.689	84.88
316.919	100.88
317.148	89.88
317.377	93.88
317.607	93.88
317.836	88.88
318.065	81.88
318.295	82.88
318.524	79.88
318.753	84.88
318.983	98.88
319.212	109.88
319.441	102.88
319.67	101.88
319.9	101.88
320.129	78.88
320.358	93.88
320.587	82.88
320.816	98.88
321.046	94.88
321.275	113.88
321.504	107.88
321.733	90.88
321.962	80.88
322.191	89.88
322.42	79.88
322.649	86.88
322.878	96.88
323.108	108.88
323.337	109.88
323.566	115.88
323.795	145.88
324.024	196.88
324.253	331.88
324.482	742.88
324.71	1488.88
324.939	1921.88
325.168	699.88
325.397	218.88
325.626	142.88
325.855	129.88
326.084	112.88
326.313	128.88
326.542	138.88
326.77	213.88
326.999	419.88
327.228	826.88
327.457	1497.88
327.686	1191.88
327.914	306.88
328.143	160.88
328.372	141.88
328.6	128.88
328.829	106.88
329.058	113.88
329.287	116.88
329.515	110.88
329.744	104.88
329.972	96.88
330.201	101.88
330.43	106.88
330.658	114.88
330.887	139.88
331.115	121.88
331.344	96.88
331.572	81.88
331.801	98.88
332.03	91.88
332.258	92.88
332.486	87.88
332.715	81.88
332.943	82.88
333.172	76.88
333.4	93.88
333.629	100.88
333.857	113.88
334.085	104.88
334.314	101.88
334.542	103.88
334.771	100.88
334.999	103.88
335.227	95.88
335.455	91.88
335.684	99.88
335.912	106.88
336.14	95.88
336.369	93.88
336.597	95.88
336.825	90.88
337.053	104.88
337.281	95.88
337.51	96.88
337.738	78.88
337.966	90.88
338.194	91.88
338.422	104.88
338.65	100.88
338.878	90.88
339.106	97.88
339.334	85.88
339.562	93.88
339.79	94.88
340.018	112.88
340.246	100.88
340.474	83.88
340.702	91.88
340.93	93.88
341.158	100.88
341.386	94.88
341.614	83.88
341.842	88.88
342.07	101.88
342.298	90.88
342.526	99.88
342.754	78.88
342.981	95.88
343.209	90.88
343.437	92.88
343.665	89.88
343.893	89.88
344.12	86.88
344.348	79.88
344.576	82.88
344.804	77.88
345.031	94.88
345.259	90.88
345.487	93.88
345.714	85.88
345.942	92.88
346.17	95.88
346.397	83.88
346.625	82.88
346.853	93.88
347.08	83.88
347.308	89.88
347.535	88.88
347.763	98.88
347.99	99.88
348.218	106.88
348.445	108.88
348.673	96.88
348.9	91.88
349.128	79.88
349.355	96.88
349.583	81.88
349.81	83.88
350.037	94.88
350.265	101.88
350.492	88.88
350.72	78.88
350.947	95.88
351.174	99.88
351.402	106.88
351.629	91.88
351.856	98.88
352.083	105.88
352.311	103.88
352.538	104.88
352.765	96.88
352.992	100.88
353.22	116.88
353.447	94.88
353.674	87.88
353.901	99.88
354.128	96.88
354.355	107.88
354.583	96.88
354.81	97.88
355.037	79.88
355.264	98.88
355.491	95.88
355.718	96.88
355.945	87.88
356.172	87.88
356.399	89.88
356.626	91.88
356.853	87.88
357.08	88.88
357.307	82.88
357.534	95.88
357.761	98.88
357.988	91.88
358.215	90.88
358.441	77.88
358.668	83.88
358.895	83.88
359.122	83.88
359.349	93.88
359.576	97.88
359.802	84.88
360.029	96.88
360.256	103.88
360.483	88.88
360.709	95.88
360.936	97.88
361.163	84.88
361.39	96.88
361.616	80.88
361.843	85.88
362.07	77.88
362.296	84.88
362.523	90.88
362.749	83.88
362.976	88.88
363.203	95.88
363.429	92.88
363.656	92.88
363.882	80.88
364.109	84.88
364.335	90.88
364.562	83.88
364.788	94.88
365.015	92.88
365.241	93.88
365.468	99.88
365.694	103.88
365.92	90.88
366.147	94.88
366.373	77.88
366.599	98.88
366.826	84.88
367.052	87.88
367.278	90.88
367.505	89.88
367.731	91.88
367.957	86.88
368.184	80.88
368.41	84.88
368.636	110.88
368.862	119.88
369.089	111.88
369.315	90.88
369.541	95.88
369.767	93.88
369.993	95.88
370.219	98.88
370.445	70.88
370.672	82.88
370.898	91.88
371.124	82.88
371.35	89.88
371.576	89.88
371.802	80.88
372.028	92.88
372.254	63.88
372.48	78.88
372.706	93.88
372.932	100.88
373.158	80.88
373.384	88.88
373.61	78.88
373.835	88.88
374.061	87.88
374.287	98.88
374.513	98.88
374.739	96.88
374.965	79.88
375.191	91.88
375.416	92.88
375.642	85.88
375.868	88.88
376.094	78.88
376.319	77.88
376.545	100.88
376.771	100.88
376.997	91.88
377.222	86.88
377.448	89.88
377.674	82.88
377.899	88.88
378.125	95.88
378.35	74.88
378.576	84.88
378.802	93.88
379.027	94.88
379.253	97.88
379.478	102.88
379.704	90.88
379.929	92.88
380.155	81.88
380.38	82.88
380.606	81.88
380.831	106.88
381.057	101.88
381.282	93.88
381.507	99.88
381.733	113.88
381.958	85.88
382.184	98.88
382.409	88.88
382.634	90.88
382.86	87.88
383.085	98.88
383.31	103.88
383.535	102.88
383.761	91.88
383.986	88.88
384.211	88.88
384.436	95.88
384.662	91.88
384.887	100.88
385.112	96.88
385.337	87.88
385.562	104.88
385.787	100.88
386.013	96.88
386.238	114.88
386.463	98.88
386.688	101.88
386.913	92.88
387.138	96.88
387.363	94.88
387.588	97.88
387.813	84.88
388.038	94.88
388.263	101.88
388.488	101.88
388.713	92.88
388.938	89.88
389.163	80.88
389.387	99.88
389.612	78.88
389.837	72.88
390.062	82.88
390.287	93.88
390.512	77.88
390.736	98.88
390.961	96.88
391.186	89.88
391.411	75.88
391.636	93.88
391.86	83.88
392.085	86.88
392.31	86.88
392.534	79.88
392.759	83.88
392.984	97.88
393.208	96.88
393.433	102.88
393.658	89.88
393.882	93.88
394.107	87.88
394.331	95.88
394.556	80.88
394.78	90.88
395.005	91.88
395.229	87.88
395.454	86.88
395.678	79.88
395.903	82.88
396.127	89.88
396.352	91.88
396.576	81.88
396.801	96.88
397.025	89.88
397.249	97.88
397.474	88.88
397.698	84.88
397.922	91.88
398.147	82.88
398.371	78.88
398.595	86.88
398.82	87.88
399.044	84.88
399.268	87.88
399.492	77.88
399.717	83.88
399.941	87.88
400.165	91.88
400.389	97.88
400.613	91.88
400.837	92.88
401.062	81.88
401.286	76.88
401.51	94.88
401.734	83.88
401.958	97.88
402.182	115.88
402.406	138.88
402.63	108.88
402.854	86.88
403.078	81.88
403.302	90.88
403.526	82.88
403.75	85.88
403.974	78.88
404.198	72.88
404.422	73.88
404.645	84.88
404.869	100.88
405.093	76.88
405.317	90.88
405.541	108.88
405.765	89.88
405.988	112.88
406.212	157.88
406.436	204.88
406.66	148.88
406.883	94.88
407.107	79.88
407.331	88.88
407.555	90.88
407.778	92.88
408.002	83.88
408.226	88.88
408.449	87.88
408.673	75.88
408.896	97.88
409.12	82.88
409.344	101.88
409.567	105.88
409.791	91.88
410.014	100.88
410.238	103.88
410.461	78.88
410.685	100.88
410.908	90.88
411.132	101.88
411.355	95.88
411.578	88.88
411.802	79.88
412.025	78.88
412.249	87.88
412.472	100.88
412.695	79.88
412.919	88.88
413.142	89.88
413.365	99.88
413.589	88.88
413.812	95.88
414.035	86.88
414.258	83.88
414.482	82.88
414.705	83.88
414.928	93.88
415.151	86.88
415.374	99.88
415.597	90.88
415.821	77.88
416.044	91.88
416.267	88.88
416.49	72.88
416.713	86.88
416.936	87.88
417.159	60.88
417.382	80.88
417.605	93.88
417.828	88.88
418.051	93.88
418.274	82.88
418.497	68.88
418.72	82.88
418.943	85.88
419.166	92.88
419.389	79.88
419.611	93.88
419.834	89.88
420.057	83.88
420.28	97.88
420.503	83.88
420.726	97.88
420.948	75.88
421.171	95.88
421.394	88.88
421.617	89.88
421.839	77.88
422.062	97.88
422.285	97.88
422.507	88.88
422.73	99.88
422.953	82.88
423.175	77.88
423.398	85.88
423.621	92.88
423.843	89.88
424.066	86.88
424.288	80.88
424.511	80.88
424.733	88.88
424.956	99.88
425.178	88.88
425.401	100.88
425.623	84.88
425.846	84.88
426.068	90.88
426.291	98.88
426.513	86.88
426.735	79.88
426.958	87.88
427.18	106.88
427.402	115.88
427.625	141.88
427.847	124.88
428.069	91.88
428.292	89.88
428.514	77.88
428.736	83.88
428.958	79.88
429.181	81.88
429.403	78.88
429.625	73.88
429.847	86.88
430.069	93.88
430.292	91.88
430.514	85.88
430.736	93.88
430.958	87.88
431.18	81.88
431.402	96.88
431.624	77.88
431.846	84.88
432.068	73.88
432.29	89.88
432.512	85.88
432.734	87.88
432.956	99.88
433.178	84.88
433.4	93.88
433.622	84.88
433.844	86.88
434.066	91.88
434.287	90.88
434.509	85.88
434.731	90.88
434.953	79.88
435.175	92.88
435.397	75.88
435.618	93.88
435.84	107.88
436.062	122.88
436.284	92.88
436.505	85.88
436.727	101.88
436.949	88.88
437.17	90.88
437.392	75.88
437.614	88.88
437.835	99.88
438.057	103.88
438.278	85.88
438.5	98.88
438.721	112.88
438.943	91.88
439.165	84.88
439.386	82.88
439.608	89.88
439.829	87.88
440.05	114.88
440.272	121.88
440.493	96.88
440.715	81.88
440.936	80.88
441.158	89.88
441.379	65.88
441.6	96.88
441.822	88.88
442.043	89.88
442.264	95.88
442.486	99.88
442.707	78.88
442.928	88.88
443.149	109.88
443.371	116.88
443.592	106.88
443.813	103.88
444.034	96.88
444.255	81.88
444.476	90.88
444.698	87.88
444.919	91.88
445.14	111.88
445.361	111.88
445.582	122.88
445.803	115.88
446.024	116.88
446.245	115.88
446.466	96.88
446.687	100.88
446.908	89.88
447.129	78.88
447.35	75.88
447.571	99.88
447.792	99.88
448.013	94.88
448.234	83.88
448.455	90.88
448.675	100.88
448.896	99.88
449.117	93.88
449.338	103.88
449.559	117.88
449.779	126.88
450	87.88
450.221	92.88
450.442	84.88
450.662	98.88
450.883	90.88
451.104	107.88
451.324	104.88
451.545	87.88
451.766	91.88
451.986	78.88
452.207	95.88
452.428	79.88
452.648	98.88
452.869	115.88
453.089	131.88
453.31	107.88
453.53	95.88
453.751	93.88
453.971	100.88
454.192	99.88
454.412	97.88
454.633	80.88
454.853	83.88
455.073	90.88
455.294	85.88
455.514	93.88
455.734	88.88
455.955	81.88
456.175	82.88
456.395	95.88
456.616	87.88
456.836	77.88
457.056	91.88
457.276	78.88
457.497	78.88
457.717	83.88
457.937	78.88
458.157	74.88
458.377	85.88
458.598	98.88
458.818	132.88
459.038	152.88
459.258	101.88
459.478	93.88
459.698	82.88
459.918	83.88
460.138	78.88
460.358	80.88
460.578	81.88
460.798	83.88
461.018	97.88
461.238	85.88
461.458	83.88
461.678	90.88
461.898	84.88
462.118	84.88
462.338	90.88
462.558	99.88
462.777	79.88
462.997	91.88
463.217	91.88
463.437	106.88
463.657	96.88
463.876	85.88
464.096	83.88
464.316	84.88
464.536	91.88
464.755	89.88
464.975	108.88
465.195	157.88
465.414	152.88
465.634	81.88
465.854	94.88
466.073	86.88
466.293	73.88
466.512	87.88
466.732	85.88
466.951	66.88
467.171	86.88
467.391	90.88
467.61	98.88
467.829	85.88
468.049	98.88
468.268	83.88
468.488	87.88
468.707	84.88
468.927	81.88
469.146	72.88
469.365	64.88
469.585	81.88
469.804	99.88
470.023	79.88
470.243	94.88
470.462	90.88
470.681	90.88
470.901	87.88
471.12	95.88
471.339	76.88
471.558	80.88
471.777	83.88
471.997	79.88
472.216	91.88
472.435	95.88
472.654	85.88
472.873	86.88
473.092	87.88
473.311	76.88
473.53	85.88
473.749	91.88
473.968	94.88
474.187	108.88
474.406	88.88
474.625	84.88
474.844	86.88
475.063	91.88
475.282	85.88
475.501	95.88
475.72	85.88
475.939	80.88
476.158	82.88
476.377	75.88
476.596	83.88
476.814	98.88
477.033	111.88
477.252	86.88
477.471	75.88
477.69	82.88
477.908	86.88
478.127	97.88
478.346	99.88
478.564	105.88
478.783	96.88
479.002	98.88
479.22	94.88
479.439	85.88
479.658	112.88
479.876	109.88
480.095	85.88
480.313	88.88
480.532	81.88
480.751	89.88
480.969	88.88
481.188	94.88
481.406	88.88
481.624	93.88
481.843	83.88
482.061	80.88
482.28	80.88
482.498	84.88
482.717	81.88
482.935	85.88
483.153	81.88
483.372	83.88
483.59	78.88
483.808	91.88
484.027	99.88
484.245	84.88
484.463	94.88
484.681	95.88
484.9	83.88
485.118	95.88
485.336	86.88
485.554	94.88
485.772	88.88
485.99	114.88
486.209	105.88
486.427	91.88
486.645	117.88
486.863	117.88
487.081	95.88
487.299	94.88
487.517	80.88
487.735	92.88
487.953	90.88
488.171	97.88
488.389	80.88
488.607	83.88
488.825	81.88
489.043	91.88
489.261	84.88
489.479	81.88
489.696	79.88
489.914	89.88
490.132	91.88
490.35	90.88
490.568	101.88
490.786	87.88
491.003	91.88
491.221	89.88
491.439	86.88
491.657	85.88
491.874	96.88
492.092	96.88
492.31	77.88
492.527	78.88
492.745	87.88
492.963	97.88
493.18	84.88
493.398	93.88
493.615	101.88
493.833	87.88
494.05	89.88
494.268	92.88
494.485	80.88
494.703	93.88
494.92	88.88
495.138	78.88
495.355	89.88
495.573	96.88
495.79	78.88
496.008	95.88
496.225	85.88
496.442	86.88
496.66	99.88
496.877	87.88
497.094	89.88
497.312	87.88
497.529	100.88
497.746	91.88
497.963	92.88
498.181	89.88
498.398	78.88
498.615	95.88
498.832	97.88
499.049	83.88
499.267	109.88
499.484	88.88
499.701	99.88
499.918	99.88
500.135	98.88
500.352	84.88
500.569	88.88
500.786	92.88
501.003	95.88
501.22	81.88
501.437	88.88
501.654	96.88
501.871	104.88
502.088	96.88
502.305	89.88
502.522	96.88
502.739	104.88
502.956	87.88
503.172	84.88
503.389	74.88
503.606	108.88
503.823	90.88
504.04	79.88
504.256	83.88
504.473	69.88
504.69	93.88
504.907	85.88
505.123	88.88
505.34	87.88
505.557	87.88
505.773	87.88
505.99	89.88
506.207	79.88
506.423	76.88
506.64	83.88
506.856	87.88
507.073	75.88
507.289	96.88
507.506	100.88
507.722	116.88
507.939	101.88
508.155	95.88
508.372	93.88
508.588	107.88
508.805	99.88
509.021	99.88
509.238	97.88
509.454	82.88
509.67	101.88
509.887	101.88
510.103	137.88
510.319	193.88
510.536	704.88
510.752	2128.88
510.968	579.88
511.184	133.88
511.401	96.88
511.617	99.88
511.833	85.88
512.049	80.88
512.265	79.88
512.481	84.88
512.698	90.88
512.914	106.88
513.13	86.88
513.346	99.88
513.562	109.88
513.778	101.88
513.994	91.88
514.21	100.88
514.426	109.88
514.642	130.88
514.858	121.88
515.074	163.88
515.29	375.88
515.506	1307.88
515.721	493.88
515.937	139.88
516.153	103.88
516.369	114.88
516.585	92.88
516.801	95.88
517.016	100.88
