Data from Uncirc_1992_H10_HRD10591_00029.txt Node
Date: Wed Jan 03 11:46:22 EST 2024
User: Yrep
Spectrometer: HR+D1059
Trigger mode: 1
Integration Time (sec): 1.000000E-1
Scans to average: 1
Electric dark correction enabled: true
Nonlinearity correction enabled: false
Boxcar width: 0
XAxis mode: Wavelengths
Number of Pixels in Spectrum: 2048
>>>>>Begin Spectral Data<<<<<
223.165	-10.94
223.4	-10.94
223.635	-10.94
223.869	-20.94
224.104	-17.94
224.338	-14.94
224.573	-18.94
224.808	-11.94
225.042	-5.94
225.277	-1.94
225.511	-5.94
225.746	4.06
225.98	6.06
226.215	24.06
226.449	10.06
226.683	15.06
226.918	10.06
227.152	40.06
227.387	38.06
227.621	39.06
227.856	51.06
228.09	52.06
228.324	60.06
228.559	54.06
228.793	42.06
229.027	67.06
229.262	66.06
229.496	77.06
229.73	79.06
229.964	75.06
230.199	69.06
230.433	76.06
230.667	68.06
230.901	82.06
231.136	91.06
231.37	90.06
231.604	77.06
231.838	75.06
232.072	81.06
232.306	86.06
232.541	83.06
232.775	89.06
233.009	92.06
233.243	88.06
233.477	73.06
233.711	77.06
233.945	84.06
234.179	87.06
234.413	75.06
234.647	77.06
234.881	81.06
235.115	80.06
235.349	75.06
235.583	74.06
235.817	67.06
236.051	77.06
236.285	61.06
236.519	86.06
236.753	73.06
236.987	76.06
237.221	81.06
237.455	88.06
237.689	86.06
237.922	80.06
238.156	74.06
238.39	66.06
238.624	82.06
238.858	70.06
239.091	59.06
239.325	67.06
239.559	82.06
239.793	89.06
240.027	78.06
240.26	83.06
240.494	68.06
240.728	82.06
240.961	74.06
241.195	87.06
241.429	76.06
241.662	84.06
241.896	86.06
242.13	80.06
242.363	88.06
242.597	80.06
242.83	87.06
243.064	70.06
243.298	81.06
243.531	81.06
243.765	83.06
243.998	81.06
244.232	76.06
244.465	82.06
244.699	85.06
244.932	77.06
245.166	70.06
245.399	84.06
245.633	79.06
245.866	75.06
246.099	77.06
246.333	73.06
246.566	83.06
246.8	73.06
247.033	76.06
247.266	59.06
247.5	64.06
247.733	65.06
247.966	70.06
248.2	78.06
248.433	74.06
248.666	80.06
248.899	81.06
249.133	84.06
249.366	95.06
249.599	100.06
249.832	90.06
250.066	86.06
250.299	88.06
250.532	90.06
250.765	72.06
250.998	76.06
251.231	69.06
251.465	84.06
251.698	80.06
251.931	52.06
252.164	100.06
252.397	75.06
252.63	80.06
252.863	74.06
253.096	69.06
253.329	73.06
253.562	82.06
253.795	89.06
254.028	69.06
254.261	90.06
254.494	95.06
254.727	83.06
254.96	62.06
255.193	74.06
255.426	80.06
255.659	65.06
255.892	83.06
256.124	82.06
256.357	68.06
256.59	74.06
256.823	90.06
257.056	85.06
257.289	74.06
257.521	85.06
257.754	71.06
257.987	80.06
258.22	72.06
258.452	86.06
258.685	82.06
258.918	88.06
259.151	69.06
259.383	88.06
259.616	86.06
259.849	79.06
260.081	78.06
260.314	98.06
260.547	91.06
260.779	74.06
261.012	87.06
261.244	78.06
261.477	81.06
261.71	95.06
261.942	95.06
262.175	99.06
262.407	82.06
262.64	86.06
262.872	70.06
263.105	78.06
263.337	80.06
263.57	92.06
263.802	85.06
264.035	84.06
264.267	80.06
264.499	83.06
264.732	94.06
264.964	93.06
265.197	88.06
265.429	102.06
265.661	76.06
265.894	85.06
266.126	106.06
266.358	74.06
266.591	91.06
266.823	93.06
267.055	82.06
267.287	84.06
267.52	99.06
267.752	70.06
267.984	92.06
268.216	86.06
268.448	92.06
268.681	79.06
268.913	91.06
269.145	85.06
269.377	78.06
269.609	91.06
269.841	76.06
270.073	95.06
270.306	85.06
270.538	72.06
270.77	85.06
271.002	84.06
271.234	87.06
271.466	80.06
271.698	91.06
271.93	83.06
272.162	97.06
272.394	101.06
272.626	92.06
272.858	81.06
273.09	73.06
273.322	84.06
273.553	87.06
273.785	84.06
274.017	62.06
274.249	88.06
274.481	77.06
274.713	88.06
274.945	82.06
275.176	85.06
275.408	96.06
275.64	97.06
275.872	97.06
276.104	85.06
276.335	82.06
276.567	105.06
276.799	105.06
277.031	95.06
277.262	78.06
277.494	89.06
277.726	80.06
277.957	82.06
278.189	90.06
278.421	86.06
278.652	88.06
278.884	96.06
279.115	85.06
279.347	92.06
279.579	86.06
279.81	73.06
280.042	91.06
280.273	76.06
280.505	82.06
280.736	91.06
280.968	76.06
281.199	86.06
281.431	84.06
281.662	78.06
281.894	85.06
282.125	97.06
282.356	118.06
282.588	128.06
282.819	94.06
283.051	104.06
283.282	90.06
283.513	93.06
283.745	90.06
283.976	71.06
284.207	75.06
284.439	96.06
284.67	87.06
284.901	85.06
285.132	105.06
285.364	94.06
285.595	92.06
285.826	84.06
286.057	82.06
286.288	78.06
286.52	92.06
286.751	87.06
286.982	89.06
287.213	83.06
287.444	81.06
287.675	86.06
287.906	97.06
288.138	98.06
288.369	87.06
288.6	98.06
288.831	105.06
289.062	94.06
289.293	103.06
289.524	88.06
289.755	94.06
289.986	84.06
290.217	70.06
290.448	100.06
290.679	84.06
290.91	93.06
291.141	85.06
291.371	95.06
291.602	96.06
291.833	69.06
292.064	81.06
292.295	77.06
292.526	74.06
292.757	88.06
292.987	82.06
293.218	100.06
293.449	86.06
293.68	85.06
293.91	100.06
294.141	84.06
294.372	101.06
294.603	93.06
294.833	82.06
295.064	83.06
295.295	94.06
295.525	87.06
295.756	80.06
295.987	111.06
296.217	125.06
296.448	114.06
296.679	98.06
296.909	104.06
297.14	86.06
297.37	98.06
297.601	91.06
297.831	95.06
298.062	79.06
298.292	85.06
298.523	92.06
298.753	102.06
298.984	89.06
299.214	94.06
299.445	82.06
299.675	85.06
299.905	95.06
300.136	84.06
300.366	97.06
300.597	102.06
300.827	98.06
301.057	91.06
301.288	99.06
301.518	90.06
301.748	82.06
301.979	85.06
302.209	80.06
302.439	86.06
302.669	89.06
302.9	94.06
303.13	96.06
303.36	91.06
303.59	99.06
303.82	102.06
304.051	90.06
304.281	79.06
304.511	87.06
304.741	82.06
304.971	92.06
305.201	98.06
305.431	91.06
305.661	94.06
305.891	89.06
306.121	91.06
306.352	96.06
306.582	84.06
306.812	84.06
307.042	98.06
307.272	94.06
307.502	109.06
307.731	87.06
307.961	93.06
308.191	89.06
308.421	86.06
308.651	86.06
308.881	94.06
309.111	93.06
309.341	96.06
309.571	87.06
309.8	91.06
310.03	103.06
310.26	106.06
310.49	98.06
310.72	92.06
310.949	97.06
311.179	95.06
311.409	93.06
311.639	99.06
311.868	100.06
312.098	102.06
312.328	93.06
312.557	114.06
312.787	102.06
313.017	91.06
313.246	95.06
313.476	92.06
313.706	93.06
313.935	100.06
314.165	97.06
314.394	89.06
314.624	100.06
314.853	110.06
315.083	88.06
315.312	86.06
315.542	74.06
315.771	100.06
316.001	86.06
316.23	70.06
316.46	85.06
316.689	100.06
316.919	85.06
317.148	89.06
317.377	105.06
317.607	92.06
317.836	81.06
318.065	92.06
318.295	76.06
318.524	86.06
318.753	99.06
318.983	100.06
319.212	80.06
319.441	97.06
319.67	99.06
319.9	84.06
320.129	92.06
320.358	93.06
320.587	82.06
320.816	101.06
321.046	91.06
321.275	97.06
321.504	85.06
321.733	95.06
321.962	93.06
322.191	102.06
322.42	105.06
322.649	98.06
322.878	106.06
323.108	100.06
323.337	114.06
323.566	111.06
323.795	129.06
324.024	153.06
324.253	311.06
324.482	666.06
324.71	1299.06
324.939	1690.06
325.168	648.06
325.397	199.06
325.626	148.06
325.855	112.06
326.084	115.06
326.313	142.06
326.542	140.06
326.77	205.06
326.999	407.06
327.228	774.06
327.457	1377.06
327.686	1074.06
327.914	296.06
328.143	156.06
328.372	145.06
328.6	120.06
328.829	116.06
329.058	111.06
329.287	113.06
329.515	105.06
329.744	95.06
329.972	97.06
330.201	83.06
330.43	113.06
330.658	110.06
330.887	128.06
331.115	118.06
331.344	97.06
331.572	96.06
331.801	94.06
332.03	92.06
332.258	104.06
332.486	81.06
332.715	96.06
332.943	83.06
333.172	97.06
333.4	95.06
333.629	97.06
333.857	102.06
334.085	99.06
334.314	83.06
334.542	77.06
334.771	85.06
334.999	89.06
335.227	99.06
335.455	88.06
335.684	104.06
335.912	84.06
336.14	86.06
336.369	99.06
336.597	93.06
336.825	90.06
337.053	96.06
337.281	96.06
337.51	82.06
337.738	90.06
337.966	88.06
338.194	94.06
338.422	90.06
338.65	101.06
338.878	92.06
339.106	88.06
339.334	107.06
339.562	96.06
339.79	85.06
340.018	91.06
340.246	95.06
340.474	81.06
340.702	93.06
340.93	100.06
341.158	96.06
341.386	95.06
341.614	95.06
341.842	97.06
342.07	97.06
342.298	82.06
342.526	97.06
342.754	84.06
342.981	86.06
343.209	95.06
343.437	110.06
343.665	80.06
343.893	87.06
344.12	88.06
344.348	82.06
344.576	86.06
344.804	74.06
345.031	89.06
345.259	102.06
345.487	88.06
345.714	92.06
345.942	94.06
346.17	74.06
346.397	94.06
346.625	97.06
346.853	90.06
347.08	105.06
347.308	94.06
347.535	97.06
347.763	95.06
347.99	95.06
348.218	84.06
348.445	102.06
348.673	93.06
348.9	84.06
349.128	79.06
349.355	91.06
349.583	89.06
349.81	91.06
350.037	97.06
350.265	85.06
350.492	95.06
350.72	89.06
350.947	107.06
351.174	106.06
351.402	107.06
351.629	99.06
351.856	103.06
352.083	96.06
352.311	92.06
352.538	109.06
352.765	87.06
352.992	118.06
353.22	104.06
353.447	97.06
353.674	109.06
353.901	93.06
354.128	93.06
354.355	95.06
354.583	91.06
354.81	96.06
355.037	96.06
355.264	94.06
355.491	97.06
355.718	89.06
355.945	117.06
356.172	94.06
356.399	86.06
356.626	86.06
356.853	78.06
357.08	90.06
357.307	93.06
357.534	89.06
357.761	85.06
357.988	80.06
358.215	95.06
358.441	85.06
358.668	90.06
358.895	98.06
359.122	94.06
359.349	88.06
359.576	95.06
359.802	92.06
360.029	99.06
360.256	110.06
360.483	86.06
360.709	82.06
360.936	86.06
361.163	92.06
361.39	90.06
361.616	90.06
361.843	90.06
362.07	66.06
362.296	101.06
362.523	89.06
362.749	88.06
362.976	100.06
363.203	89.06
363.429	95.06
363.656	88.06
363.882	95.06
364.109	99.06
364.335	85.06
364.562	94.06
364.788	73.06
365.015	74.06
365.241	94.06
365.468	104.06
365.694	92.06
365.92	89.06
366.147	86.06
366.373	99.06
366.599	92.06
366.826	86.06
367.052	106.06
367.278	80.06
367.505	92.06
367.731	116.06
367.957	85.06
368.184	97.06
368.41	92.06
368.636	103.06
368.862	114.06
369.089	101.06
369.315	94.06
369.541	95.06
369.767	92.06
369.993	96.06
370.219	83.06
370.445	86.06
370.672	96.06
370.898	82.06
371.124	103.06
371.35	95.06
371.576	88.06
371.802	85.06
372.028	84.06
372.254	84.06
372.48	80.06
372.706	86.06
372.932	106.06
373.158	74.06
373.384	97.06
373.61	92.06
373.835	96.06
374.061	92.06
374.287	81.06
374.513	89.06
374.739	94.06
374.965	89.06
375.191	82.06
375.416	81.06
375.642	86.06
375.868	92.06
376.094	98.06
376.319	88.06
376.545	78.06
376.771	77.06
376.997	76.06
377.222	93.06
377.448	89.06
377.674	80.06
377.899	98.06
378.125	106.06
378.35	84.06
378.576	82.06
378.802	70.06
379.027	93.06
379.253	97.06
379.478	97.06
379.704	94.06
379.929	90.06
380.155	81.06
380.38	98.06
380.606	86.06
380.831	83.06
381.057	82.06
381.282	99.06
381.507	102.06
381.733	95.06
381.958	90.06
382.184	93.06
382.409	93.06
382.634	95.06
382.86	101.06
383.085	81.06
383.31	85.06
383.535	96.06
383.761	83.06
383.986	100.06
384.211	92.06
384.436	90.06
384.662	88.06
384.887	101.06
385.112	92.06
385.337	93.06
385.562	98.06
385.787	93.06
386.013	95.06
386.238	108.06
386.463	110.06
386.688	90.06
386.913	88.06
387.138	92.06
387.363	96.06
387.588	91.06
387.813	101.06
388.038	100.06
388.263	114.06
388.488	101.06
388.713	94.06
388.938	86.06
389.163	102.06
389.387	93.06
389.612	92.06
389.837	80.06
390.062	100.06
390.287	81.06
390.512	77.06
390.736	92.06
390.961	89.06
391.186	75.06
391.411	103.06
391.636	87.06
391.86	87.06
392.085	88.06
392.31	74.06
392.534	105.06
392.759	99.06
392.984	85.06
393.208	94.06
393.433	94.06
393.658	66.06
393.882	81.06
394.107	85.06
394.331	81.06
394.556	97.06
394.78	100.06
395.005	84.06
395.229	85.06
395.454	93.06
395.678	70.06
395.903	88.06
396.127	84.06
396.352	96.06
396.576	72.06
396.801	109.06
397.025	86.06
397.249	91.06
397.474	93.06
397.698	88.06
397.922	74.06
398.147	67.06
398.371	95.06
398.595	83.06
398.82	92.06
399.044	91.06
399.268	77.06
399.492	80.06
399.717	90.06
399.941	90.06
400.165	89.06
400.389	87.06
400.613	84.06
400.837	82.06
401.062	76.06
401.286	97.06
401.51	82.06
401.734	93.06
401.958	101.06
402.182	128.06
402.406	128.06
402.63	108.06
402.854	85.06
403.078	87.06
403.302	88.06
403.526	97.06
403.75	78.06
403.974	82.06
404.198	102.06
404.422	89.06
404.645	83.06
404.869	89.06
405.093	87.06
405.317	83.06
405.541	74.06
405.765	95.06
405.988	103.06
406.212	149.06
406.436	184.06
406.66	123.06
406.883	97.06
407.107	90.06
407.331	86.06
407.555	96.06
407.778	84.06
408.002	91.06
408.226	89.06
408.449	81.06
408.673	82.06
408.896	81.06
409.12	76.06
409.344	96.06
409.567	107.06
409.791	94.06
410.014	100.06
410.238	81.06
410.461	85.06
410.685	93.06
410.908	102.06
411.132	103.06
411.355	96.06
411.578	94.06
411.802	99.06
412.025	66.06
412.249	90.06
412.472	88.06
412.695	94.06
412.919	100.06
413.142	84.06
413.365	80.06
413.589	82.06
413.812	85.06
414.035	80.06
414.258	93.06
414.482	85.06
414.705	78.06
414.928	81.06
415.151	93.06
415.374	86.06
415.597	90.06
415.821	94.06
416.044	90.06
416.267	87.06
416.49	85.06
416.713	82.06
416.936	103.06
417.159	88.06
417.382	91.06
417.605	92.06
417.828	89.06
418.051	88.06
418.274	92.06
418.497	84.06
418.72	87.06
418.943	96.06
419.166	88.06
419.389	72.06
419.611	88.06
419.834	90.06
420.057	96.06
420.28	80.06
420.503	93.06
420.726	91.06
420.948	85.06
421.171	72.06
421.394	74.06
421.617	94.06
421.839	90.06
422.062	91.06
422.285	76.06
422.507	102.06
422.73	87.06
422.953	81.06
423.175	89.06
423.398	100.06
423.621	85.06
423.843	95.06
424.066	97.06
424.288	106.06
424.511	87.06
424.733	107.06
424.956	103.06
425.178	82.06
425.401	90.06
425.623	100.06
425.846	91.06
426.068	100.06
426.291	80.06
426.513	96.06
426.735	88.06
426.958	95.06
427.18	101.06
427.402	115.06
427.625	143.06
427.847	118.06
428.069	93.06
428.292	86.06
428.514	78.06
428.736	86.06
428.958	84.06
429.181	79.06
429.403	95.06
429.625	99.06
429.847	99.06
430.069	104.06
430.292	72.06
430.514	85.06
430.736	82.06
430.958	94.06
431.18	91.06
431.402	86.06
431.624	88.06
431.846	68.06
432.068	92.06
432.29	85.06
432.512	96.06
432.734	86.06
432.956	80.06
433.178	91.06
433.4	86.06
433.622	96.06
433.844	84.06
434.066	89.06
434.287	87.06
434.509	92.06
434.731	95.06
434.953	89.06
435.175	79.06
435.397	91.06
435.618	87.06
435.84	104.06
436.062	104.06
436.284	110.06
436.505	106.06
436.727	97.06
436.949	78.06
437.17	98.06
437.392	81.06
437.614	68.06
437.835	92.06
438.057	105.06
438.278	96.06
438.5	101.06
438.721	107.06
438.943	90.06
439.165	78.06
439.386	71.06
439.608	92.06
439.829	86.06
440.05	126.06
440.272	123.06
440.493	102.06
440.715	77.06
440.936	90.06
441.158	92.06
441.379	89.06
441.6	84.06
441.822	88.06
442.043	95.06
442.264	101.06
442.486	81.06
442.707	91.06
442.928	96.06
443.149	127.06
443.371	112.06
443.592	98.06
443.813	101.06
444.034	98.06
444.255	98.06
444.476	74.06
444.698	86.06
444.919	83.06
445.14	131.06
445.361	116.06
445.582	102.06
445.803	125.06
446.024	128.06
446.245	105.06
446.466	105.06
446.687	96.06
446.908	88.06
447.129	84.06
447.35	80.06
447.571	90.06
447.792	89.06
448.013	94.06
448.234	94.06
448.455	96.06
448.675	121.06
448.896	96.06
449.117	93.06
449.338	100.06
449.559	115.06
449.779	123.06
450	93.06
450.221	84.06
450.442	81.06
450.662	98.06
450.883	102.06
451.104	102.06
451.324	75.06
451.545	80.06
451.766	84.06
451.986	83.06
452.207	75.06
452.428	94.06
452.648	88.06
452.869	95.06
453.089	79.06
453.31	117.06
453.53	92.06
453.751	83.06
453.971	102.06
454.192	111.06
454.412	84.06
454.633	90.06
454.853	93.06
455.073	79.06
455.294	83.06
455.514	101.06
455.734	91.06
455.955	82.06
456.175	83.06
456.395	85.06
456.616	79.06
456.836	86.06
457.056	92.06
457.276	97.06
457.497	87.06
457.717	76.06
457.937	81.06
458.157	100.06
458.377	96.06
458.598	95.06
458.818	139.06
459.038	154.06
459.258	101.06
459.478	83.06
459.698	80.06
459.918	64.06
460.138	80.06
460.358	77.06
460.578	83.06
460.798	91.06
461.018	96.06
461.238	96.06
461.458	90.06
461.678	84.06
461.898	68.06
462.118	92.06
462.338	89.06
462.558	90.06
462.777	91.06
462.997	87.06
463.217	79.06
463.437	91.06
463.657	98.06
463.876	85.06
464.096	85.06
464.316	91.06
464.536	84.06
464.755	82.06
464.975	102.06
465.195	143.06
465.414	144.06
465.634	95.06
465.854	88.06
466.073	74.06
466.293	88.06
466.512	73.06
466.732	67.06
466.951	95.06
467.171	100.06
467.391	91.06
467.61	84.06
467.829	86.06
468.049	95.06
468.268	85.06
468.488	88.06
468.707	81.06
468.927	97.06
469.146	92.06
469.365	80.06
469.585	87.06
469.804	101.06
470.023	76.06
470.243	86.06
470.462	91.06
470.681	95.06
470.901	90.06
471.12	74.06
471.339	81.06
471.558	83.06
471.777	74.06
471.997	71.06
472.216	84.06
472.435	85.06
472.654	89.06
472.873	87.06
473.092	77.06
473.311	80.06
473.53	107.06
473.749	96.06
473.968	89.06
474.187	98.06
474.406	99.06
474.625	99.06
474.844	93.06
475.063	88.06
475.282	91.06
475.501	90.06
475.72	93.06
475.939	91.06
476.158	97.06
476.377	86.06
476.596	98.06
476.814	96.06
477.033	90.06
477.252	97.06
477.471	96.06
477.69	86.06
477.908	105.06
478.127	74.06
478.346	92.06
478.564	88.06
478.783	107.06
479.002	95.06
479.22	96.06
479.439	95.06
479.658	97.06
479.876	94.06
480.095	90.06
480.313	88.06
480.532	81.06
480.751	90.06
480.969	85.06
481.188	91.06
481.406	82.06
481.624	85.06
481.843	86.06
482.061	86.06
482.28	114.06
482.498	88.06
482.717	87.06
482.935	100.06
483.153	83.06
483.372	94.06
483.59	99.06
483.808	87.06
484.027	110.06
484.245	82.06
484.463	85.06
484.681	91.06
484.9	91.06
485.118	96.06
485.336	91.06
485.554	92.06
485.772	92.06
485.99	100.06
486.209	104.06
486.427	98.06
486.645	107.06
486.863	106.06
487.081	112.06
487.299	95.06
487.517	84.06
487.735	94.06
487.953	91.06
488.171	97.06
488.389	96.06
488.607	105.06
488.825	90.06
489.043	80.06
489.261	94.06
489.479	80.06
489.696	101.06
489.914	78.06
490.132	93.06
490.35	97.06
490.568	85.06
490.786	86.06
491.003	89.06
491.221	88.06
491.439	79.06
491.657	89.06
491.874	63.06
492.092	85.06
492.31	92.06
492.527	97.06
492.745	84.06
492.963	88.06
493.18	85.06
493.398	92.06
493.615	101.06
493.833	85.06
494.05	85.06
494.268	82.06
494.485	89.06
494.703	83.06
494.92	88.06
495.138	90.06
495.355	93.06
495.573	97.06
495.79	97.06
496.008	98.06
496.225	92.06
496.442	85.06
496.66	101.06
496.877	82.06
497.094	82.06
497.312	90.06
497.529	95.06
497.746	88.06
497.963	94.06
498.181	93.06
498.398	99.06
498.615	101.06
498.832	100.06
499.049	81.06
499.267	84.06
499.484	80.06
499.701	90.06
499.918	97.06
500.135	88.06
500.352	91.06
500.569	99.06
500.786	108.06
501.003	95.06
501.22	92.06
501.437	107.06
501.654	81.06
501.871	102.06
502.088	73.06
502.305	77.06
502.522	80.06
502.739	96.06
502.956	94.06
503.172	88.06
503.389	101.06
503.606	101.06
503.823	90.06
504.04	92.06
504.256	80.06
504.473	88.06
504.69	106.06
504.907	102.06
505.123	89.06
505.34	99.06
505.557	94.06
505.773	90.06
505.99	102.06
506.207	96.06
506.423	91.06
506.64	75.06
506.856	89.06
507.073	97.06
507.289	89.06
507.506	94.06
507.722	96.06
507.939	87.06
508.155	107.06
508.372	94.06
508.588	85.06
508.805	87.06
509.021	96.06
509.238	89.06
509.454	96.06
509.67	100.06
509.887	97.06
510.103	125.06
510.319	185.06
510.536	624.06
510.752	1783.06
510.968	506.06
511.184	154.06
511.401	104.06
511.617	88.06
511.833	88.06
512.049	79.06
512.265	96.06
512.481	77.06
512.698	92.06
512.914	76.06
513.13	94.06
513.346	97.06
513.562	86.06
513.778	106.06
513.994	106.06
514.21	104.06
514.426	113.06
514.642	130.06
514.858	118.06
515.074	133.06
515.29	354.06
515.506	1048.06
515.721	392.06
515.937	128.06
516.153	96.06
516.369	114.06
516.585	104.06
