Data from Uncirc_1992_H10_HRD10591_00073.txt Node
Date: Wed Jan 03 11:46:30 EST 2024
User: Yrep
Spectrometer: HR+D1059
Trigger mode: 1
Integration Time (sec): 1.000000E-1
Scans to average: 1
Electric dark correction enabled: true
Nonlinearity correction enabled: false
Boxcar width: 0
XAxis mode: Wavelengths
Number of Pixels in Spectrum: 2048
>>>>>Begin Spectral Data<<<<<
223.165	-17.12
223.4	-17.12
223.635	-17.12
223.869	-16.12
224.104	-14.12
224.338	-24.12
224.573	-20.12
224.808	-6.12
225.042	-2.12
225.277	-11.12
225.511	-7.12
225.746	6.88
225.98	7.88
226.215	12.88
226.449	12.88
226.683	14.88
226.918	29.88
227.152	32.88
227.387	35.88
227.621	42.88
227.856	46.88
228.09	31.88
228.324	43.88
228.559	43.88
228.793	58.88
229.027	52.88
229.262	71.88
229.496	62.88
229.73	86.88
229.964	79.88
230.199	78.88
230.433	78.88
230.667	79.88
230.901	78.88
231.136	90.88
231.37	76.88
231.604	69.88
231.838	79.88
232.072	76.88
232.306	79.88
232.541	71.88
232.775	88.88
233.009	98.88
233.243	81.88
233.477	80.88
233.711	74.88
233.945	83.88
234.179	86.88
234.413	84.88
234.647	86.88
234.881	80.88
235.115	77.88
235.349	78.88
235.583	57.88
235.817	70.88
236.051	76.88
236.285	87.88
236.519	75.88
236.753	83.88
236.987	83.88
237.221	86.88
237.455	89.88
237.689	86.88
237.922	74.88
238.156	79.88
238.39	80.88
238.624	91.88
238.858	83.88
239.091	79.88
239.325	78.88
239.559	78.88
239.793	75.88
240.027	87.88
240.26	75.88
240.494	78.88
240.728	74.88
240.961	83.88
241.195	83.88
241.429	76.88
241.662	75.88
241.896	86.88
242.13	80.88
242.363	81.88
242.597	90.88
242.83	97.88
243.064	78.88
243.298	93.88
243.531	82.88
243.765	90.88
243.998	87.88
244.232	86.88
244.465	67.88
244.699	82.88
244.932	77.88
245.166	71.88
245.399	70.88
245.633	87.88
245.866	79.88
246.099	83.88
246.333	79.88
246.566	81.88
246.8	84.88
247.033	91.88
247.266	92.88
247.5	73.88
247.733	71.88
247.966	72.88
248.2	96.88
248.433	69.88
248.666	86.88
248.899	85.88
249.133	103.88
249.366	101.88
249.599	98.88
249.832	83.88
250.066	74.88
250.299	79.88
250.532	76.88
250.765	66.88
250.998	71.88
251.231	71.88
251.465	77.88
251.698	82.88
251.931	71.88
252.164	82.88
252.397	74.88
252.63	84.88
252.863	80.88
253.096	87.88
253.329	87.88
253.562	67.88
253.795	82.88
254.028	88.88
254.261	74.88
254.494	84.88
254.727	88.88
254.96	79.88
255.193	68.88
255.426	74.88
255.659	92.88
255.892	82.88
256.124	81.88
256.357	84.88
256.59	77.88
256.823	67.88
257.056	84.88
257.289	86.88
257.521	77.88
257.754	85.88
257.987	73.88
258.22	79.88
258.452	89.88
258.685	97.88
258.918	90.88
259.151	87.88
259.383	99.88
259.616	89.88
259.849	84.88
260.081	80.88
260.314	80.88
260.547	87.88
260.779	87.88
261.012	78.88
261.244	71.88
261.477	82.88
261.71	87.88
261.942	112.88
262.175	107.88
262.407	76.88
262.64	93.88
262.872	86.88
263.105	73.88
263.337	81.88
263.57	80.88
263.802	76.88
264.035	86.88
264.267	84.88
264.499	82.88
264.732	81.88
264.964	72.88
265.197	83.88
265.429	82.88
265.661	81.88
265.894	83.88
266.126	92.88
266.358	97.88
266.591	93.88
266.823	78.88
267.055	66.88
267.287	100.88
267.52	79.88
267.752	87.88
267.984	77.88
268.216	83.88
268.448	84.88
268.681	101.88
268.913	88.88
269.145	92.88
269.377	86.88
269.609	90.88
269.841	83.88
270.073	78.88
270.306	85.88
270.538	92.88
270.77	80.88
271.002	90.88
271.234	89.88
271.466	78.88
271.698	97.88
271.93	82.88
272.162	86.88
272.394	102.88
272.626	84.88
272.858	90.88
273.09	75.88
273.322	83.88
273.553	84.88
273.785	78.88
274.017	84.88
274.249	82.88
274.481	92.88
274.713	84.88
274.945	85.88
275.176	82.88
275.408	96.88
275.64	89.88
275.872	79.88
276.104	84.88
276.335	80.88
276.567	108.88
276.799	120.88
277.031	104.88
277.262	94.88
277.494	79.88
277.726	90.88
277.957	76.88
278.189	89.88
278.421	105.88
278.652	95.88
278.884	91.88
279.115	87.88
279.347	80.88
279.579	86.88
279.81	74.88
280.042	75.88
280.273	92.88
280.505	93.88
280.736	75.88
280.968	74.88
281.199	103.88
281.431	100.88
281.662	99.88
281.894	81.88
282.125	104.88
282.356	111.88
282.588	150.88
282.819	108.88
283.051	76.88
283.282	80.88
283.513	102.88
283.745	102.88
283.976	91.88
284.207	84.88
284.439	95.88
284.67	93.88
284.901	99.88
285.132	99.88
285.364	102.88
285.595	94.88
285.826	93.88
286.057	96.88
286.288	78.88
286.52	90.88
286.751	80.88
286.982	80.88
287.213	90.88
287.444	98.88
287.675	89.88
287.906	103.88
288.138	83.88
288.369	91.88
288.6	98.88
288.831	96.88
289.062	99.88
289.293	89.88
289.524	94.88
289.755	85.88
289.986	97.88
290.217	95.88
290.448	96.88
290.679	90.88
290.91	98.88
291.141	79.88
291.371	93.88
291.602	92.88
291.833	97.88
292.064	86.88
292.295	91.88
292.526	82.88
292.757	80.88
292.987	81.88
293.218	88.88
293.449	91.88
293.68	86.88
293.91	90.88
294.141	102.88
294.372	86.88
294.603	90.88
294.833	98.88
295.064	86.88
295.295	105.88
295.525	90.88
295.756	108.88
295.987	122.88
296.217	131.88
296.448	134.88
296.679	98.88
296.909	87.88
297.14	99.88
297.37	81.88
297.601	90.88
297.831	84.88
298.062	104.88
298.292	90.88
298.523	96.88
298.753	88.88
298.984	92.88
299.214	86.88
299.445	92.88
299.675	101.88
299.905	86.88
300.136	88.88
300.366	85.88
300.597	91.88
300.827	99.88
301.057	108.88
301.288	97.88
301.518	92.88
301.748	73.88
301.979	107.88
302.209	97.88
302.439	82.88
302.669	92.88
302.9	70.88
303.13	92.88
303.36	96.88
303.59	98.88
303.82	105.88
304.051	90.88
304.281	88.88
304.511	95.88
304.741	90.88
304.971	96.88
305.201	85.88
305.431	100.88
305.661	90.88
305.891	80.88
306.121	97.88
306.352	119.88
306.582	103.88
306.812	93.88
307.042	93.88
307.272	88.88
307.502	92.88
307.731	97.88
307.961	95.88
308.191	85.88
308.421	102.88
308.651	103.88
308.881	85.88
309.111	94.88
309.341	99.88
309.571	95.88
309.8	96.88
310.03	92.88
310.26	92.88
310.49	111.88
310.72	102.88
310.949	113.88
311.179	102.88
311.409	84.88
311.639	101.88
311.868	103.88
312.098	90.88
312.328	102.88
312.557	101.88
312.787	95.88
313.017	115.88
313.246	99.88
313.476	94.88
313.706	94.88
313.935	86.88
314.165	104.88
314.394	104.88
314.624	96.88
314.853	88.88
315.083	87.88
315.312	87.88
315.542	92.88
315.771	93.88
316.001	83.88
316.23	90.88
316.46	84.88
316.689	90.88
316.919	100.88
317.148	97.88
317.377	103.88
317.607	99.88
317.836	103.88
318.065	100.88
318.295	90.88
318.524	86.88
318.753	91.88
318.983	102.88
319.212	103.88
319.441	98.88
319.67	87.88
319.9	91.88
320.129	83.88
320.358	101.88
320.587	98.88
320.816	96.88
321.046	102.88
321.275	106.88
321.504	96.88
321.733	100.88
321.962	92.88
322.191	94.88
322.42	114.88
322.649	128.88
322.878	104.88
323.108	104.88
323.337	121.88
323.566	136.88
323.795	139.88
324.024	198.88
324.253	372.88
324.482	820.88
324.71	1678.88
324.939	2117.88
325.168	748.88
325.397	240.88
325.626	147.88
325.855	129.88
326.084	125.88
326.313	123.88
326.542	162.88
326.77	222.88
326.999	444.88
327.228	938.88
327.457	1635.88
327.686	1300.88
327.914	368.88
328.143	188.88
328.372	150.88
328.6	131.88
328.829	122.88
329.058	119.88
329.287	119.88
329.515	119.88
329.744	97.88
329.972	101.88
330.201	93.88
330.43	110.88
330.658	118.88
330.887	139.88
331.115	111.88
331.344	100.88
331.572	114.88
331.801	121.88
332.03	109.88
332.258	84.88
332.486	75.88
332.715	93.88
332.943	97.88
333.172	94.88
333.4	116.88
333.629	101.88
333.857	110.88
334.085	109.88
334.314	98.88
334.542	100.88
334.771	94.88
334.999	100.88
335.227	101.88
335.455	83.88
335.684	92.88
335.912	102.88
336.14	93.88
336.369	86.88
336.597	103.88
336.825	96.88
337.053	85.88
337.281	98.88
337.51	88.88
337.738	80.88
337.966	92.88
338.194	85.88
338.422	95.88
338.65	94.88
338.878	97.88
339.106	72.88
339.334	79.88
339.562	95.88
339.79	83.88
340.018	82.88
340.246	82.88
340.474	85.88
340.702	95.88
340.93	78.88
341.158	102.88
341.386	85.88
341.614	91.88
341.842	88.88
342.07	121.88
342.298	99.88
342.526	85.88
342.754	91.88
342.981	89.88
343.209	95.88
343.437	112.88
343.665	91.88
343.893	92.88
344.12	97.88
344.348	89.88
344.576	102.88
344.804	107.88
345.031	90.88
345.259	89.88
345.487	107.88
345.714	93.88
345.942	84.88
346.17	86.88
346.397	87.88
346.625	84.88
346.853	98.88
347.08	97.88
347.308	93.88
347.535	109.88
347.763	111.88
347.99	111.88
348.218	97.88
348.445	102.88
348.673	83.88
348.9	89.88
349.128	97.88
349.355	91.88
349.583	90.88
349.81	104.88
350.037	96.88
350.265	89.88
350.492	103.88
350.72	95.88
350.947	102.88
351.174	98.88
351.402	118.88
351.629	109.88
351.856	101.88
352.083	100.88
352.311	112.88
352.538	108.88
352.765	101.88
352.992	120.88
353.22	116.88
353.447	111.88
353.674	95.88
353.901	107.88
354.128	108.88
354.355	101.88
354.583	96.88
354.81	102.88
355.037	95.88
355.264	91.88
355.491	109.88
355.718	90.88
355.945	87.88
356.172	110.88
356.399	92.88
356.626	101.88
356.853	84.88
357.08	89.88
357.307	96.88
357.534	99.88
357.761	88.88
357.988	85.88
358.215	93.88
358.441	88.88
358.668	94.88
358.895	90.88
359.122	94.88
359.349	94.88
359.576	82.88
359.802	100.88
360.029	116.88
360.256	109.88
360.483	102.88
360.709	94.88
360.936	113.88
361.163	95.88
361.39	93.88
361.616	93.88
361.843	91.88
362.07	107.88
362.296	97.88
362.523	104.88
362.749	98.88
362.976	96.88
363.203	111.88
363.429	89.88
363.656	99.88
363.882	95.88
364.109	87.88
364.335	90.88
364.562	94.88
364.788	95.88
365.015	101.88
365.241	105.88
365.468	108.88
365.694	94.88
365.92	86.88
366.147	88.88
366.373	98.88
366.599	94.88
366.826	83.88
367.052	99.88
367.278	95.88
367.505	95.88
367.731	94.88
367.957	97.88
368.184	91.88
368.41	95.88
368.636	113.88
368.862	127.88
369.089	111.88
369.315	89.88
369.541	95.88
369.767	103.88
369.993	91.88
370.219	90.88
370.445	92.88
370.672	87.88
370.898	90.88
371.124	90.88
371.35	88.88
371.576	75.88
371.802	86.88
372.028	91.88
372.254	85.88
372.48	88.88
372.706	84.88
372.932	84.88
373.158	93.88
373.384	87.88
373.61	87.88
373.835	108.88
374.061	90.88
374.287	95.88
374.513	104.88
374.739	90.88
374.965	93.88
375.191	77.88
375.416	83.88
375.642	107.88
375.868	76.88
376.094	99.88
376.319	93.88
376.545	85.88
376.771	94.88
376.997	80.88
377.222	94.88
377.448	102.88
377.674	98.88
377.899	84.88
378.125	91.88
378.35	99.88
378.576	94.88
378.802	84.88
379.027	89.88
379.253	79.88
379.478	98.88
379.704	93.88
379.929	91.88
380.155	83.88
380.38	94.88
380.606	98.88
380.831	97.88
381.057	102.88
381.282	98.88
381.507	96.88
381.733	105.88
381.958	91.88
382.184	85.88
382.409	102.88
382.634	90.88
382.86	98.88
383.085	107.88
383.31	99.88
383.535	109.88
383.761	102.88
383.986	108.88
384.211	91.88
384.436	90.88
384.662	100.88
384.887	98.88
385.112	104.88
385.337	93.88
385.562	100.88
385.787	102.88
386.013	92.88
386.238	103.88
386.463	116.88
386.688	106.88
386.913	108.88
387.138	100.88
387.363	85.88
387.588	98.88
387.813	101.88
388.038	95.88
388.263	107.88
388.488	112.88
388.713	85.88
388.938	102.88
389.163	111.88
389.387	102.88
389.612	95.88
389.837	95.88
390.062	86.88
390.287	87.88
390.512	79.88
390.736	100.88
390.961	98.88
391.186	105.88
391.411	98.88
391.636	104.88
391.86	93.88
392.085	90.88
392.31	88.88
392.534	94.88
392.759	93.88
392.984	86.88
393.208	89.88
393.433	97.88
393.658	81.88
393.882	95.88
394.107	84.88
394.331	85.88
394.556	82.88
394.78	98.88
395.005	110.88
395.229	84.88
395.454	86.88
395.678	79.88
395.903	91.88
396.127	96.88
396.352	94.88
396.576	97.88
396.801	83.88
397.025	95.88
397.249	87.88
397.474	102.88
397.698	97.88
397.922	82.88
398.147	91.88
398.371	79.88
398.595	81.88
398.82	84.88
399.044	82.88
399.268	103.88
399.492	100.88
399.717	96.88
399.941	91.88
400.165	92.88
400.389	94.88
400.613	80.88
400.837	77.88
401.062	97.88
401.286	104.88
401.51	99.88
401.734	84.88
401.958	91.88
402.182	128.88
402.406	150.88
402.63	119.88
402.854	97.88
403.078	97.88
403.302	86.88
403.526	78.88
403.75	86.88
403.974	94.88
404.198	83.88
404.422	83.88
404.645	85.88
404.869	96.88
405.093	93.88
405.317	85.88
405.541	106.88
405.765	92.88
405.988	126.88
406.212	197.88
406.436	223.88
406.66	147.88
406.883	112.88
407.107	108.88
407.331	99.88
407.555	95.88
407.778	96.88
408.002	95.88
408.226	88.88
408.449	92.88
408.673	93.88
408.896	91.88
409.12	108.88
409.344	93.88
409.567	92.88
409.791	92.88
410.014	90.88
410.238	78.88
410.461	94.88
410.685	110.88
410.908	116.88
411.132	94.88
411.355	84.88
411.578	106.88
411.802	90.88
412.025	87.88
412.249	100.88
412.472	104.88
412.695	71.88
412.919	87.88
413.142	81.88
413.365	93.88
413.589	84.88
413.812	97.88
414.035	82.88
414.258	86.88
414.482	88.88
414.705	99.88
414.928	94.88
415.151	91.88
415.374	91.88
415.597	82.88
415.821	83.88
416.044	94.88
416.267	101.88
416.49	87.88
416.713	91.88
416.936	98.88
417.159	90.88
417.382	77.88
417.605	88.88
417.828	96.88
418.051	85.88
418.274	79.88
418.497	88.88
418.72	93.88
418.943	87.88
419.166	96.88
419.389	89.88
419.611	85.88
419.834	91.88
420.057	93.88
420.28	88.88
420.503	99.88
420.726	82.88
420.948	88.88
421.171	89.88
421.394	97.88
421.617	93.88
421.839	96.88
422.062	86.88
422.285	88.88
422.507	105.88
422.73	103.88
422.953	97.88
423.175	98.88
423.398	82.88
423.621	91.88
423.843	90.88
424.066	95.88
424.288	91.88
424.511	88.88
424.733	102.88
424.956	104.88
425.178	95.88
425.401	103.88
425.623	92.88
425.846	104.88
426.068	87.88
426.291	96.88
426.513	103.88
426.735	95.88
426.958	87.88
427.18	101.88
427.402	119.88
427.625	158.88
427.847	143.88
428.069	96.88
428.292	79.88
428.514	100.88
428.736	88.88
428.958	96.88
429.181	70.88
429.403	78.88
429.625	90.88
429.847	95.88
430.069	111.88
430.292	100.88
430.514	82.88
430.736	89.88
430.958	91.88
431.18	87.88
431.402	101.88
431.624	90.88
431.846	82.88
432.068	93.88
432.29	88.88
432.512	93.88
432.734	91.88
432.956	101.88
433.178	91.88
433.4	96.88
433.622	106.88
433.844	97.88
434.066	87.88
434.287	85.88
434.509	100.88
434.731	89.88
434.953	71.88
435.175	92.88
435.397	101.88
435.618	85.88
435.84	105.88
436.062	125.88
436.284	117.88
436.505	102.88
436.727	103.88
436.949	94.88
437.17	96.88
437.392	94.88
437.614	86.88
437.835	107.88
438.057	109.88
438.278	114.88
438.5	102.88
438.721	120.88
438.943	91.88
439.165	88.88
439.386	86.88
439.608	81.88
439.829	96.88
440.05	115.88
440.272	138.88
440.493	98.88
440.715	91.88
440.936	76.88
441.158	92.88
441.379	92.88
441.6	93.88
441.822	92.88
442.043	94.88
442.264	109.88
442.486	100.88
442.707	109.88
442.928	98.88
443.149	128.88
443.371	142.88
443.592	107.88
443.813	102.88
444.034	111.88
444.255	99.88
444.476	82.88
444.698	90.88
444.919	97.88
445.14	119.88
445.361	117.88
445.582	108.88
445.803	124.88
446.024	125.88
446.245	143.88
446.466	107.88
446.687	92.88
446.908	80.88
447.129	79.88
447.35	83.88
447.571	95.88
447.792	91.88
448.013	95.88
448.234	90.88
448.455	97.88
448.675	117.88
448.896	116.88
449.117	89.88
449.338	106.88
449.559	103.88
449.779	123.88
450	85.88
450.221	101.88
450.442	84.88
450.662	115.88
450.883	87.88
451.104	110.88
451.324	98.88
451.545	92.88
451.766	99.88
451.986	97.88
452.207	88.88
452.428	82.88
452.648	97.88
452.869	99.88
453.089	117.88
453.31	114.88
453.53	95.88
453.751	76.88
453.971	109.88
454.192	109.88
454.412	101.88
454.633	85.88
454.853	80.88
455.073	82.88
455.294	81.88
455.514	92.88
455.734	87.88
455.955	86.88
456.175	97.88
456.395	70.88
456.616	85.88
456.836	74.88
457.056	88.88
457.276	91.88
457.497	95.88
457.717	86.88
457.937	76.88
458.157	95.88
458.377	100.88
458.598	115.88
458.818	151.88
459.038	158.88
459.258	114.88
459.478	98.88
459.698	101.88
459.918	89.88
460.138	81.88
460.358	86.88
460.578	86.88
460.798	91.88
461.018	102.88
461.238	94.88
461.458	81.88
461.678	64.88
461.898	84.88
462.118	83.88
462.338	87.88
462.558	78.88
462.777	81.88
462.997	81.88
463.217	98.88
463.437	69.88
463.657	93.88
463.876	98.88
464.096	102.88
464.316	92.88
464.536	82.88
464.755	88.88
464.975	109.88
465.195	164.88
465.414	148.88
465.634	102.88
465.854	92.88
466.073	95.88
466.293	86.88
466.512	74.88
466.732	103.88
466.951	80.88
467.171	97.88
467.391	90.88
467.61	115.88
467.829	103.88
468.049	79.88
468.268	82.88
468.488	81.88
468.707	93.88
468.927	77.88
469.146	77.88
469.365	87.88
469.585	88.88
469.804	88.88
470.023	86.88
470.243	83.88
470.462	112.88
470.681	111.88
470.901	84.88
471.12	94.88
471.339	88.88
471.558	88.88
471.777	90.88
471.997	98.88
472.216	85.88
472.435	106.88
472.654	90.88
472.873	86.88
473.092	86.88
473.311	87.88
473.53	81.88
473.749	74.88
473.968	102.88
474.187	111.88
474.406	102.88
474.625	98.88
474.844	100.88
475.063	96.88
475.282	84.88
475.501	90.88
475.72	84.88
475.939	97.88
476.158	94.88
476.377	91.88
476.596	98.88
476.814	98.88
477.033	105.88
477.252	94.88
477.471	92.88
477.69	94.88
477.908	81.88
478.127	95.88
478.346	91.88
478.564	92.88
478.783	94.88
479.002	95.88
479.22	91.88
479.439	103.88
479.658	98.88
479.876	91.88
480.095	99.88
480.313	98.88
480.532	83.88
480.751	102.88
480.969	92.88
481.188	105.88
481.406	83.88
481.624	94.88
481.843	94.88
482.061	90.88
482.28	94.88
482.498	85.88
482.717	101.88
482.935	91.88
483.153	91.88
483.372	86.88
483.59	98.88
483.808	107.88
484.027	95.88
484.245	79.88
484.463	89.88
484.681	103.88
484.9	93.88
485.118	107.88
485.336	89.88
485.554	78.88
485.772	97.88
485.99	109.88
486.209	99.88
486.427	99.88
486.645	106.88
486.863	114.88
487.081	99.88
487.299	86.88
487.517	101.88
487.735	95.88
487.953	96.88
488.171	88.88
488.389	92.88
488.607	113.88
488.825	78.88
489.043	93.88
489.261	98.88
489.479	87.88
489.696	95.88
489.914	91.88
490.132	100.88
490.35	96.88
490.568	88.88
490.786	89.88
491.003	82.88
491.221	96.88
491.439	97.88
491.657	94.88
491.874	87.88
492.092	84.88
492.31	97.88
492.527	99.88
492.745	88.88
492.963	106.88
493.18	92.88
493.398	103.88
493.615	101.88
493.833	95.88
494.05	90.88
494.268	90.88
494.485	93.88
494.703	94.88
494.92	93.88
495.138	83.88
495.355	83.88
495.573	87.88
495.79	87.88
496.008	103.88
496.225	92.88
496.442	86.88
496.66	102.88
496.877	81.88
497.094	102.88
497.312	94.88
497.529	89.88
497.746	91.88
497.963	85.88
498.181	98.88
498.398	92.88
498.615	110.88
498.832	107.88
499.049	101.88
499.267	95.88
499.484	95.88
499.701	72.88
499.918	101.88
500.135	97.88
500.352	88.88
500.569	86.88
500.786	95.88
501.003	87.88
501.22	95.88
501.437	98.88
501.654	106.88
501.871	101.88
502.088	87.88
502.305	102.88
502.522	96.88
502.739	95.88
502.956	92.88
503.172	94.88
503.389	95.88
503.606	97.88
503.823	96.88
504.04	97.88
504.256	82.88
504.473	101.88
504.69	84.88
504.907	103.88
505.123	94.88
505.34	88.88
505.557	92.88
505.773	99.88
505.99	84.88
506.207	85.88
506.423	85.88
506.64	101.88
506.856	93.88
507.073	84.88
507.289	92.88
507.506	109.88
507.722	103.88
507.939	112.88
508.155	104.88
508.372	109.88
508.588	101.88
508.805	99.88
509.021	92.88
509.238	98.88
509.454	101.88
509.67	94.88
509.887	100.88
510.103	125.88
510.319	213.88
510.536	815.88
510.752	2472.88
510.968	651.88
511.184	144.88
511.401	107.88
511.617	95.88
511.833	86.88
512.049	91.88
512.265	94.88
512.481	99.88
512.698	92.88
512.914	94.88
513.13	99.88
513.346	97.88
513.562	86.88
513.778	98.88
513.994	91.88
514.21	104.88
514.426	129.88
514.642	141.88
514.858	118.88
515.074	179.88
515.29	449.88
