Data from Uncirc_1992_H10_HRD10591_00093.txt Node
Date: Wed Jan 03 11:46:34 EST 2024
User: Yrep
Spectrometer: HR+D1059
Trigger mode: 1
Integration Time (sec): 1.000000E-1
Scans to average: 1
Electric dark correction enabled: true
Nonlinearity correction enabled: false
Boxcar width: 0
XAxis mode: Wavelengths
Number of Pixels in Spectrum: 2048
>>>>>Begin Spectral Data<<<<<
223.165	-19.31
223.4	-19.31
223.635	-19.31
223.869	-24.31
224.104	-18.31
224.338	-16.31
224.573	-10.31
224.808	-18.31
225.042	-1.31
225.277	0.69
225.511	-7.31
225.746	1.69
225.98	11.69
226.215	13.69
226.449	24.69
226.683	21.69
226.918	16.69
227.152	24.69
227.387	29.69
227.621	39.69
227.856	45.69
228.09	49.69
228.324	43.69
228.559	43.69
228.793	42.69
229.027	66.69
229.262	49.69
229.496	77.69
229.73	78.69
229.964	90.69
230.199	77.69
230.433	83.69
230.667	63.69
230.901	73.69
231.136	60.69
231.37	91.69
231.604	94.69
231.838	81.69
232.072	85.69
232.306	88.69
232.541	79.69
232.775	88.69
233.009	79.69
233.243	74.69
233.477	77.69
233.711	84.69
233.945	69.69
234.179	73.69
234.413	81.69
234.647	85.69
234.881	58.69
235.115	90.69
235.349	76.69
235.583	82.69
235.817	67.69
236.051	77.69
236.285	77.69
236.519	81.69
236.753	82.69
236.987	80.69
237.221	67.69
237.455	84.69
237.689	82.69
237.922	74.69
238.156	66.69
238.39	63.69
238.624	84.69
238.858	82.69
239.091	77.69
239.325	82.69
239.559	68.69
239.793	67.69
240.027	64.69
240.26	76.69
240.494	75.69
240.728	85.69
240.961	76.69
241.195	82.69
241.429	75.69
241.662	81.69
241.896	67.69
242.13	68.69
242.363	94.69
242.597	74.69
242.83	62.69
243.064	60.69
243.298	90.69
243.531	86.69
243.765	81.69
243.998	71.69
244.232	81.69
244.465	89.69
244.699	84.69
244.932	79.69
245.166	78.69
245.399	94.69
245.633	79.69
245.866	87.69
246.099	77.69
246.333	70.69
246.566	73.69
246.8	68.69
247.033	69.69
247.266	74.69
247.5	81.69
247.733	75.69
247.966	74.69
248.2	83.69
248.433	88.69
248.666	76.69
248.899	71.69
249.133	75.69
249.366	94.69
249.599	98.69
249.832	80.69
250.066	83.69
250.299	97.69
250.532	83.69
250.765	79.69
250.998	83.69
251.231	76.69
251.465	64.69
251.698	87.69
251.931	85.69
252.164	78.69
252.397	73.69
252.63	62.69
252.863	72.69
253.096	80.69
253.329	87.69
253.562	85.69
253.795	89.69
254.028	79.69
254.261	91.69
254.494	76.69
254.727	81.69
254.96	75.69
255.193	82.69
255.426	78.69
255.659	70.69
255.892	93.69
256.124	74.69
256.357	75.69
256.59	90.69
256.823	76.69
257.056	76.69
257.289	81.69
257.521	69.69
257.754	80.69
257.987	77.69
258.22	100.69
258.452	69.69
258.685	85.69
258.918	89.69
259.151	77.69
259.383	97.69
259.616	77.69
259.849	75.69
260.081	90.69
260.314	73.69
260.547	86.69
260.779	81.69
261.012	79.69
261.244	75.69
261.477	99.69
261.71	95.69
261.942	107.69
262.175	111.69
262.407	97.69
262.64	83.69
262.872	81.69
263.105	85.69
263.337	78.69
263.57	93.69
263.802	82.69
264.035	82.69
264.267	82.69
264.499	81.69
264.732	74.69
264.964	66.69
265.197	87.69
265.429	78.69
265.661	76.69
265.894	84.69
266.126	103.69
266.358	97.69
266.591	78.69
266.823	102.69
267.055	80.69
267.287	77.69
267.52	77.69
267.752	83.69
267.984	91.69
268.216	91.69
268.448	84.69
268.681	86.69
268.913	84.69
269.145	82.69
269.377	89.69
269.609	79.69
269.841	84.69
270.073	68.69
270.306	85.69
270.538	92.69
270.77	83.69
271.002	75.69
271.234	86.69
271.466	89.69
271.698	69.69
271.93	70.69
272.162	94.69
272.394	71.69
272.626	93.69
272.858	82.69
273.09	75.69
273.322	85.69
273.553	78.69
273.785	93.69
274.017	82.69
274.249	85.69
274.481	81.69
274.713	75.69
274.945	90.69
275.176	82.69
275.408	95.69
275.64	89.69
275.872	75.69
276.104	84.69
276.335	91.69
276.567	90.69
276.799	93.69
277.031	96.69
277.262	69.69
277.494	85.69
277.726	81.69
277.957	86.69
278.189	82.69
278.421	76.69
278.652	89.69
278.884	89.69
279.115	87.69
279.347	86.69
279.579	77.69
279.81	85.69
280.042	82.69
280.273	85.69
280.505	74.69
280.736	78.69
280.968	80.69
281.199	93.69
281.431	89.69
281.662	104.69
281.894	91.69
282.125	94.69
282.356	100.69
282.588	126.69
282.819	126.69
283.051	82.69
283.282	89.69
283.513	79.69
283.745	100.69
283.976	91.69
284.207	106.69
284.439	80.69
284.67	88.69
284.901	84.69
285.132	94.69
285.364	85.69
285.595	74.69
285.826	81.69
286.057	86.69
286.288	77.69
286.52	66.69
286.751	74.69
286.982	84.69
287.213	83.69
287.444	108.69
287.675	79.69
287.906	98.69
288.138	73.69
288.369	92.69
288.6	98.69
288.831	99.69
289.062	92.69
289.293	70.69
289.524	81.69
289.755	89.69
289.986	79.69
290.217	81.69
290.448	95.69
290.679	80.69
290.91	100.69
291.141	84.69
291.371	79.69
291.602	97.69
291.833	83.69
292.064	81.69
292.295	87.69
292.526	96.69
292.757	97.69
292.987	95.69
293.218	97.69
293.449	84.69
293.68	66.69
293.91	88.69
294.141	86.69
294.372	77.69
294.603	94.69
294.833	98.69
295.064	95.69
295.295	83.69
295.525	81.69
295.756	103.69
295.987	110.69
296.217	124.69
296.448	111.69
296.679	90.69
296.909	92.69
297.14	92.69
297.37	106.69
297.601	102.69
297.831	94.69
298.062	85.69
298.292	79.69
298.523	91.69
298.753	82.69
298.984	74.69
299.214	77.69
299.445	100.69
299.675	93.69
299.905	95.69
300.136	90.69
300.366	98.69
300.597	83.69
300.827	85.69
301.057	95.69
301.288	109.69
301.518	100.69
301.748	86.69
301.979	97.69
302.209	92.69
302.439	89.69
302.669	86.69
302.9	82.69
303.13	87.69
303.36	104.69
303.59	98.69
303.82	106.69
304.051	104.69
304.281	90.69
304.511	102.69
304.741	83.69
304.971	94.69
305.201	83.69
305.431	81.69
305.661	85.69
305.891	84.69
306.121	91.69
306.352	101.69
306.582	116.69
306.812	87.69
307.042	105.69
307.272	90.69
307.502	78.69
307.731	93.69
307.961	90.69
308.191	85.69
308.421	93.69
308.651	99.69
308.881	93.69
309.111	104.69
309.341	106.69
309.571	101.69
309.8	92.69
310.03	102.69
310.26	100.69
310.49	85.69
310.72	100.69
310.949	95.69
311.179	106.69
311.409	90.69
311.639	94.69
311.868	85.69
312.098	75.69
312.328	95.69
312.557	84.69
312.787	96.69
313.017	75.69
313.246	96.69
313.476	86.69
313.706	92.69
313.935	99.69
314.165	96.69
314.394	98.69
314.624	91.69
314.853	105.69
315.083	95.69
315.312	95.69
315.542	91.69
315.771	88.69
316.001	82.69
316.23	104.69
316.46	85.69
316.689	94.69
316.919	98.69
317.148	89.69
317.377	107.69
317.607	86.69
317.836	79.69
318.065	106.69
318.295	91.69
318.524	93.69
318.753	99.69
318.983	99.69
319.212	90.69
319.441	96.69
319.67	94.69
319.9	90.69
320.129	106.69
320.358	93.69
320.587	100.69
320.816	93.69
321.046	98.69
321.275	93.69
321.504	88.69
321.733	82.69
321.962	92.69
322.191	97.69
322.42	107.69
322.649	111.69
322.878	110.69
323.108	111.69
323.337	120.69
323.566	118.69
323.795	135.69
324.024	197.69
324.253	352.69
324.482	732.69
324.71	1473.69
324.939	1889.69
325.168	694.69
325.397	223.69
325.626	142.69
325.855	130.69
326.084	130.69
326.313	114.69
326.542	144.69
326.77	217.69
326.999	382.69
327.228	835.69
327.457	1476.69
327.686	1184.69
327.914	335.69
328.143	171.69
328.372	131.69
328.6	116.69
328.829	125.69
329.058	116.69
329.287	105.69
329.515	102.69
329.744	105.69
329.972	94.69
330.201	100.69
330.43	109.69
330.658	132.69
330.887	130.69
331.115	114.69
331.344	90.69
331.572	106.69
331.801	105.69
332.03	83.69
332.258	94.69
332.486	99.69
332.715	80.69
332.943	98.69
333.172	88.69
333.4	111.69
333.629	110.69
333.857	123.69
334.085	99.69
334.314	97.69
334.542	87.69
334.771	94.69
334.999	99.69
335.227	113.69
335.455	80.69
335.684	101.69
335.912	99.69
336.14	92.69
336.369	96.69
336.597	96.69
336.825	100.69
337.053	102.69
337.281	103.69
337.51	85.69
337.738	92.69
337.966	85.69
338.194	102.69
338.422	105.69
338.65	85.69
338.878	106.69
339.106	90.69
339.334	88.69
339.562	75.69
339.79	98.69
340.018	90.69
340.246	97.69
340.474	93.69
340.702	99.69
340.93	86.69
341.158	97.69
341.386	103.69
341.614	91.69
341.842	90.69
342.07	88.69
342.298	86.69
342.526	88.69
342.754	86.69
342.981	80.69
343.209	90.69
343.437	91.69
343.665	92.69
343.893	84.69
344.12	83.69
344.348	87.69
344.576	89.69
344.804	93.69
345.031	94.69
345.259	99.69
345.487	94.69
345.714	97.69
345.942	89.69
346.17	90.69
346.397	99.69
346.625	85.69
346.853	90.69
347.08	99.69
347.308	92.69
347.535	79.69
347.763	98.69
347.99	99.69
348.218	107.69
348.445	96.69
348.673	83.69
348.9	103.69
349.128	93.69
349.355	95.69
349.583	93.69
349.81	89.69
350.037	90.69
350.265	98.69
350.492	89.69
350.72	87.69
350.947	113.69
351.174	97.69
351.402	98.69
351.629	101.69
351.856	107.69
352.083	91.69
352.311	107.69
352.538	100.69
352.765	110.69
352.992	111.69
353.22	100.69
353.447	87.69
353.674	91.69
353.901	110.69
354.128	103.69
354.355	102.69
354.583	90.69
354.81	95.69
355.037	100.69
355.264	93.69
355.491	96.69
355.718	97.69
355.945	83.69
356.172	103.69
356.399	113.69
356.626	89.69
356.853	90.69
357.08	89.69
357.307	86.69
357.534	88.69
357.761	84.69
357.988	86.69
358.215	78.69
358.441	88.69
358.668	100.69
358.895	78.69
359.122	90.69
359.349	91.69
359.576	69.69
359.802	97.69
360.029	86.69
360.256	105.69
360.483	90.69
360.709	99.69
360.936	103.69
361.163	96.69
361.39	104.69
361.616	93.69
361.843	100.69
362.07	94.69
362.296	90.69
362.523	91.69
362.749	86.69
362.976	89.69
363.203	87.69
363.429	90.69
363.656	97.69
363.882	87.69
364.109	97.69
364.335	86.69
364.562	96.69
364.788	99.69
365.015	99.69
365.241	89.69
365.468	101.69
365.694	94.69
365.92	98.69
366.147	102.69
366.373	90.69
366.599	88.69
366.826	92.69
367.052	94.69
367.278	75.69
367.505	102.69
367.731	94.69
367.957	95.69
368.184	90.69
368.41	103.69
368.636	96.69
368.862	119.69
369.089	110.69
369.315	87.69
369.541	94.69
369.767	81.69
369.993	90.69
370.219	93.69
370.445	92.69
370.672	92.69
370.898	95.69
371.124	82.69
371.35	75.69
371.576	86.69
371.802	91.69
372.028	91.69
372.254	96.69
372.48	90.69
372.706	86.69
372.932	94.69
373.158	85.69
373.384	96.69
373.61	85.69
373.835	95.69
374.061	93.69
374.287	83.69
374.513	86.69
374.739	93.69
374.965	91.69
375.191	81.69
375.416	86.69
375.642	98.69
375.868	95.69
376.094	87.69
376.319	92.69
376.545	69.69
376.771	78.69
376.997	99.69
377.222	81.69
377.448	90.69
377.674	85.69
377.899	80.69
378.125	87.69
378.35	86.69
378.576	88.69
378.802	81.69
379.027	83.69
379.253	93.69
379.478	89.69
379.704	91.69
379.929	87.69
380.155	96.69
380.38	102.69
380.606	96.69
380.831	96.69
381.057	76.69
381.282	82.69
381.507	75.69
381.733	102.69
381.958	84.69
382.184	86.69
382.409	91.69
382.634	98.69
382.86	90.69
383.085	100.69
383.31	95.69
383.535	93.69
383.761	87.69
383.986	90.69
384.211	110.69
384.436	99.69
384.662	92.69
384.887	94.69
385.112	88.69
385.337	110.69
385.562	89.69
385.787	105.69
386.013	114.69
386.238	110.69
386.463	105.69
386.688	107.69
386.913	100.69
387.138	89.69
387.363	99.69
387.588	90.69
387.813	92.69
388.038	102.69
388.263	102.69
388.488	103.69
388.713	82.69
388.938	92.69
389.163	73.69
389.387	81.69
389.612	83.69
389.837	99.69
390.062	100.69
390.287	88.69
390.512	78.69
390.736	87.69
390.961	90.69
391.186	93.69
391.411	101.69
391.636	96.69
391.86	87.69
392.085	80.69
392.31	95.69
392.534	82.69
392.759	79.69
392.984	86.69
393.208	79.69
393.433	77.69
393.658	75.69
393.882	96.69
394.107	83.69
394.331	74.69
394.556	82.69
394.78	94.69
395.005	91.69
395.229	85.69
395.454	71.69
395.678	90.69
395.903	63.69
396.127	83.69
396.352	84.69
396.576	80.69
396.801	93.69
397.025	72.69
397.249	91.69
397.474	82.69
397.698	77.69
397.922	92.69
398.147	85.69
398.371	86.69
398.595	84.69
398.82	76.69
399.044	93.69
399.268	86.69
399.492	93.69
399.717	93.69
399.941	94.69
400.165	86.69
400.389	94.69
400.613	91.69
400.837	90.69
401.062	94.69
401.286	85.69
401.51	83.69
401.734	89.69
401.958	99.69
402.182	123.69
402.406	148.69
402.63	111.69
402.854	83.69
403.078	78.69
403.302	78.69
403.526	81.69
403.75	88.69
403.974	90.69
404.198	81.69
404.422	97.69
404.645	85.69
404.869	75.69
405.093	97.69
405.317	98.69
405.541	104.69
405.765	114.69
405.988	106.69
406.212	161.69
406.436	223.69
406.66	125.69
406.883	91.69
407.107	96.69
407.331	77.69
407.555	111.69
407.778	95.69
408.002	98.69
408.226	90.69
408.449	89.69
408.673	83.69
408.896	89.69
409.12	91.69
409.344	82.69
409.567	92.69
409.791	83.69
410.014	85.69
410.238	94.69
410.461	91.69
410.685	97.69
410.908	92.69
411.132	107.69
411.355	109.69
411.578	104.69
411.802	83.69
412.025	97.69
412.249	81.69
412.472	96.69
412.695	105.69
412.919	92.69
413.142	91.69
413.365	77.69
413.589	89.69
413.812	91.69
414.035	74.69
414.258	83.69
414.482	94.69
414.705	88.69
414.928	97.69
415.151	71.69
415.374	84.69
415.597	83.69
415.821	94.69
416.044	80.69
416.267	86.69
416.49	95.69
416.713	92.69
416.936	89.69
417.159	92.69
417.382	103.69
417.605	107.69
417.828	85.69
418.051	96.69
418.274	83.69
418.497	86.69
418.72	90.69
418.943	105.69
419.166	89.69
419.389	93.69
419.611	86.69
419.834	76.69
420.057	99.69
420.28	77.69
420.503	68.69
420.726	89.69
420.948	82.69
421.171	90.69
421.394	89.69
421.617	90.69
421.839	100.69
422.062	81.69
422.285	94.69
422.507	102.69
422.73	100.69
422.953	101.69
423.175	95.69
423.398	83.69
423.621	95.69
423.843	92.69
424.066	88.69
424.288	104.69
424.511	96.69
424.733	94.69
424.956	81.69
425.178	101.69
425.401	105.69
425.623	86.69
425.846	73.69
426.068	83.69
426.291	78.69
426.513	84.69
426.735	86.69
426.958	98.69
427.18	97.69
427.402	121.69
427.625	145.69
427.847	122.69
428.069	89.69
428.292	86.69
428.514	91.69
428.736	72.69
428.958	76.69
429.181	111.69
429.403	79.69
429.625	90.69
429.847	95.69
430.069	84.69
430.292	91.69
430.514	75.69
430.736	88.69
430.958	71.69
431.18	87.69
431.402	89.69
431.624	96.69
431.846	81.69
432.068	87.69
432.29	84.69
432.512	81.69
432.734	74.69
432.956	89.69
433.178	93.69
433.4	95.69
433.622	83.69
433.844	98.69
434.066	88.69
434.287	94.69
434.509	68.69
434.731	93.69
434.953	85.69
435.175	74.69
435.397	89.69
435.618	88.69
435.84	83.69
436.062	128.69
436.284	107.69
436.505	98.69
436.727	101.69
436.949	85.69
437.17	82.69
437.392	86.69
437.614	90.69
437.835	99.69
438.057	110.69
438.278	97.69
438.5	93.69
438.721	95.69
438.943	95.69
439.165	97.69
439.386	102.69
439.608	89.69
439.829	102.69
440.05	117.69
440.272	128.69
440.493	100.69
440.715	84.69
440.936	96.69
441.158	96.69
441.379	82.69
441.6	84.69
441.822	104.69
442.043	89.69
442.264	96.69
442.486	99.69
442.707	87.69
442.928	97.69
443.149	124.69
443.371	120.69
443.592	109.69
443.813	96.69
444.034	90.69
444.255	92.69
444.476	79.69
444.698	104.69
444.919	88.69
445.14	127.69
445.361	117.69
445.582	116.69
445.803	133.69
446.024	118.69
446.245	130.69
446.466	116.69
446.687	90.69
446.908	87.69
447.129	99.69
447.35	80.69
447.571	89.69
447.792	76.69
448.013	78.69
448.234	94.69
448.455	101.69
448.675	103.69
448.896	100.69
449.117	105.69
449.338	98.69
449.559	111.69
449.779	119.69
450	80.69
450.221	89.69
450.442	95.69
450.662	92.69
450.883	90.69
451.104	98.69
451.324	95.69
451.545	83.69
451.766	91.69
451.986	87.69
452.207	82.69
452.428	92.69
452.648	95.69
452.869	105.69
453.089	118.69
453.31	101.69
453.53	85.69
453.751	101.69
453.971	103.69
454.192	97.69
454.412	82.69
454.633	91.69
454.853	83.69
455.073	82.69
455.294	80.69
455.514	94.69
455.734	79.69
455.955	84.69
456.175	78.69
456.395	68.69
456.616	85.69
456.836	89.69
457.056	90.69
457.276	83.69
457.497	81.69
457.717	94.69
457.937	91.69
458.157	79.69
458.377	70.69
458.598	106.69
458.818	145.69
459.038	142.69
459.258	119.69
459.478	79.69
459.698	79.69
459.918	86.69
460.138	83.69
460.358	81.69
460.578	91.69
460.798	85.69
461.018	91.69
461.238	94.69
461.458	78.69
461.678	86.69
461.898	97.69
462.118	85.69
462.338	97.69
462.558	77.69
462.777	80.69
462.997	78.69
463.217	73.69
463.437	97.69
463.657	69.69
463.876	82.69
464.096	92.69
464.316	101.69
464.536	95.69
464.755	91.69
464.975	98.69
465.195	134.69
465.414	134.69
465.634	96.69
465.854	90.69
466.073	83.69
466.293	84.69
466.512	111.69
466.732	96.69
466.951	89.69
467.171	97.69
467.391	100.69
467.61	99.69
467.829	108.69
468.049	103.69
468.268	79.69
468.488	81.69
468.707	74.69
468.927	66.69
469.146	93.69
469.365	78.69
469.585	76.69
469.804	94.69
470.023	102.69
470.243	77.69
470.462	95.69
470.681	108.69
470.901	89.69
471.12	95.69
471.339	80.69
471.558	85.69
471.777	84.69
471.997	88.69
472.216	97.69
472.435	98.69
472.654	87.69
472.873	82.69
473.092	81.69
473.311	83.69
473.53	89.69
473.749	73.69
473.968	95.69
474.187	96.69
474.406	98.69
474.625	93.69
474.844	91.69
475.063	89.69
475.282	82.69
475.501	85.69
475.72	73.69
475.939	78.69
476.158	78.69
476.377	95.69
476.596	87.69
476.814	101.69
477.033	114.69
477.252	90.69
477.471	89.69
477.69	93.69
477.908	89.69
478.127	89.69
478.346	84.69
478.564	69.69
478.783	103.69
479.002	96.69
479.22	102.69
479.439	105.69
479.658	100.69
479.876	87.69
480.095	90.69
480.313	84.69
480.532	85.69
480.751	88.69
480.969	89.69
481.188	109.69
481.406	97.69
481.624	101.69
481.843	102.69
482.061	94.69
482.28	84.69
482.498	90.69
482.717	89.69
482.935	90.69
483.153	80.69
483.372	83.69
483.59	90.69
483.808	88.69
484.027	94.69
484.245	91.69
484.463	100.69
484.681	104.69
484.9	96.69
485.118	122.69
485.336	98.69
485.554	99.69
485.772	101.69
485.99	98.69
486.209	91.69
486.427	95.69
486.645	102.69
486.863	109.69
487.081	108.69
487.299	106.69
487.517	88.69
487.735	89.69
487.953	87.69
488.171	80.69
488.389	84.69
488.607	94.69
488.825	78.69
489.043	78.69
489.261	85.69
489.479	98.69
489.696	90.69
489.914	99.69
490.132	80.69
490.35	91.69
490.568	86.69
490.786	82.69
491.003	91.69
491.221	91.69
491.439	86.69
491.657	90.69
491.874	103.69
492.092	94.69
492.31	98.69
492.527	101.69
492.745	98.69
492.963	83.69
493.18	81.69
493.398	92.69
493.615	90.69
493.833	102.69
494.05	91.69
494.268	89.69
494.485	87.69
494.703	98.69
494.92	94.69
495.138	96.69
495.355	86.69
495.573	84.69
495.79	100.69
496.008	85.69
496.225	87.69
496.442	78.69
496.66	84.69
496.877	92.69
497.094	107.69
497.312	77.69
497.529	87.69
497.746	100.69
497.963	85.69
498.181	86.69
498.398	87.69
498.615	111.69
498.832	102.69
499.049	84.69
499.267	89.69
499.484	98.69
499.701	86.69
499.918	88.69
500.135	95.69
500.352	89.69
500.569	77.69
500.786	92.69
501.003	89.69
501.22	90.69
501.437	79.69
501.654	101.69
501.871	90.69
502.088	75.69
502.305	111.69
502.522	91.69
502.739	93.69
502.956	88.69
503.172	85.69
503.389	97.69
503.606	114.69
503.823	87.69
504.04	82.69
504.256	84.69
504.473	83.69
504.69	79.69
504.907	102.69
505.123	98.69
505.34	97.69
505.557	83.69
505.773	103.69
505.99	99.69
506.207	92.69
506.423	107.69
506.64	97.69
506.856	87.69
507.073	91.69
507.289	95.69
507.506	88.69
507.722	121.69
507.939	96.69
508.155	100.69
508.372	92.69
508.588	98.69
508.805	90.69
509.021	91.69
509.238	87.69
509.454	87.69
509.67	92.69
509.887	95.69
510.103	121.69
510.319	214.69
510.536	741.69
510.752	2269.69
510.968	633.69
511.184	146.69
511.401	111.69
511.617	96.69
511.833	83.69
512.049	97.69
512.265	90.69
512.481	102.69
512.698	95.69
512.914	96.69
513.13	100.69
513.346	100.69
513.562	88.69
513.778	87.69
513.994	105.69
514.21	111.69
514.426	111.69
514.642	113.69
514.858	122.69
515.074	161.69
515.29	417.69
515.506	1383.69
515.721	510.69
515.937	149.69
516.153	92.69
516.369	95.69
