Data from Uncirc_1992_H10_HRD10591_00026.txt Node
Date: Wed Jan 03 11:46:21 EST 2024
User: Yrep
Spectrometer: HR+D1059
Trigger mode: 1
Integration Time (sec): 1.000000E-1
Scans to average: 1
Electric dark correction enabled: true
Nonlinearity correction enabled: false
Boxcar width: 0
XAxis mode: Wavelengths
Number of Pixels in Spectrum: 2048
>>>>>Begin Spectral Data<<<<<
223.165	-16.94
223.4	-16.94
223.635	-16.94
223.869	-20.94
224.104	-10.94
224.338	-18.94
224.573	-9.94
224.808	-17.94
225.042	-9.94
225.277	-1.94
225.511	-7.94
225.746	9.06
225.98	7.06
226.215	19.06
226.449	17.06
226.683	17.06
226.918	17.06
227.152	29.06
227.387	38.06
227.621	48.06
227.856	44.06
228.09	48.06
228.324	60.06
228.559	55.06
228.793	165.06
229.027	407.06
229.262	471.06
229.496	530.06
229.73	708.06
229.964	718.06
230.199	488.06
230.433	446.06
230.667	451.06
230.901	440.06
231.136	407.06
231.37	441.06
231.604	424.06
231.838	439.06
232.072	431.06
232.306	415.06
232.541	454.06
232.775	445.06
233.009	448.06
233.243	443.06
233.477	468.06
233.711	475.06
233.945	490.06
234.179	493.06
234.413	480.06
234.647	493.06
234.881	489.06
235.115	500.06
235.349	517.06
235.583	513.06
235.817	571.06
236.051	577.06
236.285	571.06
236.519	568.06
236.753	666.06
236.987	833.06
237.221	1181.06
237.455	1295.06
237.689	820.06
237.922	675.06
238.156	665.06
238.39	649.06
238.624	634.06
238.858	620.06
239.091	626.06
239.325	617.06
239.559	648.06
239.793	673.06
240.027	735.06
240.26	825.06
240.494	903.06
240.728	882.06
240.961	847.06
241.195	763.06
241.429	760.06
241.662	733.06
241.896	755.06
242.13	729.06
242.363	739.06
242.597	760.06
242.83	797.06
243.064	785.06
243.298	816.06
243.531	796.06
243.765	809.06
243.998	800.06
244.232	847.06
244.465	847.06
244.699	855.06
244.932	868.06
245.166	840.06
245.399	880.06
245.633	876.06
245.866	898.06
246.099	878.06
246.333	900.06
246.566	898.06
246.8	944.06
247.033	964.06
247.266	1010.06
247.5	1016.06
247.733	1096.06
247.966	1096.06
248.2	1087.06
248.433	1101.06
248.666	1144.06
248.899	1239.06
249.133	1315.06
249.366	1296.06
249.599	1210.06
249.832	1129.06
250.066	1129.06
250.299	1182.06
250.532	1202.06
250.765	1382.06
250.998	1569.06
251.231	1528.06
251.465	1424.06
251.698	1315.06
251.931	1324.06
252.164	1326.06
252.397	1345.06
252.63	1419.06
252.863	1481.06
253.096	1540.06
253.329	1629.06
253.562	1559.06
253.795	1509.06
254.028	1464.06
254.261	1475.06
254.494	1697.06
254.727	1957.06
254.96	2032.06
255.193	1785.06
255.426	1656.06
255.659	1527.06
255.892	1495.06
256.124	1420.06
256.357	1473.06
256.59	1444.06
256.823	1434.06
257.056	1427.06
257.289	1489.06
257.521	1479.06
257.754	1475.06
257.987	1447.06
258.22	1449.06
258.452	1454.06
258.685	1488.06
258.918	1493.06
259.151	1544.06
259.383	1570.06
259.616	1619.06
259.849	1684.06
260.081	1846.06
260.314	1940.06
260.547	1907.06
260.779	1750.06
261.012	1679.06
261.244	1653.06
261.477	1590.06
261.71	1632.06
261.942	1635.06
262.175	1679.06
262.407	1625.06
262.64	1559.06
262.872	1602.06
263.105	1588.06
263.337	1582.06
263.57	1617.06
263.802	1608.06
264.035	1614.06
264.267	1625.06
264.499	1603.06
264.732	1648.06
264.964	1659.06
265.197	1598.06
265.429	1635.06
265.661	1628.06
265.894	1659.06
266.126	1637.06
266.358	1701.06
266.591	1716.06
266.823	1816.06
267.055	1788.06
267.287	1783.06
267.52	1808.06
267.752	1810.06
267.984	1768.06
268.216	1799.06
268.448	1816.06
268.681	1874.06
268.913	1989.06
269.145	2166.06
269.377	2225.06
269.609	2141.06
269.841	2100.06
270.073	2223.06
270.306	2437.06
270.538	2553.06
270.77	2445.06
271.002	2357.06
271.234	2302.06
271.466	2373.06
271.698	2527.06
271.93	2487.06
272.162	2514.06
272.394	2503.06
272.626	2354.06
272.858	2201.06
273.09	2188.06
273.322	2136.06
273.553	2140.06
273.785	2119.06
274.017	2150.06
274.249	2166.06
274.481	2140.06
274.713	2150.06
274.945	2168.06
275.176	2183.06
275.408	2113.06
275.64	2158.06
275.872	2180.06
276.104	2204.06
276.335	2201.06
276.567	2277.06
276.799	2402.06
277.031	2588.06
277.262	2636.06
277.494	2564.06
277.726	2461.06
277.957	2372.06
278.189	2340.06
278.421	2286.06
278.652	2265.06
278.884	2265.06
279.115	2262.06
279.347	2293.06
279.579	2265.06
279.81	2314.06
280.042	2264.06
280.273	2287.06
280.505	2324.06
280.736	2337.06
280.968	2347.06
281.199	2324.06
281.431	2422.06
281.662	2394.06
281.894	2372.06
282.125	2416.06
282.356	2579.06
282.588	2736.06
282.819	2509.06
283.051	2457.06
283.282	2439.06
283.513	2486.06
283.745	2491.06
283.976	2552.06
284.207	2541.06
284.439	2512.06
284.67	2587.06
284.901	2539.06
285.132	2534.06
285.364	2560.06
285.595	2560.06
285.826	2545.06
286.057	2576.06
286.288	2536.06
286.52	2602.06
286.751	2616.06
286.982	2650.06
287.213	2621.06
287.444	2639.06
287.675	2663.06
287.906	2741.06
288.138	2784.06
288.369	2799.06
288.6	2814.06
288.831	2751.06
289.062	2730.06
289.293	2715.06
289.524	2677.06
289.755	2719.06
289.986	2766.06
290.217	2687.06
290.448	2712.06
290.679	2796.06
290.91	2723.06
291.141	2695.06
291.371	2717.06
291.602	2751.06
291.833	2705.06
292.064	2773.06
292.295	2765.06
292.526	2729.06
292.757	2782.06
292.987	2741.06
293.218	2763.06
293.449	2790.06
293.68	2800.06
293.91	2747.06
294.141	2770.06
294.372	2739.06
294.603	2769.06
294.833	2791.06
295.064	2790.06
295.295	2784.06
295.525	2795.06
295.756	2848.06
295.987	2816.06
296.217	3076.06
296.448	3034.06
296.679	2910.06
296.909	2852.06
297.14	2876.06
297.37	2903.06
297.601	2961.06
297.831	2957.06
298.062	2962.06
298.292	3019.06
298.523	3049.06
298.753	3065.06
298.984	3000.06
299.214	3011.06
299.445	2988.06
299.675	3012.06
299.905	3080.06
300.136	3053.06
300.366	3039.06
300.597	3089.06
300.827	3187.06
301.057	3248.06
301.288	3260.06
301.518	3171.06
301.748	3255.06
301.979	3291.06
302.209	3247.06
302.439	3270.06
302.669	3229.06
302.9	3187.06
303.13	3107.06
303.36	3228.06
303.59	3255.06
303.82	3283.06
304.051	3271.06
304.281	3239.06
304.511	3136.06
304.741	3132.06
304.971	3237.06
305.201	3163.06
305.431	3189.06
305.661	3213.06
305.891	3202.06
306.121	3159.06
306.352	3241.06
306.582	3197.06
306.812	3160.06
307.042	3130.06
307.272	3136.06
307.502	3164.06
307.731	3168.06
307.961	3170.06
308.191	3157.06
308.421	3174.06
308.651	3217.06
308.881	3220.06
309.111	3247.06
309.341	3213.06
309.571	3294.06
309.8	3338.06
310.03	3416.06
310.26	3400.06
310.49	3405.06
310.72	3529.06
310.949	3591.06
311.179	3535.06
311.409	3472.06
311.639	3480.06
311.868	3461.06
312.098	3486.06
312.328	3572.06
312.557	3697.06
312.787	3747.06
313.017	3578.06
313.246	3572.06
313.476	3551.06
313.706	3627.06
313.935	3684.06
314.165	3695.06
314.394	3717.06
314.624	3622.06
314.853	3652.06
315.083	3665.06
315.312	3617.06
315.542	3485.06
315.771	3533.06
316.001	3498.06
316.23	3510.06
316.46	3512.06
316.689	3535.06
316.919	3603.06
317.148	3620.06
317.377	3570.06
317.607	3548.06
317.836	3519.06
318.065	3492.06
318.295	3483.06
318.524	3553.06
318.753	3479.06
318.983	3487.06
319.212	3534.06
319.441	3507.06
319.67	3524.06
319.9	3501.06
320.129	3576.06
320.358	3553.06
320.587	3579.06
320.816	3639.06
321.046	3611.06
321.275	3700.06
321.504	3713.06
321.733	3640.06
321.962	3728.06
322.191	3781.06
322.42	3847.06
322.649	3916.06
322.878	3970.06
323.108	3995.06
323.337	4188.06
323.566	4255.06
323.795	4555.06
324.024	5029.06
324.253	6439.06
324.482	9381.06
324.71	13927.06
324.939	15437.06
325.168	10126.06
325.397	5813.06
325.626	4861.06
325.855	4452.06
326.084	4475.06
326.313	4454.06
326.542	4534.06
326.77	5035.06
326.999	6249.06
327.228	8939.06
327.457	12763.06
327.686	11655.06
327.914	6402.06
328.143	5247.06
328.372	4892.06
328.6	4763.06
328.829	4743.06
329.058	4852.06
329.287	4736.06
329.515	4533.06
329.744	4467.06
329.972	4425.06
330.201	4556.06
330.43	4724.06
330.658	4995.06
330.887	5177.06
331.115	4868.06
331.344	4644.06
331.572	4570.06
331.801	4761.06
332.03	4672.06
332.258	4632.06
332.486	4694.06
332.715	4786.06
332.943	4964.06
333.172	5108.06
333.4	5244.06
333.629	5372.06
333.857	5358.06
334.085	5338.06
334.314	5239.06
334.542	5151.06
334.771	5164.06
334.999	5025.06
335.227	5051.06
335.455	4958.06
335.684	4846.06
335.912	4837.06
336.14	4729.06
336.369	4735.06
336.597	4811.06
336.825	4751.06
337.053	4639.06
337.281	4562.06
337.51	4568.06
337.738	4499.06
337.966	4556.06
338.194	4494.06
338.422	4452.06
338.65	4402.06
338.878	4399.06
339.106	4323.06
339.334	4368.06
339.562	4260.06
339.79	4165.06
340.018	4293.06
340.246	4226.06
340.474	4279.06
340.702	4156.06
340.93	4219.06
341.158	4208.06
341.386	4226.06
341.614	4246.06
341.842	4152.06
342.07	4158.06
342.298	4149.06
342.526	4143.06
342.754	4160.06
342.981	4190.06
343.209	4358.06
343.437	4480.06
343.665	4827.06
343.893	5062.06
344.12	5063.06
344.348	4776.06
344.576	4661.06
344.804	4530.06
345.031	4409.06
345.259	4336.06
345.487	4274.06
345.714	4160.06
345.942	4141.06
346.17	4069.06
346.397	4031.06
346.625	4000.06
346.853	3973.06
347.08	4023.06
347.308	4089.06
347.535	4087.06
347.763	4103.06
347.99	4080.06
348.218	4077.06
348.445	4097.06
348.673	4012.06
348.9	3988.06
349.128	3981.06
349.355	3863.06
349.583	3934.06
349.81	3925.06
350.037	3915.06
350.265	3842.06
350.492	3875.06
350.72	3882.06
350.947	3886.06
351.174	3975.06
351.402	3981.06
351.629	3971.06
351.856	3948.06
352.083	3971.06
352.311	4064.06
352.538	4034.06
352.765	3998.06
352.992	3936.06
353.22	3877.06
353.447	3911.06
353.674	3876.06
353.901	3815.06
354.128	3784.06
354.355	3804.06
354.583	3869.06
354.81	3816.06
355.037	3791.06
355.264	3806.06
355.491	3840.06
355.718	3836.06
355.945	3794.06
356.172	3817.06
356.399	3813.06
356.626	3855.06
356.853	3863.06
357.08	3860.06
357.307	3792.06
357.534	3839.06
357.761	3811.06
357.988	3825.06
358.215	3821.06
358.441	3884.06
358.668	3849.06
358.895	3927.06
359.122	3861.06
359.349	3944.06
359.576	4087.06
359.802	4183.06
360.029	4292.06
360.256	4324.06
360.483	4089.06
360.709	3895.06
360.936	4041.06
361.163	4009.06
361.39	3997.06
361.616	4019.06
361.843	3959.06
362.07	3972.06
362.296	4039.06
362.523	3932.06
362.749	3964.06
362.976	3912.06
363.203	3910.06
363.429	3880.06
363.656	3904.06
363.882	3902.06
364.109	3888.06
364.335	3838.06
364.562	3865.06
364.788	3921.06
365.015	3891.06
365.241	3887.06
365.468	3906.06
365.694	3904.06
365.92	3940.06
366.147	3874.06
366.373	3860.06
366.599	3814.06
366.826	3795.06
367.052	3920.06
367.278	3943.06
367.505	3887.06
367.731	3948.06
367.957	3840.06
368.184	3986.06
368.41	3998.06
368.636	4088.06
368.862	4050.06
369.089	3949.06
369.315	3975.06
369.541	4060.06
369.767	4014.06
369.993	4029.06
370.219	4055.06
370.445	4034.06
370.672	4068.06
370.898	4080.06
371.124	4141.06
371.35	4219.06
371.576	4157.06
371.802	4100.06
372.028	4166.06
372.254	4195.06
372.48	4265.06
372.706	4412.06
372.932	4280.06
373.158	4237.06
373.384	4234.06
373.61	4244.06
373.835	4204.06
374.061	4300.06
374.287	4316.06
374.513	4414.06
374.739	4467.06
374.965	4640.06
375.191	4657.06
375.416	4570.06
375.642	4333.06
375.868	4316.06
376.094	4284.06
376.319	4242.06
376.545	4211.06
376.771	4243.06
376.997	4228.06
377.222	4230.06
377.448	4177.06
377.674	4174.06
377.899	4200.06
378.125	4111.06
378.35	4030.06
378.576	4093.06
378.802	4113.06
379.027	4206.06
379.253	4180.06
379.478	4169.06
379.704	4132.06
379.929	4207.06
380.155	4149.06
380.38	4186.06
380.606	4235.06
380.831	4178.06
381.057	4261.06
381.282	4213.06
381.507	4189.06
381.733	4246.06
381.958	4312.06
382.184	4331.06
382.409	4367.06
382.634	4407.06
382.86	4439.06
383.085	4528.06
383.31	4567.06
383.535	4692.06
383.761	4683.06
383.986	4788.06
384.211	4863.06
384.436	4902.06
384.662	4978.06
384.887	5039.06
385.112	5120.06
385.337	5096.06
385.562	5022.06
385.787	5118.06
386.013	5172.06
386.238	5187.06
386.463	5107.06
386.688	5182.06
386.913	5067.06
387.138	4992.06
387.363	5106.06
387.588	4947.06
387.813	5051.06
388.038	4937.06
388.263	5029.06
388.488	5074.06
388.713	5055.06
388.938	5000.06
389.163	4980.06
389.387	4927.06
389.612	4957.06
389.837	4895.06
390.062	4879.06
390.287	4972.06
390.512	4952.06
390.736	5011.06
390.961	5099.06
391.186	5157.06
391.411	5408.06
391.636	5498.06
391.86	5632.06
392.085	5644.06
392.31	5573.06
392.534	5457.06
392.759	5351.06
392.984	5244.06
393.208	5278.06
393.433	5240.06
393.658	5235.06
393.882	5271.06
394.107	5260.06
394.331	5285.06
394.556	5291.06
394.78	5401.06
395.005	5377.06
395.229	5399.06
395.454	5621.06
395.678	5696.06
395.903	5730.06
396.127	5710.06
396.352	5480.06
396.576	5349.06
396.801	5345.06
397.025	5472.06
397.249	5505.06
397.474	5652.06
397.698	5699.06
397.922	5808.06
398.147	5927.06
398.371	5945.06
398.595	6147.06
398.82	6475.06
399.044	7007.06
399.268	7824.06
399.492	8903.06
399.717	9572.06
399.941	9261.06
400.165	8588.06
400.389	7887.06
400.613	7137.06
400.837	6685.06
401.062	6513.06
401.286	6435.06
401.51	6376.06
401.734	6372.06
401.958	6513.06
402.182	6606.06
402.406	6731.06
402.63	6677.06
402.854	6857.06
403.078	6937.06
403.302	7002.06
403.526	7200.06
403.75	7286.06
403.974	7292.06
404.198	7245.06
404.422	7316.06
404.645	7225.06
404.869	7179.06
405.093	7216.06
405.317	7295.06
405.541	7299.06
405.765	7097.06
405.988	7022.06
406.212	7244.06
406.436	7320.06
406.66	7461.06
406.883	7462.06
407.107	8116.06
407.331	8585.06
407.555	9070.06
407.778	8749.06
408.002	8092.06
408.226	7653.06
408.449	7598.06
408.673	7512.06
408.896	7601.06
409.12	7731.06
409.344	7319.06
409.567	7009.06
409.791	7037.06
410.014	6954.06
410.238	6896.06
410.461	6900.06
410.685	6871.06
410.908	6953.06
411.132	7095.06
411.355	7182.06
411.578	6772.06
411.802	6555.06
412.025	6545.06
412.249	6625.06
412.472	6615.06
412.695	6412.06
412.919	6343.06
413.142	6244.06
413.365	6235.06
413.589	6290.06
413.812	6252.06
414.035	6081.06
414.258	6160.06
414.482	6249.06
414.705	6285.06
414.928	6269.06
415.151	6310.06
415.374	6240.06
415.597	6165.06
415.821	6180.06
416.044	6072.06
416.267	6161.06
416.49	6053.06
416.713	6017.06
416.936	6150.06
417.159	6181.06
417.382	6241.06
417.605	6239.06
417.828	6354.06
418.051	6446.06
418.274	6383.06
418.497	6274.06
418.72	6412.06
418.943	6380.06
419.166	6719.06
419.389	7135.06
419.611	6969.06
419.834	6737.06
420.057	6603.06
420.28	6351.06
420.503	6195.06
420.726	6283.06
420.948	6463.06
421.171	6768.06
421.394	6787.06
421.617	6392.06
421.839	6317.06
422.062	6497.06
422.285	6613.06
422.507	7302.06
422.73	7623.06
422.953	7117.06
423.175	6796.06
423.398	6795.06
423.621	6941.06
423.843	7113.06
424.066	7001.06
424.288	6956.06
424.511	7115.06
424.733	7580.06
424.956	7876.06
425.178	7412.06
425.401	7605.06
425.623	7427.06
425.846	6536.06
426.068	6413.06
426.291	6308.06
426.513	6373.06
426.735	6424.06
426.958	6891.06
427.18	7467.06
427.402	8513.06
427.625	8511.06
427.847	7139.06
428.069	6417.06
428.292	6199.06
428.514	5802.06
428.736	5739.06
428.958	5752.06
429.181	5583.06
429.403	5597.06
429.625	5783.06
429.847	6012.06
430.069	6545.06
430.292	6091.06
430.514	5675.06
430.736	5651.06
430.958	5539.06
431.18	5468.06
431.402	5583.06
431.624	5516.06
431.846	5642.06
432.068	5609.06
432.29	5626.06
432.512	5559.06
432.734	5655.06
432.956	5585.06
433.178	5616.06
433.4	5688.06
433.622	5540.06
433.844	5631.06
434.066	5624.06
434.287	5716.06
434.509	5915.06
434.731	6209.06
434.953	6320.06
435.175	6483.06
435.397	6540.06
435.618	6340.06
435.84	6778.06
436.062	7436.06
436.284	7359.06
436.505	6263.06
436.727	5944.06
436.949	5724.06
437.17	5684.06
437.392	5675.06
437.614	5772.06
437.835	6076.06
438.057	6895.06
438.278	7502.06
438.5	7481.06
438.721	8119.06
438.943	7220.06
439.165	6211.06
439.386	5942.06
439.608	6033.06
439.829	6064.06
440.05	6283.06
440.272	6669.06
440.493	6159.06
440.715	5945.06
440.936	5913.06
441.158	6017.06
441.379	6066.06
441.6	6419.06
441.822	6535.06
442.043	6966.06
442.264	7692.06
442.486	7413.06
442.707	6581.06
442.928	6576.06
443.149	6724.06
443.371	6836.06
443.592	7419.06
443.813	8229.06
444.034	8214.06
444.255	7296.06
444.476	7075.06
444.698	7408.06
444.919	7428.06
445.14	7253.06
445.361	6991.06
445.582	7075.06
445.803	7469.06
446.024	8087.06
446.245	7698.06
446.466	6991.06
446.687	6179.06
446.908	5945.06
447.129	5668.06
447.35	5483.06
447.571	5432.06
447.792	5344.06
448.013	5471.06
448.234	5637.06
448.455	6199.06
448.675	7269.06
448.896	7694.06
449.117	6387.06
449.338	6588.06
449.559	7777.06
449.779	7849.06
450	6163.06
450.221	5530.06
450.442	5269.06
450.662	5167.06
450.883	5271.06
451.104	5425.06
451.324	5259.06
451.545	5083.06
451.766	5047.06
451.986	4936.06
452.207	4873.06
452.428	4896.06
452.648	4958.06
452.869	4921.06
453.089	4921.06
453.31	5055.06
453.53	4908.06
453.751	4802.06
453.971	4834.06
454.192	4951.06
454.412	4780.06
454.633	4793.06
454.853	4723.06
455.073	4748.06
455.294	5093.06
455.514	5585.06
455.734	5147.06
455.955	4644.06
456.175	4616.06
456.395	4524.06
456.616	4500.06
456.836	4479.06
457.056	4483.06
457.276	4412.06
457.497	4581.06
457.717	4515.06
457.937	4603.06
458.157	4661.06
458.377	4785.06
458.598	5074.06
458.818	5600.06
459.038	6335.06
459.258	6215.06
459.478	5747.06
459.698	5657.06
459.918	5722.06
460.138	5861.06
460.358	6168.06
460.578	6147.06
460.798	6244.06
461.018	6225.06
461.238	6141.06
461.458	6051.06
461.678	6043.06
461.898	6232.06
462.118	6251.06
462.338	6491.06
462.558	6722.06
462.777	7063.06
462.997	7604.06
463.217	8025.06
463.437	7829.06
463.657	7200.06
463.876	7068.06
464.096	7046.06
464.316	7010.06
464.536	7085.06
464.755	6874.06
464.975	6729.06
465.195	6740.06
465.414	6644.06
465.634	5980.06
465.854	5621.06
466.073	5409.06
466.293	5238.06
466.512	5122.06
466.732	5078.06
466.951	5042.06
467.171	5011.06
467.391	5140.06
467.61	5180.06
467.829	5137.06
468.049	5028.06
468.268	4900.06
468.488	4875.06
468.707	4822.06
468.927	4856.06
469.146	4820.06
469.365	4904.06
469.585	4947.06
469.804	5101.06
470.023	5248.06
470.243	5253.06
470.462	5329.06
470.681	5424.06
470.901	5280.06
471.12	5240.06
471.339	5157.06
471.558	5077.06
471.777	5026.06
471.997	4903.06
472.216	4890.06
472.435	4900.06
472.654	4848.06
472.873	4766.06
473.092	4754.06
473.311	4830.06
473.53	4947.06
473.749	4997.06
473.968	5336.06
474.187	6191.06
474.406	5856.06
474.625	5145.06
474.844	4921.06
475.063	4856.06
475.282	4881.06
475.501	4955.06
475.72	4857.06
475.939	4970.06
476.158	5076.06
476.377	5068.06
476.596	5109.06
476.814	5169.06
477.033	5185.06
477.252	5252.06
477.471	5371.06
477.69	5461.06
477.908	5555.06
478.127	5765.06
478.346	5795.06
478.564	5948.06
478.783	5936.06
479.002	6121.06
479.22	6178.06
479.439	6223.06
479.658	6273.06
479.876	6331.06
480.095	6520.06
480.313	6906.06
480.532	6819.06
480.751	6657.06
480.969	6575.06
481.188	6408.06
481.406	6187.06
481.624	5970.06
481.843	5801.06
482.061	5718.06
482.28	5745.06
482.498	5697.06
482.717	5617.06
482.935	5617.06
483.153	5633.06
483.372	5634.06
483.59	5658.06
483.808	5692.06
484.027	5674.06
484.245	5773.06
484.463	5721.06
484.681	5883.06
484.9	5858.06
485.118	5873.06
485.336	5888.06
485.554	6007.06
485.772	6010.06
485.99	6014.06
486.209	6111.06
486.427	6064.06
486.645	6063.06
486.863	6188.06
487.081	6064.06
487.299	6110.06
487.517	6048.06
487.735	6099.06
487.953	6017.06
