Data from Uncirc_1992_H10_HRD10591_00013.txt Node
Date: Wed Jan 03 11:46:18 EST 2024
User: Yrep
Spectrometer: HR+D1059
Trigger mode: 1
Integration Time (sec): 1.000000E-1
Scans to average: 1
Electric dark correction enabled: true
Nonlinearity correction enabled: false
Boxcar width: 0
XAxis mode: Wavelengths
Number of Pixels in Spectrum: 2048
>>>>>Begin Spectral Data<<<<<
223.165	-11.56
223.4	-11.56
223.635	-11.56
223.869	-21.56
224.104	-28.56
224.338	-21.56
224.573	-10.56
224.808	-12.56
225.042	-4.56
225.277	0.44
225.511	-17.56
225.746	-4.56
225.98	3.44
226.215	9.44
226.449	23.44
226.683	22.44
226.918	33.44
227.152	40.44
227.387	38.44
227.621	45.44
227.856	44.44
228.09	47.44
228.324	49.44
228.559	63.44
228.793	54.44
229.027	81.44
229.262	61.44
229.496	62.44
229.73	77.44
229.964	76.44
230.199	84.44
230.433	80.44
230.667	77.44
230.901	68.44
231.136	84.44
231.37	88.44
231.604	83.44
231.838	74.44
232.072	71.44
232.306	94.44
232.541	86.44
232.775	84.44
233.009	95.44
233.243	74.44
233.477	80.44
233.711	74.44
233.945	87.44
234.179	88.44
234.413	76.44
234.647	86.44
234.881	74.44
235.115	95.44
235.349	64.44
235.583	77.44
235.817	72.44
236.051	84.44
236.285	91.44
236.519	91.44
236.753	88.44
236.987	82.44
237.221	76.44
237.455	79.44
237.689	67.44
237.922	75.44
238.156	84.44
238.39	70.44
238.624	88.44
238.858	72.44
239.091	75.44
239.325	92.44
239.559	93.44
239.793	87.44
240.027	81.44
240.26	82.44
240.494	89.44
240.728	74.44
240.961	86.44
241.195	86.44
241.429	75.44
241.662	74.44
241.896	82.44
242.13	79.44
242.363	90.44
242.597	84.44
242.83	91.44
243.064	75.44
243.298	90.44
243.531	94.44
243.765	78.44
243.998	78.44
244.232	89.44
244.465	85.44
244.699	83.44
244.932	68.44
245.166	69.44
245.399	70.44
245.633	79.44
245.866	83.44
246.099	71.44
246.333	73.44
246.566	62.44
246.8	89.44
247.033	73.44
247.266	80.44
247.5	85.44
247.733	86.44
247.966	72.44
248.2	90.44
248.433	75.44
248.666	82.44
248.899	87.44
249.133	81.44
249.366	94.44
249.599	99.44
249.832	95.44
250.066	89.44
250.299	79.44
250.532	89.44
250.765	85.44
250.998	71.44
251.231	82.44
251.465	70.44
251.698	87.44
251.931	80.44
252.164	85.44
252.397	87.44
252.63	80.44
252.863	90.44
253.096	94.44
253.329	77.44
253.562	65.44
253.795	79.44
254.028	74.44
254.261	79.44
254.494	93.44
254.727	87.44
254.96	81.44
255.193	97.44
255.426	79.44
255.659	82.44
255.892	85.44
256.124	80.44
256.357	78.44
256.59	79.44
256.823	87.44
257.056	89.44
257.289	77.44
257.521	83.44
257.754	76.44
257.987	75.44
258.22	78.44
258.452	74.44
258.685	96.44
258.918	88.44
259.151	71.44
259.383	92.44
259.616	82.44
259.849	84.44
260.081	89.44
260.314	86.44
260.547	76.44
260.779	94.44
261.012	77.44
261.244	93.44
261.477	91.44
261.71	94.44
261.942	87.44
262.175	101.44
262.407	87.44
262.64	91.44
262.872	85.44
263.105	100.44
263.337	93.44
263.57	90.44
263.802	92.44
264.035	87.44
264.267	83.44
264.499	86.44
264.732	82.44
264.964	91.44
265.197	78.44
265.429	88.44
265.661	96.44
265.894	90.44
266.126	80.44
266.358	100.44
266.591	83.44
266.823	74.44
267.055	95.44
267.287	90.44
267.52	83.44
267.752	84.44
267.984	91.44
268.216	75.44
268.448	98.44
268.681	87.44
268.913	84.44
269.145	80.44
269.377	102.44
269.609	76.44
269.841	74.44
270.073	80.44
270.306	78.44
270.538	90.44
270.77	87.44
271.002	78.44
271.234	80.44
271.466	93.44
271.698	89.44
271.93	98.44
272.162	87.44
272.394	84.44
272.626	82.44
272.858	91.44
273.09	89.44
273.322	95.44
273.553	91.44
273.785	87.44
274.017	79.44
274.249	95.44
274.481	97.44
274.713	85.44
274.945	93.44
275.176	82.44
275.408	110.44
275.64	91.44
275.872	90.44
276.104	76.44
276.335	85.44
276.567	87.44
276.799	110.44
277.031	97.44
277.262	89.44
277.494	77.44
277.726	88.44
277.957	102.44
278.189	91.44
278.421	91.44
278.652	87.44
278.884	92.44
279.115	91.44
279.347	100.44
279.579	93.44
279.81	92.44
280.042	90.44
280.273	77.44
280.505	87.44
280.736	72.44
280.968	91.44
281.199	88.44
281.431	88.44
281.662	95.44
281.894	96.44
282.125	87.44
282.356	98.44
282.588	111.44
282.819	104.44
283.051	90.44
283.282	76.44
283.513	87.44
283.745	94.44
283.976	88.44
284.207	95.44
284.439	79.44
284.67	79.44
284.901	92.44
285.132	86.44
285.364	86.44
285.595	89.44
285.826	87.44
286.057	81.44
286.288	92.44
286.52	87.44
286.751	78.44
286.982	96.44
287.213	88.44
287.444	87.44
287.675	97.44
287.906	88.44
288.138	87.44
288.369	98.44
288.6	93.44
288.831	84.44
289.062	101.44
289.293	83.44
289.524	107.44
289.755	88.44
289.986	86.44
290.217	84.44
290.448	84.44
290.679	88.44
290.91	93.44
291.141	89.44
291.371	88.44
291.602	87.44
291.833	78.44
292.064	86.44
292.295	98.44
292.526	84.44
292.757	88.44
292.987	83.44
293.218	100.44
293.449	86.44
293.68	85.44
293.91	100.44
294.141	94.44
294.372	91.44
294.603	99.44
294.833	96.44
295.064	91.44
295.295	83.44
295.525	95.44
295.756	99.44
295.987	127.44
296.217	113.44
296.448	109.44
296.679	85.44
296.909	97.44
297.14	90.44
297.37	85.44
297.601	83.44
297.831	86.44
298.062	91.44
298.292	94.44
298.523	82.44
298.753	90.44
298.984	98.44
299.214	94.44
299.445	97.44
299.675	86.44
299.905	108.44
300.136	87.44
300.366	102.44
300.597	93.44
300.827	108.44
301.057	89.44
301.288	79.44
301.518	94.44
301.748	95.44
301.979	104.44
302.209	79.44
302.439	82.44
302.669	76.44
302.9	79.44
303.13	76.44
303.36	94.44
303.59	94.44
303.82	96.44
304.051	96.44
304.281	89.44
304.511	94.44
304.741	87.44
304.971	89.44
305.201	97.44
305.431	83.44
305.661	93.44
305.891	93.44
306.121	90.44
306.352	92.44
306.582	94.44
306.812	93.44
307.042	93.44
307.272	91.44
307.502	98.44
307.731	77.44
307.961	74.44
308.191	96.44
308.421	81.44
308.651	83.44
308.881	91.44
309.111	91.44
309.341	80.44
309.571	86.44
309.8	90.44
310.03	104.44
310.26	107.44
310.49	88.44
310.72	93.44
310.949	103.44
311.179	112.44
311.409	93.44
311.639	92.44
311.868	99.44
312.098	109.44
312.328	79.44
312.557	100.44
312.787	95.44
313.017	97.44
313.246	83.44
313.476	98.44
313.706	84.44
313.935	89.44
314.165	96.44
314.394	76.44
314.624	98.44
314.853	93.44
315.083	103.44
315.312	89.44
315.542	93.44
315.771	97.44
316.001	88.44
316.23	107.44
316.46	90.44
316.689	76.44
316.919	96.44
317.148	95.44
317.377	92.44
317.607	83.44
317.836	91.44
318.065	94.44
318.295	85.44
318.524	78.44
318.753	85.44
318.983	104.44
319.212	98.44
319.441	110.44
319.67	95.44
319.9	86.44
320.129	93.44
320.358	97.44
320.587	107.44
320.816	95.44
321.046	99.44
321.275	86.44
321.504	86.44
321.733	106.44
321.962	103.44
322.191	102.44
322.42	105.44
322.649	111.44
322.878	90.44
323.108	112.44
323.337	112.44
323.566	106.44
323.795	139.44
324.024	175.44
324.253	300.44
324.482	634.44
324.71	1230.44
324.939	1541.44
325.168	599.44
325.397	199.44
325.626	130.44
325.855	108.44
326.084	115.44
326.313	126.44
326.542	129.44
326.77	182.44
326.999	364.44
327.228	678.44
327.457	1251.44
327.686	974.44
327.914	293.44
328.143	170.44
328.372	116.44
328.6	106.44
328.829	109.44
329.058	102.44
329.287	103.44
329.515	104.44
329.744	116.44
329.972	93.44
330.201	93.44
330.43	100.44
330.658	124.44
330.887	113.44
331.115	103.44
331.344	103.44
331.572	101.44
331.801	98.44
332.03	85.44
332.258	100.44
332.486	96.44
332.715	109.44
332.943	97.44
333.172	94.44
333.4	86.44
333.629	94.44
333.857	101.44
334.085	88.44
334.314	89.44
334.542	85.44
334.771	97.44
334.999	95.44
335.227	94.44
335.455	95.44
335.684	106.44
335.912	102.44
336.14	99.44
336.369	94.44
336.597	107.44
336.825	103.44
337.053	93.44
337.281	88.44
337.51	75.44
337.738	90.44
337.966	92.44
338.194	96.44
338.422	86.44
338.65	110.44
338.878	97.44
339.106	91.44
339.334	91.44
339.562	96.44
339.79	99.44
340.018	94.44
340.246	90.44
340.474	83.44
340.702	95.44
340.93	100.44
341.158	85.44
341.386	95.44
341.614	104.44
341.842	96.44
342.07	85.44
342.298	98.44
342.526	97.44
342.754	80.44
342.981	94.44
343.209	89.44
343.437	96.44
343.665	96.44
343.893	108.44
344.12	105.44
344.348	87.44
344.576	92.44
344.804	82.44
345.031	112.44
345.259	98.44
345.487	92.44
345.714	90.44
345.942	91.44
346.17	82.44
346.397	90.44
346.625	77.44
346.853	94.44
347.08	87.44
347.308	86.44
347.535	98.44
347.763	94.44
347.99	109.44
348.218	106.44
348.445	96.44
348.673	91.44
348.9	95.44
349.128	92.44
349.355	95.44
349.583	99.44
349.81	101.44
350.037	107.44
350.265	104.44
350.492	102.44
350.72	95.44
350.947	118.44
351.174	117.44
351.402	96.44
351.629	88.44
351.856	93.44
352.083	106.44
352.311	105.44
352.538	102.44
352.765	76.44
352.992	105.44
353.22	126.44
353.447	100.44
353.674	108.44
353.901	108.44
354.128	114.44
354.355	93.44
354.583	115.44
354.81	112.44
355.037	116.44
355.264	96.44
355.491	100.44
355.718	88.44
355.945	100.44
356.172	97.44
356.399	95.44
356.626	93.44
356.853	107.44
357.08	98.44
357.307	83.44
357.534	100.44
357.761	104.44
357.988	100.44
358.215	86.44
358.441	85.44
358.668	79.44
358.895	94.44
359.122	107.44
359.349	93.44
359.576	93.44
359.802	92.44
360.029	100.44
360.256	110.44
360.483	83.44
360.709	80.44
360.936	86.44
361.163	90.44
361.39	86.44
361.616	99.44
361.843	86.44
362.07	102.44
362.296	97.44
362.523	94.44
362.749	81.44
362.976	93.44
363.203	92.44
363.429	88.44
363.656	76.44
363.882	94.44
364.109	88.44
364.335	104.44
364.562	100.44
364.788	99.44
365.015	82.44
365.241	90.44
365.468	104.44
365.694	97.44
365.92	97.44
366.147	95.44
366.373	86.44
366.599	90.44
366.826	80.44
367.052	98.44
367.278	87.44
367.505	84.44
367.731	100.44
367.957	90.44
368.184	90.44
368.41	96.44
368.636	108.44
368.862	107.44
369.089	101.44
369.315	94.44
369.541	100.44
369.767	101.44
369.993	87.44
370.219	86.44
370.445	98.44
370.672	71.44
370.898	91.44
371.124	77.44
371.35	74.44
371.576	86.44
371.802	88.44
372.028	88.44
372.254	76.44
372.48	98.44
372.706	74.44
372.932	78.44
373.158	90.44
373.384	90.44
373.61	92.44
373.835	90.44
374.061	89.44
374.287	88.44
374.513	95.44
374.739	99.44
374.965	100.44
375.191	88.44
375.416	88.44
375.642	89.44
375.868	96.44
376.094	74.44
376.319	92.44
376.545	77.44
376.771	84.44
376.997	77.44
377.222	98.44
377.448	95.44
377.674	93.44
377.899	102.44
378.125	94.44
378.35	100.44
378.576	79.44
378.802	88.44
379.027	98.44
379.253	87.44
379.478	101.44
379.704	94.44
379.929	105.44
380.155	98.44
380.38	98.44
380.606	95.44
380.831	102.44
381.057	98.44
381.282	103.44
381.507	101.44
381.733	101.44
381.958	99.44
382.184	102.44
382.409	102.44
382.634	95.44
382.86	111.44
383.085	92.44
383.31	115.44
383.535	116.44
383.761	96.44
383.986	104.44
384.211	95.44
384.436	95.44
384.662	104.44
384.887	103.44
385.112	106.44
385.337	90.44
385.562	85.44
385.787	95.44
386.013	111.44
386.238	110.44
386.463	103.44
386.688	99.44
386.913	100.44
387.138	96.44
387.363	103.44
387.588	94.44
387.813	95.44
388.038	106.44
388.263	108.44
388.488	95.44
388.713	90.44
388.938	94.44
389.163	101.44
389.387	102.44
389.612	98.44
389.837	96.44
390.062	107.44
390.287	96.44
390.512	82.44
390.736	101.44
390.961	83.44
391.186	94.44
391.411	101.44
391.636	98.44
391.86	86.44
392.085	76.44
392.31	84.44
392.534	84.44
392.759	88.44
392.984	86.44
393.208	106.44
393.433	101.44
393.658	97.44
393.882	81.44
394.107	95.44
394.331	81.44
394.556	87.44
394.78	79.44
395.005	91.44
395.229	88.44
395.454	96.44
395.678	80.44
395.903	84.44
396.127	102.44
396.352	81.44
396.576	82.44
396.801	88.44
397.025	85.44
397.249	98.44
397.474	91.44
397.698	83.44
397.922	87.44
398.147	90.44
398.371	77.44
398.595	82.44
398.82	91.44
399.044	94.44
399.268	85.44
399.492	86.44
399.717	87.44
399.941	87.44
400.165	90.44
400.389	90.44
400.613	86.44
400.837	90.44
401.062	100.44
401.286	98.44
401.51	90.44
401.734	86.44
401.958	100.44
402.182	100.44
402.406	122.44
402.63	98.44
402.854	98.44
403.078	88.44
403.302	96.44
403.526	98.44
403.75	86.44
403.974	94.44
404.198	94.44
404.422	98.44
404.645	73.44
404.869	91.44
405.093	100.44
405.317	98.44
405.541	95.44
405.765	96.44
405.988	101.44
406.212	140.44
406.436	165.44
406.66	115.44
406.883	94.44
407.107	94.44
407.331	94.44
407.555	91.44
407.778	87.44
408.002	84.44
408.226	88.44
408.449	98.44
408.673	88.44
408.896	81.44
409.12	90.44
409.344	103.44
409.567	82.44
409.791	99.44
410.014	111.44
410.238	100.44
410.461	99.44
410.685	112.44
410.908	88.44
411.132	100.44
411.355	106.44
411.578	92.44
411.802	74.44
412.025	95.44
412.249	87.44
412.472	95.44
412.695	94.44
412.919	90.44
413.142	91.44
413.365	94.44
413.589	93.44
413.812	90.44
414.035	112.44
414.258	86.44
414.482	89.44
414.705	93.44
414.928	87.44
415.151	92.44
415.374	100.44
415.597	103.44
415.821	100.44
416.044	92.44
416.267	99.44
416.49	100.44
416.713	92.44
416.936	90.44
417.159	78.44
417.382	99.44
417.605	97.44
417.828	89.44
418.051	85.44
418.274	86.44
418.497	80.44
418.72	83.44
418.943	85.44
419.166	89.44
419.389	87.44
419.611	96.44
419.834	79.44
420.057	90.44
420.28	86.44
420.503	100.44
420.726	96.44
420.948	88.44
421.171	79.44
421.394	91.44
421.617	93.44
421.839	102.44
422.062	103.44
422.285	92.44
422.507	117.44
422.73	91.44
422.953	103.44
423.175	90.44
423.398	82.44
423.621	85.44
423.843	99.44
424.066	82.44
424.288	87.44
424.511	90.44
424.733	91.44
424.956	109.44
425.178	83.44
425.401	98.44
425.623	97.44
425.846	82.44
426.068	87.44
426.291	95.44
426.513	97.44
426.735	79.44
426.958	86.44
427.18	117.44
427.402	115.44
427.625	127.44
427.847	104.44
428.069	82.44
428.292	90.44
428.514	88.44
428.736	97.44
428.958	80.44
429.181	85.44
429.403	90.44
429.625	98.44
429.847	91.44
430.069	104.44
430.292	92.44
430.514	98.44
430.736	103.44
430.958	88.44
431.18	80.44
431.402	82.44
431.624	90.44
431.846	84.44
432.068	96.44
432.29	98.44
432.512	101.44
432.734	96.44
432.956	103.44
433.178	103.44
433.4	91.44
433.622	86.44
433.844	84.44
434.066	86.44
434.287	86.44
434.509	98.44
434.731	91.44
434.953	93.44
435.175	83.44
435.397	93.44
435.618	94.44
435.84	97.44
436.062	119.44
436.284	93.44
436.505	104.44
436.727	79.44
436.949	90.44
437.17	107.44
437.392	93.44
437.614	96.44
437.835	112.44
438.057	121.44
438.278	105.44
438.5	101.44
438.721	99.44
438.943	91.44
439.165	89.44
439.386	101.44
439.608	80.44
439.829	95.44
440.05	111.44
440.272	137.44
440.493	95.44
440.715	91.44
440.936	88.44
441.158	86.44
441.379	100.44
441.6	102.44
441.822	81.44
442.043	100.44
442.264	99.44
442.486	96.44
442.707	100.44
442.928	109.44
443.149	110.44
443.371	104.44
443.592	103.44
443.813	109.44
444.034	99.44
444.255	95.44
444.476	90.44
444.698	108.44
444.919	87.44
445.14	140.44
445.361	122.44
445.582	98.44
445.803	132.44
446.024	122.44
446.245	121.44
446.466	101.44
446.687	93.44
446.908	77.44
447.129	89.44
447.35	89.44
447.571	89.44
447.792	103.44
448.013	99.44
448.234	104.44
448.455	109.44
448.675	108.44
448.896	110.44
449.117	113.44
449.338	105.44
449.559	117.44
449.779	129.44
450	85.44
450.221	108.44
450.442	95.44
450.662	94.44
450.883	102.44
451.104	96.44
451.324	85.44
451.545	96.44
451.766	100.44
451.986	87.44
452.207	84.44
452.428	83.44
452.648	86.44
452.869	106.44
453.089	117.44
453.31	109.44
453.53	86.44
453.751	76.44
453.971	99.44
454.192	102.44
454.412	86.44
454.633	83.44
454.853	88.44
455.073	83.44
455.294	97.44
455.514	98.44
455.734	93.44
455.955	91.44
456.175	86.44
456.395	91.44
456.616	92.44
456.836	81.44
457.056	82.44
457.276	79.44
457.497	95.44
457.717	97.44
457.937	97.44
458.157	86.44
458.377	78.44
458.598	102.44
458.818	125.44
459.038	132.44
459.258	103.44
459.478	92.44
459.698	82.44
459.918	75.44
460.138	86.44
460.358	78.44
460.578	96.44
460.798	87.44
461.018	90.44
461.238	86.44
461.458	75.44
461.678	90.44
461.898	96.44
462.118	82.44
462.338	82.44
462.558	98.44
462.777	93.44
462.997	74.44
463.217	80.44
463.437	84.44
463.657	79.44
463.876	92.44
464.096	111.44
464.316	90.44
464.536	90.44
464.755	90.44
464.975	102.44
465.195	139.44
465.414	133.44
465.634	86.44
465.854	78.44
466.073	92.44
466.293	92.44
466.512	91.44
466.732	91.44
466.951	86.44
467.171	101.44
467.391	91.44
467.61	111.44
467.829	113.44
468.049	95.44
468.268	86.44
468.488	78.44
468.707	95.44
468.927	84.44
469.146	84.44
469.365	83.44
469.585	86.44
469.804	99.44
470.023	91.44
470.243	76.44
470.462	102.44
470.681	96.44
470.901	96.44
471.12	81.44
471.339	82.44
471.558	81.44
471.777	97.44
471.997	87.44
472.216	76.44
472.435	89.44
472.654	81.44
472.873	86.44
473.092	92.44
473.311	104.44
473.53	72.44
473.749	81.44
473.968	92.44
474.187	80.44
474.406	98.44
474.625	88.44
474.844	92.44
475.063	80.44
475.282	109.44
475.501	86.44
475.72	92.44
475.939	79.44
476.158	90.44
476.377	99.44
476.596	85.44
476.814	94.44
477.033	91.44
477.252	87.44
477.471	100.44
477.69	80.44
477.908	85.44
478.127	74.44
478.346	92.44
478.564	94.44
478.783	95.44
479.002	78.44
479.22	91.44
479.439	101.44
479.658	97.44
479.876	87.44
480.095	102.44
480.313	85.44
480.532	101.44
480.751	85.44
480.969	100.44
481.188	93.44
481.406	92.44
481.624	85.44
481.843	99.44
482.061	84.44
482.28	73.44
482.498	108.44
482.717	91.44
482.935	91.44
483.153	90.44
483.372	92.44
483.59	87.44
483.808	100.44
484.027	96.44
484.245	103.44
484.463	89.44
484.681	86.44
484.9	93.44
485.118	103.44
485.336	91.44
485.554	78.44
485.772	92.44
485.99	110.44
486.209	96.44
486.427	115.44
486.645	102.44
486.863	102.44
487.081	104.44
487.299	94.44
487.517	79.44
487.735	92.44
487.953	88.44
488.171	92.44
488.389	82.44
488.607	88.44
488.825	87.44
489.043	80.44
489.261	72.44
489.479	82.44
489.696	94.44
489.914	100.44
490.132	95.44
490.35	81.44
490.568	93.44
490.786	93.44
491.003	86.44
491.221	88.44
491.439	100.44
491.657	108.44
491.874	92.44
492.092	77.44
492.31	94.44
492.527	87.44
492.745	97.44
492.963	99.44
493.18	91.44
493.398	97.44
493.615	94.44
493.833	90.44
494.05	91.44
494.268	101.44
494.485	93.44
494.703	99.44
494.92	90.44
495.138	77.44
495.355	107.44
495.573	89.44
495.79	88.44
496.008	93.44
496.225	114.44
496.442	97.44
496.66	98.44
496.877	95.44
497.094	82.44
497.312	94.44
497.529	94.44
497.746	105.44
497.963	93.44
498.181	96.44
498.398	103.44
498.615	104.44
498.832	88.44
499.049	90.44
499.267	87.44
499.484	108.44
499.701	93.44
499.918	89.44
500.135	90.44
500.352	99.44
500.569	86.44
500.786	74.44
501.003	94.44
501.22	90.44
501.437	91.44
501.654	99.44
501.871	98.44
502.088	95.44
502.305	91.44
502.522	87.44
502.739	92.44
502.956	90.44
503.172	95.44
503.389	108.44
503.606	105.44
503.823	95.44
504.04	83.44
504.256	92.44
504.473	85.44
504.69	99.44
504.907	79.44
505.123	93.44
505.34	95.44
505.557	86.44
505.773	97.44
505.99	83.44
506.207	86.44
506.423	95.44
506.64	91.44
506.856	92.44
507.073	90.44
507.289	85.44
507.506	114.44
507.722	109.44
507.939	105.44
508.155	91.44
508.372	95.44
508.588	91.44
508.805	85.44
509.021	103.44
509.238	89.44
509.454	91.44
509.67	97.44
509.887	101.44
510.103	122.44
510.319	196.44
510.536	596.44
510.752	1680.44
510.968	483.44
511.184	133.44
511.401	105.44
511.617	98.44
511.833	93.44
512.049	86.44
512.265	102.44
512.481	95.44
512.698	87.44
512.914	99.44
513.13	117.44
513.346	96.44
513.562	82.44
513.778	90.44
513.994	115.44
514.21	98.44
514.426	121.44
514.642	125.44
514.858	119.44
515.074	142.44
515.29	349.44
515.506	1010.44
515.721	403.44
