Data from Uncirc_1992_H10_HRD10591_00010.txt Node
Date: Wed Jan 03 11:46:18 EST 2024
User: Yrep
Spectrometer: HR+D1059
Trigger mode: 1
Integration Time (sec): 1.000000E-1
Scans to average: 1
Electric dark correction enabled: true
Nonlinearity correction enabled: false
Boxcar width: 0
XAxis mode: Wavelengths
Number of Pixels in Spectrum: 2048
>>>>>Begin Spectral Data<<<<<
223.165	-14.88
223.4	-14.88
223.635	-14.88
223.869	-22.88
224.104	-6.88
224.338	-16.88
224.573	-16.88
224.808	-14.88
225.042	-8.88
225.277	-9.88
225.511	1.12
225.746	10.12
225.98	14.12
226.215	-0.88
226.449	10.12
226.683	18.12
226.918	20.12
227.152	39.12
227.387	38.12
227.621	22.12
227.856	45.12
228.09	39.12
228.324	48.12
228.559	68.12
228.793	70.12
229.027	63.12
229.262	67.12
229.496	71.12
229.73	86.12
229.964	76.12
230.199	83.12
230.433	76.12
230.667	79.12
230.901	85.12
231.136	94.12
231.37	75.12
231.604	82.12
231.838	79.12
232.072	76.12
232.306	84.12
232.541	69.12
232.775	74.12
233.009	78.12
233.243	86.12
233.477	79.12
233.711	78.12
233.945	85.12
234.179	91.12
234.413	79.12
234.647	81.12
234.881	72.12
235.115	97.12
235.349	64.12
235.583	84.12
235.817	69.12
236.051	90.12
236.285	77.12
236.519	76.12
236.753	72.12
236.987	82.12
237.221	88.12
237.455	86.12
237.689	75.12
237.922	74.12
238.156	84.12
238.39	83.12
238.624	83.12
238.858	78.12
239.091	73.12
239.325	76.12
239.559	80.12
239.793	84.12
240.027	80.12
240.26	94.12
240.494	79.12
240.728	70.12
240.961	82.12
241.195	73.12
241.429	75.12
241.662	87.12
241.896	73.12
242.13	72.12
242.363	78.12
242.597	75.12
242.83	76.12
243.064	91.12
243.298	67.12
243.531	77.12
243.765	76.12
243.998	72.12
244.232	88.12
244.465	71.12
244.699	77.12
244.932	66.12
245.166	74.12
245.399	75.12
245.633	74.12
245.866	76.12
246.099	79.12
246.333	78.12
246.566	74.12
246.8	81.12
247.033	79.12
247.266	80.12
247.5	72.12
247.733	83.12
247.966	87.12
248.2	77.12
248.433	72.12
248.666	84.12
248.899	78.12
249.133	83.12
249.366	92.12
249.599	92.12
249.832	76.12
250.066	86.12
250.299	78.12
250.532	87.12
250.765	82.12
250.998	90.12
251.231	72.12
251.465	76.12
251.698	70.12
251.931	80.12
252.164	82.12
252.397	80.12
252.63	75.12
252.863	82.12
253.096	71.12
253.329	78.12
253.562	71.12
253.795	86.12
254.028	85.12
254.261	98.12
254.494	84.12
254.727	88.12
254.96	78.12
255.193	83.12
255.426	83.12
255.659	75.12
255.892	86.12
256.124	80.12
256.357	74.12
256.59	97.12
256.823	85.12
257.056	82.12
257.289	88.12
257.521	79.12
257.754	92.12
257.987	79.12
258.22	91.12
258.452	92.12
258.685	82.12
258.918	71.12
259.151	82.12
259.383	103.12
259.616	78.12
259.849	83.12
260.081	86.12
260.314	86.12
260.547	82.12
260.779	75.12
261.012	85.12
261.244	78.12
261.477	85.12
261.71	94.12
261.942	88.12
262.175	99.12
262.407	89.12
262.64	88.12
262.872	94.12
263.105	77.12
263.337	95.12
263.57	93.12
263.802	87.12
264.035	93.12
264.267	84.12
264.499	84.12
264.732	80.12
264.964	88.12
265.197	85.12
265.429	88.12
265.661	90.12
265.894	74.12
266.126	79.12
266.358	96.12
266.591	84.12
266.823	98.12
267.055	84.12
267.287	74.12
267.52	79.12
267.752	62.12
267.984	78.12
268.216	78.12
268.448	97.12
268.681	74.12
268.913	82.12
269.145	85.12
269.377	85.12
269.609	76.12
269.841	69.12
270.073	74.12
270.306	105.12
270.538	82.12
270.77	80.12
271.002	76.12
271.234	86.12
271.466	82.12
271.698	78.12
271.93	93.12
272.162	109.12
272.394	74.12
272.626	98.12
272.858	95.12
273.09	80.12
273.322	91.12
273.553	88.12
273.785	86.12
274.017	70.12
274.249	99.12
274.481	102.12
274.713	97.12
274.945	96.12
275.176	89.12
275.408	92.12
275.64	95.12
275.872	83.12
276.104	99.12
276.335	70.12
276.567	87.12
276.799	90.12
277.031	98.12
277.262	83.12
277.494	89.12
277.726	91.12
277.957	91.12
278.189	94.12
278.421	73.12
278.652	98.12
278.884	93.12
279.115	100.12
279.347	94.12
279.579	93.12
279.81	81.12
280.042	77.12
280.273	95.12
280.505	79.12
280.736	80.12
280.968	98.12
281.199	91.12
281.431	71.12
281.662	79.12
281.894	82.12
282.125	103.12
282.356	106.12
282.588	136.12
282.819	100.12
283.051	88.12
283.282	74.12
283.513	87.12
283.745	85.12
283.976	86.12
284.207	86.12
284.439	91.12
284.67	88.12
284.901	80.12
285.132	89.12
285.364	98.12
285.595	91.12
285.826	81.12
286.057	77.12
286.288	90.12
286.52	87.12
286.751	88.12
286.982	78.12
287.213	87.12
287.444	93.12
287.675	82.12
287.906	94.12
288.138	85.12
288.369	84.12
288.6	80.12
288.831	77.12
289.062	86.12
289.293	84.12
289.524	94.12
289.755	89.12
289.986	95.12
290.217	100.12
290.448	77.12
290.679	80.12
290.91	92.12
291.141	92.12
291.371	89.12
291.602	84.12
291.833	91.12
292.064	84.12
292.295	90.12
292.526	90.12
292.757	82.12
292.987	86.12
293.218	86.12
293.449	81.12
293.68	87.12
293.91	84.12
294.141	82.12
294.372	77.12
294.603	80.12
294.833	84.12
295.064	85.12
295.295	91.12
295.525	94.12
295.756	97.12
295.987	103.12
296.217	123.12
296.448	108.12
296.679	98.12
296.909	74.12
297.14	98.12
297.37	87.12
297.601	82.12
297.831	87.12
298.062	89.12
298.292	83.12
298.523	98.12
298.753	84.12
298.984	92.12
299.214	98.12
299.445	91.12
299.675	90.12
299.905	95.12
300.136	99.12
300.366	85.12
300.597	98.12
300.827	102.12
301.057	93.12
301.288	113.12
301.518	103.12
301.748	77.12
301.979	95.12
302.209	106.12
302.439	88.12
302.669	95.12
302.9	80.12
303.13	90.12
303.36	106.12
303.59	96.12
303.82	101.12
304.051	101.12
304.281	98.12
304.511	102.12
304.741	102.12
304.971	90.12
305.201	92.12
305.431	86.12
305.661	90.12
305.891	94.12
306.121	98.12
306.352	101.12
306.582	108.12
306.812	94.12
307.042	86.12
307.272	86.12
307.502	87.12
307.731	96.12
307.961	87.12
308.191	82.12
308.421	91.12
308.651	92.12
308.881	92.12
309.111	90.12
309.341	100.12
309.571	98.12
309.8	96.12
310.03	95.12
310.26	97.12
310.49	91.12
310.72	104.12
310.949	97.12
311.179	100.12
311.409	92.12
311.639	91.12
311.868	97.12
312.098	99.12
312.328	94.12
312.557	90.12
312.787	88.12
313.017	98.12
313.246	86.12
313.476	82.12
313.706	81.12
313.935	90.12
314.165	86.12
314.394	111.12
314.624	98.12
314.853	106.12
315.083	92.12
315.312	93.12
315.542	102.12
315.771	80.12
316.001	85.12
316.23	90.12
316.46	90.12
316.689	86.12
316.919	95.12
317.148	105.12
317.377	94.12
317.607	89.12
317.836	99.12
318.065	84.12
318.295	89.12
318.524	96.12
318.753	93.12
318.983	99.12
319.212	108.12
319.441	98.12
319.67	101.12
319.9	85.12
320.129	83.12
320.358	106.12
320.587	101.12
320.816	99.12
321.046	116.12
321.275	87.12
321.504	90.12
321.733	93.12
321.962	102.12
322.191	101.12
322.42	101.12
322.649	101.12
322.878	103.12
323.108	107.12
323.337	114.12
323.566	117.12
323.795	121.12
324.024	163.12
324.253	325.12
324.482	645.12
324.71	1249.12
324.939	1662.12
325.168	612.12
325.397	180.12
325.626	151.12
325.855	122.12
326.084	123.12
326.313	123.12
326.542	119.12
326.77	199.12
326.999	357.12
327.228	725.12
327.457	1262.12
327.686	991.12
327.914	304.12
328.143	164.12
328.372	146.12
328.6	117.12
328.829	111.12
329.058	111.12
329.287	116.12
329.515	117.12
329.744	99.12
329.972	90.12
330.201	78.12
330.43	99.12
330.658	102.12
330.887	122.12
331.115	113.12
331.344	108.12
331.572	94.12
331.801	87.12
332.03	94.12
332.258	102.12
332.486	98.12
332.715	107.12
332.943	97.12
333.172	96.12
333.4	84.12
333.629	100.12
333.857	99.12
334.085	101.12
334.314	99.12
334.542	87.12
334.771	96.12
334.999	106.12
335.227	100.12
335.455	99.12
335.684	88.12
335.912	87.12
336.14	87.12
336.369	99.12
336.597	109.12
336.825	94.12
337.053	85.12
337.281	93.12
337.51	96.12
337.738	112.12
337.966	114.12
338.194	102.12
338.422	116.12
338.65	98.12
338.878	94.12
339.106	83.12
339.334	103.12
339.562	107.12
339.79	89.12
340.018	102.12
340.246	78.12
340.474	78.12
340.702	99.12
340.93	107.12
341.158	94.12
341.386	87.12
341.614	84.12
341.842	82.12
342.07	96.12
342.298	101.12
342.526	88.12
342.754	96.12
342.981	91.12
343.209	87.12
343.437	88.12
343.665	83.12
343.893	79.12
344.12	93.12
344.348	82.12
344.576	83.12
344.804	82.12
345.031	83.12
345.259	85.12
345.487	84.12
345.714	93.12
345.942	99.12
346.17	109.12
346.397	108.12
346.625	83.12
346.853	90.12
347.08	82.12
347.308	79.12
347.535	93.12
347.763	91.12
347.99	92.12
348.218	80.12
348.445	99.12
348.673	97.12
348.9	90.12
349.128	86.12
349.355	94.12
349.583	101.12
349.81	98.12
350.037	95.12
350.265	91.12
350.492	94.12
350.72	80.12
350.947	87.12
351.174	95.12
351.402	92.12
351.629	100.12
351.856	85.12
352.083	93.12
352.311	99.12
352.538	124.12
352.765	105.12
352.992	118.12
353.22	95.12
353.447	98.12
353.674	100.12
353.901	103.12
354.128	102.12
354.355	106.12
354.583	91.12
354.81	91.12
355.037	112.12
355.264	102.12
355.491	87.12
355.718	98.12
355.945	101.12
356.172	87.12
356.399	97.12
356.626	98.12
356.853	80.12
357.08	92.12
357.307	103.12
357.534	94.12
357.761	92.12
357.988	101.12
358.215	94.12
358.441	94.12
358.668	108.12
358.895	105.12
359.122	87.12
359.349	87.12
359.576	98.12
359.802	88.12
360.029	101.12
360.256	83.12
360.483	81.12
360.709	85.12
360.936	98.12
361.163	97.12
361.39	101.12
361.616	97.12
361.843	87.12
362.07	96.12
362.296	86.12
362.523	89.12
362.749	100.12
362.976	87.12
363.203	78.12
363.429	72.12
363.656	91.12
363.882	93.12
364.109	99.12
364.335	101.12
364.562	99.12
364.788	86.12
365.015	84.12
365.241	103.12
365.468	109.12
365.694	102.12
365.92	93.12
366.147	86.12
366.373	82.12
366.599	80.12
366.826	93.12
367.052	105.12
367.278	90.12
367.505	89.12
367.731	83.12
367.957	80.12
368.184	82.12
368.41	90.12
368.636	103.12
368.862	110.12
369.089	91.12
369.315	96.12
369.541	85.12
369.767	91.12
369.993	85.12
370.219	90.12
370.445	101.12
370.672	97.12
370.898	93.12
371.124	80.12
371.35	88.12
371.576	103.12
371.802	81.12
372.028	83.12
372.254	93.12
372.48	91.12
372.706	94.12
372.932	84.12
373.158	86.12
373.384	91.12
373.61	98.12
373.835	94.12
374.061	87.12
374.287	98.12
374.513	95.12
374.739	99.12
374.965	90.12
375.191	88.12
375.416	75.12
375.642	82.12
375.868	87.12
376.094	80.12
376.319	85.12
376.545	87.12
376.771	107.12
376.997	97.12
377.222	83.12
377.448	85.12
377.674	89.12
377.899	91.12
378.125	88.12
378.35	93.12
378.576	93.12
378.802	94.12
379.027	99.12
379.253	83.12
379.478	104.12
379.704	104.12
379.929	102.12
380.155	102.12
380.38	86.12
380.606	100.12
380.831	94.12
381.057	104.12
381.282	97.12
381.507	95.12
381.733	106.12
381.958	87.12
382.184	95.12
382.409	98.12
382.634	100.12
382.86	100.12
383.085	92.12
383.31	99.12
383.535	92.12
383.761	102.12
383.986	105.12
384.211	92.12
384.436	99.12
384.662	105.12
384.887	98.12
385.112	108.12
385.337	102.12
385.562	112.12
385.787	107.12
386.013	109.12
386.238	114.12
386.463	109.12
386.688	119.12
386.913	106.12
387.138	108.12
387.363	94.12
387.588	86.12
387.813	96.12
388.038	102.12
388.263	95.12
388.488	102.12
388.713	106.12
388.938	84.12
389.163	94.12
389.387	102.12
389.612	100.12
389.837	96.12
390.062	88.12
390.287	90.12
390.512	94.12
390.736	108.12
390.961	78.12
391.186	88.12
391.411	101.12
391.636	103.12
391.86	93.12
392.085	75.12
392.31	87.12
392.534	94.12
392.759	90.12
392.984	90.12
393.208	90.12
393.433	108.12
393.658	100.12
393.882	86.12
394.107	82.12
394.331	87.12
394.556	85.12
394.78	93.12
395.005	82.12
395.229	87.12
395.454	81.12
395.678	82.12
395.903	98.12
396.127	82.12
396.352	90.12
396.576	75.12
396.801	92.12
397.025	99.12
397.249	97.12
397.474	105.12
397.698	99.12
397.922	84.12
398.147	85.12
398.371	91.12
398.595	81.12
398.82	86.12
399.044	96.12
399.268	95.12
399.492	87.12
399.717	92.12
399.941	99.12
400.165	93.12
400.389	98.12
400.613	73.12
400.837	80.12
401.062	89.12
401.286	91.12
401.51	78.12
401.734	80.12
401.958	99.12
402.182	121.12
402.406	134.12
402.63	115.12
402.854	99.12
403.078	89.12
403.302	82.12
403.526	72.12
403.75	84.12
403.974	100.12
404.198	89.12
404.422	86.12
404.645	74.12
404.869	78.12
405.093	84.12
405.317	95.12
405.541	112.12
405.765	96.12
405.988	86.12
406.212	148.12
406.436	176.12
406.66	124.12
406.883	102.12
407.107	81.12
407.331	105.12
407.555	88.12
407.778	96.12
408.002	88.12
408.226	94.12
408.449	90.12
408.673	91.12
408.896	91.12
409.12	102.12
409.344	85.12
409.567	99.12
409.791	97.12
410.014	105.12
410.238	96.12
410.461	93.12
410.685	98.12
410.908	91.12
411.132	94.12
411.355	102.12
411.578	111.12
411.802	98.12
412.025	97.12
412.249	94.12
412.472	92.12
412.695	105.12
412.919	98.12
413.142	69.12
413.365	90.12
413.589	84.12
413.812	95.12
414.035	95.12
414.258	98.12
414.482	91.12
414.705	101.12
414.928	79.12
415.151	90.12
415.374	85.12
415.597	94.12
415.821	100.12
416.044	94.12
416.267	106.12
416.49	90.12
416.713	96.12
416.936	75.12
417.159	88.12
417.382	81.12
417.605	79.12
417.828	95.12
418.051	94.12
418.274	103.12
418.497	81.12
418.72	85.12
418.943	88.12
419.166	86.12
419.389	100.12
419.611	78.12
419.834	84.12
420.057	79.12
420.28	92.12
420.503	90.12
420.726	84.12
420.948	85.12
421.171	92.12
421.394	96.12
421.617	83.12
421.839	84.12
422.062	96.12
422.285	90.12
422.507	104.12
422.73	103.12
422.953	100.12
423.175	79.12
423.398	103.12
423.621	85.12
423.843	84.12
424.066	85.12
424.288	96.12
424.511	96.12
424.733	87.12
424.956	108.12
425.178	98.12
425.401	98.12
425.623	88.12
425.846	95.12
426.068	100.12
426.291	86.12
426.513	75.12
426.735	94.12
426.958	100.12
427.18	97.12
427.402	123.12
427.625	130.12
427.847	120.12
428.069	110.12
428.292	80.12
428.514	85.12
428.736	90.12
428.958	80.12
429.181	74.12
429.403	89.12
429.625	94.12
429.847	80.12
430.069	96.12
430.292	98.12
430.514	83.12
430.736	69.12
430.958	98.12
431.18	91.12
431.402	100.12
431.624	85.12
431.846	86.12
432.068	91.12
432.29	70.12
432.512	80.12
432.734	100.12
432.956	86.12
433.178	99.12
433.4	96.12
433.622	93.12
433.844	107.12
434.066	82.12
434.287	93.12
434.509	98.12
434.731	100.12
434.953	98.12
435.175	93.12
435.397	88.12
435.618	99.12
435.84	94.12
436.062	104.12
436.284	93.12
436.505	101.12
436.727	104.12
436.949	115.12
437.17	92.12
437.392	88.12
437.614	74.12
437.835	112.12
438.057	111.12
438.278	117.12
438.5	86.12
438.721	103.12
438.943	117.12
439.165	93.12
439.386	98.12
439.608	91.12
439.829	98.12
440.05	104.12
440.272	111.12
440.493	80.12
440.715	101.12
440.936	105.12
441.158	98.12
441.379	91.12
441.6	96.12
441.822	87.12
442.043	96.12
442.264	104.12
442.486	106.12
442.707	98.12
442.928	103.12
443.149	118.12
443.371	117.12
443.592	99.12
443.813	108.12
444.034	85.12
444.255	89.12
444.476	90.12
444.698	86.12
444.919	82.12
445.14	114.12
445.361	120.12
445.582	110.12
445.803	124.12
446.024	104.12
446.245	110.12
446.466	95.12
446.687	90.12
446.908	96.12
447.129	99.12
447.35	86.12
447.571	77.12
447.792	98.12
448.013	99.12
448.234	85.12
448.455	98.12
448.675	105.12
448.896	112.12
449.117	100.12
449.338	101.12
449.559	117.12
449.779	117.12
450	89.12
450.221	91.12
450.442	84.12
450.662	101.12
450.883	104.12
451.104	97.12
451.324	90.12
451.545	83.12
451.766	100.12
451.986	103.12
452.207	105.12
452.428	99.12
452.648	95.12
452.869	110.12
453.089	114.12
453.31	100.12
453.53	93.12
453.751	86.12
453.971	89.12
454.192	98.12
454.412	89.12
454.633	85.12
454.853	87.12
455.073	84.12
455.294	106.12
455.514	96.12
455.734	77.12
455.955	87.12
456.175	98.12
456.395	95.12
456.616	78.12
456.836	83.12
457.056	92.12
457.276	75.12
457.497	61.12
457.717	86.12
457.937	102.12
458.157	86.12
458.377	91.12
458.598	118.12
458.818	130.12
459.038	130.12
459.258	109.12
459.478	84.12
459.698	86.12
459.918	90.12
460.138	75.12
460.358	83.12
460.578	91.12
460.798	89.12
461.018	91.12
461.238	82.12
461.458	80.12
461.678	94.12
461.898	94.12
462.118	90.12
462.338	82.12
462.558	88.12
462.777	91.12
462.997	92.12
463.217	109.12
463.437	79.12
463.657	82.12
463.876	85.12
464.096	98.12
464.316	76.12
464.536	88.12
464.755	97.12
464.975	90.12
465.195	134.12
465.414	133.12
465.634	101.12
465.854	92.12
466.073	91.12
466.293	89.12
466.512	88.12
466.732	76.12
466.951	85.12
467.171	93.12
467.391	82.12
467.61	94.12
467.829	78.12
468.049	95.12
468.268	71.12
468.488	87.12
468.707	91.12
468.927	82.12
469.146	96.12
469.365	102.12
469.585	84.12
469.804	87.12
470.023	99.12
470.243	91.12
470.462	104.12
470.681	117.12
470.901	100.12
471.12	85.12
471.339	82.12
471.558	80.12
471.777	90.12
471.997	84.12
472.216	79.12
472.435	88.12
472.654	85.12
472.873	82.12
473.092	92.12
473.311	97.12
473.53	78.12
473.749	94.12
473.968	97.12
474.187	109.12
474.406	91.12
474.625	88.12
474.844	108.12
475.063	84.12
475.282	85.12
475.501	100.12
475.72	98.12
475.939	88.12
476.158	70.12
476.377	78.12
476.596	97.12
476.814	97.12
477.033	87.12
477.252	97.12
477.471	87.12
477.69	84.12
477.908	93.12
478.127	97.12
478.346	99.12
478.564	92.12
478.783	91.12
479.002	93.12
479.22	92.12
479.439	93.12
479.658	114.12
479.876	104.12
480.095	85.12
480.313	98.12
480.532	85.12
480.751	98.12
480.969	97.12
481.188	107.12
481.406	93.12
481.624	93.12
481.843	94.12
482.061	102.12
482.28	85.12
482.498	91.12
482.717	90.12
482.935	90.12
483.153	88.12
483.372	93.12
483.59	86.12
483.808	86.12
484.027	81.12
484.245	94.12
484.463	76.12
484.681	110.12
484.9	100.12
485.118	103.12
485.336	91.12
485.554	94.12
485.772	102.12
485.99	93.12
486.209	103.12
486.427	100.12
486.645	111.12
486.863	84.12
487.081	106.12
487.299	104.12
487.517	108.12
487.735	107.12
487.953	85.12
488.171	83.12
488.389	90.12
488.607	113.12
488.825	96.12
489.043	79.12
489.261	77.12
489.479	77.12
489.696	85.12
489.914	85.12
490.132	92.12
490.35	91.12
490.568	101.12
490.786	99.12
491.003	83.12
491.221	90.12
491.439	92.12
491.657	91.12
491.874	93.12
492.092	87.12
492.31	94.12
492.527	98.12
492.745	94.12
492.963	84.12
493.18	74.12
493.398	94.12
493.615	94.12
493.833	85.12
494.05	92.12
494.268	97.12
494.485	81.12
494.703	87.12
494.92	91.12
495.138	85.12
495.355	84.12
495.573	103.12
495.79	100.12
496.008	83.12
496.225	96.12
496.442	91.12
496.66	92.12
496.877	99.12
497.094	108.12
497.312	102.12
497.529	73.12
497.746	84.12
497.963	82.12
498.181	90.12
498.398	102.12
498.615	112.12
498.832	94.12
499.049	97.12
499.267	108.12
499.484	84.12
499.701	104.12
499.918	84.12
500.135	77.12
500.352	92.12
500.569	98.12
500.786	98.12
501.003	99.12
501.22	79.12
501.437	97.12
501.654	91.12
501.871	102.12
502.088	98.12
502.305	97.12
502.522	89.12
502.739	92.12
502.956	87.12
503.172	92.12
503.389	89.12
503.606	96.12
503.823	104.12
504.04	89.12
504.256	94.12
504.473	97.12
504.69	104.12
504.907	97.12
505.123	92.12
505.34	98.12
505.557	99.12
505.773	94.12
505.99	100.12
506.207	102.12
506.423	90.12
506.64	87.12
506.856	92.12
507.073	98.12
507.289	98.12
507.506	94.12
507.722	98.12
507.939	113.12
508.155	101.12
508.372	92.12
508.588	96.12
508.805	104.12
509.021	101.12
509.238	70.12
509.454	94.12
509.67	95.12
509.887	112.12
510.103	139.12
510.319	190.12
510.536	638.12
510.752	1784.12
510.968	512.12
511.184	142.12
511.401	109.12
511.617	113.12
511.833	99.12
512.049	83.12
512.265	95.12
512.481	99.12
512.698	98.12
512.914	69.12
513.13	99.12
513.346	91.12
513.562	94.12
513.778	104.12
513.994	99.12
514.21	109.12
514.426	117.12
514.642	122.12
514.858	111.12
515.074	154.12
515.29	368.12
515.506	1096.12
515.721	406.12
