Data from Uncirc_1992_H10_HRD10591_00035.txt Node
Date: Wed Jan 03 11:46:23 EST 2024
User: Yrep
Spectrometer: HR+D1059
Trigger mode: 1
Integration Time (sec): 1.000000E-1
Scans to average: 1
Electric dark correction enabled: true
Nonlinearity correction enabled: false
Boxcar width: 0
XAxis mode: Wavelengths
Number of Pixels in Spectrum: 2048
>>>>>Begin Spectral Data<<<<<
223.165	-24.25
223.4	-24.25
223.635	-24.25
223.869	-22.25
224.104	-25.25
224.338	-21.25
224.573	-6.25
224.808	-15.25
225.042	-8.25
225.277	4.75
225.511	0.75
225.746	6.75
225.98	16.75
226.215	16.75
226.449	6.75
226.683	16.75
226.918	28.75
227.152	24.75
227.387	31.75
227.621	44.75
227.856	29.75
228.09	59.75
228.324	50.75
228.559	50.75
228.793	52.75
229.027	61.75
229.262	51.75
229.496	58.75
229.73	84.75
229.964	68.75
230.199	64.75
230.433	63.75
230.667	80.75
230.901	73.75
231.136	98.75
231.37	73.75
231.604	81.75
231.838	78.75
232.072	88.75
232.306	93.75
232.541	72.75
232.775	78.75
233.009	67.75
233.243	86.75
233.477	70.75
233.711	79.75
233.945	86.75
234.179	82.75
234.413	59.75
234.647	73.75
234.881	79.75
235.115	78.75
235.349	79.75
235.583	80.75
235.817	80.75
236.051	84.75
236.285	82.75
236.519	73.75
236.753	77.75
236.987	81.75
237.221	74.75
237.455	74.75
237.689	73.75
237.922	67.75
238.156	82.75
238.39	78.75
238.624	65.75
238.858	75.75
239.091	66.75
239.325	94.75
239.559	87.75
239.793	75.75
240.027	79.75
240.26	59.75
240.494	68.75
240.728	75.75
240.961	74.75
241.195	58.75
241.429	65.75
241.662	77.75
241.896	63.75
242.13	78.75
242.363	74.75
242.597	75.75
242.83	82.75
243.064	88.75
243.298	74.75
243.531	64.75
243.765	79.75
243.998	72.75
244.232	80.75
244.465	86.75
244.699	68.75
244.932	63.75
245.166	73.75
245.399	76.75
245.633	76.75
245.866	87.75
246.099	67.75
246.333	80.75
246.566	83.75
246.8	72.75
247.033	68.75
247.266	82.75
247.5	72.75
247.733	79.75
247.966	71.75
248.2	80.75
248.433	75.75
248.666	70.75
248.899	82.75
249.133	67.75
249.366	99.75
249.599	86.75
249.832	73.75
250.066	74.75
250.299	74.75
250.532	76.75
250.765	86.75
250.998	72.75
251.231	70.75
251.465	78.75
251.698	64.75
251.931	74.75
252.164	79.75
252.397	87.75
252.63	71.75
252.863	69.75
253.096	72.75
253.329	70.75
253.562	77.75
253.795	81.75
254.028	79.75
254.261	84.75
254.494	79.75
254.727	80.75
254.96	86.75
255.193	66.75
255.426	72.75
255.659	62.75
255.892	74.75
256.124	82.75
256.357	82.75
256.59	74.75
256.823	76.75
257.056	83.75
257.289	75.75
257.521	68.75
257.754	74.75
257.987	81.75
258.22	76.75
258.452	74.75
258.685	76.75
258.918	78.75
259.151	88.75
259.383	85.75
259.616	90.75
259.849	80.75
260.081	69.75
260.314	80.75
260.547	70.75
260.779	82.75
261.012	85.75
261.244	78.75
261.477	86.75
261.71	93.75
261.942	95.75
262.175	108.75
262.407	92.75
262.64	65.75
262.872	85.75
263.105	79.75
263.337	84.75
263.57	95.75
263.802	90.75
264.035	72.75
264.267	78.75
264.499	84.75
264.732	73.75
264.964	80.75
265.197	88.75
265.429	80.75
265.661	91.75
265.894	83.75
266.126	87.75
266.358	91.75
266.591	95.75
266.823	74.75
267.055	79.75
267.287	76.75
267.52	85.75
267.752	73.75
267.984	70.75
268.216	92.75
268.448	78.75
268.681	84.75
268.913	72.75
269.145	76.75
269.377	85.75
269.609	76.75
269.841	92.75
270.073	96.75
270.306	85.75
270.538	85.75
270.77	84.75
271.002	82.75
271.234	86.75
271.466	81.75
271.698	69.75
271.93	75.75
272.162	85.75
272.394	87.75
272.626	90.75
272.858	87.75
273.09	88.75
273.322	85.75
273.553	90.75
273.785	94.75
274.017	75.75
274.249	82.75
274.481	70.75
274.713	76.75
274.945	103.75
275.176	73.75
275.408	87.75
275.64	97.75
275.872	78.75
276.104	87.75
276.335	87.75
276.567	98.75
276.799	96.75
277.031	88.75
277.262	88.75
277.494	89.75
277.726	92.75
277.957	92.75
278.189	89.75
278.421	109.75
278.652	83.75
278.884	80.75
279.115	74.75
279.347	74.75
279.579	78.75
279.81	80.75
280.042	81.75
280.273	79.75
280.505	92.75
280.736	88.75
280.968	71.75
281.199	86.75
281.431	88.75
281.662	84.75
281.894	80.75
282.125	103.75
282.356	106.75
282.588	115.75
282.819	109.75
283.051	90.75
283.282	88.75
283.513	81.75
283.745	82.75
283.976	86.75
284.207	83.75
284.439	83.75
284.67	88.75
284.901	81.75
285.132	84.75
285.364	91.75
285.595	81.75
285.826	93.75
286.057	96.75
286.288	91.75
286.52	93.75
286.751	83.75
286.982	90.75
287.213	86.75
287.444	88.75
287.675	81.75
287.906	79.75
288.138	85.75
288.369	80.75
288.6	93.75
288.831	86.75
289.062	97.75
289.293	90.75
289.524	90.75
289.755	90.75
289.986	62.75
290.217	84.75
290.448	91.75
290.679	97.75
290.91	76.75
291.141	99.75
291.371	94.75
291.602	87.75
291.833	99.75
292.064	77.75
292.295	84.75
292.526	83.75
292.757	82.75
292.987	82.75
293.218	84.75
293.449	90.75
293.68	86.75
293.91	94.75
294.141	78.75
294.372	68.75
294.603	80.75
294.833	84.75
295.064	87.75
295.295	88.75
295.525	78.75
295.756	79.75
295.987	115.75
296.217	124.75
296.448	116.75
296.679	99.75
296.909	95.75
297.14	88.75
297.37	91.75
297.601	90.75
297.831	85.75
298.062	95.75
298.292	91.75
298.523	76.75
298.753	85.75
298.984	80.75
299.214	85.75
299.445	90.75
299.675	81.75
299.905	95.75
300.136	81.75
300.366	97.75
300.597	89.75
300.827	91.75
301.057	92.75
301.288	86.75
301.518	82.75
301.748	82.75
301.979	95.75
302.209	82.75
302.439	82.75
302.669	71.75
302.9	98.75
303.13	86.75
303.36	93.75
303.59	86.75
303.82	109.75
304.051	93.75
304.281	103.75
304.511	90.75
304.741	83.75
304.971	79.75
305.201	75.75
305.431	79.75
305.661	80.75
305.891	95.75
306.121	80.75
306.352	99.75
306.582	96.75
306.812	97.75
307.042	85.75
307.272	86.75
307.502	83.75
307.731	92.75
307.961	79.75
308.191	78.75
308.421	97.75
308.651	80.75
308.881	79.75
309.111	93.75
309.341	75.75
309.571	92.75
309.8	95.75
310.03	87.75
310.26	88.75
310.49	84.75
310.72	87.75
310.949	97.75
311.179	98.75
311.409	89.75
311.639	106.75
311.868	86.75
312.098	98.75
312.328	99.75
312.557	111.75
312.787	110.75
313.017	108.75
313.246	94.75
313.476	90.75
313.706	89.75
313.935	97.75
314.165	100.75
314.394	102.75
314.624	94.75
314.853	92.75
315.083	94.75
315.312	91.75
315.542	82.75
315.771	94.75
316.001	80.75
316.23	86.75
316.46	84.75
316.689	97.75
316.919	93.75
317.148	91.75
317.377	79.75
317.607	97.75
317.836	82.75
318.065	101.75
318.295	89.75
318.524	101.75
318.753	81.75
318.983	86.75
319.212	82.75
319.441	90.75
319.67	103.75
319.9	97.75
320.129	95.75
320.358	92.75
320.587	90.75
320.816	96.75
321.046	93.75
321.275	95.75
321.504	77.75
321.733	89.75
321.962	86.75
322.191	109.75
322.42	92.75
322.649	102.75
322.878	89.75
323.108	120.75
323.337	118.75
323.566	109.75
323.795	125.75
324.024	190.75
324.253	336.75
324.482	694.75
324.71	1343.75
324.939	1764.75
325.168	671.75
325.397	213.75
325.626	126.75
325.855	124.75
326.084	98.75
326.313	111.75
326.542	147.75
326.77	209.75
326.999	368.75
327.228	788.75
327.457	1409.75
327.686	1098.75
327.914	290.75
328.143	160.75
328.372	129.75
328.6	123.75
328.829	99.75
329.058	128.75
329.287	108.75
329.515	101.75
329.744	91.75
329.972	95.75
330.201	97.75
330.43	111.75
330.658	102.75
330.887	130.75
331.115	116.75
331.344	90.75
331.572	92.75
331.801	88.75
332.03	99.75
332.258	90.75
332.486	95.75
332.715	101.75
332.943	96.75
333.172	91.75
333.4	88.75
333.629	95.75
333.857	95.75
334.085	101.75
334.314	93.75
334.542	95.75
334.771	99.75
334.999	85.75
335.227	95.75
335.455	78.75
335.684	92.75
335.912	98.75
336.14	95.75
336.369	94.75
336.597	94.75
336.825	86.75
337.053	87.75
337.281	96.75
337.51	89.75
337.738	77.75
337.966	73.75
338.194	99.75
338.422	88.75
338.65	95.75
338.878	88.75
339.106	86.75
339.334	81.75
339.562	92.75
339.79	97.75
340.018	95.75
340.246	105.75
340.474	88.75
340.702	80.75
340.93	88.75
341.158	84.75
341.386	105.75
341.614	83.75
341.842	97.75
342.07	78.75
342.298	90.75
342.526	84.75
342.754	86.75
342.981	81.75
343.209	71.75
343.437	100.75
343.665	89.75
343.893	86.75
344.12	93.75
344.348	85.75
344.576	81.75
344.804	81.75
345.031	104.75
345.259	104.75
345.487	89.75
345.714	89.75
345.942	92.75
346.17	96.75
346.397	89.75
346.625	91.75
346.853	91.75
347.08	80.75
347.308	95.75
347.535	94.75
347.763	92.75
347.99	102.75
348.218	93.75
348.445	104.75
348.673	96.75
348.9	103.75
349.128	97.75
349.355	88.75
349.583	94.75
349.81	85.75
350.037	84.75
350.265	105.75
350.492	86.75
350.72	98.75
350.947	94.75
351.174	111.75
351.402	115.75
351.629	90.75
351.856	106.75
352.083	96.75
352.311	99.75
352.538	101.75
352.765	110.75
352.992	104.75
353.22	98.75
353.447	99.75
353.674	89.75
353.901	86.75
354.128	104.75
354.355	98.75
354.583	99.75
354.81	86.75
355.037	96.75
355.264	97.75
355.491	78.75
355.718	81.75
355.945	94.75
356.172	90.75
356.399	102.75
356.626	91.75
356.853	107.75
357.08	78.75
357.307	80.75
357.534	98.75
357.761	102.75
357.988	96.75
358.215	100.75
358.441	100.75
358.668	97.75
358.895	81.75
359.122	74.75
359.349	98.75
359.576	95.75
359.802	97.75
360.029	102.75
360.256	111.75
360.483	78.75
360.709	87.75
360.936	91.75
361.163	79.75
361.39	91.75
361.616	101.75
361.843	87.75
362.07	104.75
362.296	78.75
362.523	75.75
362.749	80.75
362.976	73.75
363.203	83.75
363.429	86.75
363.656	91.75
363.882	89.75
364.109	90.75
364.335	97.75
364.562	75.75
364.788	78.75
365.015	91.75
365.241	92.75
365.468	106.75
365.694	102.75
365.92	83.75
366.147	93.75
366.373	89.75
366.599	94.75
366.826	92.75
367.052	95.75
367.278	77.75
367.505	96.75
367.731	71.75
367.957	92.75
368.184	89.75
368.41	99.75
368.636	99.75
368.862	114.75
369.089	101.75
369.315	92.75
369.541	103.75
369.767	94.75
369.993	84.75
370.219	86.75
370.445	84.75
370.672	99.75
370.898	90.75
371.124	92.75
371.35	84.75
371.576	92.75
371.802	89.75
372.028	87.75
372.254	91.75
372.48	75.75
372.706	86.75
372.932	80.75
373.158	98.75
373.384	96.75
373.61	83.75
373.835	86.75
374.061	87.75
374.287	81.75
374.513	83.75
374.739	92.75
374.965	85.75
375.191	103.75
375.416	89.75
375.642	92.75
375.868	79.75
376.094	78.75
376.319	91.75
376.545	86.75
376.771	71.75
376.997	74.75
377.222	86.75
377.448	80.75
377.674	92.75
377.899	88.75
378.125	98.75
378.35	83.75
378.576	97.75
378.802	82.75
379.027	98.75
379.253	90.75
379.478	75.75
379.704	98.75
379.929	83.75
380.155	91.75
380.38	86.75
380.606	103.75
380.831	84.75
381.057	90.75
381.282	92.75
381.507	91.75
381.733	102.75
381.958	112.75
382.184	102.75
382.409	75.75
382.634	102.75
382.86	106.75
383.085	98.75
383.31	108.75
383.535	91.75
383.761	100.75
383.986	85.75
384.211	87.75
384.436	104.75
384.662	91.75
384.887	101.75
385.112	95.75
385.337	105.75
385.562	102.75
385.787	92.75
386.013	105.75
386.238	95.75
386.463	89.75
386.688	106.75
386.913	104.75
387.138	86.75
387.363	89.75
387.588	106.75
387.813	98.75
388.038	97.75
388.263	96.75
388.488	105.75
388.713	78.75
388.938	105.75
389.163	88.75
389.387	103.75
389.612	96.75
389.837	92.75
390.062	91.75
390.287	87.75
390.512	91.75
390.736	90.75
390.961	90.75
391.186	92.75
391.411	99.75
391.636	96.75
391.86	88.75
392.085	80.75
392.31	83.75
392.534	81.75
392.759	75.75
392.984	89.75
393.208	90.75
393.433	83.75
393.658	94.75
393.882	92.75
394.107	86.75
394.331	79.75
394.556	86.75
394.78	82.75
395.005	88.75
395.229	79.75
395.454	93.75
395.678	92.75
395.903	84.75
396.127	73.75
396.352	83.75
396.576	90.75
396.801	84.75
397.025	88.75
397.249	89.75
397.474	81.75
397.698	98.75
397.922	77.75
398.147	82.75
398.371	87.75
398.595	86.75
398.82	72.75
399.044	82.75
399.268	85.75
399.492	90.75
399.717	84.75
399.941	94.75
400.165	91.75
400.389	103.75
400.613	80.75
400.837	82.75
401.062	75.75
401.286	94.75
401.51	78.75
401.734	90.75
401.958	95.75
402.182	114.75
402.406	127.75
402.63	109.75
402.854	96.75
403.078	99.75
403.302	84.75
403.526	85.75
403.75	91.75
403.974	82.75
404.198	64.75
404.422	86.75
404.645	69.75
404.869	88.75
405.093	82.75
405.317	84.75
405.541	94.75
405.765	105.75
405.988	117.75
406.212	149.75
406.436	189.75
406.66	119.75
406.883	80.75
407.107	84.75
407.331	87.75
407.555	99.75
407.778	110.75
408.002	95.75
408.226	95.75
408.449	80.75
408.673	99.75
408.896	98.75
409.12	91.75
409.344	87.75
409.567	88.75
409.791	87.75
410.014	88.75
410.238	100.75
410.461	89.75
410.685	77.75
410.908	98.75
411.132	98.75
411.355	107.75
411.578	63.75
411.802	84.75
412.025	86.75
412.249	67.75
412.472	80.75
412.695	81.75
412.919	81.75
413.142	101.75
413.365	85.75
413.589	90.75
413.812	95.75
414.035	87.75
414.258	90.75
414.482	88.75
414.705	79.75
414.928	88.75
415.151	89.75
415.374	87.75
415.597	98.75
415.821	88.75
416.044	107.75
416.267	83.75
416.49	82.75
416.713	77.75
416.936	73.75
417.159	98.75
417.382	94.75
417.605	96.75
417.828	90.75
418.051	82.75
418.274	76.75
418.497	95.75
418.72	76.75
418.943	91.75
419.166	80.75
419.389	92.75
419.611	79.75
419.834	96.75
420.057	95.75
420.28	80.75
420.503	91.75
420.726	85.75
420.948	83.75
421.171	76.75
421.394	83.75
421.617	91.75
421.839	88.75
422.062	95.75
422.285	91.75
422.507	86.75
422.73	95.75
422.953	91.75
423.175	85.75
423.398	95.75
423.621	89.75
423.843	86.75
424.066	82.75
424.288	86.75
424.511	95.75
424.733	83.75
424.956	85.75
425.178	75.75
425.401	72.75
425.623	92.75
425.846	94.75
426.068	75.75
426.291	84.75
426.513	86.75
426.735	93.75
426.958	85.75
427.18	95.75
427.402	118.75
427.625	129.75
427.847	103.75
428.069	95.75
428.292	90.75
428.514	83.75
428.736	86.75
428.958	97.75
429.181	78.75
429.403	85.75
429.625	108.75
429.847	98.75
430.069	107.75
430.292	84.75
430.514	74.75
430.736	70.75
430.958	89.75
431.18	91.75
431.402	83.75
431.624	72.75
431.846	88.75
432.068	77.75
432.29	82.75
432.512	74.75
432.734	81.75
432.956	82.75
433.178	116.75
433.4	94.75
433.622	74.75
433.844	78.75
434.066	76.75
434.287	90.75
434.509	89.75
434.731	73.75
434.953	90.75
435.175	91.75
435.397	89.75
435.618	88.75
435.84	99.75
436.062	112.75
436.284	94.75
436.505	97.75
436.727	103.75
436.949	100.75
437.17	94.75
437.392	80.75
437.614	93.75
437.835	89.75
438.057	114.75
438.278	107.75
438.5	97.75
438.721	102.75
438.943	95.75
439.165	82.75
439.386	70.75
439.608	86.75
439.829	92.75
440.05	116.75
440.272	121.75
440.493	93.75
440.715	93.75
440.936	74.75
441.158	88.75
441.379	96.75
441.6	90.75
441.822	100.75
442.043	85.75
442.264	103.75
442.486	100.75
442.707	89.75
442.928	100.75
443.149	113.75
443.371	112.75
443.592	95.75
443.813	107.75
444.034	84.75
444.255	81.75
444.476	89.75
444.698	88.75
444.919	65.75
445.14	144.75
445.361	121.75
445.582	112.75
445.803	124.75
446.024	122.75
446.245	120.75
446.466	104.75
446.687	97.75
446.908	91.75
447.129	85.75
447.35	104.75
447.571	89.75
447.792	90.75
448.013	89.75
448.234	96.75
448.455	95.75
448.675	105.75
448.896	109.75
449.117	93.75
449.338	94.75
449.559	113.75
449.779	120.75
450	96.75
450.221	83.75
450.442	85.75
450.662	84.75
450.883	91.75
451.104	92.75
451.324	91.75
451.545	78.75
451.766	94.75
451.986	92.75
452.207	80.75
452.428	86.75
452.648	81.75
452.869	98.75
453.089	103.75
453.31	106.75
453.53	86.75
453.751	92.75
453.971	99.75
454.192	105.75
454.412	70.75
454.633	84.75
454.853	85.75
455.073	92.75
455.294	84.75
455.514	102.75
455.734	81.75
455.955	67.75
456.175	81.75
456.395	87.75
456.616	80.75
456.836	92.75
457.056	75.75
457.276	85.75
457.497	87.75
457.717	92.75
457.937	96.75
458.157	91.75
458.377	96.75
458.598	94.75
458.818	133.75
459.038	140.75
459.258	107.75
459.478	91.75
459.698	95.75
459.918	95.75
460.138	95.75
460.358	81.75
460.578	93.75
460.798	99.75
461.018	63.75
461.238	81.75
461.458	83.75
461.678	75.75
461.898	94.75
462.118	78.75
462.338	98.75
462.558	88.75
462.777	82.75
462.997	83.75
463.217	92.75
463.437	73.75
463.657	64.75
463.876	89.75
464.096	84.75
464.316	79.75
464.536	82.75
464.755	89.75
464.975	87.75
465.195	153.75
465.414	143.75
465.634	94.75
465.854	98.75
466.073	88.75
466.293	84.75
466.512	71.75
466.732	79.75
466.951	80.75
467.171	97.75
467.391	85.75
467.61	94.75
467.829	85.75
468.049	104.75
468.268	100.75
468.488	97.75
468.707	97.75
468.927	70.75
469.146	80.75
469.365	81.75
469.585	88.75
469.804	98.75
470.023	96.75
470.243	103.75
470.462	83.75
470.681	103.75
470.901	85.75
471.12	76.75
471.339	92.75
471.558	92.75
471.777	83.75
471.997	79.75
472.216	83.75
472.435	94.75
472.654	87.75
472.873	75.75
473.092	89.75
473.311	88.75
473.53	89.75
473.749	91.75
473.968	85.75
474.187	103.75
474.406	89.75
474.625	77.75
474.844	86.75
475.063	90.75
475.282	89.75
475.501	87.75
475.72	88.75
475.939	82.75
476.158	74.75
476.377	87.75
476.596	82.75
476.814	91.75
477.033	85.75
477.252	92.75
477.471	85.75
477.69	84.75
477.908	100.75
478.127	95.75
478.346	73.75
478.564	86.75
478.783	90.75
479.002	83.75
479.22	80.75
479.439	92.75
479.658	93.75
479.876	79.75
480.095	80.75
480.313	74.75
480.532	95.75
480.751	90.75
480.969	80.75
481.188	104.75
481.406	96.75
481.624	89.75
481.843	100.75
482.061	64.75
482.28	72.75
482.498	81.75
482.717	84.75
482.935	77.75
483.153	84.75
483.372	90.75
483.59	83.75
483.808	85.75
484.027	79.75
484.245	84.75
484.463	99.75
484.681	97.75
484.9	89.75
485.118	90.75
485.336	100.75
485.554	96.75
485.772	83.75
485.99	97.75
486.209	89.75
486.427	98.75
486.645	106.75
486.863	93.75
487.081	98.75
487.299	84.75
487.517	85.75
487.735	83.75
487.953	92.75
488.171	86.75
488.389	70.75
488.607	91.75
488.825	90.75
489.043	100.75
489.261	94.75
489.479	95.75
489.696	92.75
489.914	88.75
490.132	85.75
490.35	104.75
490.568	90.75
490.786	81.75
491.003	89.75
491.221	89.75
491.439	96.75
491.657	87.75
491.874	78.75
492.092	93.75
492.31	86.75
492.527	84.75
492.745	76.75
492.963	91.75
493.18	87.75
493.398	98.75
493.615	99.75
493.833	78.75
494.05	88.75
494.268	97.75
494.485	94.75
494.703	85.75
494.92	83.75
495.138	101.75
495.355	94.75
495.573	90.75
495.79	82.75
496.008	94.75
496.225	90.75
496.442	73.75
496.66	106.75
496.877	85.75
497.094	96.75
497.312	88.75
497.529	103.75
497.746	103.75
497.963	90.75
498.181	94.75
498.398	89.75
498.615	103.75
498.832	102.75
499.049	97.75
499.267	88.75
499.484	82.75
499.701	92.75
499.918	70.75
500.135	82.75
500.352	82.75
500.569	92.75
500.786	75.75
501.003	85.75
501.22	79.75
501.437	84.75
501.654	97.75
501.871	92.75
502.088	106.75
502.305	93.75
502.522	78.75
502.739	84.75
502.956	97.75
503.172	89.75
503.389	80.75
503.606	105.75
503.823	94.75
504.04	79.75
504.256	88.75
504.473	84.75
504.69	94.75
504.907	72.75
505.123	99.75
505.34	64.75
505.557	89.75
505.773	92.75
505.99	88.75
506.207	76.75
506.423	79.75
506.64	85.75
506.856	85.75
507.073	83.75
507.289	85.75
507.506	99.75
507.722	96.75
507.939	95.75
508.155	93.75
508.372	90.75
508.588	97.75
508.805	77.75
509.021	85.75
509.238	92.75
509.454	88.75
509.67	113.75
509.887	100.75
510.103	127.75
510.319	203.75
510.536	694.75
510.752	2037.75
510.968	556.75
511.184	142.75
511.401	108.75
511.617	89.75
511.833	90.75
512.049	81.75
512.265	97.75
512.481	81.75
512.698	85.75
512.914	97.75
513.13	95.75
513.346	85.75
513.562	81.75
513.778	90.75
513.994	87.75
514.21	101.75
514.426	102.75
514.642	118.75
514.858	124.75
515.074	158.75
515.29	401.75
515.506	1183.75
515.721	447.75
515.937	143.75
516.153	97.75
516.369	91.75
516.585	72.75
516.801	90.75
517.016	98.75
517.232	80.75
