Data from Uncirc_1992_H10_HRD10591_00019.txt Node
Date: Wed Jan 03 11:46:20 EST 2024
User: Yrep
Spectrometer: HR+D1059
Trigger mode: 1
Integration Time (sec): 1.000000E-1
Scans to average: 1
Electric dark correction enabled: true
Nonlinearity correction enabled: false
Boxcar width: 0
XAxis mode: Wavelengths
Number of Pixels in Spectrum: 2048
>>>>>Begin Spectral Data<<<<<
223.165	-9.38
223.4	-9.38
223.635	-9.38
223.869	-4.38
224.104	-25.38
224.338	-18.38
224.573	-16.38
224.808	-18.38
225.042	-14.38
225.277	-13.38
225.511	-12.38
225.746	13.62
225.98	6.62
226.215	7.62
226.449	20.62
226.683	27.62
226.918	23.62
227.152	32.62
227.387	42.62
227.621	50.62
227.856	50.62
228.09	52.62
228.324	55.62
228.559	57.62
228.793	68.62
229.027	52.62
229.262	66.62
229.496	60.62
229.73	75.62
229.964	98.62
230.199	79.62
230.433	76.62
230.667	83.62
230.901	74.62
231.136	88.62
231.37	74.62
231.604	87.62
231.838	90.62
232.072	80.62
232.306	87.62
232.541	81.62
232.775	74.62
233.009	88.62
233.243	69.62
233.477	79.62
233.711	81.62
233.945	80.62
234.179	69.62
234.413	81.62
234.647	76.62
234.881	86.62
235.115	74.62
235.349	86.62
235.583	82.62
235.817	87.62
236.051	89.62
236.285	71.62
236.519	76.62
236.753	76.62
236.987	95.62
237.221	83.62
237.455	82.62
237.689	84.62
237.922	80.62
238.156	72.62
238.39	79.62
238.624	73.62
238.858	67.62
239.091	76.62
239.325	74.62
239.559	76.62
239.793	80.62
240.027	81.62
240.26	82.62
240.494	85.62
240.728	71.62
240.961	78.62
241.195	83.62
241.429	86.62
241.662	71.62
241.896	86.62
242.13	88.62
242.363	79.62
242.597	82.62
242.83	86.62
243.064	75.62
243.298	79.62
243.531	81.62
243.765	82.62
243.998	81.62
244.232	82.62
244.465	91.62
244.699	86.62
244.932	85.62
245.166	78.62
245.399	68.62
245.633	87.62
245.866	84.62
246.099	77.62
246.333	78.62
246.566	72.62
246.8	81.62
247.033	82.62
247.266	67.62
247.5	66.62
247.733	81.62
247.966	85.62
248.2	103.62
248.433	90.62
248.666	85.62
248.899	78.62
249.133	80.62
249.366	84.62
249.599	99.62
249.832	81.62
250.066	71.62
250.299	80.62
250.532	78.62
250.765	87.62
250.998	74.62
251.231	61.62
251.465	86.62
251.698	93.62
251.931	78.62
252.164	83.62
252.397	90.62
252.63	84.62
252.863	93.62
253.096	86.62
253.329	69.62
253.562	88.62
253.795	73.62
254.028	89.62
254.261	72.62
254.494	91.62
254.727	76.62
254.96	81.62
255.193	82.62
255.426	73.62
255.659	72.62
255.892	83.62
256.124	87.62
256.357	87.62
256.59	96.62
256.823	78.62
257.056	90.62
257.289	80.62
257.521	79.62
257.754	89.62
257.987	70.62
258.22	78.62
258.452	92.62
258.685	83.62
258.918	94.62
259.151	86.62
259.383	70.62
259.616	84.62
259.849	78.62
260.081	92.62
260.314	86.62
260.547	78.62
260.779	79.62
261.012	88.62
261.244	90.62
261.477	79.62
261.71	85.62
261.942	100.62
262.175	103.62
262.407	93.62
262.64	91.62
262.872	78.62
263.105	85.62
263.337	88.62
263.57	87.62
263.802	79.62
264.035	68.62
264.267	94.62
264.499	76.62
264.732	85.62
264.964	84.62
265.197	91.62
265.429	87.62
265.661	76.62
265.894	70.62
266.126	90.62
266.358	86.62
266.591	79.62
266.823	81.62
267.055	75.62
267.287	93.62
267.52	95.62
267.752	94.62
267.984	82.62
268.216	86.62
268.448	81.62
268.681	86.62
268.913	82.62
269.145	82.62
269.377	85.62
269.609	63.62
269.841	87.62
270.073	84.62
270.306	78.62
270.538	88.62
270.77	68.62
271.002	74.62
271.234	83.62
271.466	80.62
271.698	87.62
271.93	102.62
272.162	96.62
272.394	84.62
272.626	95.62
272.858	87.62
273.09	76.62
273.322	91.62
273.553	70.62
273.785	88.62
274.017	101.62
274.249	80.62
274.481	83.62
274.713	81.62
274.945	76.62
275.176	82.62
275.408	83.62
275.64	91.62
275.872	85.62
276.104	80.62
276.335	86.62
276.567	83.62
276.799	96.62
277.031	88.62
277.262	91.62
277.494	85.62
277.726	81.62
277.957	93.62
278.189	97.62
278.421	80.62
278.652	71.62
278.884	96.62
279.115	91.62
279.347	91.62
279.579	83.62
279.81	84.62
280.042	75.62
280.273	85.62
280.505	78.62
280.736	76.62
280.968	85.62
281.199	97.62
281.431	100.62
281.662	76.62
281.894	95.62
282.125	106.62
282.356	109.62
282.588	124.62
282.819	99.62
283.051	86.62
283.282	87.62
283.513	83.62
283.745	81.62
283.976	83.62
284.207	78.62
284.439	87.62
284.67	75.62
284.901	83.62
285.132	84.62
285.364	87.62
285.595	74.62
285.826	90.62
286.057	90.62
286.288	84.62
286.52	87.62
286.751	74.62
286.982	107.62
287.213	93.62
287.444	90.62
287.675	103.62
287.906	95.62
288.138	86.62
288.369	72.62
288.6	92.62
288.831	92.62
289.062	84.62
289.293	78.62
289.524	90.62
289.755	97.62
289.986	93.62
290.217	81.62
290.448	80.62
290.679	91.62
290.91	93.62
291.141	83.62
291.371	87.62
291.602	87.62
291.833	91.62
292.064	92.62
292.295	81.62
292.526	86.62
292.757	82.62
292.987	102.62
293.218	90.62
293.449	100.62
293.68	97.62
293.91	90.62
294.141	88.62
294.372	80.62
294.603	86.62
294.833	84.62
295.064	84.62
295.295	100.62
295.525	92.62
295.756	90.62
295.987	98.62
296.217	127.62
296.448	108.62
296.679	93.62
296.909	94.62
297.14	94.62
297.37	80.62
297.601	90.62
297.831	92.62
298.062	101.62
298.292	84.62
298.523	92.62
298.753	87.62
298.984	110.62
299.214	84.62
299.445	93.62
299.675	76.62
299.905	96.62
300.136	91.62
300.366	76.62
300.597	102.62
300.827	103.62
301.057	99.62
301.288	104.62
301.518	113.62
301.748	84.62
301.979	102.62
302.209	92.62
302.439	96.62
302.669	90.62
302.9	88.62
303.13	99.62
303.36	100.62
303.59	95.62
303.82	89.62
304.051	92.62
304.281	79.62
304.511	99.62
304.741	80.62
304.971	79.62
305.201	98.62
305.431	93.62
305.661	86.62
305.891	86.62
306.121	92.62
306.352	114.62
306.582	96.62
306.812	93.62
307.042	96.62
307.272	96.62
307.502	101.62
307.731	103.62
307.961	88.62
308.191	78.62
308.421	84.62
308.651	92.62
308.881	101.62
309.111	90.62
309.341	87.62
309.571	97.62
309.8	84.62
310.03	83.62
310.26	104.62
310.49	95.62
310.72	86.62
310.949	94.62
311.179	101.62
311.409	95.62
311.639	97.62
311.868	87.62
312.098	90.62
312.328	87.62
312.557	83.62
312.787	100.62
313.017	103.62
313.246	100.62
313.476	103.62
313.706	84.62
313.935	92.62
314.165	100.62
314.394	101.62
314.624	98.62
314.853	101.62
315.083	106.62
315.312	97.62
315.542	90.62
315.771	99.62
316.001	74.62
316.23	92.62
316.46	96.62
316.689	98.62
316.919	99.62
317.148	104.62
317.377	102.62
317.607	103.62
317.836	92.62
318.065	93.62
318.295	87.62
318.524	94.62
318.753	112.62
318.983	87.62
319.212	96.62
319.441	104.62
319.67	102.62
319.9	89.62
320.129	86.62
320.358	92.62
320.587	95.62
320.816	97.62
321.046	92.62
321.275	109.62
321.504	95.62
321.733	102.62
321.962	88.62
322.191	90.62
322.42	97.62
322.649	88.62
322.878	110.62
323.108	117.62
323.337	112.62
323.566	116.62
323.795	144.62
324.024	177.62
324.253	338.62
324.482	666.62
324.71	1342.62
324.939	1718.62
325.168	654.62
325.397	213.62
325.626	158.62
325.855	118.62
326.084	125.62
326.313	123.62
326.542	154.62
326.77	212.62
326.999	387.62
327.228	757.62
327.457	1319.62
327.686	1063.62
327.914	303.62
328.143	159.62
328.372	127.62
328.6	120.62
328.829	110.62
329.058	110.62
329.287	105.62
329.515	102.62
329.744	102.62
329.972	101.62
330.201	104.62
330.43	95.62
330.658	106.62
330.887	128.62
331.115	111.62
331.344	89.62
331.572	98.62
331.801	86.62
332.03	101.62
332.258	101.62
332.486	94.62
332.715	102.62
332.943	100.62
333.172	93.62
333.4	95.62
333.629	103.62
333.857	117.62
334.085	94.62
334.314	99.62
334.542	102.62
334.771	108.62
334.999	109.62
335.227	103.62
335.455	102.62
335.684	92.62
335.912	86.62
336.14	89.62
336.369	90.62
336.597	111.62
336.825	102.62
337.053	95.62
337.281	88.62
337.51	95.62
337.738	95.62
337.966	79.62
338.194	98.62
338.422	102.62
338.65	92.62
338.878	100.62
339.106	92.62
339.334	94.62
339.562	97.62
339.79	104.62
340.018	80.62
340.246	92.62
340.474	104.62
340.702	94.62
340.93	85.62
341.158	78.62
341.386	101.62
341.614	81.62
341.842	93.62
342.07	97.62
342.298	100.62
342.526	90.62
342.754	109.62
342.981	87.62
343.209	96.62
343.437	95.62
343.665	91.62
343.893	96.62
344.12	98.62
344.348	88.62
344.576	83.62
344.804	89.62
345.031	108.62
345.259	80.62
345.487	100.62
345.714	98.62
345.942	90.62
346.17	104.62
346.397	102.62
346.625	96.62
346.853	105.62
347.08	101.62
347.308	103.62
347.535	92.62
347.763	94.62
347.99	106.62
348.218	86.62
348.445	106.62
348.673	99.62
348.9	81.62
349.128	94.62
349.355	100.62
349.583	84.62
349.81	90.62
350.037	91.62
350.265	95.62
350.492	93.62
350.72	84.62
350.947	110.62
351.174	98.62
351.402	104.62
351.629	114.62
351.856	94.62
352.083	102.62
352.311	107.62
352.538	96.62
352.765	102.62
352.992	104.62
353.22	106.62
353.447	108.62
353.674	97.62
353.901	97.62
354.128	99.62
354.355	93.62
354.583	112.62
354.81	96.62
355.037	88.62
355.264	102.62
355.491	106.62
355.718	84.62
355.945	85.62
356.172	99.62
356.399	100.62
356.626	90.62
356.853	86.62
357.08	94.62
357.307	82.62
357.534	109.62
357.761	104.62
357.988	88.62
358.215	91.62
358.441	85.62
358.668	90.62
358.895	87.62
359.122	97.62
359.349	91.62
359.576	88.62
359.802	110.62
360.029	109.62
360.256	110.62
360.483	92.62
360.709	84.62
360.936	95.62
361.163	96.62
361.39	91.62
361.616	101.62
361.843	92.62
362.07	88.62
362.296	86.62
362.523	91.62
362.749	88.62
362.976	92.62
363.203	97.62
363.429	84.62
363.656	75.62
363.882	86.62
364.109	91.62
364.335	102.62
364.562	94.62
364.788	94.62
365.015	102.62
365.241	111.62
365.468	103.62
365.694	116.62
365.92	89.62
366.147	78.62
366.373	76.62
366.599	89.62
366.826	89.62
367.052	81.62
367.278	84.62
367.505	88.62
367.731	91.62
367.957	97.62
368.184	104.62
368.41	93.62
368.636	104.62
368.862	111.62
369.089	109.62
369.315	95.62
369.541	94.62
369.767	92.62
369.993	86.62
370.219	83.62
370.445	85.62
370.672	94.62
370.898	84.62
371.124	97.62
371.35	96.62
371.576	85.62
371.802	83.62
372.028	83.62
372.254	98.62
372.48	87.62
372.706	95.62
372.932	96.62
373.158	91.62
373.384	94.62
373.61	98.62
373.835	91.62
374.061	102.62
374.287	74.62
374.513	92.62
374.739	85.62
374.965	84.62
375.191	94.62
375.416	92.62
375.642	92.62
375.868	98.62
376.094	92.62
376.319	90.62
376.545	84.62
376.771	97.62
376.997	85.62
377.222	90.62
377.448	86.62
377.674	95.62
377.899	92.62
378.125	84.62
378.35	92.62
378.576	94.62
378.802	82.62
379.027	79.62
379.253	84.62
379.478	90.62
379.704	95.62
379.929	91.62
380.155	92.62
380.38	102.62
380.606	104.62
380.831	84.62
381.057	100.62
381.282	98.62
381.507	103.62
381.733	81.62
381.958	98.62
382.184	87.62
382.409	99.62
382.634	109.62
382.86	100.62
383.085	106.62
383.31	95.62
383.535	104.62
383.761	102.62
383.986	95.62
384.211	108.62
384.436	104.62
384.662	101.62
384.887	92.62
385.112	100.62
385.337	97.62
385.562	118.62
385.787	99.62
386.013	107.62
386.238	99.62
386.463	102.62
386.688	108.62
386.913	98.62
387.138	100.62
387.363	106.62
387.588	106.62
387.813	115.62
388.038	91.62
388.263	97.62
388.488	118.62
388.713	85.62
388.938	94.62
389.163	98.62
389.387	102.62
389.612	97.62
389.837	101.62
390.062	97.62
390.287	102.62
390.512	83.62
390.736	103.62
390.961	92.62
391.186	102.62
391.411	92.62
391.636	98.62
391.86	81.62
392.085	93.62
392.31	88.62
392.534	93.62
392.759	83.62
392.984	100.62
393.208	91.62
393.433	103.62
393.658	95.62
393.882	90.62
394.107	86.62
394.331	85.62
394.556	99.62
394.78	95.62
395.005	80.62
395.229	84.62
395.454	100.62
395.678	100.62
395.903	77.62
396.127	91.62
396.352	97.62
396.576	71.62
396.801	88.62
397.025	95.62
397.249	84.62
397.474	90.62
397.698	82.62
397.922	82.62
398.147	84.62
398.371	86.62
398.595	92.62
398.82	85.62
399.044	98.62
399.268	86.62
399.492	89.62
399.717	97.62
399.941	101.62
400.165	93.62
400.389	90.62
400.613	85.62
400.837	83.62
401.062	105.62
401.286	94.62
401.51	83.62
401.734	85.62
401.958	98.62
402.182	119.62
402.406	146.62
402.63	107.62
402.854	90.62
403.078	91.62
403.302	89.62
403.526	90.62
403.75	82.62
403.974	85.62
404.198	86.62
404.422	91.62
404.645	87.62
404.869	85.62
405.093	90.62
405.317	99.62
405.541	83.62
405.765	90.62
405.988	113.62
406.212	160.62
406.436	204.62
406.66	129.62
406.883	106.62
407.107	91.62
407.331	84.62
407.555	97.62
407.778	91.62
408.002	87.62
408.226	91.62
408.449	91.62
408.673	98.62
408.896	92.62
409.12	96.62
409.344	94.62
409.567	84.62
409.791	102.62
410.014	91.62
410.238	96.62
410.461	83.62
410.685	94.62
410.908	97.62
411.132	112.62
411.355	99.62
411.578	90.62
411.802	87.62
412.025	89.62
412.249	92.62
412.472	82.62
412.695	90.62
412.919	86.62
413.142	104.62
413.365	93.62
413.589	98.62
413.812	92.62
414.035	93.62
414.258	99.62
414.482	92.62
414.705	96.62
414.928	98.62
415.151	97.62
415.374	99.62
415.597	94.62
415.821	97.62
416.044	77.62
416.267	91.62
416.49	85.62
416.713	88.62
416.936	103.62
417.159	93.62
417.382	82.62
417.605	81.62
417.828	80.62
418.051	81.62
418.274	84.62
418.497	84.62
418.72	84.62
418.943	98.62
419.166	97.62
419.389	86.62
419.611	67.62
419.834	78.62
420.057	90.62
420.28	96.62
420.503	89.62
420.726	95.62
420.948	90.62
421.171	93.62
421.394	84.62
421.617	72.62
421.839	95.62
422.062	87.62
422.285	86.62
422.507	89.62
422.73	108.62
422.953	95.62
423.175	90.62
423.398	76.62
423.621	76.62
423.843	86.62
424.066	89.62
424.288	91.62
424.511	92.62
424.733	104.62
424.956	84.62
425.178	83.62
425.401	117.62
425.623	106.62
425.846	101.62
426.068	89.62
426.291	108.62
426.513	97.62
426.735	98.62
426.958	94.62
427.18	99.62
427.402	136.62
427.625	115.62
427.847	103.62
428.069	110.62
428.292	88.62
428.514	75.62
428.736	83.62
428.958	88.62
429.181	82.62
429.403	82.62
429.625	87.62
429.847	91.62
430.069	97.62
430.292	85.62
430.514	83.62
430.736	87.62
430.958	96.62
431.18	104.62
431.402	85.62
431.624	78.62
431.846	89.62
432.068	81.62
432.29	86.62
432.512	84.62
432.734	102.62
432.956	90.62
433.178	90.62
433.4	110.62
433.622	95.62
433.844	81.62
434.066	94.62
434.287	107.62
434.509	82.62
434.731	96.62
434.953	85.62
435.175	92.62
435.397	106.62
435.618	92.62
435.84	100.62
436.062	113.62
436.284	99.62
436.505	83.62
436.727	102.62
436.949	101.62
437.17	83.62
437.392	83.62
437.614	90.62
437.835	114.62
438.057	100.62
438.278	124.62
438.5	105.62
438.721	104.62
438.943	111.62
439.165	82.62
439.386	91.62
439.608	94.62
439.829	91.62
440.05	105.62
440.272	127.62
440.493	101.62
440.715	86.62
440.936	93.62
441.158	97.62
441.379	94.62
441.6	92.62
441.822	92.62
442.043	90.62
442.264	101.62
442.486	107.62
442.707	101.62
442.928	86.62
443.149	115.62
443.371	126.62
443.592	98.62
443.813	100.62
444.034	102.62
444.255	104.62
444.476	98.62
444.698	98.62
444.919	111.62
445.14	133.62
445.361	108.62
445.582	102.62
445.803	117.62
446.024	113.62
446.245	113.62
446.466	95.62
446.687	88.62
446.908	82.62
447.129	77.62
447.35	92.62
447.571	97.62
447.792	98.62
448.013	100.62
448.234	112.62
448.455	96.62
448.675	114.62
448.896	120.62
449.117	108.62
449.338	95.62
449.559	124.62
449.779	124.62
450	101.62
450.221	79.62
450.442	87.62
450.662	95.62
450.883	101.62
451.104	105.62
451.324	84.62
451.545	92.62
451.766	96.62
451.986	100.62
452.207	89.62
452.428	92.62
452.648	88.62
452.869	104.62
453.089	110.62
453.31	109.62
453.53	97.62
453.751	83.62
453.971	102.62
454.192	103.62
454.412	93.62
454.633	78.62
454.853	77.62
455.073	88.62
455.294	84.62
455.514	99.62
455.734	90.62
455.955	82.62
456.175	87.62
456.395	96.62
456.616	88.62
456.836	86.62
457.056	87.62
457.276	69.62
457.497	86.62
457.717	92.62
457.937	84.62
458.157	70.62
458.377	87.62
458.598	97.62
458.818	126.62
459.038	134.62
459.258	130.62
459.478	97.62
459.698	95.62
459.918	82.62
460.138	76.62
460.358	86.62
460.578	92.62
460.798	86.62
461.018	82.62
461.238	85.62
461.458	90.62
461.678	79.62
461.898	84.62
462.118	90.62
462.338	80.62
462.558	91.62
462.777	78.62
462.997	91.62
463.217	99.62
463.437	70.62
463.657	91.62
463.876	86.62
464.096	93.62
464.316	100.62
464.536	99.62
464.755	94.62
464.975	90.62
465.195	142.62
465.414	147.62
465.634	104.62
465.854	95.62
466.073	70.62
466.293	97.62
466.512	78.62
466.732	81.62
466.951	90.62
467.171	99.62
467.391	86.62
467.61	111.62
467.829	98.62
468.049	69.62
468.268	87.62
468.488	103.62
468.707	98.62
468.927	84.62
469.146	80.62
469.365	88.62
469.585	92.62
469.804	91.62
470.023	91.62
470.243	88.62
470.462	100.62
470.681	92.62
470.901	81.62
471.12	100.62
471.339	91.62
471.558	83.62
471.777	94.62
471.997	92.62
472.216	102.62
472.435	93.62
472.654	100.62
472.873	108.62
473.092	86.62
473.311	98.62
473.53	85.62
473.749	93.62
473.968	92.62
474.187	91.62
474.406	99.62
474.625	94.62
474.844	85.62
475.063	87.62
475.282	87.62
475.501	83.62
475.72	88.62
475.939	92.62
476.158	90.62
476.377	71.62
476.596	82.62
476.814	88.62
477.033	90.62
477.252	94.62
477.471	70.62
477.69	89.62
477.908	94.62
478.127	103.62
478.346	97.62
478.564	99.62
478.783	100.62
479.002	99.62
479.22	95.62
479.439	110.62
479.658	93.62
479.876	87.62
480.095	99.62
480.313	82.62
480.532	85.62
480.751	86.62
480.969	87.62
481.188	87.62
481.406	92.62
481.624	80.62
481.843	91.62
482.061	93.62
482.28	105.62
482.498	94.62
482.717	82.62
482.935	97.62
483.153	91.62
483.372	93.62
483.59	102.62
483.808	93.62
484.027	77.62
484.245	86.62
484.463	100.62
484.681	98.62
484.9	84.62
485.118	88.62
485.336	95.62
485.554	104.62
485.772	107.62
485.99	96.62
486.209	103.62
486.427	123.62
486.645	110.62
486.863	108.62
487.081	101.62
487.299	96.62
487.517	83.62
487.735	105.62
487.953	90.62
488.171	107.62
488.389	90.62
488.607	100.62
488.825	84.62
489.043	90.62
489.261	93.62
489.479	106.62
489.696	94.62
489.914	96.62
490.132	104.62
490.35	91.62
490.568	85.62
490.786	88.62
491.003	83.62
491.221	82.62
491.439	88.62
491.657	86.62
491.874	85.62
492.092	98.62
492.31	97.62
492.527	79.62
492.745	87.62
492.963	84.62
493.18	100.62
493.398	86.62
493.615	86.62
493.833	96.62
494.05	95.62
494.268	94.62
494.485	95.62
494.703	96.62
494.92	93.62
495.138	98.62
495.355	91.62
495.573	100.62
495.79	94.62
496.008	96.62
496.225	84.62
496.442	84.62
496.66	95.62
496.877	84.62
497.094	97.62
497.312	90.62
497.529	99.62
497.746	101.62
497.963	85.62
498.181	108.62
498.398	86.62
498.615	104.62
498.832	106.62
499.049	87.62
499.267	90.62
499.484	94.62
499.701	90.62
499.918	102.62
500.135	70.62
500.352	89.62
500.569	96.62
500.786	93.62
501.003	99.62
501.22	90.62
501.437	88.62
501.654	98.62
501.871	98.62
502.088	96.62
502.305	90.62
502.522	96.62
502.739	92.62
502.956	93.62
503.172	82.62
503.389	94.62
503.606	88.62
503.823	90.62
504.04	83.62
504.256	91.62
504.473	85.62
504.69	97.62
504.907	98.62
505.123	91.62
505.34	100.62
505.557	94.62
505.773	93.62
505.99	95.62
506.207	97.62
506.423	93.62
506.64	96.62
506.856	94.62
507.073	100.62
507.289	103.62
507.506	90.62
507.722	102.62
507.939	98.62
508.155	100.62
508.372	95.62
508.588	95.62
508.805	103.62
509.021	94.62
509.238	103.62
509.454	109.62
509.67	109.62
509.887	103.62
510.103	131.62
510.319	201.62
510.536	666.62
510.752	1986.62
510.968	543.62
511.184	140.62
511.401	108.62
511.617	90.62
511.833	95.62
512.049	91.62
512.265	95.62
512.481	98.62
512.698	91.62
512.914	107.62
513.13	85.62
513.346	106.62
513.562	104.62
513.778	93.62
513.994	101.62
514.21	103.62
514.426	107.62
514.642	116.62
514.858	117.62
515.074	156.62
515.29	396.62
515.506	1210.62
