Data from Uncirc_1992_H10_HRD10591_00008.txt Node
Date: Wed Jan 03 11:46:17 EST 2024
User: Yrep
Spectrometer: HR+D1059
Trigger mode: 1
Integration Time (sec): 1.000000E-1
Scans to average: 1
Electric dark correction enabled: true
Nonlinearity correction enabled: false
Boxcar width: 0
XAxis mode: Wavelengths
Number of Pixels in Spectrum: 2048
>>>>>Begin Spectral Data<<<<<
223.165	-18.19
223.4	-18.19
223.635	-18.19
223.869	-15.19
224.104	-19.19
224.338	-16.19
224.573	-13.19
224.808	-14.19
225.042	-7.19
225.277	-9.19
225.511	1.81
225.746	-5.19
225.98	4.81
226.215	12.81
226.449	20.81
226.683	21.81
226.918	30.81
227.152	24.81
227.387	31.81
227.621	47.81
227.856	40.81
228.09	37.81
228.324	51.81
228.559	61.81
228.793	52.81
229.027	65.81
229.262	72.81
229.496	50.81
229.73	93.81
229.964	89.81
230.199	65.81
230.433	81.81
230.667	76.81
230.901	69.81
231.136	76.81
231.37	89.81
231.604	69.81
231.838	84.81
232.072	81.81
232.306	75.81
232.541	69.81
232.775	85.81
233.009	92.81
233.243	91.81
233.477	77.81
233.711	76.81
233.945	65.81
234.179	83.81
234.413	84.81
234.647	75.81
234.881	89.81
235.115	79.81
235.349	76.81
235.583	82.81
235.817	73.81
236.051	79.81
236.285	73.81
236.519	69.81
236.753	73.81
236.987	54.81
237.221	83.81
237.455	70.81
237.689	75.81
237.922	68.81
238.156	86.81
238.39	81.81
238.624	73.81
238.858	68.81
239.091	87.81
239.325	80.81
239.559	91.81
239.793	73.81
240.027	73.81
240.26	77.81
240.494	81.81
240.728	80.81
240.961	87.81
241.195	78.81
241.429	72.81
241.662	75.81
241.896	82.81
242.13	66.81
242.363	81.81
242.597	77.81
242.83	84.81
243.064	69.81
243.298	82.81
243.531	75.81
243.765	75.81
243.998	81.81
244.232	71.81
244.465	76.81
244.699	76.81
244.932	71.81
245.166	81.81
245.399	74.81
245.633	68.81
245.866	89.81
246.099	76.81
246.333	87.81
246.566	85.81
246.8	84.81
247.033	75.81
247.266	76.81
247.5	72.81
247.733	83.81
247.966	81.81
248.2	71.81
248.433	66.81
248.666	84.81
248.899	79.81
249.133	70.81
249.366	83.81
249.599	105.81
249.832	75.81
250.066	86.81
250.299	81.81
250.532	73.81
250.765	79.81
250.998	103.81
251.231	70.81
251.465	72.81
251.698	75.81
251.931	77.81
252.164	89.81
252.397	74.81
252.63	89.81
252.863	80.81
253.096	62.81
253.329	88.81
253.562	78.81
253.795	70.81
254.028	88.81
254.261	79.81
254.494	79.81
254.727	82.81
254.96	66.81
255.193	82.81
255.426	71.81
255.659	72.81
255.892	91.81
256.124	77.81
256.357	69.81
256.59	78.81
256.823	87.81
257.056	67.81
257.289	66.81
257.521	90.81
257.754	75.81
257.987	70.81
258.22	83.81
258.452	84.81
258.685	93.81
258.918	84.81
259.151	79.81
259.383	75.81
259.616	83.81
259.849	87.81
260.081	84.81
260.314	85.81
260.547	67.81
260.779	92.81
261.012	75.81
261.244	74.81
261.477	103.81
261.71	100.81
261.942	122.81
262.175	113.81
262.407	83.81
262.64	81.81
262.872	70.81
263.105	100.81
263.337	86.81
263.57	91.81
263.802	87.81
264.035	95.81
264.267	78.81
264.499	81.81
264.732	79.81
264.964	79.81
265.197	94.81
265.429	87.81
265.661	95.81
265.894	73.81
266.126	88.81
266.358	83.81
266.591	92.81
266.823	85.81
267.055	83.81
267.287	93.81
267.52	77.81
267.752	67.81
267.984	84.81
268.216	99.81
268.448	81.81
268.681	82.81
268.913	90.81
269.145	86.81
269.377	93.81
269.609	89.81
269.841	83.81
270.073	82.81
270.306	78.81
270.538	85.81
270.77	83.81
271.002	75.81
271.234	90.81
271.466	83.81
271.698	86.81
271.93	82.81
272.162	97.81
272.394	84.81
272.626	71.81
272.858	86.81
273.09	88.81
273.322	81.81
273.553	74.81
273.785	86.81
274.017	94.81
274.249	92.81
274.481	85.81
274.713	73.81
274.945	81.81
275.176	74.81
275.408	79.81
275.64	79.81
275.872	83.81
276.104	102.81
276.335	93.81
276.567	87.81
276.799	87.81
277.031	99.81
277.262	85.81
277.494	83.81
277.726	75.81
277.957	92.81
278.189	89.81
278.421	82.81
278.652	88.81
278.884	79.81
279.115	77.81
279.347	84.81
279.579	78.81
279.81	79.81
280.042	82.81
280.273	68.81
280.505	100.81
280.736	95.81
280.968	83.81
281.199	93.81
281.431	94.81
281.662	86.81
281.894	95.81
282.125	101.81
282.356	120.81
282.588	108.81
282.819	108.81
283.051	89.81
283.282	84.81
283.513	83.81
283.745	82.81
283.976	87.81
284.207	76.81
284.439	81.81
284.67	93.81
284.901	91.81
285.132	98.81
285.364	81.81
285.595	97.81
285.826	92.81
286.057	77.81
286.288	91.81
286.52	91.81
286.751	93.81
286.982	77.81
287.213	87.81
287.444	73.81
287.675	100.81
287.906	77.81
288.138	78.81
288.369	95.81
288.6	90.81
288.831	86.81
289.062	87.81
289.293	93.81
289.524	89.81
289.755	79.81
289.986	85.81
290.217	99.81
290.448	76.81
290.679	100.81
290.91	90.81
291.141	78.81
291.371	88.81
291.602	92.81
291.833	93.81
292.064	92.81
292.295	93.81
292.526	93.81
292.757	78.81
292.987	93.81
293.218	80.81
293.449	88.81
293.68	81.81
293.91	75.81
294.141	95.81
294.372	97.81
294.603	91.81
294.833	86.81
295.064	83.81
295.295	85.81
295.525	98.81
295.756	105.81
295.987	113.81
296.217	134.81
296.448	116.81
296.679	91.81
296.909	98.81
297.14	86.81
297.37	85.81
297.601	84.81
297.831	91.81
298.062	101.81
298.292	93.81
298.523	85.81
298.753	86.81
298.984	81.81
299.214	85.81
299.445	89.81
299.675	90.81
299.905	84.81
300.136	97.81
300.366	102.81
300.597	86.81
300.827	90.81
301.057	101.81
301.288	102.81
301.518	84.81
301.748	83.81
301.979	88.81
302.209	105.81
302.439	83.81
302.669	95.81
302.9	78.81
303.13	89.81
303.36	93.81
303.59	96.81
303.82	102.81
304.051	94.81
304.281	87.81
304.511	82.81
304.741	86.81
304.971	78.81
305.201	97.81
305.431	76.81
305.661	85.81
305.891	92.81
306.121	81.81
306.352	98.81
306.582	109.81
306.812	101.81
307.042	92.81
307.272	87.81
307.502	84.81
307.731	81.81
307.961	94.81
308.191	98.81
308.421	82.81
308.651	90.81
308.881	90.81
309.111	89.81
309.341	94.81
309.571	101.81
309.8	97.81
310.03	73.81
310.26	98.81
310.49	94.81
310.72	111.81
310.949	102.81
311.179	101.81
311.409	90.81
311.639	95.81
311.868	101.81
312.098	102.81
312.328	84.81
312.557	97.81
312.787	86.81
313.017	94.81
313.246	98.81
313.476	97.81
313.706	108.81
313.935	97.81
314.165	89.81
314.394	98.81
314.624	86.81
314.853	98.81
315.083	89.81
315.312	81.81
315.542	81.81
315.771	90.81
316.001	96.81
316.23	79.81
316.46	87.81
316.689	93.81
316.919	76.81
317.148	81.81
317.377	86.81
317.607	97.81
317.836	94.81
318.065	90.81
318.295	101.81
318.524	98.81
318.753	83.81
318.983	92.81
319.212	101.81
319.441	111.81
319.67	77.81
319.9	87.81
320.129	109.81
320.358	88.81
320.587	97.81
320.816	93.81
321.046	87.81
321.275	86.81
321.504	89.81
321.733	106.81
321.962	89.81
322.191	105.81
322.42	96.81
322.649	97.81
322.878	109.81
323.108	116.81
323.337	113.81
323.566	106.81
323.795	117.81
324.024	165.81
324.253	339.81
324.482	679.81
324.71	1323.81
324.939	1725.81
325.168	627.81
325.397	190.81
325.626	137.81
325.855	129.81
326.084	123.81
326.313	139.81
326.542	127.81
326.77	205.81
326.999	390.81
327.228	790.81
327.457	1379.81
327.686	1073.81
327.914	293.81
328.143	153.81
328.372	130.81
328.6	116.81
328.829	113.81
329.058	120.81
329.287	105.81
329.515	110.81
329.744	97.81
329.972	95.81
330.201	101.81
330.43	102.81
330.658	108.81
330.887	122.81
331.115	125.81
331.344	98.81
331.572	111.81
331.801	113.81
332.03	102.81
332.258	94.81
332.486	92.81
332.715	85.81
332.943	81.81
333.172	95.81
333.4	96.81
333.629	94.81
333.857	107.81
334.085	92.81
334.314	93.81
334.542	90.81
334.771	103.81
334.999	89.81
335.227	93.81
335.455	89.81
335.684	95.81
335.912	95.81
336.14	95.81
336.369	90.81
336.597	108.81
336.825	86.81
337.053	102.81
337.281	98.81
337.51	96.81
337.738	76.81
337.966	103.81
338.194	86.81
338.422	106.81
338.65	96.81
338.878	92.81
339.106	103.81
339.334	86.81
339.562	100.81
339.79	88.81
340.018	81.81
340.246	98.81
340.474	97.81
340.702	91.81
340.93	105.81
341.158	86.81
341.386	92.81
341.614	100.81
341.842	96.81
342.07	95.81
342.298	93.81
342.526	107.81
342.754	87.81
342.981	89.81
343.209	99.81
343.437	111.81
343.665	79.81
343.893	89.81
344.12	94.81
344.348	83.81
344.576	82.81
344.804	104.81
345.031	108.81
345.259	99.81
345.487	98.81
345.714	97.81
345.942	93.81
346.17	106.81
346.397	96.81
346.625	82.81
346.853	89.81
347.08	92.81
347.308	95.81
347.535	99.81
347.763	93.81
347.99	96.81
348.218	103.81
348.445	105.81
348.673	102.81
348.9	97.81
349.128	95.81
349.355	99.81
349.583	95.81
349.81	76.81
350.037	95.81
350.265	106.81
350.492	104.81
350.72	85.81
350.947	97.81
351.174	101.81
351.402	114.81
351.629	103.81
351.856	107.81
352.083	105.81
352.311	95.81
352.538	103.81
352.765	106.81
352.992	109.81
353.22	100.81
353.447	102.81
353.674	102.81
353.901	106.81
354.128	99.81
354.355	106.81
354.583	101.81
354.81	106.81
355.037	94.81
355.264	100.81
355.491	103.81
355.718	94.81
355.945	90.81
356.172	91.81
356.399	88.81
356.626	107.81
356.853	100.81
357.08	105.81
357.307	96.81
357.534	83.81
357.761	95.81
357.988	115.81
358.215	97.81
358.441	110.81
358.668	86.81
358.895	101.81
359.122	99.81
359.349	83.81
359.576	91.81
359.802	97.81
360.029	104.81
360.256	98.81
360.483	89.81
360.709	90.81
360.936	89.81
361.163	100.81
361.39	93.81
361.616	81.81
361.843	92.81
362.07	97.81
362.296	88.81
362.523	102.81
362.749	89.81
362.976	94.81
363.203	96.81
363.429	87.81
363.656	83.81
363.882	90.81
364.109	93.81
364.335	93.81
364.562	94.81
364.788	82.81
365.015	97.81
365.241	98.81
365.468	98.81
365.694	99.81
365.92	113.81
366.147	90.81
366.373	82.81
366.599	88.81
366.826	84.81
367.052	98.81
367.278	98.81
367.505	78.81
367.731	98.81
367.957	78.81
368.184	90.81
368.41	97.81
368.636	103.81
368.862	122.81
369.089	96.81
369.315	78.81
369.541	78.81
369.767	104.81
369.993	88.81
370.219	87.81
370.445	89.81
370.672	86.81
370.898	82.81
371.124	89.81
371.35	87.81
371.576	105.81
371.802	93.81
372.028	87.81
372.254	82.81
372.48	94.81
372.706	100.81
372.932	94.81
373.158	84.81
373.384	75.81
373.61	90.81
373.835	101.81
374.061	107.81
374.287	93.81
374.513	89.81
374.739	96.81
374.965	84.81
375.191	109.81
375.416	96.81
375.642	90.81
375.868	79.81
376.094	79.81
376.319	86.81
376.545	85.81
376.771	98.81
376.997	87.81
377.222	99.81
377.448	88.81
377.674	90.81
377.899	94.81
378.125	93.81
378.35	91.81
378.576	92.81
378.802	102.81
379.027	96.81
379.253	102.81
379.478	87.81
379.704	86.81
379.929	90.81
380.155	84.81
380.38	91.81
380.606	82.81
380.831	91.81
381.057	96.81
381.282	78.81
381.507	91.81
381.733	84.81
381.958	99.81
382.184	107.81
382.409	101.81
382.634	115.81
382.86	101.81
383.085	105.81
383.31	99.81
383.535	108.81
383.761	101.81
383.986	98.81
384.211	99.81
384.436	94.81
384.662	106.81
384.887	106.81
385.112	101.81
385.337	101.81
385.562	102.81
385.787	110.81
386.013	111.81
386.238	106.81
386.463	105.81
386.688	109.81
386.913	99.81
387.138	104.81
387.363	84.81
387.588	103.81
387.813	104.81
388.038	92.81
388.263	107.81
388.488	116.81
388.713	96.81
388.938	90.81
389.163	89.81
389.387	103.81
389.612	102.81
389.837	76.81
390.062	95.81
390.287	90.81
390.512	99.81
390.736	93.81
390.961	81.81
391.186	106.81
391.411	93.81
391.636	96.81
391.86	80.81
392.085	90.81
392.31	91.81
392.534	78.81
392.759	85.81
392.984	98.81
393.208	90.81
393.433	107.81
393.658	87.81
393.882	101.81
394.107	91.81
394.331	84.81
394.556	96.81
394.78	82.81
395.005	78.81
395.229	105.81
395.454	82.81
395.678	83.81
395.903	98.81
396.127	92.81
396.352	87.81
396.576	87.81
396.801	103.81
397.025	94.81
397.249	98.81
397.474	99.81
397.698	90.81
397.922	88.81
398.147	80.81
398.371	83.81
398.595	95.81
398.82	89.81
399.044	98.81
399.268	88.81
399.492	92.81
399.717	84.81
399.941	88.81
400.165	75.81
400.389	75.81
400.613	78.81
400.837	76.81
401.062	96.81
401.286	85.81
401.51	92.81
401.734	75.81
401.958	97.81
402.182	115.81
402.406	135.81
402.63	100.81
402.854	99.81
403.078	80.81
403.302	77.81
403.526	87.81
403.75	90.81
403.974	92.81
404.198	92.81
404.422	94.81
404.645	101.81
404.869	103.81
405.093	97.81
405.317	98.81
405.541	92.81
405.765	109.81
405.988	99.81
406.212	147.81
406.436	175.81
406.66	137.81
406.883	111.81
407.107	87.81
407.331	89.81
407.555	109.81
407.778	99.81
408.002	97.81
408.226	84.81
408.449	100.81
408.673	81.81
408.896	94.81
409.12	96.81
409.344	91.81
409.567	102.81
409.791	88.81
410.014	103.81
410.238	106.81
410.461	97.81
410.685	95.81
410.908	95.81
411.132	94.81
411.355	99.81
411.578	100.81
411.802	98.81
412.025	98.81
412.249	87.81
412.472	76.81
412.695	83.81
412.919	90.81
413.142	95.81
413.365	82.81
413.589	102.81
413.812	87.81
414.035	91.81
414.258	93.81
414.482	110.81
414.705	86.81
414.928	93.81
415.151	100.81
415.374	109.81
415.597	98.81
415.821	98.81
416.044	98.81
416.267	106.81
416.49	85.81
416.713	69.81
416.936	99.81
417.159	94.81
417.382	92.81
417.605	93.81
417.828	92.81
418.051	89.81
418.274	106.81
418.497	92.81
418.72	93.81
418.943	90.81
419.166	90.81
419.389	92.81
419.611	106.81
419.834	87.81
420.057	93.81
420.28	88.81
420.503	92.81
420.726	85.81
420.948	95.81
421.171	93.81
421.394	84.81
421.617	95.81
421.839	93.81
422.062	99.81
422.285	84.81
422.507	105.81
422.73	96.81
422.953	91.81
423.175	94.81
423.398	86.81
423.621	101.81
423.843	83.81
424.066	86.81
424.288	84.81
424.511	90.81
424.733	87.81
424.956	90.81
425.178	111.81
425.401	97.81
425.623	95.81
425.846	96.81
426.068	105.81
426.291	96.81
426.513	89.81
426.735	82.81
426.958	94.81
427.18	84.81
427.402	131.81
427.625	138.81
427.847	121.81
428.069	85.81
428.292	76.81
428.514	80.81
428.736	91.81
428.958	99.81
429.181	82.81
429.403	83.81
429.625	76.81
429.847	90.81
430.069	93.81
430.292	96.81
430.514	89.81
430.736	75.81
430.958	86.81
431.18	92.81
431.402	91.81
431.624	78.81
431.846	93.81
432.068	90.81
432.29	74.81
432.512	86.81
432.734	87.81
432.956	91.81
433.178	98.81
433.4	100.81
433.622	89.81
433.844	89.81
434.066	84.81
434.287	89.81
434.509	101.81
434.731	88.81
434.953	82.81
435.175	86.81
435.397	81.81
435.618	102.81
435.84	106.81
436.062	112.81
436.284	103.81
436.505	95.81
436.727	87.81
436.949	86.81
437.17	98.81
437.392	84.81
437.614	92.81
437.835	103.81
438.057	119.81
438.278	97.81
438.5	91.81
438.721	109.81
438.943	88.81
439.165	88.81
439.386	92.81
439.608	91.81
439.829	100.81
440.05	120.81
440.272	122.81
440.493	92.81
440.715	85.81
440.936	102.81
441.158	87.81
441.379	80.81
441.6	79.81
441.822	89.81
442.043	99.81
442.264	93.81
442.486	102.81
442.707	97.81
442.928	98.81
443.149	124.81
443.371	117.81
443.592	106.81
443.813	103.81
444.034	103.81
444.255	82.81
444.476	94.81
444.698	91.81
444.919	94.81
445.14	138.81
445.361	129.81
445.582	111.81
445.803	128.81
446.024	125.81
446.245	131.81
446.466	114.81
446.687	86.81
446.908	86.81
447.129	91.81
447.35	94.81
447.571	91.81
447.792	88.81
448.013	85.81
448.234	90.81
448.455	87.81
448.675	119.81
448.896	105.81
449.117	113.81
449.338	107.81
449.559	120.81
449.779	124.81
450	82.81
450.221	92.81
450.442	96.81
450.662	81.81
450.883	96.81
451.104	93.81
451.324	93.81
451.545	85.81
451.766	87.81
451.986	101.81
452.207	84.81
452.428	83.81
452.648	96.81
452.869	114.81
453.089	117.81
453.31	101.81
453.53	96.81
453.751	82.81
453.971	98.81
454.192	112.81
454.412	84.81
454.633	77.81
454.853	78.81
455.073	78.81
455.294	87.81
455.514	95.81
455.734	91.81
455.955	86.81
456.175	91.81
456.395	71.81
456.616	81.81
456.836	99.81
457.056	80.81
457.276	89.81
457.497	95.81
457.717	88.81
457.937	79.81
458.157	77.81
458.377	95.81
458.598	99.81
458.818	115.81
459.038	132.81
459.258	94.81
459.478	82.81
459.698	94.81
459.918	93.81
460.138	94.81
460.358	85.81
460.578	97.81
460.798	95.81
461.018	80.81
461.238	95.81
461.458	97.81
461.678	91.81
461.898	79.81
462.118	99.81
462.338	97.81
462.558	100.81
462.777	87.81
462.997	79.81
463.217	91.81
463.437	80.81
463.657	92.81
463.876	102.81
464.096	81.81
464.316	90.81
464.536	90.81
464.755	85.81
464.975	100.81
465.195	144.81
465.414	133.81
465.634	82.81
465.854	79.81
466.073	85.81
466.293	85.81
466.512	90.81
466.732	86.81
466.951	84.81
467.171	87.81
467.391	107.81
467.61	91.81
467.829	97.81
468.049	78.81
468.268	91.81
468.488	87.81
468.707	85.81
468.927	90.81
469.146	87.81
469.365	72.81
469.585	84.81
469.804	99.81
470.023	94.81
470.243	92.81
470.462	93.81
470.681	94.81
470.901	88.81
471.12	69.81
471.339	99.81
471.558	96.81
471.777	98.81
471.997	91.81
472.216	94.81
472.435	97.81
472.654	95.81
472.873	89.81
473.092	89.81
473.311	78.81
473.53	92.81
473.749	86.81
473.968	81.81
474.187	95.81
474.406	82.81
474.625	97.81
474.844	85.81
475.063	83.81
475.282	95.81
475.501	84.81
475.72	93.81
475.939	108.81
476.158	101.81
476.377	81.81
476.596	74.81
476.814	87.81
477.033	86.81
477.252	82.81
477.471	80.81
477.69	86.81
477.908	87.81
478.127	84.81
478.346	98.81
478.564	81.81
478.783	83.81
479.002	86.81
479.22	79.81
479.439	86.81
479.658	88.81
479.876	96.81
480.095	103.81
480.313	77.81
480.532	86.81
480.751	93.81
480.969	76.81
481.188	97.81
481.406	93.81
481.624	87.81
481.843	97.81
482.061	86.81
482.28	97.81
482.498	79.81
482.717	101.81
482.935	77.81
483.153	81.81
483.372	93.81
483.59	81.81
483.808	78.81
484.027	85.81
484.245	93.81
484.463	82.81
484.681	102.81
484.9	100.81
485.118	106.81
485.336	84.81
485.554	106.81
485.772	99.81
485.99	101.81
486.209	100.81
486.427	95.81
486.645	92.81
486.863	111.81
487.081	97.81
487.299	94.81
487.517	97.81
487.735	91.81
487.953	100.81
488.171	110.81
488.389	83.81
488.607	93.81
488.825	89.81
489.043	79.81
489.261	86.81
489.479	95.81
489.696	87.81
489.914	86.81
490.132	100.81
490.35	91.81
490.568	89.81
490.786	78.81
491.003	94.81
491.221	84.81
491.439	99.81
491.657	101.81
491.874	92.81
492.092	90.81
492.31	98.81
492.527	94.81
492.745	86.81
492.963	97.81
493.18	97.81
493.398	100.81
493.615	109.81
493.833	83.81
494.05	89.81
494.268	79.81
494.485	80.81
494.703	92.81
494.92	89.81
495.138	100.81
495.355	89.81
495.573	100.81
495.79	92.81
496.008	93.81
496.225	101.81
496.442	86.81
496.66	97.81
496.877	90.81
497.094	91.81
497.312	94.81
497.529	82.81
497.746	87.81
497.963	82.81
498.181	96.81
498.398	94.81
498.615	99.81
498.832	94.81
499.049	78.81
499.267	88.81
499.484	100.81
499.701	91.81
499.918	89.81
500.135	100.81
500.352	85.81
500.569	100.81
500.786	97.81
501.003	97.81
501.22	95.81
501.437	98.81
501.654	93.81
501.871	105.81
502.088	94.81
502.305	75.81
502.522	67.81
502.739	87.81
502.956	103.81
503.172	88.81
503.389	106.81
503.606	97.81
503.823	89.81
504.04	96.81
504.256	88.81
504.473	81.81
504.69	95.81
504.907	100.81
505.123	93.81
505.34	107.81
505.557	91.81
505.773	99.81
505.99	71.81
506.207	83.81
506.423	84.81
506.64	95.81
506.856	96.81
507.073	101.81
507.289	94.81
507.506	94.81
507.722	102.81
507.939	102.81
508.155	97.81
508.372	74.81
508.588	88.81
508.805	96.81
509.021	92.81
509.238	103.81
509.454	91.81
509.67	101.81
509.887	92.81
510.103	112.81
510.319	186.81
510.536	638.81
510.752	1897.81
510.968	534.81
511.184	149.81
511.401	113.81
511.617	95.81
511.833	91.81
512.049	100.81
512.265	94.81
512.481	86.81
512.698	88.81
512.914	77.81
513.13	83.81
513.346	91.81
513.562	87.81
513.778	101.81
513.994	111.81
514.21	108.81
514.426	112.81
514.642	99.81
514.858	106.81
515.074	144.81
515.29	378.81
515.506	1141.81
515.721	435.81
515.937	126.81
