Data from Uncirc_1992_H10_HRD10591_00014.txt Node
Date: Wed Jan 03 11:46:19 EST 2024
User: Yrep
Spectrometer: HR+D1059
Trigger mode: 1
Integration Time (sec): 1.000000E-1
Scans to average: 1
Electric dark correction enabled: true
Nonlinearity correction enabled: false
Boxcar width: 0
XAxis mode: Wavelengths
Number of Pixels in Spectrum: 2048
>>>>>Begin Spectral Data<<<<<
223.165	-25.12
223.4	-25.12
223.635	-25.12
223.869	-5.12
224.104	-18.12
224.338	-12.12
224.573	-13.12
224.808	-19.12
225.042	1.88
225.277	-6.12
225.511	9.88
225.746	-2.12
225.98	6.88
226.215	10.88
226.449	2.88
226.683	16.88
226.918	21.88
227.152	29.88
227.387	38.88
227.621	49.88
227.856	60.88
228.09	48.88
228.324	44.88
228.559	40.88
228.793	60.88
229.027	58.88
229.262	69.88
229.496	73.88
229.73	74.88
229.964	90.88
230.199	76.88
230.433	74.88
230.667	75.88
230.901	80.88
231.136	85.88
231.37	74.88
231.604	91.88
231.838	81.88
232.072	80.88
232.306	65.88
232.541	81.88
232.775	82.88
233.009	77.88
233.243	84.88
233.477	74.88
233.711	89.88
233.945	73.88
234.179	80.88
234.413	80.88
234.647	74.88
234.881	74.88
235.115	60.88
235.349	89.88
235.583	86.88
235.817	82.88
236.051	80.88
236.285	81.88
236.519	65.88
236.753	78.88
236.987	69.88
237.221	61.88
237.455	86.88
237.689	89.88
237.922	70.88
238.156	75.88
238.39	78.88
238.624	84.88
238.858	75.88
239.091	75.88
239.325	81.88
239.559	62.88
239.793	67.88
240.027	71.88
240.26	73.88
240.494	89.88
240.728	82.88
240.961	62.88
241.195	68.88
241.429	74.88
241.662	72.88
241.896	76.88
242.13	93.88
242.363	93.88
242.597	83.88
242.83	84.88
243.064	76.88
243.298	64.88
243.531	75.88
243.765	60.88
243.998	73.88
244.232	89.88
244.465	79.88
244.699	79.88
244.932	90.88
245.166	80.88
245.399	78.88
245.633	79.88
245.866	88.88
246.099	85.88
246.333	84.88
246.566	82.88
246.8	76.88
247.033	76.88
247.266	83.88
247.5	71.88
247.733	85.88
247.966	78.88
248.2	79.88
248.433	74.88
248.666	80.88
248.899	78.88
249.133	77.88
249.366	79.88
249.599	92.88
249.832	79.88
250.066	76.88
250.299	69.88
250.532	83.88
250.765	77.88
250.998	85.88
251.231	84.88
251.465	79.88
251.698	84.88
251.931	83.88
252.164	72.88
252.397	89.88
252.63	81.88
252.863	76.88
253.096	81.88
253.329	89.88
253.562	77.88
253.795	82.88
254.028	81.88
254.261	65.88
254.494	85.88
254.727	80.88
254.96	89.88
255.193	79.88
255.426	80.88
255.659	93.88
255.892	88.88
256.124	64.88
256.357	102.88
256.59	78.88
256.823	67.88
257.056	88.88
257.289	62.88
257.521	100.88
257.754	74.88
257.987	95.88
258.22	76.88
258.452	82.88
258.685	93.88
258.918	92.88
259.151	83.88
259.383	84.88
259.616	81.88
259.849	85.88
260.081	73.88
260.314	70.88
260.547	102.88
260.779	83.88
261.012	82.88
261.244	79.88
261.477	81.88
261.71	85.88
261.942	105.88
262.175	101.88
262.407	91.88
262.64	95.88
262.872	87.88
263.105	84.88
263.337	80.88
263.57	87.88
263.802	82.88
264.035	88.88
264.267	73.88
264.499	82.88
264.732	90.88
264.964	75.88
265.197	73.88
265.429	85.88
265.661	86.88
265.894	89.88
266.126	82.88
266.358	90.88
266.591	75.88
266.823	97.88
267.055	89.88
267.287	78.88
267.52	80.88
267.752	90.88
267.984	84.88
268.216	82.88
268.448	91.88
268.681	75.88
268.913	80.88
269.145	85.88
269.377	78.88
269.609	77.88
269.841	85.88
270.073	75.88
270.306	92.88
270.538	88.88
270.77	100.88
271.002	89.88
271.234	76.88
271.466	92.88
271.698	80.88
271.93	82.88
272.162	83.88
272.394	79.88
272.626	76.88
272.858	77.88
273.09	92.88
273.322	94.88
273.553	88.88
273.785	93.88
274.017	78.88
274.249	102.88
274.481	81.88
274.713	77.88
274.945	92.88
275.176	92.88
275.408	73.88
275.64	93.88
275.872	84.88
276.104	50.88
276.335	93.88
276.567	92.88
276.799	107.88
277.031	108.88
277.262	110.88
277.494	78.88
277.726	82.88
277.957	87.88
278.189	96.88
278.421	85.88
278.652	88.88
278.884	79.88
279.115	94.88
279.347	89.88
279.579	81.88
279.81	85.88
280.042	92.88
280.273	86.88
280.505	87.88
280.736	89.88
280.968	84.88
281.199	92.88
281.431	98.88
281.662	76.88
281.894	100.88
282.125	100.88
282.356	114.88
282.588	121.88
282.819	112.88
283.051	98.88
283.282	80.88
283.513	77.88
283.745	84.88
283.976	94.88
284.207	90.88
284.439	85.88
284.67	91.88
284.901	82.88
285.132	86.88
285.364	100.88
285.595	84.88
285.826	85.88
286.057	78.88
286.288	83.88
286.52	68.88
286.751	72.88
286.982	79.88
287.213	96.88
287.444	77.88
287.675	78.88
287.906	86.88
288.138	88.88
288.369	105.88
288.6	79.88
288.831	89.88
289.062	105.88
289.293	100.88
289.524	93.88
289.755	91.88
289.986	74.88
290.217	88.88
290.448	94.88
290.679	95.88
290.91	100.88
291.141	110.88
291.371	100.88
291.602	83.88
291.833	95.88
292.064	86.88
292.295	90.88
292.526	91.88
292.757	75.88
292.987	79.88
293.218	79.88
293.449	83.88
293.68	88.88
293.91	86.88
294.141	96.88
294.372	76.88
294.603	95.88
294.833	85.88
295.064	92.88
295.295	87.88
295.525	89.88
295.756	94.88
295.987	100.88
296.217	100.88
296.448	98.88
296.679	77.88
296.909	101.88
297.14	100.88
297.37	88.88
297.601	86.88
297.831	83.88
298.062	76.88
298.292	77.88
298.523	85.88
298.753	90.88
298.984	94.88
299.214	89.88
299.445	89.88
299.675	89.88
299.905	96.88
300.136	90.88
300.366	86.88
300.597	87.88
300.827	98.88
301.057	96.88
301.288	97.88
301.518	96.88
301.748	92.88
301.979	93.88
302.209	99.88
302.439	92.88
302.669	80.88
302.9	83.88
303.13	89.88
303.36	101.88
303.59	104.88
303.82	111.88
304.051	91.88
304.281	89.88
304.511	88.88
304.741	80.88
304.971	93.88
305.201	94.88
305.431	91.88
305.661	90.88
305.891	105.88
306.121	71.88
306.352	80.88
306.582	101.88
306.812	93.88
307.042	82.88
307.272	95.88
307.502	93.88
307.731	98.88
307.961	98.88
308.191	91.88
308.421	93.88
308.651	89.88
308.881	89.88
309.111	97.88
309.341	97.88
309.571	105.88
309.8	90.88
310.03	102.88
310.26	92.88
310.49	92.88
310.72	109.88
310.949	97.88
311.179	88.88
311.409	79.88
311.639	88.88
311.868	75.88
312.098	92.88
312.328	88.88
312.557	78.88
312.787	96.88
313.017	90.88
313.246	95.88
313.476	89.88
313.706	91.88
313.935	76.88
314.165	94.88
314.394	93.88
314.624	93.88
314.853	92.88
315.083	104.88
315.312	84.88
315.542	89.88
315.771	86.88
316.001	95.88
316.23	90.88
316.46	101.88
316.689	98.88
316.919	104.88
317.148	76.88
317.377	118.88
317.607	86.88
317.836	93.88
318.065	83.88
318.295	81.88
318.524	97.88
318.753	98.88
318.983	92.88
319.212	96.88
319.441	104.88
319.67	94.88
319.9	97.88
320.129	91.88
320.358	90.88
320.587	104.88
320.816	98.88
321.046	104.88
321.275	88.88
321.504	94.88
321.733	88.88
321.962	101.88
322.191	71.88
322.42	90.88
322.649	98.88
322.878	112.88
323.108	103.88
323.337	112.88
323.566	110.88
323.795	142.88
324.024	178.88
324.253	317.88
324.482	622.88
324.71	1207.88
324.939	1558.88
325.168	587.88
325.397	201.88
325.626	132.88
325.855	110.88
326.084	107.88
326.313	123.88
326.542	138.88
326.77	198.88
326.999	352.88
327.228	727.88
327.457	1187.88
327.686	994.88
327.914	278.88
328.143	148.88
328.372	136.88
328.6	95.88
328.829	120.88
329.058	113.88
329.287	112.88
329.515	92.88
329.744	110.88
329.972	102.88
330.201	87.88
330.43	104.88
330.658	102.88
330.887	119.88
331.115	109.88
331.344	92.88
331.572	82.88
331.801	86.88
332.03	110.88
332.258	98.88
332.486	92.88
332.715	100.88
332.943	98.88
333.172	96.88
333.4	95.88
333.629	100.88
333.857	104.88
334.085	90.88
334.314	97.88
334.542	99.88
334.771	91.88
334.999	80.88
335.227	89.88
335.455	83.88
335.684	92.88
335.912	82.88
336.14	92.88
336.369	88.88
336.597	88.88
336.825	94.88
337.053	94.88
337.281	100.88
337.51	99.88
337.738	85.88
337.966	89.88
338.194	94.88
338.422	98.88
338.65	102.88
338.878	97.88
339.106	95.88
339.334	92.88
339.562	86.88
339.79	100.88
340.018	88.88
340.246	92.88
340.474	99.88
340.702	91.88
340.93	86.88
341.158	83.88
341.386	82.88
341.614	92.88
341.842	78.88
342.07	93.88
342.298	78.88
342.526	90.88
342.754	87.88
342.981	95.88
343.209	91.88
343.437	96.88
343.665	92.88
343.893	94.88
344.12	93.88
344.348	85.88
344.576	86.88
344.804	99.88
345.031	81.88
345.259	95.88
345.487	97.88
345.714	86.88
345.942	100.88
346.17	93.88
346.397	88.88
346.625	88.88
346.853	101.88
347.08	89.88
347.308	87.88
347.535	93.88
347.763	90.88
347.99	95.88
348.218	105.88
348.445	117.88
348.673	96.88
348.9	101.88
349.128	93.88
349.355	84.88
349.583	96.88
349.81	78.88
350.037	99.88
350.265	96.88
350.492	94.88
350.72	102.88
350.947	94.88
351.174	104.88
351.402	104.88
351.629	101.88
351.856	107.88
352.083	98.88
352.311	100.88
352.538	93.88
352.765	101.88
352.992	105.88
353.22	102.88
353.447	97.88
353.674	114.88
353.901	100.88
354.128	100.88
354.355	100.88
354.583	97.88
354.81	87.88
355.037	90.88
355.264	90.88
355.491	84.88
355.718	90.88
355.945	97.88
356.172	99.88
356.399	92.88
356.626	96.88
356.853	94.88
357.08	94.88
357.307	112.88
357.534	100.88
357.761	109.88
357.988	117.88
358.215	104.88
358.441	86.88
358.668	93.88
358.895	88.88
359.122	92.88
359.349	93.88
359.576	76.88
359.802	95.88
360.029	97.88
360.256	109.88
360.483	92.88
360.709	79.88
360.936	93.88
361.163	88.88
361.39	75.88
361.616	85.88
361.843	85.88
362.07	101.88
362.296	88.88
362.523	90.88
362.749	89.88
362.976	89.88
363.203	91.88
363.429	78.88
363.656	99.88
363.882	82.88
364.109	75.88
364.335	95.88
364.562	89.88
364.788	99.88
365.015	89.88
365.241	112.88
365.468	100.88
365.694	108.88
365.92	92.88
366.147	84.88
366.373	90.88
366.599	83.88
366.826	76.88
367.052	80.88
367.278	85.88
367.505	103.88
367.731	103.88
367.957	90.88
368.184	92.88
368.41	108.88
368.636	96.88
368.862	117.88
369.089	97.88
369.315	92.88
369.541	101.88
369.767	97.88
369.993	90.88
370.219	76.88
370.445	89.88
370.672	93.88
370.898	88.88
371.124	96.88
371.35	92.88
371.576	84.88
371.802	98.88
372.028	95.88
372.254	75.88
372.48	81.88
372.706	73.88
372.932	102.88
373.158	89.88
373.384	92.88
373.61	84.88
373.835	88.88
374.061	93.88
374.287	100.88
374.513	86.88
374.739	92.88
374.965	95.88
375.191	108.88
375.416	97.88
375.642	98.88
375.868	92.88
376.094	81.88
376.319	102.88
376.545	86.88
376.771	93.88
376.997	100.88
377.222	91.88
377.448	91.88
377.674	93.88
377.899	72.88
378.125	92.88
378.35	76.88
378.576	77.88
378.802	97.88
379.027	102.88
379.253	96.88
379.478	88.88
379.704	84.88
379.929	85.88
380.155	88.88
380.38	86.88
380.606	102.88
380.831	100.88
381.057	84.88
381.282	91.88
381.507	77.88
381.733	93.88
381.958	89.88
382.184	98.88
382.409	101.88
382.634	105.88
382.86	106.88
383.085	96.88
383.31	109.88
383.535	98.88
383.761	100.88
383.986	101.88
384.211	92.88
384.436	104.88
384.662	98.88
384.887	98.88
385.112	89.88
385.337	113.88
385.562	116.88
385.787	108.88
386.013	105.88
386.238	104.88
386.463	89.88
386.688	115.88
386.913	90.88
387.138	101.88
387.363	108.88
387.588	110.88
387.813	96.88
388.038	96.88
388.263	101.88
388.488	94.88
388.713	88.88
388.938	97.88
389.163	95.88
389.387	85.88
389.612	90.88
389.837	100.88
390.062	96.88
390.287	79.88
390.512	85.88
390.736	88.88
390.961	106.88
391.186	94.88
391.411	80.88
391.636	92.88
391.86	79.88
392.085	86.88
392.31	94.88
392.534	80.88
392.759	96.88
392.984	84.88
393.208	97.88
393.433	101.88
393.658	97.88
393.882	92.88
394.107	74.88
394.331	96.88
394.556	101.88
394.78	92.88
395.005	88.88
395.229	83.88
395.454	88.88
395.678	93.88
395.903	90.88
396.127	84.88
396.352	80.88
396.576	93.88
396.801	89.88
397.025	95.88
397.249	97.88
397.474	88.88
397.698	82.88
397.922	88.88
398.147	104.88
398.371	95.88
398.595	84.88
398.82	79.88
399.044	88.88
399.268	89.88
399.492	88.88
399.717	89.88
399.941	86.88
400.165	85.88
400.389	90.88
400.613	86.88
400.837	96.88
401.062	92.88
401.286	91.88
401.51	84.88
401.734	89.88
401.958	84.88
402.182	118.88
402.406	121.88
402.63	115.88
402.854	88.88
403.078	95.88
403.302	76.88
403.526	90.88
403.75	78.88
403.974	92.88
404.198	90.88
404.422	87.88
404.645	88.88
404.869	83.88
405.093	92.88
405.317	98.88
405.541	91.88
405.765	93.88
405.988	114.88
406.212	145.88
406.436	195.88
406.66	131.88
406.883	101.88
407.107	93.88
407.331	90.88
407.555	90.88
407.778	94.88
408.002	86.88
408.226	87.88
408.449	95.88
408.673	78.88
408.896	78.88
409.12	97.88
409.344	85.88
409.567	88.88
409.791	88.88
410.014	101.88
410.238	100.88
410.461	92.88
410.685	91.88
410.908	100.88
411.132	111.88
411.355	98.88
411.578	99.88
411.802	92.88
412.025	87.88
412.249	92.88
412.472	94.88
412.695	76.88
412.919	85.88
413.142	82.88
413.365	85.88
413.589	84.88
413.812	90.88
414.035	96.88
414.258	86.88
414.482	95.88
414.705	97.88
414.928	98.88
415.151	104.88
415.374	89.88
415.597	102.88
415.821	82.88
416.044	90.88
416.267	95.88
416.49	89.88
416.713	92.88
416.936	89.88
417.159	89.88
417.382	79.88
417.605	79.88
417.828	98.88
418.051	85.88
418.274	84.88
418.497	88.88
418.72	83.88
418.943	84.88
419.166	98.88
419.389	92.88
419.611	92.88
419.834	90.88
420.057	95.88
420.28	74.88
420.503	86.88
420.726	99.88
420.948	100.88
421.171	89.88
421.394	83.88
421.617	90.88
421.839	98.88
422.062	92.88
422.285	102.88
422.507	98.88
422.73	98.88
422.953	99.88
423.175	85.88
423.398	81.88
423.621	83.88
423.843	95.88
424.066	85.88
424.288	89.88
424.511	80.88
424.733	86.88
424.956	101.88
425.178	85.88
425.401	95.88
425.623	93.88
425.846	84.88
426.068	80.88
426.291	84.88
426.513	84.88
426.735	71.88
426.958	78.88
427.18	99.88
427.402	114.88
427.625	133.88
427.847	114.88
428.069	92.88
428.292	83.88
428.514	92.88
428.736	73.88
428.958	79.88
429.181	79.88
429.403	89.88
429.625	69.88
429.847	84.88
430.069	95.88
430.292	100.88
430.514	75.88
430.736	92.88
430.958	79.88
431.18	96.88
431.402	84.88
431.624	88.88
431.846	74.88
432.068	92.88
432.29	82.88
432.512	90.88
432.734	99.88
432.956	89.88
433.178	84.88
433.4	82.88
433.622	86.88
433.844	93.88
434.066	90.88
434.287	83.88
434.509	101.88
434.731	92.88
434.953	88.88
435.175	94.88
435.397	90.88
435.618	89.88
435.84	98.88
436.062	86.88
436.284	93.88
436.505	99.88
436.727	80.88
436.949	92.88
437.17	86.88
437.392	84.88
437.614	107.88
437.835	103.88
438.057	116.88
438.278	99.88
438.5	79.88
438.721	98.88
438.943	99.88
439.165	80.88
439.386	93.88
439.608	97.88
439.829	104.88
440.05	94.88
440.272	122.88
440.493	92.88
440.715	85.88
440.936	97.88
441.158	88.88
441.379	84.88
441.6	81.88
441.822	108.88
442.043	94.88
442.264	92.88
442.486	102.88
442.707	83.88
442.928	79.88
443.149	102.88
443.371	104.88
443.592	102.88
443.813	113.88
444.034	106.88
444.255	77.88
444.476	72.88
444.698	86.88
444.919	88.88
445.14	133.88
445.361	119.88
445.582	101.88
445.803	122.88
446.024	112.88
446.245	116.88
446.466	104.88
446.687	98.88
446.908	96.88
447.129	101.88
447.35	82.88
447.571	95.88
447.792	84.88
448.013	105.88
448.234	84.88
448.455	99.88
448.675	92.88
448.896	110.88
449.117	97.88
449.338	106.88
449.559	121.88
449.779	115.88
450	96.88
450.221	79.88
450.442	102.88
450.662	85.88
450.883	95.88
451.104	92.88
451.324	97.88
451.545	85.88
451.766	100.88
451.986	103.88
452.207	99.88
452.428	84.88
452.648	85.88
452.869	93.88
453.089	111.88
453.31	109.88
453.53	89.88
453.751	81.88
453.971	104.88
454.192	113.88
454.412	86.88
454.633	93.88
454.853	88.88
455.073	82.88
455.294	84.88
455.514	89.88
455.734	86.88
455.955	91.88
456.175	86.88
456.395	65.88
456.616	81.88
456.836	76.88
457.056	90.88
457.276	86.88
457.497	95.88
457.717	104.88
457.937	89.88
458.157	89.88
458.377	98.88
458.598	92.88
458.818	120.88
459.038	108.88
459.258	99.88
459.478	88.88
459.698	80.88
459.918	85.88
460.138	73.88
460.358	63.88
460.578	86.88
460.798	82.88
461.018	83.88
461.238	83.88
461.458	90.88
461.678	93.88
461.898	92.88
462.118	90.88
462.338	77.88
462.558	96.88
462.777	83.88
462.997	76.88
463.217	97.88
463.437	81.88
463.657	90.88
463.876	76.88
464.096	94.88
464.316	97.88
464.536	78.88
464.755	95.88
464.975	108.88
465.195	117.88
465.414	121.88
465.634	89.88
465.854	86.88
466.073	76.88
466.293	92.88
466.512	91.88
466.732	83.88
466.951	84.88
467.171	84.88
467.391	76.88
467.61	101.88
467.829	95.88
468.049	97.88
468.268	85.88
468.488	87.88
468.707	85.88
468.927	85.88
469.146	92.88
469.365	93.88
469.585	81.88
469.804	84.88
470.023	85.88
470.243	91.88
470.462	110.88
470.681	106.88
470.901	100.88
471.12	86.88
471.339	90.88
471.558	94.88
471.777	93.88
471.997	96.88
472.216	72.88
472.435	74.88
472.654	86.88
472.873	91.88
473.092	92.88
473.311	81.88
473.53	82.88
473.749	74.88
473.968	77.88
474.187	100.88
474.406	84.88
474.625	88.88
474.844	76.88
475.063	83.88
475.282	87.88
475.501	81.88
475.72	85.88
475.939	88.88
476.158	83.88
476.377	76.88
476.596	84.88
476.814	83.88
477.033	85.88
477.252	81.88
477.471	110.88
477.69	93.88
477.908	91.88
478.127	92.88
478.346	94.88
478.564	82.88
478.783	98.88
479.002	91.88
479.22	89.88
479.439	102.88
479.658	94.88
479.876	85.88
480.095	98.88
480.313	93.88
480.532	92.88
480.751	97.88
480.969	85.88
481.188	84.88
481.406	70.88
481.624	90.88
481.843	97.88
482.061	74.88
482.28	97.88
482.498	91.88
482.717	95.88
482.935	83.88
483.153	91.88
483.372	81.88
483.59	100.88
483.808	101.88
484.027	68.88
484.245	82.88
484.463	79.88
484.681	87.88
484.9	100.88
485.118	98.88
485.336	102.88
485.554	93.88
485.772	101.88
485.99	92.88
486.209	105.88
486.427	96.88
486.645	98.88
486.863	93.88
487.081	90.88
487.299	105.88
487.517	83.88
487.735	92.88
487.953	99.88
488.171	116.88
488.389	82.88
488.607	93.88
488.825	84.88
489.043	88.88
489.261	80.88
489.479	98.88
489.696	102.88
489.914	89.88
490.132	104.88
490.35	84.88
490.568	89.88
490.786	93.88
491.003	76.88
491.221	84.88
491.439	97.88
491.657	94.88
491.874	97.88
492.092	97.88
492.31	86.88
492.527	97.88
492.745	96.88
492.963	103.88
493.18	100.88
493.398	99.88
493.615	99.88
493.833	94.88
494.05	101.88
494.268	98.88
494.485	84.88
494.703	85.88
494.92	81.88
495.138	98.88
495.355	99.88
495.573	86.88
495.79	98.88
496.008	86.88
496.225	92.88
496.442	80.88
496.66	97.88
496.877	83.88
497.094	98.88
497.312	82.88
497.529	93.88
497.746	81.88
497.963	97.88
498.181	85.88
498.398	91.88
498.615	124.88
498.832	90.88
499.049	91.88
499.267	91.88
499.484	97.88
499.701	83.88
499.918	96.88
500.135	96.88
500.352	85.88
500.569	78.88
500.786	89.88
501.003	98.88
501.22	97.88
501.437	88.88
501.654	98.88
501.871	118.88
502.088	69.88
502.305	80.88
502.522	93.88
502.739	87.88
502.956	97.88
503.172	87.88
503.389	100.88
503.606	108.88
503.823	98.88
504.04	93.88
504.256	96.88
504.473	85.88
504.69	96.88
504.907	88.88
505.123	93.88
505.34	89.88
505.557	89.88
505.773	99.88
505.99	90.88
506.207	80.88
506.423	84.88
506.64	102.88
506.856	101.88
507.073	93.88
507.289	97.88
507.506	92.88
507.722	94.88
507.939	90.88
508.155	84.88
508.372	85.88
508.588	86.88
508.805	95.88
509.021	100.88
509.238	98.88
509.454	96.88
509.67	84.88
509.887	107.88
510.103	120.88
510.319	197.88
510.536	609.88
510.752	1802.88
510.968	522.88
511.184	150.88
511.401	98.88
511.617	90.88
511.833	81.88
512.049	100.88
512.265	106.88
512.481	88.88
512.698	92.88
512.914	92.88
513.13	92.88
513.346	92.88
513.562	95.88
513.778	95.88
513.994	83.88
514.21	87.88
514.426	95.88
514.642	117.88
514.858	117.88
515.074	138.88
515.29	357.88
515.506	1032.88
515.721	392.88
515.937	123.88
516.153	108.88
516.369	109.88
516.585	91.88
