Data from Uncirc_1992_H10_HRD10591_00027.txt Node
Date: Wed Jan 03 11:46:21 EST 2024
User: Yrep
Spectrometer: HR+D1059
Trigger mode: 1
Integration Time (sec): 1.000000E-1
Scans to average: 1
Electric dark correction enabled: true
Nonlinearity correction enabled: false
Boxcar width: 0
XAxis mode: Wavelengths
Number of Pixels in Spectrum: 2048
>>>>>Begin Spectral Data<<<<<
223.165	-27.19
223.4	-27.19
223.635	-27.19
223.869	-35.19
224.104	-17.19
224.338	-14.19
224.573	-12.19
224.808	-4.19
225.042	-8.19
225.277	13.81
225.511	-3.19
225.746	10.81
225.98	-8.19
226.215	14.81
226.449	19.81
226.683	17.81
226.918	22.81
227.152	29.81
227.387	38.81
227.621	47.81
227.856	45.81
228.09	53.81
228.324	48.81
228.559	66.81
228.793	44.81
229.027	62.81
229.262	52.81
229.496	78.81
229.73	76.81
229.964	94.81
230.199	68.81
230.433	75.81
230.667	76.81
230.901	85.81
231.136	82.81
231.37	80.81
231.604	74.81
231.838	74.81
232.072	85.81
232.306	83.81
232.541	89.81
232.775	66.81
233.009	93.81
233.243	87.81
233.477	68.81
233.711	87.81
233.945	92.81
234.179	78.81
234.413	72.81
234.647	75.81
234.881	77.81
235.115	72.81
235.349	86.81
235.583	86.81
235.817	80.81
236.051	75.81
236.285	67.81
236.519	76.81
236.753	72.81
236.987	78.81
237.221	80.81
237.455	84.81
237.689	88.81
237.922	95.81
238.156	77.81
238.39	76.81
238.624	81.81
238.858	90.81
239.091	80.81
239.325	73.81
239.559	81.81
239.793	91.81
240.027	72.81
240.26	81.81
240.494	82.81
240.728	82.81
240.961	80.81
241.195	84.81
241.429	77.81
241.662	84.81
241.896	71.81
242.13	71.81
242.363	84.81
242.597	62.81
242.83	90.81
243.064	77.81
243.298	95.81
243.531	76.81
243.765	75.81
243.998	75.81
244.232	84.81
244.465	76.81
244.699	69.81
244.932	88.81
245.166	82.81
245.399	82.81
245.633	72.81
245.866	78.81
246.099	79.81
246.333	86.81
246.566	71.81
246.8	70.81
247.033	70.81
247.266	74.81
247.5	89.81
247.733	78.81
247.966	78.81
248.2	86.81
248.433	86.81
248.666	84.81
248.899	82.81
249.133	84.81
249.366	88.81
249.599	90.81
249.832	75.81
250.066	79.81
250.299	85.81
250.532	74.81
250.765	84.81
250.998	91.81
251.231	72.81
251.465	71.81
251.698	87.81
251.931	93.81
252.164	75.81
252.397	94.81
252.63	83.81
252.863	82.81
253.096	86.81
253.329	80.81
253.562	91.81
253.795	84.81
254.028	103.81
254.261	76.81
254.494	68.81
254.727	78.81
254.96	70.81
255.193	74.81
255.426	94.81
255.659	83.81
255.892	79.81
256.124	65.81
256.357	65.81
256.59	81.81
256.823	74.81
257.056	72.81
257.289	74.81
257.521	89.81
257.754	84.81
257.987	63.81
258.22	81.81
258.452	84.81
258.685	62.81
258.918	78.81
259.151	76.81
259.383	95.81
259.616	95.81
259.849	89.81
260.081	83.81
260.314	86.81
260.547	79.81
260.779	83.81
261.012	83.81
261.244	56.81
261.477	96.81
261.71	74.81
261.942	107.81
262.175	97.81
262.407	87.81
262.64	91.81
262.872	72.81
263.105	81.81
263.337	96.81
263.57	78.81
263.802	89.81
264.035	96.81
264.267	72.81
264.499	75.81
264.732	83.81
264.964	84.81
265.197	84.81
265.429	91.81
265.661	86.81
265.894	84.81
266.126	92.81
266.358	93.81
266.591	85.81
266.823	72.81
267.055	92.81
267.287	82.81
267.52	91.81
267.752	78.81
267.984	85.81
268.216	80.81
268.448	89.81
268.681	84.81
268.913	91.81
269.145	65.81
269.377	86.81
269.609	80.81
269.841	86.81
270.073	86.81
270.306	79.81
270.538	88.81
270.77	78.81
271.002	81.81
271.234	86.81
271.466	81.81
271.698	77.81
271.93	91.81
272.162	80.81
272.394	90.81
272.626	86.81
272.858	80.81
273.09	84.81
273.322	75.81
273.553	69.81
273.785	95.81
274.017	91.81
274.249	84.81
274.481	101.81
274.713	80.81
274.945	82.81
275.176	96.81
275.408	92.81
275.64	83.81
275.872	101.81
276.104	99.81
276.335	98.81
276.567	101.81
276.799	106.81
277.031	89.81
277.262	91.81
277.494	81.81
277.726	81.81
277.957	92.81
278.189	74.81
278.421	75.81
278.652	94.81
278.884	89.81
279.115	84.81
279.347	93.81
279.579	94.81
279.81	85.81
280.042	88.81
280.273	95.81
280.505	95.81
280.736	82.81
280.968	95.81
281.199	76.81
281.431	75.81
281.662	100.81
281.894	98.81
282.125	98.81
282.356	115.81
282.588	134.81
282.819	109.81
283.051	92.81
283.282	90.81
283.513	81.81
283.745	76.81
283.976	85.81
284.207	88.81
284.439	83.81
284.67	75.81
284.901	86.81
285.132	74.81
285.364	94.81
285.595	90.81
285.826	90.81
286.057	90.81
286.288	89.81
286.52	106.81
286.751	82.81
286.982	82.81
287.213	90.81
287.444	71.81
287.675	78.81
287.906	89.81
288.138	96.81
288.369	76.81
288.6	111.81
288.831	96.81
289.062	85.81
289.293	103.81
289.524	73.81
289.755	82.81
289.986	90.81
290.217	89.81
290.448	81.81
290.679	81.81
290.91	93.81
291.141	85.81
291.371	87.81
291.602	92.81
291.833	91.81
292.064	87.81
292.295	82.81
292.526	84.81
292.757	77.81
292.987	86.81
293.218	82.81
293.449	86.81
293.68	100.81
293.91	93.81
294.141	90.81
294.372	95.81
294.603	94.81
294.833	86.81
295.064	81.81
295.295	66.81
295.525	89.81
295.756	86.81
295.987	96.81
296.217	138.81
296.448	132.81
296.679	90.81
296.909	86.81
297.14	86.81
297.37	84.81
297.601	88.81
297.831	81.81
298.062	95.81
298.292	96.81
298.523	79.81
298.753	88.81
298.984	82.81
299.214	82.81
299.445	96.81
299.675	93.81
299.905	102.81
300.136	88.81
300.366	86.81
300.597	103.81
300.827	95.81
301.057	86.81
301.288	97.81
301.518	93.81
301.748	87.81
301.979	82.81
302.209	98.81
302.439	96.81
302.669	87.81
302.9	76.81
303.13	85.81
303.36	99.81
303.59	98.81
303.82	109.81
304.051	95.81
304.281	96.81
304.511	84.81
304.741	91.81
304.971	95.81
305.201	91.81
305.431	93.81
305.661	92.81
305.891	92.81
306.121	93.81
306.352	88.81
306.582	100.81
306.812	95.81
307.042	92.81
307.272	88.81
307.502	101.81
307.731	84.81
307.961	90.81
308.191	101.81
308.421	108.81
308.651	98.81
308.881	86.81
309.111	83.81
309.341	96.81
309.571	102.81
309.8	97.81
310.03	103.81
310.26	104.81
310.49	87.81
310.72	95.81
310.949	95.81
311.179	90.81
311.409	85.81
311.639	99.81
311.868	106.81
312.098	95.81
312.328	95.81
312.557	102.81
312.787	111.81
313.017	84.81
313.246	94.81
313.476	79.81
313.706	84.81
313.935	96.81
314.165	90.81
314.394	96.81
314.624	78.81
314.853	103.81
315.083	93.81
315.312	102.81
315.542	101.81
315.771	91.81
316.001	100.81
316.23	94.81
316.46	80.81
316.689	96.81
316.919	91.81
317.148	96.81
317.377	90.81
317.607	96.81
317.836	87.81
318.065	77.81
318.295	84.81
318.524	84.81
318.753	98.81
318.983	95.81
319.212	103.81
319.441	104.81
319.67	108.81
319.9	86.81
320.129	96.81
320.358	94.81
320.587	93.81
320.816	89.81
321.046	100.81
321.275	103.81
321.504	104.81
321.733	99.81
321.962	94.81
322.191	102.81
322.42	102.81
322.649	112.81
322.878	123.81
323.108	95.81
323.337	113.81
323.566	122.81
323.795	121.81
324.024	196.81
324.253	360.81
324.482	778.81
324.71	1530.81
324.939	1968.81
325.168	725.81
325.397	240.81
325.626	162.81
325.855	138.81
326.084	113.81
326.313	125.81
326.542	123.81
326.77	227.81
326.999	450.81
327.228	873.81
327.457	1552.81
327.686	1205.81
327.914	314.81
328.143	181.81
328.372	139.81
328.6	112.81
328.829	129.81
329.058	112.81
329.287	128.81
329.515	110.81
329.744	106.81
329.972	103.81
330.201	96.81
330.43	108.81
330.658	126.81
330.887	121.81
331.115	112.81
331.344	95.81
331.572	106.81
331.801	112.81
332.03	99.81
332.258	108.81
332.486	97.81
332.715	98.81
332.943	93.81
333.172	83.81
333.4	128.81
333.629	93.81
333.857	111.81
334.085	96.81
334.314	108.81
334.542	103.81
334.771	102.81
334.999	104.81
335.227	99.81
335.455	97.81
335.684	87.81
335.912	97.81
336.14	98.81
336.369	103.81
336.597	106.81
336.825	104.81
337.053	107.81
337.281	91.81
337.51	94.81
337.738	94.81
337.966	87.81
338.194	97.81
338.422	97.81
338.65	89.81
338.878	91.81
339.106	89.81
339.334	97.81
339.562	103.81
339.79	88.81
340.018	88.81
340.246	86.81
340.474	100.81
340.702	84.81
340.93	94.81
341.158	84.81
341.386	92.81
341.614	102.81
341.842	99.81
342.07	101.81
342.298	92.81
342.526	85.81
342.754	84.81
342.981	93.81
343.209	82.81
343.437	102.81
343.665	83.81
343.893	81.81
344.12	90.81
344.348	97.81
344.576	92.81
344.804	103.81
345.031	102.81
345.259	100.81
345.487	83.81
345.714	94.81
345.942	88.81
346.17	105.81
346.397	88.81
346.625	98.81
346.853	95.81
347.08	93.81
347.308	85.81
347.535	86.81
347.763	90.81
347.99	98.81
348.218	114.81
348.445	96.81
348.673	95.81
348.9	95.81
349.128	88.81
349.355	85.81
349.583	79.81
349.81	101.81
350.037	96.81
350.265	106.81
350.492	101.81
350.72	87.81
350.947	104.81
351.174	114.81
351.402	111.81
351.629	93.81
351.856	95.81
352.083	95.81
352.311	112.81
352.538	91.81
352.765	99.81
352.992	111.81
353.22	109.81
353.447	95.81
353.674	100.81
353.901	92.81
354.128	103.81
354.355	83.81
354.583	103.81
354.81	103.81
355.037	100.81
355.264	107.81
355.491	97.81
355.718	101.81
355.945	102.81
356.172	98.81
356.399	90.81
356.626	94.81
356.853	92.81
357.08	97.81
357.307	84.81
357.534	100.81
357.761	84.81
357.988	87.81
358.215	108.81
358.441	103.81
358.668	102.81
358.895	99.81
359.122	92.81
359.349	83.81
359.576	98.81
359.802	100.81
360.029	103.81
360.256	114.81
360.483	106.81
360.709	80.81
360.936	102.81
361.163	99.81
361.39	88.81
361.616	108.81
361.843	92.81
362.07	95.81
362.296	98.81
362.523	102.81
362.749	90.81
362.976	83.81
363.203	94.81
363.429	67.81
363.656	94.81
363.882	85.81
364.109	82.81
364.335	87.81
364.562	93.81
364.788	95.81
365.015	112.81
365.241	111.81
365.468	108.81
365.694	111.81
365.92	99.81
366.147	87.81
366.373	85.81
366.599	96.81
366.826	100.81
367.052	83.81
367.278	69.81
367.505	93.81
367.731	85.81
367.957	90.81
368.184	104.81
368.41	103.81
368.636	114.81
368.862	122.81
369.089	108.81
369.315	101.81
369.541	86.81
369.767	99.81
369.993	98.81
370.219	95.81
370.445	93.81
370.672	92.81
370.898	85.81
371.124	96.81
371.35	100.81
371.576	93.81
371.802	83.81
372.028	95.81
372.254	85.81
372.48	84.81
372.706	95.81
372.932	102.81
373.158	91.81
373.384	82.81
373.61	83.81
373.835	78.81
374.061	84.81
374.287	92.81
374.513	92.81
374.739	93.81
374.965	98.81
375.191	90.81
375.416	109.81
375.642	78.81
375.868	93.81
376.094	95.81
376.319	92.81
376.545	97.81
376.771	82.81
376.997	103.81
377.222	92.81
377.448	94.81
377.674	102.81
377.899	81.81
378.125	90.81
378.35	90.81
378.576	91.81
378.802	88.81
379.027	90.81
379.253	89.81
379.478	94.81
379.704	103.81
379.929	94.81
380.155	94.81
380.38	101.81
380.606	96.81
380.831	87.81
381.057	101.81
381.282	84.81
381.507	99.81
381.733	93.81
381.958	87.81
382.184	108.81
382.409	106.81
382.634	97.81
382.86	109.81
383.085	95.81
383.31	95.81
383.535	113.81
383.761	106.81
383.986	105.81
384.211	117.81
384.436	109.81
384.662	97.81
384.887	96.81
385.112	106.81
385.337	93.81
385.562	99.81
385.787	97.81
386.013	104.81
386.238	116.81
386.463	95.81
386.688	116.81
386.913	89.81
387.138	107.81
387.363	103.81
387.588	106.81
387.813	109.81
388.038	95.81
388.263	106.81
388.488	108.81
388.713	93.81
388.938	103.81
389.163	100.81
389.387	84.81
389.612	80.81
389.837	85.81
390.062	91.81
390.287	92.81
390.512	96.81
390.736	98.81
390.961	99.81
391.186	98.81
391.411	83.81
391.636	91.81
391.86	85.81
392.085	92.81
392.31	77.81
392.534	96.81
392.759	92.81
392.984	87.81
393.208	95.81
393.433	96.81
393.658	92.81
393.882	97.81
394.107	83.81
394.331	92.81
394.556	88.81
394.78	88.81
395.005	90.81
395.229	88.81
395.454	87.81
395.678	92.81
395.903	97.81
396.127	83.81
396.352	83.81
396.576	99.81
396.801	104.81
397.025	86.81
397.249	90.81
397.474	87.81
397.698	94.81
397.922	75.81
398.147	102.81
398.371	88.81
398.595	82.81
398.82	101.81
399.044	97.81
399.268	82.81
399.492	84.81
399.717	92.81
399.941	88.81
400.165	95.81
400.389	94.81
400.613	84.81
400.837	85.81
401.062	75.81
401.286	104.81
401.51	101.81
401.734	100.81
401.958	109.81
402.182	113.81
402.406	150.81
402.63	93.81
402.854	83.81
403.078	92.81
403.302	94.81
403.526	93.81
403.75	77.81
403.974	92.81
404.198	94.81
404.422	92.81
404.645	93.81
404.869	94.81
405.093	93.81
405.317	88.81
405.541	97.81
405.765	94.81
405.988	121.81
406.212	178.81
406.436	227.81
406.66	144.81
406.883	101.81
407.107	93.81
407.331	102.81
407.555	106.81
407.778	88.81
408.002	95.81
408.226	92.81
408.449	85.81
408.673	85.81
408.896	100.81
409.12	96.81
409.344	99.81
409.567	102.81
409.791	96.81
410.014	94.81
410.238	108.81
410.461	101.81
410.685	106.81
410.908	95.81
411.132	118.81
411.355	104.81
411.578	103.81
411.802	90.81
412.025	100.81
412.249	77.81
412.472	97.81
412.695	90.81
412.919	112.81
413.142	84.81
413.365	94.81
413.589	79.81
413.812	86.81
414.035	91.81
414.258	83.81
414.482	97.81
414.705	89.81
414.928	88.81
415.151	100.81
415.374	91.81
415.597	104.81
415.821	92.81
416.044	102.81
416.267	98.81
416.49	83.81
416.713	77.81
416.936	85.81
417.159	80.81
417.382	95.81
417.605	97.81
417.828	102.81
418.051	90.81
418.274	90.81
418.497	93.81
418.72	75.81
418.943	84.81
419.166	98.81
419.389	92.81
419.611	99.81
419.834	97.81
420.057	98.81
420.28	97.81
420.503	89.81
420.726	93.81
420.948	102.81
421.171	89.81
421.394	74.81
421.617	85.81
421.839	90.81
422.062	85.81
422.285	93.81
422.507	99.81
422.73	112.81
422.953	86.81
423.175	80.81
423.398	77.81
423.621	88.81
423.843	82.81
424.066	78.81
424.288	100.81
424.511	96.81
424.733	107.81
424.956	101.81
425.178	101.81
425.401	111.81
425.623	108.81
425.846	94.81
426.068	99.81
426.291	94.81
426.513	97.81
426.735	106.81
426.958	95.81
427.18	98.81
427.402	141.81
427.625	144.81
427.847	124.81
428.069	94.81
428.292	90.81
428.514	88.81
428.736	80.81
428.958	75.81
429.181	86.81
429.403	91.81
429.625	81.81
429.847	87.81
430.069	95.81
430.292	90.81
430.514	96.81
430.736	91.81
430.958	93.81
431.18	80.81
431.402	99.81
431.624	86.81
431.846	90.81
432.068	93.81
432.29	83.81
432.512	96.81
432.734	75.81
432.956	91.81
433.178	110.81
433.4	100.81
433.622	87.81
433.844	94.81
434.066	103.81
434.287	102.81
434.509	82.81
434.731	91.81
434.953	92.81
435.175	93.81
435.397	105.81
435.618	90.81
435.84	115.81
436.062	110.81
436.284	117.81
436.505	107.81
436.727	100.81
436.949	96.81
437.17	87.81
437.392	95.81
437.614	103.81
437.835	106.81
438.057	124.81
438.278	93.81
438.5	97.81
438.721	127.81
438.943	111.81
439.165	87.81
439.386	87.81
439.608	77.81
439.829	85.81
440.05	119.81
440.272	136.81
440.493	103.81
440.715	84.81
440.936	85.81
441.158	93.81
441.379	106.81
441.6	96.81
441.822	97.81
442.043	101.81
442.264	95.81
442.486	96.81
442.707	101.81
442.928	112.81
443.149	131.81
443.371	141.81
443.592	106.81
443.813	101.81
444.034	105.81
444.255	91.81
444.476	95.81
444.698	82.81
444.919	96.81
445.14	140.81
445.361	122.81
445.582	117.81
445.803	142.81
446.024	130.81
446.245	124.81
446.466	103.81
446.687	90.81
446.908	103.81
447.129	83.81
447.35	98.81
447.571	101.81
447.792	83.81
448.013	109.81
448.234	102.81
448.455	93.81
448.675	105.81
448.896	111.81
449.117	98.81
449.338	108.81
449.559	118.81
449.779	121.81
450	114.81
450.221	83.81
450.442	98.81
450.662	99.81
450.883	116.81
451.104	108.81
451.324	106.81
451.545	85.81
451.766	93.81
451.986	94.81
452.207	101.81
452.428	92.81
452.648	108.81
452.869	113.81
453.089	106.81
453.31	111.81
453.53	88.81
453.751	88.81
453.971	103.81
454.192	101.81
454.412	98.81
454.633	87.81
454.853	94.81
455.073	84.81
455.294	94.81
455.514	103.81
455.734	96.81
455.955	94.81
456.175	90.81
456.395	92.81
456.616	85.81
456.836	92.81
457.056	83.81
457.276	91.81
457.497	86.81
457.717	91.81
457.937	84.81
458.157	83.81
458.377	84.81
458.598	101.81
458.818	150.81
459.038	146.81
459.258	109.81
459.478	94.81
459.698	96.81
459.918	95.81
460.138	97.81
460.358	88.81
460.578	93.81
460.798	106.81
461.018	84.81
461.238	75.81
461.458	82.81
461.678	87.81
461.898	92.81
462.118	90.81
462.338	87.81
462.558	96.81
462.777	87.81
462.997	91.81
463.217	82.81
463.437	83.81
463.657	90.81
463.876	94.81
464.096	127.81
464.316	103.81
464.536	86.81
464.755	103.81
464.975	112.81
465.195	143.81
465.414	136.81
465.634	88.81
465.854	91.81
466.073	88.81
466.293	110.81
466.512	69.81
466.732	91.81
466.951	90.81
467.171	93.81
467.391	83.81
467.61	106.81
467.829	85.81
468.049	79.81
468.268	95.81
468.488	98.81
468.707	93.81
468.927	91.81
469.146	70.81
469.365	84.81
469.585	97.81
469.804	107.81
470.023	108.81
470.243	90.81
470.462	100.81
470.681	115.81
470.901	85.81
471.12	86.81
471.339	91.81
471.558	90.81
471.777	82.81
471.997	96.81
472.216	77.81
472.435	86.81
472.654	97.81
472.873	102.81
473.092	90.81
473.311	90.81
473.53	99.81
473.749	79.81
473.968	89.81
474.187	96.81
474.406	97.81
474.625	93.81
474.844	82.81
475.063	81.81
475.282	97.81
475.501	103.81
475.72	102.81
475.939	91.81
476.158	87.81
476.377	93.81
476.596	82.81
476.814	79.81
477.033	95.81
477.252	83.81
477.471	82.81
477.69	94.81
477.908	92.81
478.127	88.81
478.346	92.81
478.564	94.81
478.783	99.81
479.002	83.81
479.22	95.81
479.439	106.81
479.658	105.81
479.876	96.81
480.095	96.81
480.313	92.81
480.532	98.81
480.751	77.81
480.969	95.81
481.188	94.81
481.406	96.81
481.624	82.81
481.843	76.81
482.061	81.81
482.28	90.81
482.498	100.81
482.717	79.81
482.935	103.81
483.153	90.81
483.372	80.81
483.59	80.81
483.808	85.81
484.027	94.81
484.245	98.81
484.463	95.81
484.681	95.81
484.9	103.81
485.118	89.81
485.336	95.81
485.554	104.81
485.772	102.81
485.99	102.81
486.209	103.81
486.427	102.81
486.645	102.81
486.863	116.81
487.081	100.81
487.299	107.81
487.517	92.81
487.735	92.81
487.953	111.81
488.171	99.81
488.389	90.81
488.607	114.81
488.825	94.81
489.043	77.81
489.261	85.81
489.479	97.81
489.696	97.81
489.914	79.81
490.132	99.81
490.35	103.81
490.568	85.81
490.786	93.81
491.003	94.81
491.221	85.81
491.439	100.81
491.657	94.81
491.874	92.81
492.092	96.81
492.31	84.81
492.527	86.81
492.745	95.81
492.963	96.81
493.18	99.81
493.398	95.81
493.615	97.81
493.833	99.81
494.05	101.81
494.268	90.81
494.485	87.81
494.703	113.81
494.92	86.81
495.138	101.81
495.355	78.81
495.573	94.81
495.79	100.81
496.008	84.81
496.225	81.81
496.442	99.81
496.66	96.81
496.877	103.81
497.094	98.81
497.312	106.81
497.529	100.81
497.746	101.81
497.963	95.81
498.181	99.81
498.398	104.81
498.615	106.81
498.832	108.81
499.049	98.81
499.267	89.81
499.484	107.81
499.701	103.81
499.918	98.81
500.135	91.81
500.352	88.81
500.569	98.81
500.786	108.81
501.003	101.81
501.22	81.81
501.437	101.81
501.654	76.81
501.871	114.81
502.088	94.81
502.305	100.81
502.522	85.81
502.739	91.81
502.956	93.81
503.172	109.81
503.389	120.81
503.606	99.81
503.823	102.81
504.04	98.81
504.256	105.81
504.473	91.81
504.69	87.81
504.907	86.81
505.123	99.81
505.34	91.81
505.557	91.81
505.773	111.81
505.99	92.81
506.207	82.81
506.423	97.81
506.64	88.81
506.856	93.81
507.073	87.81
507.289	92.81
507.506	82.81
507.722	118.81
507.939	108.81
508.155	107.81
508.372	79.81
508.588	96.81
508.805	103.81
509.021	82.81
509.238	87.81
509.454	102.81
509.67	94.81
509.887	122.81
510.103	122.81
510.319	216.81
510.536	757.81
510.752	2248.81
510.968	618.81
511.184	155.81
511.401	114.81
511.617	96.81
511.833	103.81
512.049	98.81
512.265	93.81
512.481	95.81
512.698	90.81
512.914	81.81
513.13	102.81
513.346	98.81
513.562	86.81
513.778	98.81
513.994	104.81
514.21	102.81
514.426	104.81
514.642	142.81
514.858	126.81
515.074	168.81
