Data from Uncirc_1992_H10_HRD10591_00068.txt Node
Date: Wed Jan 03 11:46:29 EST 2024
User: Yrep
Spectrometer: HR+D1059
Trigger mode: 1
Integration Time (sec): 1.000000E-1
Scans to average: 1
Electric dark correction enabled: true
Nonlinearity correction enabled: false
Boxcar width: 0
XAxis mode: Wavelengths
Number of Pixels in Spectrum: 2048
>>>>>Begin Spectral Data<<<<<
223.165	-8.62
223.4	-8.62
223.635	-8.62
223.869	-18.62
224.104	-26.62
224.338	-14.62
224.573	-22.62
224.808	-11.62
225.042	-18.62
225.277	-3.62
225.511	-0.62
225.746	-0.62
225.98	10.38
226.215	23.38
226.449	24.38
226.683	21.38
226.918	22.38
227.152	24.38
227.387	41.38
227.621	35.38
227.856	34.38
228.09	47.38
228.324	41.38
228.559	58.38
228.793	52.38
229.027	52.38
229.262	74.38
229.496	81.38
229.73	77.38
229.964	71.38
230.199	73.38
230.433	64.38
230.667	71.38
230.901	86.38
231.136	73.38
231.37	63.38
231.604	71.38
231.838	81.38
232.072	85.38
232.306	66.38
232.541	71.38
232.775	74.38
233.009	74.38
233.243	76.38
233.477	80.38
233.711	76.38
233.945	59.38
234.179	65.38
234.413	82.38
234.647	69.38
234.881	71.38
235.115	87.38
235.349	77.38
235.583	65.38
235.817	76.38
236.051	86.38
236.285	79.38
236.519	72.38
236.753	82.38
236.987	79.38
237.221	77.38
237.455	90.38
237.689	77.38
237.922	93.38
238.156	72.38
238.39	65.38
238.624	77.38
238.858	74.38
239.091	67.38
239.325	79.38
239.559	82.38
239.793	67.38
240.027	80.38
240.26	75.38
240.494	87.38
240.728	77.38
240.961	72.38
241.195	84.38
241.429	71.38
241.662	66.38
241.896	66.38
242.13	68.38
242.363	71.38
242.597	68.38
242.83	77.38
243.064	72.38
243.298	79.38
243.531	85.38
243.765	74.38
243.998	90.38
244.232	93.38
244.465	80.38
244.699	78.38
244.932	72.38
245.166	82.38
245.399	83.38
245.633	87.38
245.866	77.38
246.099	64.38
246.333	81.38
246.566	87.38
246.8	81.38
247.033	77.38
247.266	83.38
247.5	85.38
247.733	80.38
247.966	73.38
248.2	83.38
248.433	71.38
248.666	79.38
248.899	87.38
249.133	73.38
249.366	79.38
249.599	84.38
249.832	89.38
250.066	80.38
250.299	85.38
250.532	79.38
250.765	83.38
250.998	73.38
251.231	84.38
251.465	78.38
251.698	83.38
251.931	88.38
252.164	81.38
252.397	84.38
252.63	82.38
252.863	59.38
253.096	87.38
253.329	71.38
253.562	75.38
253.795	73.38
254.028	79.38
254.261	75.38
254.494	78.38
254.727	85.38
254.96	79.38
255.193	61.38
255.426	72.38
255.659	69.38
255.892	71.38
256.124	71.38
256.357	88.38
256.59	98.38
256.823	81.38
257.056	77.38
257.289	84.38
257.521	79.38
257.754	81.38
257.987	75.38
258.22	77.38
258.452	72.38
258.685	79.38
258.918	79.38
259.151	85.38
259.383	77.38
259.616	76.38
259.849	96.38
260.081	88.38
260.314	94.38
260.547	77.38
260.779	75.38
261.012	88.38
261.244	80.38
261.477	78.38
261.71	86.38
261.942	98.38
262.175	102.38
262.407	88.38
262.64	84.38
262.872	87.38
263.105	81.38
263.337	83.38
263.57	82.38
263.802	82.38
264.035	86.38
264.267	75.38
264.499	75.38
264.732	91.38
264.964	90.38
265.197	80.38
265.429	75.38
265.661	87.38
265.894	67.38
266.126	87.38
266.358	78.38
266.591	73.38
266.823	88.38
267.055	94.38
267.287	91.38
267.52	94.38
267.752	83.38
267.984	87.38
268.216	78.38
268.448	78.38
268.681	88.38
268.913	87.38
269.145	85.38
269.377	75.38
269.609	70.38
269.841	70.38
270.073	89.38
270.306	89.38
270.538	79.38
270.77	88.38
271.002	83.38
271.234	95.38
271.466	85.38
271.698	75.38
271.93	72.38
272.162	87.38
272.394	90.38
272.626	85.38
272.858	81.38
273.09	88.38
273.322	91.38
273.553	81.38
273.785	87.38
274.017	94.38
274.249	89.38
274.481	80.38
274.713	95.38
274.945	87.38
275.176	82.38
275.408	84.38
275.64	76.38
275.872	84.38
276.104	85.38
276.335	96.38
276.567	81.38
276.799	104.38
277.031	92.38
277.262	90.38
277.494	89.38
277.726	92.38
277.957	91.38
278.189	83.38
278.421	77.38
278.652	90.38
278.884	85.38
279.115	84.38
279.347	87.38
279.579	99.38
279.81	84.38
280.042	93.38
280.273	85.38
280.505	72.38
280.736	79.38
280.968	83.38
281.199	90.38
281.431	88.38
281.662	72.38
281.894	81.38
282.125	90.38
282.356	100.38
282.588	107.38
282.819	99.38
283.051	78.38
283.282	76.38
283.513	89.38
283.745	82.38
283.976	81.38
284.207	80.38
284.439	85.38
284.67	89.38
284.901	84.38
285.132	78.38
285.364	85.38
285.595	92.38
285.826	95.38
286.057	80.38
286.288	72.38
286.52	91.38
286.751	84.38
286.982	80.38
287.213	90.38
287.444	71.38
287.675	102.38
287.906	86.38
288.138	82.38
288.369	76.38
288.6	86.38
288.831	92.38
289.062	95.38
289.293	80.38
289.524	90.38
289.755	80.38
289.986	74.38
290.217	84.38
290.448	80.38
290.679	88.38
290.91	61.38
291.141	85.38
291.371	80.38
291.602	83.38
291.833	82.38
292.064	89.38
292.295	83.38
292.526	82.38
292.757	86.38
292.987	98.38
293.218	84.38
293.449	89.38
293.68	68.38
293.91	96.38
294.141	88.38
294.372	94.38
294.603	84.38
294.833	79.38
295.064	76.38
295.295	105.38
295.525	97.38
295.756	111.38
295.987	112.38
296.217	140.38
296.448	104.38
296.679	96.38
296.909	88.38
297.14	106.38
297.37	79.38
297.601	84.38
297.831	94.38
298.062	96.38
298.292	81.38
298.523	95.38
298.753	87.38
298.984	74.38
299.214	81.38
299.445	92.38
299.675	79.38
299.905	87.38
300.136	92.38
300.366	82.38
300.597	97.38
300.827	81.38
301.057	100.38
301.288	97.38
301.518	99.38
301.748	67.38
301.979	90.38
302.209	92.38
302.439	81.38
302.669	81.38
302.9	93.38
303.13	79.38
303.36	74.38
303.59	102.38
303.82	93.38
304.051	105.38
304.281	93.38
304.511	89.38
304.741	84.38
304.971	96.38
305.201	103.38
305.431	85.38
305.661	93.38
305.891	77.38
306.121	100.38
306.352	104.38
306.582	105.38
306.812	99.38
307.042	96.38
307.272	89.38
307.502	79.38
307.731	90.38
307.961	96.38
308.191	84.38
308.421	85.38
308.651	79.38
308.881	78.38
309.111	79.38
309.341	100.38
309.571	101.38
309.8	86.38
310.03	102.38
310.26	78.38
310.49	87.38
310.72	93.38
310.949	88.38
311.179	90.38
311.409	84.38
311.639	81.38
311.868	109.38
312.098	97.38
312.328	95.38
312.557	92.38
312.787	101.38
313.017	87.38
313.246	89.38
313.476	90.38
313.706	96.38
313.935	111.38
314.165	91.38
314.394	104.38
314.624	112.38
314.853	97.38
315.083	96.38
315.312	85.38
315.542	104.38
315.771	84.38
316.001	109.38
316.23	97.38
316.46	97.38
316.689	92.38
316.919	94.38
317.148	86.38
317.377	87.38
317.607	96.38
317.836	81.38
318.065	78.38
318.295	89.38
318.524	88.38
318.753	103.38
318.983	81.38
319.212	90.38
319.441	96.38
319.67	106.38
319.9	95.38
320.129	97.38
320.358	90.38
320.587	88.38
320.816	96.38
321.046	95.38
321.275	105.38
321.504	93.38
321.733	92.38
321.962	97.38
322.191	110.38
322.42	87.38
322.649	107.38
322.878	108.38
323.108	114.38
323.337	103.38
323.566	130.38
323.795	153.38
324.024	185.38
324.253	354.38
324.482	733.38
324.71	1449.38
324.939	1927.38
325.168	696.38
325.397	204.38
325.626	128.38
325.855	125.38
326.084	119.38
326.313	98.38
326.542	142.38
326.77	202.38
326.999	421.38
327.228	827.38
327.457	1457.38
327.686	1157.38
327.914	327.38
328.143	183.38
328.372	133.38
328.6	115.38
328.829	116.38
329.058	112.38
329.287	112.38
329.515	97.38
329.744	112.38
329.972	103.38
330.201	99.38
330.43	99.38
330.658	127.38
330.887	143.38
331.115	102.38
331.344	106.38
331.572	97.38
331.801	103.38
332.03	100.38
332.258	84.38
332.486	98.38
332.715	83.38
332.943	97.38
333.172	97.38
333.4	89.38
333.629	106.38
333.857	106.38
334.085	100.38
334.314	89.38
334.542	100.38
334.771	89.38
334.999	93.38
335.227	101.38
335.455	97.38
335.684	82.38
335.912	85.38
336.14	93.38
336.369	86.38
336.597	90.38
336.825	94.38
337.053	96.38
337.281	100.38
337.51	92.38
337.738	93.38
337.966	83.38
338.194	89.38
338.422	89.38
338.65	80.38
338.878	104.38
339.106	90.38
339.334	104.38
339.562	92.38
339.79	79.38
340.018	97.38
340.246	93.38
340.474	90.38
340.702	87.38
340.93	92.38
341.158	92.38
341.386	98.38
341.614	96.38
341.842	93.38
342.07	85.38
342.298	102.38
342.526	99.38
342.754	74.38
342.981	88.38
343.209	100.38
343.437	93.38
343.665	84.38
343.893	81.38
344.12	88.38
344.348	95.38
344.576	88.38
344.804	83.38
345.031	84.38
345.259	89.38
345.487	92.38
345.714	85.38
345.942	90.38
346.17	82.38
346.397	84.38
346.625	97.38
346.853	107.38
347.08	92.38
347.308	98.38
347.535	88.38
347.763	96.38
347.99	113.38
348.218	109.38
348.445	91.38
348.673	91.38
348.9	99.38
349.128	85.38
349.355	95.38
349.583	100.38
349.81	102.38
350.037	97.38
350.265	89.38
350.492	89.38
350.72	84.38
350.947	91.38
351.174	99.38
351.402	101.38
351.629	114.38
351.856	104.38
352.083	99.38
352.311	98.38
352.538	98.38
352.765	109.38
352.992	111.38
353.22	111.38
353.447	103.38
353.674	78.38
353.901	106.38
354.128	95.38
354.355	97.38
354.583	97.38
354.81	93.38
355.037	94.38
355.264	99.38
355.491	104.38
355.718	92.38
355.945	91.38
356.172	88.38
356.399	85.38
356.626	87.38
356.853	91.38
357.08	88.38
357.307	91.38
357.534	88.38
357.761	91.38
357.988	96.38
358.215	92.38
358.441	80.38
358.668	91.38
358.895	89.38
359.122	95.38
359.349	95.38
359.576	78.38
359.802	95.38
360.029	112.38
360.256	116.38
360.483	91.38
360.709	83.38
360.936	88.38
361.163	81.38
361.39	82.38
361.616	88.38
361.843	92.38
362.07	93.38
362.296	81.38
362.523	85.38
362.749	91.38
362.976	92.38
363.203	89.38
363.429	94.38
363.656	90.38
363.882	73.38
364.109	81.38
364.335	88.38
364.562	79.38
364.788	95.38
365.015	107.38
365.241	109.38
365.468	101.38
365.694	107.38
365.92	90.38
366.147	87.38
366.373	94.38
366.599	93.38
366.826	79.38
367.052	76.38
367.278	96.38
367.505	104.38
367.731	100.38
367.957	80.38
368.184	77.38
368.41	83.38
368.636	107.38
368.862	112.38
369.089	109.38
369.315	90.38
369.541	92.38
369.767	81.38
369.993	100.38
370.219	87.38
370.445	91.38
370.672	100.38
370.898	89.38
371.124	97.38
371.35	89.38
371.576	87.38
371.802	94.38
372.028	98.38
372.254	77.38
372.48	78.38
372.706	73.38
372.932	88.38
373.158	98.38
373.384	79.38
373.61	83.38
373.835	85.38
374.061	87.38
374.287	90.38
374.513	75.38
374.739	74.38
374.965	89.38
375.191	90.38
375.416	91.38
375.642	92.38
375.868	96.38
376.094	83.38
376.319	88.38
376.545	81.38
376.771	99.38
376.997	66.38
377.222	91.38
377.448	93.38
377.674	80.38
377.899	83.38
378.125	93.38
378.35	99.38
378.576	89.38
378.802	97.38
379.027	103.38
379.253	81.38
379.478	87.38
379.704	95.38
379.929	100.38
380.155	89.38
380.38	87.38
380.606	77.38
380.831	96.38
381.057	76.38
381.282	86.38
381.507	85.38
381.733	83.38
381.958	101.38
382.184	80.38
382.409	88.38
382.634	96.38
382.86	93.38
383.085	100.38
383.31	96.38
383.535	103.38
383.761	100.38
383.986	103.38
384.211	96.38
384.436	99.38
384.662	96.38
384.887	91.38
385.112	105.38
385.337	98.38
385.562	89.38
385.787	95.38
386.013	94.38
386.238	100.38
386.463	98.38
386.688	114.38
386.913	101.38
387.138	112.38
387.363	92.38
387.588	89.38
387.813	103.38
388.038	100.38
388.263	87.38
388.488	98.38
388.713	91.38
388.938	95.38
389.163	85.38
389.387	92.38
389.612	98.38
389.837	91.38
390.062	90.38
390.287	97.38
390.512	92.38
390.736	100.38
390.961	88.38
391.186	98.38
391.411	103.38
391.636	91.38
391.86	69.38
392.085	81.38
392.31	71.38
392.534	95.38
392.759	99.38
392.984	75.38
393.208	88.38
393.433	82.38
393.658	88.38
393.882	83.38
394.107	93.38
394.331	81.38
394.556	90.38
394.78	90.38
395.005	100.38
395.229	90.38
395.454	81.38
395.678	68.38
395.903	84.38
396.127	100.38
396.352	88.38
396.576	83.38
396.801	87.38
397.025	79.38
397.249	82.38
397.474	73.38
397.698	84.38
397.922	82.38
398.147	92.38
398.371	94.38
398.595	84.38
398.82	91.38
399.044	88.38
399.268	78.38
399.492	88.38
399.717	83.38
399.941	81.38
400.165	95.38
400.389	87.38
400.613	71.38
400.837	82.38
401.062	84.38
401.286	79.38
401.51	85.38
401.734	90.38
401.958	88.38
402.182	128.38
402.406	153.38
402.63	112.38
402.854	82.38
403.078	90.38
403.302	81.38
403.526	95.38
403.75	86.38
403.974	81.38
404.198	97.38
404.422	73.38
404.645	80.38
404.869	90.38
405.093	100.38
405.317	92.38
405.541	86.38
405.765	86.38
405.988	120.38
406.212	152.38
406.436	192.38
406.66	137.38
406.883	104.38
407.107	85.38
407.331	81.38
407.555	83.38
407.778	99.38
408.002	81.38
408.226	97.38
408.449	97.38
408.673	90.38
408.896	93.38
409.12	85.38
409.344	90.38
409.567	97.38
409.791	94.38
410.014	88.38
410.238	100.38
410.461	94.38
410.685	84.38
410.908	90.38
411.132	99.38
411.355	96.38
411.578	83.38
411.802	84.38
412.025	85.38
412.249	104.38
412.472	94.38
412.695	87.38
412.919	89.38
413.142	90.38
413.365	87.38
413.589	88.38
413.812	99.38
414.035	98.38
414.258	81.38
414.482	89.38
414.705	88.38
414.928	75.38
415.151	93.38
415.374	96.38
415.597	79.38
415.821	90.38
416.044	93.38
416.267	73.38
416.49	86.38
416.713	87.38
416.936	101.38
417.159	82.38
417.382	80.38
417.605	90.38
417.828	88.38
418.051	79.38
418.274	77.38
418.497	87.38
418.72	77.38
418.943	89.38
419.166	77.38
419.389	84.38
419.611	98.38
419.834	74.38
420.057	78.38
420.28	87.38
420.503	85.38
420.726	89.38
420.948	83.38
421.171	94.38
421.394	100.38
421.617	78.38
421.839	87.38
422.062	84.38
422.285	95.38
422.507	79.38
422.73	101.38
422.953	80.38
423.175	89.38
423.398	83.38
423.621	87.38
423.843	99.38
424.066	86.38
424.288	81.38
424.511	85.38
424.733	80.38
424.956	106.38
425.178	93.38
425.401	95.38
425.623	92.38
425.846	69.38
426.068	93.38
426.291	85.38
426.513	99.38
426.735	85.38
426.958	79.38
427.18	93.38
427.402	121.38
427.625	144.38
427.847	108.38
428.069	100.38
428.292	97.38
428.514	73.38
428.736	94.38
428.958	79.38
429.181	87.38
429.403	81.38
429.625	95.38
429.847	86.38
430.069	97.38
430.292	93.38
430.514	85.38
430.736	76.38
430.958	92.38
431.18	81.38
431.402	79.38
431.624	82.38
431.846	74.38
432.068	96.38
432.29	69.38
432.512	88.38
432.734	93.38
432.956	88.38
433.178	105.38
433.4	106.38
433.622	88.38
433.844	85.38
434.066	90.38
434.287	97.38
434.509	91.38
434.731	75.38
434.953	96.38
435.175	81.38
435.397	90.38
435.618	104.38
435.84	106.38
436.062	118.38
436.284	111.38
436.505	87.38
436.727	93.38
436.949	85.38
437.17	82.38
437.392	84.38
437.614	88.38
437.835	103.38
438.057	94.38
438.278	95.38
438.5	94.38
438.721	105.38
438.943	94.38
439.165	92.38
439.386	87.38
439.608	88.38
439.829	93.38
440.05	123.38
440.272	123.38
440.493	93.38
440.715	88.38
440.936	84.38
441.158	90.38
441.379	80.38
441.6	98.38
441.822	85.38
442.043	94.38
442.264	100.38
442.486	99.38
442.707	88.38
442.928	86.38
443.149	112.38
443.371	116.38
443.592	116.38
443.813	113.38
444.034	104.38
444.255	87.38
444.476	89.38
444.698	85.38
444.919	88.38
445.14	121.38
445.361	107.38
445.582	115.38
445.803	124.38
446.024	137.38
446.245	137.38
446.466	100.38
446.687	95.38
446.908	92.38
447.129	95.38
447.35	78.38
447.571	85.38
447.792	84.38
448.013	100.38
448.234	102.38
448.455	90.38
448.675	99.38
448.896	112.38
449.117	100.38
449.338	92.38
449.559	103.38
449.779	119.38
450	95.38
450.221	87.38
450.442	98.38
450.662	65.38
450.883	88.38
451.104	99.38
451.324	98.38
451.545	102.38
451.766	96.38
451.986	95.38
452.207	89.38
452.428	86.38
452.648	93.38
452.869	101.38
453.089	105.38
453.31	115.38
453.53	98.38
453.751	80.38
453.971	99.38
454.192	109.38
454.412	100.38
454.633	92.38
454.853	88.38
455.073	93.38
455.294	97.38
455.514	87.38
455.734	85.38
455.955	78.38
456.175	85.38
456.395	84.38
456.616	75.38
456.836	79.38
457.056	93.38
457.276	91.38
457.497	85.38
457.717	76.38
457.937	81.38
458.157	88.38
458.377	91.38
458.598	104.38
458.818	137.38
459.038	128.38
459.258	109.38
459.478	84.38
459.698	76.38
459.918	93.38
460.138	75.38
460.358	91.38
460.578	87.38
460.798	94.38
461.018	85.38
461.238	82.38
461.458	90.38
461.678	85.38
461.898	65.38
462.118	89.38
462.338	89.38
462.558	87.38
462.777	85.38
462.997	84.38
463.217	89.38
463.437	83.38
463.657	82.38
463.876	89.38
464.096	93.38
464.316	96.38
464.536	81.38
464.755	92.38
464.975	99.38
465.195	152.38
465.414	160.38
465.634	96.38
465.854	84.38
466.073	87.38
466.293	95.38
466.512	86.38
466.732	82.38
466.951	106.38
467.171	91.38
467.391	85.38
467.61	105.38
467.829	85.38
468.049	78.38
468.268	88.38
468.488	92.38
468.707	75.38
468.927	88.38
469.146	90.38
469.365	91.38
469.585	87.38
469.804	73.38
470.023	83.38
470.243	82.38
470.462	88.38
470.681	105.38
470.901	96.38
471.12	83.38
471.339	77.38
471.558	74.38
471.777	82.38
471.997	76.38
472.216	92.38
472.435	83.38
472.654	84.38
472.873	92.38
473.092	82.38
473.311	95.38
473.53	81.38
473.749	77.38
473.968	79.38
474.187	92.38
474.406	85.38
474.625	89.38
474.844	71.38
475.063	84.38
475.282	75.38
475.501	86.38
475.72	80.38
475.939	84.38
476.158	87.38
476.377	78.38
476.596	83.38
476.814	84.38
477.033	88.38
477.252	89.38
477.471	84.38
477.69	98.38
477.908	85.38
478.127	78.38
478.346	77.38
478.564	95.38
478.783	88.38
479.002	84.38
479.22	97.38
479.439	82.38
479.658	91.38
479.876	89.38
480.095	81.38
480.313	86.38
480.532	81.38
480.751	84.38
480.969	108.38
481.188	97.38
481.406	89.38
481.624	82.38
481.843	64.38
482.061	84.38
482.28	92.38
482.498	84.38
482.717	84.38
482.935	100.38
483.153	69.38
483.372	81.38
483.59	91.38
483.808	80.38
484.027	84.38
484.245	83.38
484.463	104.38
484.681	87.38
484.9	82.38
485.118	89.38
485.336	99.38
485.554	108.38
485.772	104.38
485.99	98.38
486.209	109.38
486.427	104.38
486.645	104.38
486.863	108.38
487.081	90.38
487.299	86.38
487.517	88.38
487.735	83.38
487.953	100.38
488.171	109.38
488.389	90.38
488.607	96.38
488.825	79.38
489.043	85.38
489.261	84.38
489.479	89.38
489.696	79.38
489.914	95.38
490.132	85.38
490.35	79.38
490.568	93.38
490.786	85.38
491.003	83.38
491.221	87.38
491.439	84.38
491.657	86.38
491.874	85.38
492.092	87.38
492.31	83.38
492.527	90.38
492.745	74.38
492.963	91.38
493.18	73.38
493.398	101.38
493.615	83.38
493.833	84.38
494.05	76.38
494.268	89.38
494.485	76.38
494.703	87.38
494.92	79.38
495.138	90.38
495.355	84.38
495.573	79.38
495.79	86.38
496.008	92.38
496.225	92.38
496.442	92.38
496.66	97.38
496.877	87.38
497.094	79.38
497.312	84.38
497.529	80.38
497.746	81.38
497.963	85.38
498.181	94.38
498.398	104.38
498.615	105.38
498.832	107.38
499.049	92.38
499.267	94.38
499.484	80.38
499.701	81.38
499.918	98.38
500.135	88.38
500.352	83.38
500.569	94.38
500.786	79.38
501.003	80.38
501.22	88.38
501.437	79.38
501.654	95.38
501.871	95.38
502.088	93.38
502.305	92.38
502.522	81.38
502.739	91.38
502.956	87.38
503.172	75.38
503.389	105.38
503.606	94.38
503.823	113.38
504.04	84.38
504.256	80.38
504.473	85.38
504.69	83.38
504.907	89.38
505.123	82.38
505.34	89.38
505.557	86.38
505.773	81.38
505.99	75.38
506.207	86.38
506.423	79.38
506.64	91.38
506.856	85.38
507.073	85.38
507.289	97.38
507.506	98.38
507.722	106.38
507.939	95.38
508.155	90.38
508.372	77.38
508.588	88.38
508.805	92.38
509.021	79.38
509.238	85.38
509.454	106.38
509.67	101.38
509.887	93.38
510.103	123.38
510.319	194.38
510.536	742.38
510.752	2101.38
510.968	585.38
511.184	146.38
511.401	115.38
511.617	112.38
511.833	97.38
512.049	100.38
512.265	88.38
512.481	74.38
512.698	88.38
512.914	106.38
513.13	88.38
513.346	90.38
513.562	98.38
513.778	95.38
513.994	80.38
514.21	102.38
514.426	113.38
514.642	121.38
514.858	122.38
515.074	153.38
515.29	415.38
515.506	1327.38
515.721	477.38
515.937	139.38
516.153	90.38
516.369	113.38
516.585	94.38
516.801	87.38
