Data from Uncirc_1992_H10_HRD10591_00018.txt Node
Date: Wed Jan 03 11:46:19 EST 2024
User: Yrep
Spectrometer: HR+D1059
Trigger mode: 1
Integration Time (sec): 1.000000E-1
Scans to average: 1
Electric dark correction enabled: true
Nonlinearity correction enabled: false
Boxcar width: 0
XAxis mode: Wavelengths
Number of Pixels in Spectrum: 2048
>>>>>Begin Spectral Data<<<<<
223.165	-9.94
223.4	-9.94
223.635	-9.94
223.869	-16.94
224.104	-18.94
224.338	-17.94
224.573	-17.94
224.808	-9.94
225.042	-11.94
225.277	-12.94
225.511	2.06
225.746	0.06
225.98	15.06
226.215	17.06
226.449	22.06
226.683	14.06
226.918	22.06
227.152	24.06
227.387	40.06
227.621	47.06
227.856	47.06
228.09	38.06
228.324	47.06
228.559	53.06
228.793	49.06
229.027	65.06
229.262	51.06
229.496	81.06
229.73	63.06
229.964	94.06
230.199	72.06
230.433	49.06
230.667	75.06
230.901	70.06
231.136	80.06
231.37	79.06
231.604	71.06
231.838	86.06
232.072	81.06
232.306	86.06
232.541	89.06
232.775	85.06
233.009	64.06
233.243	88.06
233.477	86.06
233.711	67.06
233.945	88.06
234.179	96.06
234.413	93.06
234.647	92.06
234.881	69.06
235.115	81.06
235.349	77.06
235.583	83.06
235.817	79.06
236.051	81.06
236.285	73.06
236.519	68.06
236.753	75.06
236.987	86.06
237.221	75.06
237.455	82.06
237.689	89.06
237.922	80.06
238.156	79.06
238.39	77.06
238.624	77.06
238.858	83.06
239.091	90.06
239.325	73.06
239.559	82.06
239.793	78.06
240.027	86.06
240.26	78.06
240.494	71.06
240.728	83.06
240.961	66.06
241.195	72.06
241.429	71.06
241.662	79.06
241.896	80.06
242.13	88.06
242.363	72.06
242.597	69.06
242.83	75.06
243.064	85.06
243.298	59.06
243.531	69.06
243.765	72.06
243.998	85.06
244.232	80.06
244.465	84.06
244.699	85.06
244.932	85.06
245.166	82.06
245.399	80.06
245.633	65.06
245.866	83.06
246.099	83.06
246.333	88.06
246.566	87.06
246.8	84.06
247.033	81.06
247.266	93.06
247.5	85.06
247.733	81.06
247.966	96.06
248.2	81.06
248.433	90.06
248.666	79.06
248.899	85.06
249.133	73.06
249.366	93.06
249.599	109.06
249.832	85.06
250.066	93.06
250.299	80.06
250.532	79.06
250.765	84.06
250.998	86.06
251.231	88.06
251.465	80.06
251.698	69.06
251.931	79.06
252.164	87.06
252.397	85.06
252.63	69.06
252.863	68.06
253.096	56.06
253.329	82.06
253.562	79.06
253.795	103.06
254.028	81.06
254.261	84.06
254.494	84.06
254.727	100.06
254.96	92.06
255.193	98.06
255.426	84.06
255.659	70.06
255.892	87.06
256.124	81.06
256.357	98.06
256.59	95.06
256.823	84.06
257.056	67.06
257.289	83.06
257.521	84.06
257.754	69.06
257.987	68.06
258.22	77.06
258.452	94.06
258.685	84.06
258.918	89.06
259.151	76.06
259.383	80.06
259.616	97.06
259.849	86.06
260.081	81.06
260.314	77.06
260.547	80.06
260.779	81.06
261.012	80.06
261.244	83.06
261.477	91.06
261.71	78.06
261.942	97.06
262.175	100.06
262.407	78.06
262.64	83.06
262.872	81.06
263.105	91.06
263.337	68.06
263.57	84.06
263.802	97.06
264.035	94.06
264.267	77.06
264.499	81.06
264.732	87.06
264.964	68.06
265.197	64.06
265.429	90.06
265.661	71.06
265.894	88.06
266.126	103.06
266.358	80.06
266.591	90.06
266.823	87.06
267.055	85.06
267.287	87.06
267.52	78.06
267.752	88.06
267.984	86.06
268.216	92.06
268.448	89.06
268.681	75.06
268.913	81.06
269.145	87.06
269.377	68.06
269.609	83.06
269.841	83.06
270.073	90.06
270.306	82.06
270.538	94.06
270.77	82.06
271.002	83.06
271.234	85.06
271.466	82.06
271.698	87.06
271.93	81.06
272.162	87.06
272.394	100.06
272.626	89.06
272.858	84.06
273.09	87.06
273.322	93.06
273.553	89.06
273.785	97.06
274.017	84.06
274.249	80.06
274.481	89.06
274.713	99.06
274.945	86.06
275.176	89.06
275.408	78.06
275.64	81.06
275.872	87.06
276.104	84.06
276.335	89.06
276.567	89.06
276.799	102.06
277.031	85.06
277.262	81.06
277.494	82.06
277.726	77.06
277.957	80.06
278.189	75.06
278.421	85.06
278.652	92.06
278.884	87.06
279.115	73.06
279.347	77.06
279.579	101.06
279.81	101.06
280.042	96.06
280.273	97.06
280.505	91.06
280.736	99.06
280.968	78.06
281.199	78.06
281.431	81.06
281.662	86.06
281.894	90.06
282.125	87.06
282.356	109.06
282.588	130.06
282.819	104.06
283.051	95.06
283.282	88.06
283.513	79.06
283.745	91.06
283.976	79.06
284.207	75.06
284.439	79.06
284.67	84.06
284.901	95.06
285.132	91.06
285.364	94.06
285.595	90.06
285.826	84.06
286.057	83.06
286.288	99.06
286.52	90.06
286.751	96.06
286.982	75.06
287.213	80.06
287.444	84.06
287.675	97.06
287.906	83.06
288.138	97.06
288.369	84.06
288.6	100.06
288.831	88.06
289.062	88.06
289.293	96.06
289.524	95.06
289.755	91.06
289.986	80.06
290.217	102.06
290.448	96.06
290.679	102.06
290.91	79.06
291.141	82.06
291.371	80.06
291.602	86.06
291.833	87.06
292.064	101.06
292.295	87.06
292.526	101.06
292.757	82.06
292.987	96.06
293.218	92.06
293.449	91.06
293.68	105.06
293.91	92.06
294.141	89.06
294.372	83.06
294.603	82.06
294.833	85.06
295.064	95.06
295.295	83.06
295.525	106.06
295.756	101.06
295.987	119.06
296.217	122.06
296.448	130.06
296.679	93.06
296.909	83.06
297.14	92.06
297.37	91.06
297.601	97.06
297.831	99.06
298.062	92.06
298.292	91.06
298.523	91.06
298.753	89.06
298.984	98.06
299.214	88.06
299.445	84.06
299.675	88.06
299.905	86.06
300.136	97.06
300.366	101.06
300.597	87.06
300.827	96.06
301.057	103.06
301.288	82.06
301.518	97.06
301.748	96.06
301.979	98.06
302.209	87.06
302.439	77.06
302.669	92.06
302.9	101.06
303.13	94.06
303.36	92.06
303.59	91.06
303.82	93.06
304.051	99.06
304.281	95.06
304.511	107.06
304.741	81.06
304.971	79.06
305.201	88.06
305.431	91.06
305.661	100.06
305.891	95.06
306.121	108.06
306.352	100.06
306.582	99.06
306.812	98.06
307.042	90.06
307.272	86.06
307.502	90.06
307.731	96.06
307.961	100.06
308.191	102.06
308.421	89.06
308.651	100.06
308.881	104.06
309.111	85.06
309.341	96.06
309.571	93.06
309.8	100.06
310.03	87.06
310.26	96.06
310.49	92.06
310.72	78.06
310.949	102.06
311.179	108.06
311.409	113.06
311.639	94.06
311.868	83.06
312.098	96.06
312.328	92.06
312.557	110.06
312.787	104.06
313.017	105.06
313.246	103.06
313.476	99.06
313.706	100.06
313.935	92.06
314.165	98.06
314.394	85.06
314.624	85.06
314.853	105.06
315.083	90.06
315.312	110.06
315.542	89.06
315.771	87.06
316.001	99.06
316.23	90.06
316.46	85.06
316.689	78.06
316.919	104.06
317.148	100.06
317.377	94.06
317.607	85.06
317.836	94.06
318.065	91.06
318.295	88.06
318.524	86.06
318.753	98.06
318.983	99.06
319.212	93.06
319.441	105.06
319.67	104.06
319.9	80.06
320.129	96.06
320.358	99.06
320.587	86.06
320.816	102.06
321.046	89.06
321.275	100.06
321.504	101.06
321.733	95.06
321.962	97.06
322.191	85.06
322.42	99.06
322.649	111.06
322.878	102.06
323.108	104.06
323.337	100.06
323.566	109.06
323.795	127.06
324.024	171.06
324.253	302.06
324.482	615.06
324.71	1198.06
324.939	1509.06
325.168	576.06
325.397	200.06
325.626	138.06
325.855	104.06
326.084	109.06
326.313	99.06
326.542	145.06
326.77	196.06
326.999	349.06
327.228	687.06
327.457	1203.06
327.686	951.06
327.914	291.06
328.143	153.06
328.372	126.06
328.6	111.06
328.829	115.06
329.058	110.06
329.287	119.06
329.515	105.06
329.744	108.06
329.972	105.06
330.201	87.06
330.43	113.06
330.658	118.06
330.887	120.06
331.115	116.06
331.344	95.06
331.572	115.06
331.801	93.06
332.03	98.06
332.258	105.06
332.486	92.06
332.715	83.06
332.943	105.06
333.172	95.06
333.4	91.06
333.629	111.06
333.857	101.06
334.085	108.06
334.314	104.06
334.542	94.06
334.771	112.06
334.999	112.06
335.227	105.06
335.455	98.06
335.684	86.06
335.912	90.06
336.14	105.06
336.369	99.06
336.597	101.06
336.825	89.06
337.053	97.06
337.281	95.06
337.51	102.06
337.738	93.06
337.966	83.06
338.194	91.06
338.422	100.06
338.65	88.06
338.878	92.06
339.106	96.06
339.334	106.06
339.562	113.06
339.79	93.06
340.018	90.06
340.246	102.06
340.474	101.06
340.702	94.06
340.93	96.06
341.158	109.06
341.386	95.06
341.614	103.06
341.842	91.06
342.07	91.06
342.298	102.06
342.526	95.06
342.754	93.06
342.981	105.06
343.209	101.06
343.437	110.06
343.665	95.06
343.893	83.06
344.12	79.06
344.348	93.06
344.576	95.06
344.804	72.06
345.031	102.06
345.259	102.06
345.487	84.06
345.714	114.06
345.942	103.06
346.17	104.06
346.397	88.06
346.625	97.06
346.853	94.06
347.08	99.06
347.308	101.06
347.535	108.06
347.763	93.06
347.99	94.06
348.218	103.06
348.445	115.06
348.673	84.06
348.9	96.06
349.128	94.06
349.355	99.06
349.583	100.06
349.81	82.06
350.037	96.06
350.265	96.06
350.492	95.06
350.72	88.06
350.947	96.06
351.174	82.06
351.402	102.06
351.629	118.06
351.856	101.06
352.083	106.06
352.311	103.06
352.538	106.06
352.765	92.06
352.992	121.06
353.22	108.06
353.447	110.06
353.674	108.06
353.901	97.06
354.128	99.06
354.355	92.06
354.583	95.06
354.81	111.06
355.037	82.06
355.264	100.06
355.491	102.06
355.718	116.06
355.945	97.06
356.172	91.06
356.399	109.06
356.626	96.06
356.853	98.06
357.08	88.06
357.307	97.06
357.534	85.06
357.761	102.06
357.988	80.06
358.215	81.06
358.441	89.06
358.668	81.06
358.895	94.06
359.122	87.06
359.349	74.06
359.576	79.06
359.802	88.06
360.029	109.06
360.256	110.06
360.483	105.06
360.709	91.06
360.936	93.06
361.163	91.06
361.39	82.06
361.616	87.06
361.843	98.06
362.07	103.06
362.296	91.06
362.523	101.06
362.749	84.06
362.976	90.06
363.203	102.06
363.429	83.06
363.656	101.06
363.882	97.06
364.109	97.06
364.335	91.06
364.562	105.06
364.788	99.06
365.015	98.06
365.241	107.06
365.468	107.06
365.694	100.06
365.92	93.06
366.147	94.06
366.373	102.06
366.599	84.06
366.826	82.06
367.052	94.06
367.278	88.06
367.505	89.06
367.731	91.06
367.957	93.06
368.184	93.06
368.41	93.06
368.636	96.06
368.862	109.06
369.089	97.06
369.315	103.06
369.541	91.06
369.767	75.06
369.993	80.06
370.219	84.06
370.445	99.06
370.672	87.06
370.898	92.06
371.124	88.06
371.35	95.06
371.576	92.06
371.802	85.06
372.028	88.06
372.254	98.06
372.48	78.06
372.706	117.06
372.932	106.06
373.158	78.06
373.384	94.06
373.61	91.06
373.835	69.06
374.061	84.06
374.287	91.06
374.513	91.06
374.739	88.06
374.965	102.06
375.191	99.06
375.416	95.06
375.642	87.06
375.868	80.06
376.094	100.06
376.319	77.06
376.545	102.06
376.771	80.06
376.997	89.06
377.222	85.06
377.448	96.06
377.674	75.06
377.899	102.06
378.125	101.06
378.35	92.06
378.576	88.06
378.802	92.06
379.027	94.06
379.253	70.06
379.478	88.06
379.704	104.06
379.929	91.06
380.155	101.06
380.38	100.06
380.606	92.06
380.831	102.06
381.057	97.06
381.282	85.06
381.507	97.06
381.733	99.06
381.958	89.06
382.184	105.06
382.409	86.06
382.634	102.06
382.86	102.06
383.085	94.06
383.31	99.06
383.535	103.06
383.761	92.06
383.986	95.06
384.211	94.06
384.436	89.06
384.662	94.06
384.887	103.06
385.112	117.06
385.337	105.06
385.562	104.06
385.787	92.06
386.013	97.06
386.238	112.06
386.463	100.06
386.688	110.06
386.913	106.06
387.138	104.06
387.363	118.06
387.588	113.06
387.813	105.06
388.038	108.06
388.263	111.06
388.488	110.06
388.713	100.06
388.938	98.06
389.163	114.06
389.387	102.06
389.612	99.06
389.837	100.06
390.062	106.06
390.287	97.06
390.512	92.06
390.736	93.06
390.961	99.06
391.186	100.06
391.411	80.06
391.636	85.06
391.86	100.06
392.085	88.06
392.31	76.06
392.534	81.06
392.759	88.06
392.984	98.06
393.208	87.06
393.433	93.06
393.658	86.06
393.882	95.06
394.107	99.06
394.331	87.06
394.556	82.06
394.78	95.06
395.005	100.06
395.229	86.06
395.454	93.06
395.678	82.06
395.903	93.06
396.127	105.06
396.352	86.06
396.576	83.06
396.801	94.06
397.025	85.06
397.249	87.06
397.474	85.06
397.698	85.06
397.922	87.06
398.147	86.06
398.371	75.06
398.595	97.06
398.82	100.06
399.044	81.06
399.268	102.06
399.492	82.06
399.717	88.06
399.941	87.06
400.165	93.06
400.389	98.06
400.613	99.06
400.837	87.06
401.062	84.06
401.286	88.06
401.51	96.06
401.734	79.06
401.958	97.06
402.182	100.06
402.406	148.06
402.63	121.06
402.854	84.06
403.078	88.06
403.302	75.06
403.526	81.06
403.75	82.06
403.974	91.06
404.198	83.06
404.422	94.06
404.645	92.06
404.869	85.06
405.093	87.06
405.317	109.06
405.541	98.06
405.765	92.06
405.988	105.06
406.212	150.06
406.436	171.06
406.66	115.06
406.883	99.06
407.107	86.06
407.331	93.06
407.555	91.06
407.778	89.06
408.002	88.06
408.226	95.06
408.449	96.06
408.673	90.06
408.896	99.06
409.12	95.06
409.344	84.06
409.567	82.06
409.791	96.06
410.014	99.06
410.238	81.06
410.461	84.06
410.685	109.06
410.908	97.06
411.132	96.06
411.355	102.06
411.578	95.06
411.802	101.06
412.025	92.06
412.249	99.06
412.472	94.06
412.695	90.06
412.919	82.06
413.142	89.06
413.365	84.06
413.589	86.06
413.812	86.06
414.035	93.06
414.258	90.06
414.482	88.06
414.705	99.06
414.928	87.06
415.151	99.06
415.374	88.06
415.597	90.06
415.821	87.06
416.044	69.06
416.267	96.06
416.49	96.06
416.713	85.06
416.936	84.06
417.159	91.06
417.382	99.06
417.605	91.06
417.828	98.06
418.051	101.06
418.274	83.06
418.497	99.06
418.72	85.06
418.943	104.06
419.166	97.06
419.389	99.06
419.611	85.06
419.834	95.06
420.057	86.06
420.28	88.06
420.503	87.06
420.726	84.06
420.948	88.06
421.171	102.06
421.394	101.06
421.617	97.06
421.839	106.06
422.062	81.06
422.285	96.06
422.507	103.06
422.73	99.06
422.953	81.06
423.175	91.06
423.398	84.06
423.621	91.06
423.843	94.06
424.066	89.06
424.288	89.06
424.511	85.06
424.733	100.06
424.956	88.06
425.178	85.06
425.401	103.06
425.623	109.06
425.846	78.06
426.068	96.06
426.291	81.06
426.513	78.06
426.735	81.06
426.958	90.06
427.18	95.06
427.402	115.06
427.625	138.06
427.847	102.06
428.069	100.06
428.292	91.06
428.514	91.06
428.736	79.06
428.958	77.06
429.181	73.06
429.403	83.06
429.625	89.06
429.847	103.06
430.069	91.06
430.292	83.06
430.514	82.06
430.736	84.06
430.958	76.06
431.18	95.06
431.402	86.06
431.624	88.06
431.846	82.06
432.068	92.06
432.29	85.06
432.512	100.06
432.734	103.06
432.956	100.06
433.178	99.06
433.4	104.06
433.622	81.06
433.844	85.06
434.066	99.06
434.287	91.06
434.509	103.06
434.731	115.06
434.953	85.06
435.175	96.06
435.397	101.06
435.618	83.06
435.84	95.06
436.062	114.06
436.284	100.06
436.505	104.06
436.727	93.06
436.949	97.06
437.17	87.06
437.392	87.06
437.614	84.06
437.835	103.06
438.057	102.06
438.278	111.06
438.5	95.06
438.721	105.06
438.943	83.06
439.165	93.06
439.386	83.06
439.608	91.06
439.829	87.06
440.05	107.06
440.272	114.06
440.493	90.06
440.715	90.06
440.936	84.06
441.158	89.06
441.379	84.06
441.6	105.06
441.822	94.06
442.043	91.06
442.264	93.06
442.486	76.06
442.707	96.06
442.928	96.06
443.149	110.06
443.371	94.06
443.592	102.06
443.813	99.06
444.034	94.06
444.255	83.06
444.476	74.06
444.698	100.06
444.919	98.06
445.14	125.06
445.361	113.06
445.582	97.06
445.803	104.06
446.024	121.06
446.245	122.06
446.466	105.06
446.687	90.06
446.908	95.06
447.129	103.06
447.35	86.06
447.571	100.06
447.792	93.06
448.013	98.06
448.234	98.06
448.455	99.06
448.675	101.06
448.896	97.06
449.117	107.06
449.338	102.06
449.559	105.06
449.779	118.06
450	99.06
450.221	92.06
450.442	95.06
450.662	103.06
450.883	108.06
451.104	112.06
451.324	103.06
451.545	82.06
451.766	94.06
451.986	87.06
452.207	101.06
452.428	90.06
452.648	109.06
452.869	91.06
453.089	104.06
453.31	105.06
453.53	82.06
453.751	98.06
453.971	86.06
454.192	90.06
454.412	93.06
454.633	91.06
454.853	91.06
455.073	91.06
455.294	94.06
455.514	104.06
455.734	97.06
455.955	90.06
456.175	91.06
456.395	79.06
456.616	77.06
456.836	100.06
457.056	89.06
457.276	103.06
457.497	83.06
457.717	72.06
457.937	91.06
458.157	90.06
458.377	99.06
458.598	103.06
458.818	127.06
459.038	132.06
459.258	107.06
459.478	80.06
459.698	91.06
459.918	89.06
460.138	86.06
460.358	90.06
460.578	93.06
460.798	99.06
461.018	88.06
461.238	93.06
461.458	90.06
461.678	84.06
461.898	93.06
462.118	79.06
462.338	77.06
462.558	71.06
462.777	88.06
462.997	88.06
463.217	93.06
463.437	96.06
463.657	78.06
463.876	87.06
464.096	95.06
464.316	81.06
464.536	93.06
464.755	88.06
464.975	93.06
465.195	145.06
465.414	120.06
465.634	100.06
465.854	87.06
466.073	95.06
466.293	95.06
466.512	93.06
466.732	81.06
466.951	85.06
467.171	116.06
467.391	80.06
467.61	105.06
467.829	98.06
468.049	91.06
468.268	101.06
468.488	95.06
468.707	85.06
468.927	89.06
469.146	91.06
469.365	90.06
469.585	89.06
469.804	95.06
470.023	94.06
470.243	86.06
470.462	86.06
470.681	101.06
470.901	93.06
471.12	100.06
471.339	89.06
471.558	85.06
471.777	80.06
471.997	94.06
472.216	84.06
472.435	79.06
472.654	96.06
472.873	86.06
473.092	80.06
473.311	84.06
473.53	83.06
473.749	91.06
473.968	99.06
474.187	105.06
474.406	93.06
474.625	82.06
474.844	85.06
475.063	91.06
475.282	89.06
475.501	80.06
475.72	81.06
475.939	82.06
476.158	71.06
476.377	85.06
476.596	77.06
476.814	95.06
477.033	91.06
477.252	95.06
477.471	80.06
477.69	88.06
477.908	84.06
478.127	96.06
478.346	84.06
478.564	84.06
478.783	96.06
479.002	83.06
479.22	97.06
479.439	91.06
479.658	104.06
479.876	96.06
480.095	80.06
480.313	70.06
480.532	102.06
480.751	93.06
480.969	89.06
481.188	93.06
481.406	88.06
481.624	86.06
481.843	89.06
482.061	85.06
482.28	91.06
482.498	91.06
482.717	93.06
482.935	100.06
483.153	101.06
483.372	100.06
483.59	106.06
483.808	103.06
484.027	90.06
484.245	92.06
484.463	97.06
484.681	94.06
484.9	97.06
485.118	93.06
485.336	100.06
485.554	110.06
485.772	103.06
485.99	94.06
486.209	113.06
486.427	96.06
486.645	102.06
486.863	119.06
487.081	103.06
487.299	94.06
487.517	96.06
487.735	93.06
487.953	78.06
488.171	99.06
488.389	92.06
488.607	105.06
488.825	92.06
489.043	115.06
489.261	93.06
489.479	91.06
489.696	105.06
489.914	93.06
490.132	91.06
490.35	87.06
490.568	95.06
490.786	83.06
491.003	92.06
491.221	96.06
491.439	87.06
491.657	92.06
491.874	83.06
492.092	93.06
492.31	92.06
492.527	94.06
492.745	99.06
492.963	89.06
493.18	97.06
493.398	92.06
493.615	98.06
493.833	94.06
494.05	89.06
494.268	105.06
494.485	97.06
494.703	87.06
494.92	97.06
495.138	112.06
495.355	99.06
495.573	102.06
495.79	86.06
496.008	94.06
496.225	83.06
496.442	78.06
496.66	110.06
496.877	94.06
497.094	89.06
497.312	93.06
497.529	100.06
497.746	97.06
497.963	93.06
498.181	96.06
498.398	89.06
498.615	103.06
498.832	92.06
499.049	100.06
499.267	89.06
499.484	93.06
499.701	95.06
499.918	88.06
500.135	105.06
500.352	96.06
500.569	89.06
500.786	91.06
501.003	94.06
501.22	98.06
501.437	95.06
501.654	96.06
501.871	110.06
502.088	115.06
502.305	87.06
502.522	101.06
502.739	106.06
502.956	91.06
503.172	92.06
503.389	99.06
503.606	91.06
503.823	94.06
504.04	86.06
504.256	95.06
504.473	85.06
504.69	99.06
504.907	87.06
505.123	93.06
505.34	95.06
505.557	86.06
505.773	100.06
505.99	97.06
506.207	87.06
506.423	88.06
506.64	84.06
506.856	96.06
507.073	96.06
507.289	94.06
507.506	107.06
507.722	99.06
507.939	120.06
508.155	102.06
508.372	96.06
508.588	95.06
508.805	106.06
509.021	97.06
509.238	96.06
509.454	103.06
509.67	109.06
509.887	106.06
510.103	121.06
510.319	196.06
510.536	641.06
510.752	1773.06
510.968	517.06
511.184	158.06
511.401	107.06
511.617	103.06
511.833	92.06
512.049	77.06
512.265	100.06
512.481	100.06
512.698	88.06
512.914	99.06
513.13	83.06
513.346	91.06
513.562	95.06
513.778	101.06
513.994	106.06
514.21	98.06
514.426	121.06
514.642	115.06
514.858	127.06
515.074	153.06
515.29	349.06
