Data from Uncirc_1992_H10_HRD10591_00066.txt Node
Date: Wed Jan 03 11:46:29 EST 2024
User: Yrep
Spectrometer: HR+D1059
Trigger mode: 1
Integration Time (sec): 1.000000E-1
Scans to average: 1
Electric dark correction enabled: true
Nonlinearity correction enabled: false
Boxcar width: 0
XAxis mode: Wavelengths
Number of Pixels in Spectrum: 2048
>>>>>Begin Spectral Data<<<<<
223.165	-23.69
223.4	-23.69
223.635	-23.69
223.869	-20.69
224.104	-5.69
224.338	-19.69
224.573	-9.69
224.808	-14.69
225.042	-12.69
225.277	-8.69
225.511	2.31
225.746	5.31
225.98	-4.69
226.215	9.31
226.449	4.31
226.683	22.31
226.918	37.31
227.152	39.31
227.387	31.31
227.621	31.31
227.856	35.31
228.09	44.31
228.324	51.31
228.559	57.31
228.793	72.31
229.027	60.31
229.262	66.31
229.496	64.31
229.73	80.31
229.964	88.31
230.199	76.31
230.433	64.31
230.667	80.31
230.901	68.31
231.136	91.31
231.37	68.31
231.604	79.31
231.838	87.31
232.072	87.31
232.306	81.31
232.541	95.31
232.775	75.31
233.009	96.31
233.243	101.31
233.477	86.31
233.711	79.31
233.945	78.31
234.179	82.31
234.413	91.31
234.647	95.31
234.881	77.31
235.115	99.31
235.349	83.31
235.583	82.31
235.817	80.31
236.051	86.31
236.285	71.31
236.519	93.31
236.753	71.31
236.987	88.31
237.221	89.31
237.455	103.31
237.689	70.31
237.922	80.31
238.156	81.31
238.39	80.31
238.624	75.31
238.858	83.31
239.091	81.31
239.325	79.31
239.559	87.31
239.793	77.31
240.027	76.31
240.26	84.31
240.494	75.31
240.728	88.31
240.961	75.31
241.195	88.31
241.429	85.31
241.662	73.31
241.896	72.31
242.13	82.31
242.363	80.31
242.597	72.31
242.83	79.31
243.064	79.31
243.298	60.31
243.531	72.31
243.765	72.31
243.998	69.31
244.232	84.31
244.465	83.31
244.699	83.31
244.932	91.31
245.166	67.31
245.399	84.31
245.633	100.31
245.866	86.31
246.099	84.31
246.333	72.31
246.566	67.31
246.8	88.31
247.033	83.31
247.266	84.31
247.5	85.31
247.733	73.31
247.966	81.31
248.2	87.31
248.433	78.31
248.666	78.31
248.899	84.31
249.133	88.31
249.366	86.31
249.599	107.31
249.832	82.31
250.066	89.31
250.299	84.31
250.532	78.31
250.765	77.31
250.998	75.31
251.231	80.31
251.465	79.31
251.698	72.31
251.931	68.31
252.164	70.31
252.397	94.31
252.63	70.31
252.863	84.31
253.096	87.31
253.329	84.31
253.562	75.31
253.795	85.31
254.028	93.31
254.261	88.31
254.494	89.31
254.727	90.31
254.96	78.31
255.193	81.31
255.426	79.31
255.659	88.31
255.892	90.31
256.124	67.31
256.357	93.31
256.59	80.31
256.823	82.31
257.056	82.31
257.289	81.31
257.521	83.31
257.754	79.31
257.987	93.31
258.22	82.31
258.452	91.31
258.685	80.31
258.918	79.31
259.151	88.31
259.383	86.31
259.616	77.31
259.849	87.31
260.081	91.31
260.314	89.31
260.547	90.31
260.779	85.31
261.012	92.31
261.244	86.31
261.477	100.31
261.71	94.31
261.942	109.31
262.175	112.31
262.407	96.31
262.64	88.31
262.872	83.31
263.105	76.31
263.337	73.31
263.57	91.31
263.802	89.31
264.035	111.31
264.267	79.31
264.499	89.31
264.732	75.31
264.964	83.31
265.197	72.31
265.429	84.31
265.661	80.31
265.894	94.31
266.126	89.31
266.358	84.31
266.591	85.31
266.823	77.31
267.055	83.31
267.287	80.31
267.52	81.31
267.752	88.31
267.984	94.31
268.216	89.31
268.448	87.31
268.681	83.31
268.913	75.31
269.145	84.31
269.377	85.31
269.609	85.31
269.841	85.31
270.073	104.31
270.306	86.31
270.538	99.31
270.77	89.31
271.002	92.31
271.234	93.31
271.466	96.31
271.698	94.31
271.93	83.31
272.162	91.31
272.394	76.31
272.626	83.31
272.858	67.31
273.09	80.31
273.322	93.31
273.553	83.31
273.785	80.31
274.017	96.31
274.249	88.31
274.481	85.31
274.713	84.31
274.945	86.31
275.176	80.31
275.408	83.31
275.64	91.31
275.872	79.31
276.104	81.31
276.335	79.31
276.567	105.31
276.799	86.31
277.031	101.31
277.262	97.31
277.494	98.31
277.726	81.31
277.957	87.31
278.189	87.31
278.421	97.31
278.652	91.31
278.884	83.31
279.115	82.31
279.347	86.31
279.579	86.31
279.81	103.31
280.042	95.31
280.273	71.31
280.505	94.31
280.736	81.31
280.968	83.31
281.199	73.31
281.431	85.31
281.662	77.31
281.894	95.31
282.125	93.31
282.356	114.31
282.588	135.31
282.819	104.31
283.051	86.31
283.282	97.31
283.513	92.31
283.745	75.31
283.976	102.31
284.207	80.31
284.439	82.31
284.67	100.31
284.901	92.31
285.132	100.31
285.364	105.31
285.595	91.31
285.826	93.31
286.057	89.31
286.288	87.31
286.52	78.31
286.751	94.31
286.982	86.31
287.213	75.31
287.444	93.31
287.675	89.31
287.906	75.31
288.138	90.31
288.369	87.31
288.6	79.31
288.831	89.31
289.062	89.31
289.293	93.31
289.524	96.31
289.755	86.31
289.986	102.31
290.217	71.31
290.448	89.31
290.679	95.31
290.91	81.31
291.141	92.31
291.371	72.31
291.602	80.31
291.833	89.31
292.064	97.31
292.295	90.31
292.526	85.31
292.757	85.31
292.987	92.31
293.218	92.31
293.449	88.31
293.68	76.31
293.91	85.31
294.141	81.31
294.372	96.31
294.603	83.31
294.833	83.31
295.064	97.31
295.295	84.31
295.525	83.31
295.756	80.31
295.987	111.31
296.217	129.31
296.448	129.31
296.679	97.31
296.909	85.31
297.14	93.31
297.37	82.31
297.601	87.31
297.831	92.31
298.062	90.31
298.292	88.31
298.523	81.31
298.753	77.31
298.984	83.31
299.214	89.31
299.445	94.31
299.675	89.31
299.905	107.31
300.136	109.31
300.366	84.31
300.597	97.31
300.827	99.31
301.057	95.31
301.288	102.31
301.518	80.31
301.748	92.31
301.979	86.31
302.209	76.31
302.439	77.31
302.669	86.31
302.9	86.31
303.13	90.31
303.36	85.31
303.59	95.31
303.82	110.31
304.051	82.31
304.281	94.31
304.511	88.31
304.741	85.31
304.971	78.31
305.201	87.31
305.431	96.31
305.661	89.31
305.891	89.31
306.121	100.31
306.352	115.31
306.582	107.31
306.812	106.31
307.042	88.31
307.272	91.31
307.502	88.31
307.731	98.31
307.961	93.31
308.191	91.31
308.421	100.31
308.651	98.31
308.881	87.31
309.111	84.31
309.341	93.31
309.571	93.31
309.8	93.31
310.03	98.31
310.26	95.31
310.49	90.31
310.72	89.31
310.949	96.31
311.179	93.31
311.409	97.31
311.639	103.31
311.868	102.31
312.098	97.31
312.328	95.31
312.557	110.31
312.787	102.31
313.017	96.31
313.246	99.31
313.476	102.31
313.706	84.31
313.935	82.31
314.165	89.31
314.394	101.31
314.624	108.31
314.853	95.31
315.083	93.31
315.312	98.31
315.542	101.31
315.771	92.31
316.001	99.31
316.23	89.31
316.46	97.31
316.689	96.31
316.919	79.31
317.148	97.31
317.377	97.31
317.607	96.31
317.836	100.31
318.065	101.31
318.295	84.31
318.524	100.31
318.753	80.31
318.983	93.31
319.212	111.31
319.441	115.31
319.67	80.31
319.9	91.31
320.129	96.31
320.358	95.31
320.587	92.31
320.816	98.31
321.046	102.31
321.275	99.31
321.504	80.31
321.733	109.31
321.962	87.31
322.191	95.31
322.42	103.31
322.649	107.31
322.878	115.31
323.108	114.31
323.337	113.31
323.566	117.31
323.795	133.31
324.024	175.31
324.253	361.31
324.482	725.31
324.71	1471.31
324.939	1929.31
325.168	717.31
325.397	225.31
325.626	131.31
325.855	121.31
326.084	121.31
326.313	124.31
326.542	137.31
326.77	210.31
326.999	407.31
327.228	801.31
327.457	1464.31
327.686	1156.31
327.914	304.31
328.143	175.31
328.372	145.31
328.6	110.31
328.829	118.31
329.058	118.31
329.287	133.31
329.515	112.31
329.744	97.31
329.972	107.31
330.201	109.31
330.43	112.31
330.658	97.31
330.887	130.31
331.115	112.31
331.344	118.31
331.572	99.31
331.801	96.31
332.03	94.31
332.258	103.31
332.486	91.31
332.715	95.31
332.943	77.31
333.172	103.31
333.4	92.31
333.629	88.31
333.857	104.31
334.085	110.31
334.314	96.31
334.542	94.31
334.771	87.31
334.999	99.31
335.227	104.31
335.455	100.31
335.684	88.31
335.912	85.31
336.14	100.31
336.369	99.31
336.597	97.31
336.825	95.31
337.053	110.31
337.281	82.31
337.51	89.31
337.738	93.31
337.966	88.31
338.194	96.31
338.422	95.31
338.65	107.31
338.878	93.31
339.106	81.31
339.334	84.31
339.562	89.31
339.79	99.31
340.018	96.31
340.246	90.31
340.474	96.31
340.702	98.31
340.93	91.31
341.158	89.31
341.386	95.31
341.614	91.31
341.842	87.31
342.07	90.31
342.298	86.31
342.526	88.31
342.754	96.31
342.981	90.31
343.209	88.31
343.437	98.31
343.665	88.31
343.893	96.31
344.12	85.31
344.348	88.31
344.576	97.31
344.804	108.31
345.031	96.31
345.259	108.31
345.487	94.31
345.714	80.31
345.942	83.31
346.17	100.31
346.397	92.31
346.625	100.31
346.853	100.31
347.08	96.31
347.308	91.31
347.535	96.31
347.763	110.31
347.99	109.31
348.218	112.31
348.445	96.31
348.673	100.31
348.9	102.31
349.128	95.31
349.355	88.31
349.583	93.31
349.81	89.31
350.037	114.31
350.265	115.31
350.492	104.31
350.72	94.31
350.947	104.31
351.174	113.31
351.402	118.31
351.629	106.31
351.856	97.31
352.083	101.31
352.311	102.31
352.538	99.31
352.765	101.31
352.992	117.31
353.22	114.31
353.447	99.31
353.674	112.31
353.901	91.31
354.128	108.31
354.355	105.31
354.583	83.31
354.81	101.31
355.037	104.31
355.264	104.31
355.491	80.31
355.718	99.31
355.945	96.31
356.172	101.31
356.399	93.31
356.626	94.31
356.853	87.31
357.08	87.31
357.307	99.31
357.534	92.31
357.761	104.31
357.988	99.31
358.215	87.31
358.441	89.31
358.668	84.31
358.895	91.31
359.122	90.31
359.349	93.31
359.576	87.31
359.802	104.31
360.029	96.31
360.256	125.31
360.483	101.31
360.709	100.31
360.936	111.31
361.163	101.31
361.39	100.31
361.616	88.31
361.843	99.31
362.07	91.31
362.296	97.31
362.523	91.31
362.749	109.31
362.976	92.31
363.203	76.31
363.429	93.31
363.656	100.31
363.882	102.31
364.109	101.31
364.335	95.31
364.562	89.31
364.788	85.31
365.015	93.31
365.241	104.31
365.468	97.31
365.694	104.31
365.92	84.31
366.147	90.31
366.373	84.31
366.599	82.31
366.826	96.31
367.052	96.31
367.278	100.31
367.505	88.31
367.731	89.31
367.957	87.31
368.184	92.31
368.41	88.31
368.636	103.31
368.862	123.31
369.089	110.31
369.315	101.31
369.541	97.31
369.767	90.31
369.993	89.31
370.219	93.31
370.445	94.31
370.672	75.31
370.898	83.31
371.124	99.31
371.35	91.31
371.576	100.31
371.802	87.31
372.028	83.31
372.254	100.31
372.48	83.31
372.706	94.31
372.932	94.31
373.158	75.31
373.384	85.31
373.61	75.31
373.835	84.31
374.061	89.31
374.287	88.31
374.513	95.31
374.739	97.31
374.965	89.31
375.191	79.31
375.416	78.31
375.642	92.31
375.868	91.31
376.094	93.31
376.319	100.31
376.545	81.31
376.771	93.31
376.997	96.31
377.222	89.31
377.448	95.31
377.674	92.31
377.899	92.31
378.125	88.31
378.35	91.31
378.576	92.31
378.802	75.31
379.027	89.31
379.253	91.31
379.478	85.31
379.704	104.31
379.929	107.31
380.155	103.31
380.38	79.31
380.606	89.31
380.831	104.31
381.057	108.31
381.282	92.31
381.507	105.31
381.733	87.31
381.958	92.31
382.184	98.31
382.409	89.31
382.634	109.31
382.86	92.31
383.085	102.31
383.31	102.31
383.535	101.31
383.761	106.31
383.986	105.31
384.211	93.31
384.436	100.31
384.662	104.31
384.887	86.31
385.112	103.31
385.337	89.31
385.562	87.31
385.787	99.31
386.013	95.31
386.238	115.31
386.463	95.31
386.688	110.31
386.913	91.31
387.138	109.31
387.363	97.31
387.588	93.31
387.813	93.31
388.038	89.31
388.263	99.31
388.488	100.31
388.713	102.31
388.938	104.31
389.163	89.31
389.387	84.31
389.612	95.31
389.837	90.31
390.062	97.31
390.287	90.31
390.512	91.31
390.736	89.31
390.961	97.31
391.186	109.31
391.411	94.31
391.636	104.31
391.86	91.31
392.085	94.31
392.31	99.31
392.534	96.31
392.759	99.31
392.984	93.31
393.208	99.31
393.433	91.31
393.658	94.31
393.882	90.31
394.107	76.31
394.331	89.31
394.556	85.31
394.78	84.31
395.005	95.31
395.229	85.31
395.454	78.31
395.678	102.31
395.903	99.31
396.127	92.31
396.352	79.31
396.576	86.31
396.801	102.31
397.025	95.31
397.249	85.31
397.474	81.31
397.698	102.31
397.922	93.31
398.147	92.31
398.371	86.31
398.595	93.31
398.82	94.31
399.044	95.31
399.268	91.31
399.492	101.31
399.717	91.31
399.941	95.31
400.165	101.31
400.389	94.31
400.613	93.31
400.837	86.31
401.062	95.31
401.286	80.31
401.51	86.31
401.734	89.31
401.958	97.31
402.182	116.31
402.406	162.31
402.63	115.31
402.854	105.31
403.078	88.31
403.302	98.31
403.526	100.31
403.75	101.31
403.974	86.31
404.198	80.31
404.422	93.31
404.645	83.31
404.869	100.31
405.093	95.31
405.317	94.31
405.541	97.31
405.765	96.31
405.988	95.31
406.212	160.31
406.436	217.31
406.66	137.31
406.883	105.31
407.107	98.31
407.331	96.31
407.555	87.31
407.778	101.31
408.002	106.31
408.226	87.31
408.449	94.31
408.673	88.31
408.896	85.31
409.12	97.31
409.344	97.31
409.567	93.31
409.791	92.31
410.014	97.31
410.238	91.31
410.461	87.31
410.685	93.31
410.908	100.31
411.132	96.31
411.355	99.31
411.578	102.31
411.802	90.31
412.025	92.31
412.249	85.31
412.472	91.31
412.695	102.31
412.919	80.31
413.142	101.31
413.365	85.31
413.589	93.31
413.812	96.31
414.035	109.31
414.258	83.31
414.482	94.31
414.705	97.31
414.928	92.31
415.151	83.31
415.374	93.31
415.597	76.31
415.821	85.31
416.044	99.31
416.267	74.31
416.49	91.31
416.713	97.31
416.936	96.31
417.159	95.31
417.382	94.31
417.605	100.31
417.828	97.31
418.051	99.31
418.274	97.31
418.497	85.31
418.72	84.31
418.943	90.31
419.166	88.31
419.389	84.31
419.611	102.31
419.834	79.31
420.057	97.31
420.28	87.31
420.503	70.31
420.726	100.31
420.948	97.31
421.171	101.31
421.394	99.31
421.617	103.31
421.839	91.31
422.062	101.31
422.285	79.31
422.507	97.31
422.73	87.31
422.953	102.31
423.175	93.31
423.398	85.31
423.621	87.31
423.843	82.31
424.066	99.31
424.288	91.31
424.511	95.31
424.733	94.31
424.956	93.31
425.178	97.31
425.401	104.31
425.623	106.31
425.846	87.31
426.068	88.31
426.291	84.31
426.513	84.31
426.735	99.31
426.958	105.31
427.18	103.31
427.402	140.31
427.625	156.31
427.847	115.31
428.069	110.31
428.292	90.31
428.514	107.31
428.736	89.31
428.958	91.31
429.181	108.31
429.403	95.31
429.625	98.31
429.847	92.31
430.069	95.31
430.292	113.31
430.514	87.31
430.736	91.31
430.958	84.31
431.18	97.31
431.402	84.31
431.624	91.31
431.846	84.31
432.068	84.31
432.29	92.31
432.512	93.31
432.734	92.31
432.956	105.31
433.178	95.31
433.4	94.31
433.622	110.31
433.844	92.31
434.066	88.31
434.287	82.31
434.509	91.31
434.731	77.31
434.953	83.31
435.175	96.31
435.397	85.31
435.618	94.31
435.84	102.31
436.062	98.31
436.284	108.31
436.505	102.31
436.727	107.31
436.949	97.31
437.17	87.31
437.392	88.31
437.614	95.31
437.835	103.31
438.057	102.31
438.278	110.31
438.5	113.31
438.721	111.31
438.943	113.31
439.165	87.31
439.386	88.31
439.608	84.31
439.829	96.31
440.05	110.31
440.272	123.31
440.493	105.31
440.715	95.31
440.936	97.31
441.158	104.31
441.379	95.31
441.6	96.31
441.822	91.31
442.043	110.31
442.264	102.31
442.486	90.31
442.707	76.31
442.928	99.31
443.149	119.31
443.371	118.31
443.592	99.31
443.813	95.31
444.034	88.31
444.255	78.31
444.476	86.31
444.698	97.31
444.919	94.31
445.14	115.31
445.361	104.31
445.582	110.31
445.803	123.31
446.024	131.31
446.245	128.31
446.466	100.31
446.687	86.31
446.908	92.31
447.129	81.31
447.35	93.31
447.571	93.31
447.792	94.31
448.013	105.31
448.234	100.31
448.455	104.31
448.675	114.31
448.896	109.31
449.117	111.31
449.338	101.31
449.559	105.31
449.779	113.31
450	85.31
450.221	78.31
450.442	91.31
450.662	91.31
450.883	99.31
451.104	103.31
451.324	102.31
451.545	92.31
451.766	85.31
451.986	73.31
452.207	91.31
452.428	81.31
452.648	89.31
452.869	105.31
453.089	107.31
453.31	109.31
453.53	85.31
453.751	95.31
453.971	91.31
454.192	119.31
454.412	87.31
454.633	92.31
454.853	99.31
455.073	99.31
455.294	86.31
455.514	95.31
455.734	87.31
455.955	107.31
456.175	88.31
456.395	99.31
456.616	85.31
456.836	82.31
457.056	93.31
457.276	89.31
457.497	77.31
457.717	83.31
457.937	100.31
458.157	77.31
458.377	83.31
458.598	112.31
458.818	134.31
459.038	144.31
459.258	118.31
459.478	85.31
459.698	105.31
459.918	83.31
460.138	73.31
460.358	87.31
460.578	94.31
460.798	89.31
461.018	76.31
461.238	83.31
461.458	79.31
461.678	84.31
461.898	89.31
462.118	86.31
462.338	91.31
462.558	93.31
462.777	95.31
462.997	95.31
463.217	91.31
463.437	80.31
463.657	99.31
463.876	79.31
464.096	90.31
464.316	89.31
464.536	86.31
464.755	97.31
464.975	122.31
465.195	145.31
465.414	141.31
465.634	99.31
465.854	81.31
466.073	91.31
466.293	88.31
466.512	93.31
466.732	89.31
466.951	99.31
467.171	91.31
467.391	97.31
467.61	113.31
467.829	87.31
468.049	96.31
468.268	85.31
468.488	96.31
468.707	87.31
468.927	89.31
469.146	84.31
469.365	99.31
469.585	83.31
469.804	94.31
470.023	94.31
470.243	93.31
470.462	93.31
470.681	95.31
470.901	84.31
471.12	104.31
471.339	79.31
471.558	97.31
471.777	104.31
471.997	100.31
472.216	85.31
472.435	87.31
472.654	100.31
472.873	85.31
473.092	93.31
473.311	91.31
473.53	84.31
473.749	94.31
473.968	99.31
474.187	109.31
474.406	97.31
474.625	88.31
474.844	95.31
475.063	81.31
475.282	73.31
475.501	80.31
475.72	90.31
475.939	92.31
476.158	86.31
476.377	100.31
476.596	87.31
476.814	95.31
477.033	94.31
477.252	85.31
477.471	77.31
477.69	84.31
477.908	79.31
478.127	85.31
478.346	85.31
478.564	93.31
478.783	99.31
479.002	91.31
479.22	95.31
479.439	110.31
479.658	96.31
479.876	94.31
480.095	99.31
480.313	86.31
480.532	81.31
480.751	94.31
480.969	87.31
481.188	112.31
481.406	82.31
481.624	87.31
481.843	98.31
482.061	77.31
482.28	84.31
482.498	91.31
482.717	99.31
482.935	85.31
483.153	95.31
483.372	88.31
483.59	86.31
483.808	87.31
484.027	88.31
484.245	92.31
484.463	109.31
484.681	104.31
484.9	111.31
485.118	106.31
485.336	87.31
485.554	96.31
485.772	94.31
485.99	103.31
486.209	105.31
486.427	102.31
486.645	112.31
486.863	110.31
487.081	102.31
487.299	91.31
487.517	91.31
487.735	95.31
487.953	100.31
488.171	85.31
488.389	104.31
488.607	97.31
488.825	86.31
489.043	95.31
489.261	87.31
489.479	85.31
489.696	100.31
489.914	108.31
490.132	91.31
490.35	87.31
490.568	97.31
490.786	80.31
491.003	94.31
491.221	85.31
491.439	95.31
491.657	87.31
491.874	91.31
492.092	66.31
492.31	78.31
492.527	81.31
492.745	91.31
492.963	93.31
493.18	102.31
493.398	79.31
493.615	91.31
493.833	105.31
494.05	88.31
494.268	100.31
494.485	88.31
494.703	91.31
494.92	89.31
495.138	86.31
495.355	96.31
495.573	86.31
495.79	78.31
496.008	102.31
496.225	101.31
496.442	93.31
496.66	91.31
496.877	81.31
497.094	101.31
497.312	93.31
497.529	81.31
497.746	83.31
497.963	83.31
498.181	98.31
498.398	92.31
498.615	108.31
498.832	108.31
499.049	90.31
499.267	90.31
499.484	99.31
499.701	88.31
499.918	101.31
500.135	98.31
500.352	101.31
500.569	87.31
500.786	105.31
501.003	92.31
501.22	95.31
501.437	83.31
501.654	104.31
501.871	97.31
502.088	89.31
502.305	86.31
502.522	104.31
502.739	89.31
502.956	99.31
503.172	74.31
503.389	92.31
503.606	99.31
503.823	103.31
504.04	87.31
504.256	83.31
504.473	99.31
504.69	95.31
504.907	99.31
505.123	97.31
505.34	84.31
505.557	101.31
505.773	89.31
505.99	99.31
506.207	90.31
506.423	95.31
506.64	84.31
506.856	86.31
507.073	94.31
507.289	103.31
507.506	86.31
507.722	114.31
507.939	102.31
508.155	97.31
508.372	103.31
508.588	90.31
508.805	97.31
509.021	99.31
509.238	99.31
509.454	100.31
509.67	109.31
509.887	124.31
510.103	132.31
510.319	214.31
510.536	729.31
510.752	2182.31
510.968	597.31
511.184	141.31
511.401	105.31
511.617	111.31
511.833	90.31
512.049	94.31
512.265	91.31
512.481	96.31
512.698	100.31
512.914	77.31
513.13	78.31
513.346	99.31
513.562	85.31
513.778	92.31
513.994	89.31
514.21	110.31
514.426	141.31
514.642	118.31
514.858	127.31
515.074	157.31
515.29	434.31
515.506	1323.31
