Data from Uncirc_1992_H10_HRD10591_00001.txt Node
Date: Wed Jan 03 11:46:16 EST 2024
User: Yrep
Spectrometer: HR+D1059
Trigger mode: 1
Integration Time (sec): 1.000000E-1
Scans to average: 1
Electric dark correction enabled: true
Nonlinearity correction enabled: false
Boxcar width: 0
XAxis mode: Wavelengths
Number of Pixels in Spectrum: 2048
>>>>>Begin Spectral Data<<<<<
223.165	-18.44
223.4	-18.44
223.635	-18.44
223.869	-33.44
224.104	-21.44
224.338	-0.44
224.573	-4.44
224.808	-17.44
225.042	0.56
225.277	-13.44
225.511	5.56
225.746	3.56
225.98	15.56
226.215	-5.44
226.449	14.56
226.683	14.56
226.918	29.56
227.152	30.56
227.387	39.56
227.621	44.56
227.856	53.56
228.09	53.56
228.324	54.56
228.559	61.56
228.793	45.56
229.027	70.56
229.262	59.56
229.496	71.56
229.73	70.56
229.964	79.56
230.199	79.56
230.433	76.56
230.667	86.56
230.901	86.56
231.136	72.56
231.37	90.56
231.604	94.56
231.838	68.56
232.072	79.56
232.306	75.56
232.541	76.56
232.775	81.56
233.009	84.56
233.243	87.56
233.477	79.56
233.711	91.56
233.945	81.56
234.179	77.56
234.413	78.56
234.647	77.56
234.881	78.56
235.115	84.56
235.349	71.56
235.583	77.56
235.817	83.56
236.051	80.56
236.285	79.56
236.519	80.56
236.753	71.56
236.987	81.56
237.221	75.56
237.455	79.56
237.689	70.56
237.922	94.56
238.156	65.56
238.39	69.56
238.624	77.56
238.858	80.56
239.091	80.56
239.325	80.56
239.559	92.56
239.793	92.56
240.027	81.56
240.26	91.56
240.494	72.56
240.728	81.56
240.961	87.56
241.195	70.56
241.429	79.56
241.662	66.56
241.896	73.56
242.13	69.56
242.363	72.56
242.597	75.56
242.83	71.56
243.064	60.56
243.298	68.56
243.531	72.56
243.765	73.56
243.998	76.56
244.232	82.56
244.465	88.56
244.699	69.56
244.932	80.56
245.166	85.56
245.399	80.56
245.633	76.56
245.866	81.56
246.099	68.56
246.333	77.56
246.566	95.56
246.8	71.56
247.033	95.56
247.266	93.56
247.5	83.56
247.733	75.56
247.966	103.56
248.2	83.56
248.433	70.56
248.666	82.56
248.899	83.56
249.133	92.56
249.366	91.56
249.599	97.56
249.832	69.56
250.066	83.56
250.299	86.56
250.532	80.56
250.765	86.56
250.998	84.56
251.231	78.56
251.465	88.56
251.698	82.56
251.931	85.56
252.164	83.56
252.397	82.56
252.63	83.56
252.863	88.56
253.096	78.56
253.329	80.56
253.562	75.56
253.795	67.56
254.028	86.56
254.261	91.56
254.494	87.56
254.727	84.56
254.96	84.56
255.193	66.56
255.426	91.56
255.659	83.56
255.892	75.56
256.124	88.56
256.357	96.56
256.59	87.56
256.823	72.56
257.056	76.56
257.289	74.56
257.521	74.56
257.754	80.56
257.987	74.56
258.22	76.56
258.452	82.56
258.685	86.56
258.918	88.56
259.151	87.56
259.383	84.56
259.616	76.56
259.849	80.56
260.081	100.56
260.314	85.56
260.547	97.56
260.779	94.56
261.012	81.56
261.244	80.56
261.477	99.56
261.71	97.56
261.942	95.56
262.175	90.56
262.407	94.56
262.64	99.56
262.872	92.56
263.105	81.56
263.337	91.56
263.57	89.56
263.802	87.56
264.035	76.56
264.267	79.56
264.499	81.56
264.732	85.56
264.964	84.56
265.197	92.56
265.429	86.56
265.661	80.56
265.894	90.56
266.126	87.56
266.358	86.56
266.591	84.56
266.823	84.56
267.055	82.56
267.287	75.56
267.52	80.56
267.752	95.56
267.984	81.56
268.216	103.56
268.448	92.56
268.681	85.56
268.913	89.56
269.145	92.56
269.377	82.56
269.609	86.56
269.841	85.56
270.073	86.56
270.306	75.56
270.538	78.56
270.77	82.56
271.002	104.56
271.234	82.56
271.466	69.56
271.698	72.56
271.93	89.56
272.162	86.56
272.394	105.56
272.626	93.56
272.858	93.56
273.09	80.56
273.322	102.56
273.553	86.56
273.785	88.56
274.017	85.56
274.249	81.56
274.481	93.56
274.713	103.56
274.945	95.56
275.176	96.56
275.408	85.56
275.64	99.56
275.872	92.56
276.104	96.56
276.335	95.56
276.567	94.56
276.799	103.56
277.031	93.56
277.262	99.56
277.494	91.56
277.726	87.56
277.957	72.56
278.189	88.56
278.421	78.56
278.652	89.56
278.884	100.56
279.115	89.56
279.347	75.56
279.579	99.56
279.81	96.56
280.042	93.56
280.273	95.56
280.505	93.56
280.736	85.56
280.968	99.56
281.199	87.56
281.431	101.56
281.662	86.56
281.894	91.56
282.125	100.56
282.356	100.56
282.588	126.56
282.819	103.56
283.051	77.56
283.282	81.56
283.513	96.56
283.745	78.56
283.976	83.56
284.207	79.56
284.439	96.56
284.67	81.56
284.901	79.56
285.132	79.56
285.364	101.56
285.595	91.56
285.826	92.56
286.057	93.56
286.288	77.56
286.52	81.56
286.751	82.56
286.982	93.56
287.213	88.56
287.444	79.56
287.675	99.56
287.906	88.56
288.138	83.56
288.369	92.56
288.6	96.56
288.831	87.56
289.062	102.56
289.293	87.56
289.524	89.56
289.755	81.56
289.986	79.56
290.217	90.56
290.448	79.56
290.679	96.56
290.91	82.56
291.141	88.56
291.371	88.56
291.602	102.56
291.833	92.56
292.064	85.56
292.295	107.56
292.526	96.56
292.757	88.56
292.987	75.56
293.218	97.56
293.449	92.56
293.68	93.56
293.91	85.56
294.141	102.56
294.372	98.56
294.603	103.56
294.833	91.56
295.064	98.56
295.295	87.56
295.525	100.56
295.756	103.56
295.987	104.56
296.217	110.56
296.448	108.56
296.679	99.56
296.909	90.56
297.14	93.56
297.37	84.56
297.601	68.56
297.831	78.56
298.062	94.56
298.292	80.56
298.523	84.56
298.753	88.56
298.984	83.56
299.214	88.56
299.445	105.56
299.675	84.56
299.905	88.56
300.136	94.56
300.366	101.56
300.597	86.56
300.827	83.56
301.057	85.56
301.288	98.56
301.518	95.56
301.748	87.56
301.979	97.56
302.209	91.56
302.439	111.56
302.669	84.56
302.9	84.56
303.13	87.56
303.36	82.56
303.59	95.56
303.82	91.56
304.051	98.56
304.281	89.56
304.511	79.56
304.741	81.56
304.971	94.56
305.201	93.56
305.431	97.56
305.661	95.56
305.891	96.56
306.121	97.56
306.352	88.56
306.582	88.56
306.812	89.56
307.042	101.56
307.272	90.56
307.502	98.56
307.731	106.56
307.961	94.56
308.191	87.56
308.421	76.56
308.651	84.56
308.881	89.56
309.111	104.56
309.341	94.56
309.571	99.56
309.8	97.56
310.03	86.56
310.26	96.56
310.49	99.56
310.72	99.56
310.949	97.56
311.179	106.56
311.409	76.56
311.639	90.56
311.868	91.56
312.098	89.56
312.328	101.56
312.557	86.56
312.787	111.56
313.017	94.56
313.246	96.56
313.476	87.56
313.706	108.56
313.935	97.56
314.165	107.56
314.394	96.56
314.624	95.56
314.853	104.56
315.083	81.56
315.312	105.56
315.542	81.56
315.771	80.56
316.001	106.56
316.23	102.56
316.46	84.56
316.689	94.56
316.919	92.56
317.148	102.56
317.377	98.56
317.607	91.56
317.836	91.56
318.065	78.56
318.295	100.56
318.524	77.56
318.753	87.56
318.983	101.56
319.212	93.56
319.441	94.56
319.67	90.56
319.9	88.56
320.129	85.56
320.358	93.56
320.587	94.56
320.816	106.56
321.046	93.56
321.275	105.56
321.504	98.56
321.733	110.56
321.962	93.56
322.191	104.56
322.42	93.56
322.649	111.56
322.878	87.56
323.108	100.56
323.337	106.56
323.566	124.56
323.795	123.56
324.024	166.56
324.253	308.56
324.482	592.56
324.71	1117.56
324.939	1441.56
325.168	544.56
325.397	192.56
325.626	141.56
325.855	113.56
326.084	124.56
326.313	124.56
326.542	126.56
326.77	194.56
326.999	335.56
327.228	680.56
327.457	1163.56
327.686	890.56
327.914	267.56
328.143	139.56
328.372	123.56
328.6	116.56
328.829	103.56
329.058	120.56
329.287	112.56
329.515	93.56
329.744	97.56
329.972	109.56
330.201	87.56
330.43	100.56
330.658	124.56
330.887	115.56
331.115	108.56
331.344	106.56
331.572	102.56
331.801	98.56
332.03	88.56
332.258	97.56
332.486	97.56
332.715	91.56
332.943	99.56
333.172	108.56
333.4	109.56
333.629	94.56
333.857	91.56
334.085	97.56
334.314	98.56
334.542	108.56
334.771	99.56
334.999	101.56
335.227	90.56
335.455	81.56
335.684	98.56
335.912	92.56
336.14	82.56
336.369	102.56
336.597	115.56
336.825	100.56
337.053	85.56
337.281	97.56
337.51	92.56
337.738	104.56
337.966	100.56
338.194	97.56
338.422	91.56
338.65	95.56
338.878	89.56
339.106	109.56
339.334	91.56
339.562	100.56
339.79	82.56
340.018	91.56
340.246	94.56
340.474	103.56
340.702	88.56
340.93	93.56
341.158	99.56
341.386	79.56
341.614	109.56
341.842	99.56
342.07	96.56
342.298	80.56
342.526	101.56
342.754	93.56
342.981	92.56
343.209	111.56
343.437	104.56
343.665	92.56
343.893	105.56
344.12	99.56
344.348	102.56
344.576	85.56
344.804	90.56
345.031	96.56
345.259	105.56
345.487	117.56
345.714	93.56
345.942	103.56
346.17	96.56
346.397	104.56
346.625	101.56
346.853	93.56
347.08	96.56
347.308	79.56
347.535	83.56
347.763	93.56
347.99	97.56
348.218	102.56
348.445	94.56
348.673	102.56
348.9	122.56
349.128	104.56
349.355	109.56
349.583	102.56
349.81	111.56
350.037	92.56
350.265	100.56
350.492	94.56
350.72	93.56
350.947	94.56
351.174	108.56
351.402	93.56
351.629	104.56
351.856	95.56
352.083	87.56
352.311	95.56
352.538	116.56
352.765	98.56
352.992	113.56
353.22	115.56
353.447	102.56
353.674	97.56
353.901	97.56
354.128	91.56
354.355	95.56
354.583	98.56
354.81	98.56
355.037	102.56
355.264	102.56
355.491	92.56
355.718	98.56
355.945	97.56
356.172	95.56
356.399	102.56
356.626	95.56
356.853	99.56
357.08	95.56
357.307	95.56
357.534	93.56
357.761	93.56
357.988	89.56
358.215	103.56
358.441	116.56
358.668	112.56
358.895	83.56
359.122	104.56
359.349	97.56
359.576	98.56
359.802	106.56
360.029	95.56
360.256	99.56
360.483	93.56
360.709	90.56
360.936	89.56
361.163	89.56
361.39	92.56
361.616	91.56
361.843	97.56
362.07	94.56
362.296	90.56
362.523	91.56
362.749	83.56
362.976	85.56
363.203	106.56
363.429	100.56
363.656	96.56
363.882	99.56
364.109	81.56
364.335	107.56
364.562	96.56
364.788	92.56
365.015	93.56
365.241	93.56
365.468	101.56
365.694	91.56
365.92	89.56
366.147	100.56
366.373	94.56
366.599	92.56
366.826	91.56
367.052	79.56
367.278	80.56
367.505	97.56
367.731	113.56
367.957	92.56
368.184	107.56
368.41	90.56
368.636	115.56
368.862	103.56
369.089	97.56
369.315	98.56
369.541	104.56
369.767	99.56
369.993	88.56
370.219	96.56
370.445	96.56
370.672	86.56
370.898	96.56
371.124	88.56
371.35	88.56
371.576	98.56
371.802	98.56
372.028	92.56
372.254	90.56
372.48	104.56
372.706	82.56
372.932	84.56
373.158	92.56
373.384	80.56
373.61	88.56
373.835	99.56
374.061	87.56
374.287	94.56
374.513	97.56
374.739	95.56
374.965	101.56
375.191	96.56
375.416	95.56
375.642	108.56
375.868	93.56
376.094	93.56
376.319	98.56
376.545	88.56
376.771	93.56
376.997	95.56
377.222	98.56
377.448	101.56
377.674	88.56
377.899	98.56
378.125	98.56
378.35	94.56
378.576	97.56
378.802	94.56
379.027	99.56
379.253	107.56
379.478	86.56
379.704	108.56
379.929	101.56
380.155	102.56
380.38	81.56
380.606	88.56
380.831	98.56
381.057	100.56
381.282	106.56
381.507	96.56
381.733	104.56
381.958	103.56
382.184	95.56
382.409	96.56
382.634	105.56
382.86	107.56
383.085	104.56
383.31	105.56
383.535	113.56
383.761	101.56
383.986	107.56
384.211	113.56
384.436	100.56
384.662	109.56
384.887	120.56
385.112	120.56
385.337	128.56
385.562	105.56
385.787	113.56
386.013	109.56
386.238	104.56
386.463	114.56
386.688	116.56
386.913	111.56
387.138	114.56
387.363	105.56
387.588	101.56
387.813	104.56
388.038	113.56
388.263	116.56
388.488	115.56
388.713	103.56
388.938	100.56
389.163	110.56
389.387	110.56
389.612	97.56
389.837	94.56
390.062	102.56
390.287	98.56
390.512	92.56
390.736	85.56
390.961	93.56
391.186	97.56
391.411	100.56
391.636	102.56
391.86	91.56
392.085	85.56
392.31	70.56
392.534	83.56
392.759	100.56
392.984	91.56
393.208	104.56
393.433	115.56
393.658	88.56
393.882	108.56
394.107	88.56
394.331	109.56
394.556	91.56
394.78	88.56
395.005	100.56
395.229	102.56
395.454	108.56
395.678	103.56
395.903	93.56
396.127	96.56
396.352	89.56
396.576	97.56
396.801	91.56
397.025	105.56
397.249	88.56
397.474	81.56
397.698	97.56
397.922	80.56
398.147	88.56
398.371	97.56
398.595	70.56
398.82	77.56
399.044	87.56
399.268	94.56
399.492	99.56
399.717	89.56
399.941	79.56
400.165	95.56
400.389	97.56
400.613	100.56
400.837	99.56
401.062	91.56
401.286	90.56
401.51	91.56
401.734	100.56
401.958	88.56
402.182	120.56
402.406	130.56
402.63	111.56
402.854	104.56
403.078	98.56
403.302	95.56
403.526	98.56
403.75	87.56
403.974	76.56
404.198	86.56
404.422	100.56
404.645	105.56
404.869	78.56
405.093	91.56
405.317	90.56
405.541	96.56
405.765	111.56
405.988	116.56
406.212	137.56
406.436	182.56
406.66	123.56
406.883	103.56
407.107	83.56
407.331	95.56
407.555	89.56
407.778	93.56
408.002	101.56
408.226	97.56
408.449	78.56
408.673	92.56
408.896	99.56
409.12	103.56
409.344	81.56
409.567	78.56
409.791	94.56
410.014	105.56
410.238	103.56
410.461	92.56
410.685	89.56
410.908	110.56
411.132	97.56
411.355	101.56
411.578	100.56
411.802	83.56
412.025	78.56
412.249	96.56
412.472	87.56
412.695	93.56
412.919	94.56
413.142	85.56
413.365	97.56
413.589	91.56
413.812	95.56
414.035	92.56
414.258	80.56
414.482	88.56
414.705	101.56
414.928	104.56
415.151	95.56
415.374	97.56
415.597	92.56
415.821	87.56
416.044	84.56
416.267	101.56
416.49	90.56
416.713	81.56
416.936	92.56
417.159	98.56
417.382	91.56
417.605	103.56
417.828	91.56
418.051	86.56
418.274	102.56
418.497	80.56
418.72	85.56
418.943	89.56
419.166	94.56
419.389	81.56
419.611	79.56
419.834	93.56
420.057	89.56
420.28	83.56
420.503	110.56
420.726	97.56
420.948	89.56
421.171	95.56
421.394	91.56
421.617	110.56
421.839	97.56
422.062	84.56
422.285	105.56
422.507	95.56
422.73	107.56
422.953	102.56
423.175	96.56
423.398	93.56
423.621	98.56
423.843	85.56
424.066	91.56
424.288	88.56
424.511	85.56
424.733	101.56
424.956	99.56
425.178	95.56
425.401	102.56
425.623	88.56
425.846	101.56
426.068	97.56
426.291	78.56
426.513	72.56
426.735	95.56
426.958	96.56
427.18	97.56
427.402	109.56
427.625	141.56
427.847	106.56
428.069	109.56
428.292	95.56
428.514	91.56
428.736	98.56
428.958	88.56
429.181	88.56
429.403	96.56
429.625	91.56
429.847	104.56
430.069	102.56
430.292	97.56
430.514	77.56
430.736	95.56
430.958	80.56
431.18	92.56
431.402	72.56
431.624	87.56
431.846	85.56
432.068	88.56
432.29	87.56
432.512	81.56
432.734	85.56
432.956	86.56
433.178	92.56
433.4	85.56
433.622	93.56
433.844	83.56
434.066	92.56
434.287	90.56
434.509	93.56
434.731	98.56
434.953	93.56
435.175	86.56
435.397	81.56
435.618	93.56
435.84	92.56
436.062	120.56
436.284	96.56
436.505	100.56
436.727	93.56
436.949	90.56
437.17	106.56
437.392	88.56
437.614	87.56
437.835	121.56
438.057	102.56
438.278	107.56
438.5	95.56
438.721	124.56
438.943	85.56
439.165	86.56
439.386	103.56
439.608	112.56
439.829	98.56
440.05	100.56
440.272	112.56
440.493	93.56
440.715	103.56
440.936	90.56
441.158	97.56
441.379	103.56
441.6	102.56
441.822	84.56
442.043	98.56
442.264	94.56
442.486	100.56
442.707	83.56
442.928	112.56
443.149	103.56
443.371	111.56
443.592	86.56
443.813	94.56
444.034	105.56
444.255	97.56
444.476	97.56
444.698	91.56
444.919	105.56
445.14	133.56
445.361	123.56
445.582	107.56
445.803	118.56
446.024	87.56
446.245	136.56
446.466	100.56
446.687	118.56
446.908	87.56
447.129	96.56
447.35	78.56
447.571	109.56
447.792	94.56
448.013	96.56
448.234	110.56
448.455	96.56
448.675	110.56
448.896	97.56
449.117	100.56
449.338	96.56
449.559	127.56
449.779	121.56
450	95.56
450.221	80.56
450.442	89.56
450.662	99.56
450.883	93.56
451.104	104.56
451.324	99.56
451.545	85.56
451.766	93.56
451.986	96.56
452.207	93.56
452.428	80.56
452.648	95.56
452.869	103.56
453.089	96.56
453.31	107.56
453.53	105.56
453.751	97.56
453.971	98.56
454.192	116.56
454.412	101.56
454.633	88.56
454.853	85.56
455.073	96.56
455.294	79.56
455.514	109.56
455.734	98.56
455.955	78.56
456.175	85.56
456.395	89.56
456.616	94.56
456.836	86.56
457.056	82.56
457.276	89.56
457.497	86.56
457.717	104.56
457.937	94.56
458.157	91.56
458.377	101.56
458.598	105.56
458.818	123.56
459.038	122.56
459.258	97.56
459.478	85.56
459.698	89.56
459.918	93.56
460.138	91.56
460.358	98.56
460.578	83.56
460.798	93.56
461.018	82.56
461.238	98.56
461.458	73.56
461.678	83.56
461.898	95.56
462.118	86.56
462.338	104.56
462.558	96.56
462.777	90.56
462.997	83.56
463.217	90.56
463.437	75.56
463.657	87.56
463.876	81.56
464.096	96.56
464.316	88.56
464.536	104.56
464.755	99.56
464.975	95.56
465.195	133.56
465.414	126.56
465.634	93.56
465.854	96.56
466.073	84.56
466.293	104.56
466.512	82.56
466.732	84.56
466.951	83.56
467.171	102.56
467.391	86.56
467.61	93.56
467.829	84.56
468.049	100.56
468.268	84.56
468.488	78.56
468.707	80.56
468.927	79.56
469.146	86.56
469.365	95.56
469.585	84.56
469.804	103.56
470.023	90.56
470.243	83.56
470.462	101.56
470.681	87.56
470.901	83.56
471.12	93.56
471.339	90.56
471.558	86.56
471.777	95.56
471.997	88.56
472.216	99.56
472.435	107.56
472.654	79.56
472.873	81.56
473.092	90.56
473.311	87.56
473.53	92.56
473.749	85.56
473.968	104.56
474.187	93.56
474.406	101.56
474.625	102.56
474.844	98.56
475.063	92.56
475.282	78.56
475.501	79.56
475.72	112.56
475.939	94.56
476.158	90.56
476.377	92.56
476.596	85.56
476.814	82.56
477.033	105.56
477.252	86.56
477.471	74.56
477.69	83.56
477.908	83.56
478.127	94.56
478.346	102.56
478.564	99.56
478.783	108.56
479.002	98.56
479.22	99.56
479.439	88.56
479.658	95.56
479.876	89.56
480.095	90.56
480.313	100.56
480.532	104.56
480.751	88.56
480.969	96.56
481.188	90.56
481.406	102.56
481.624	108.56
481.843	78.56
482.061	87.56
482.28	94.56
482.498	92.56
482.717	92.56
482.935	92.56
483.153	98.56
483.372	87.56
483.59	90.56
483.808	79.56
484.027	95.56
484.245	87.56
484.463	92.56
484.681	90.56
484.9	87.56
485.118	96.56
485.336	103.56
485.554	108.56
485.772	108.56
485.99	108.56
486.209	101.56
486.427	101.56
486.645	108.56
486.863	125.56
487.081	113.56
487.299	105.56
487.517	117.56
487.735	99.56
487.953	98.56
488.171	96.56
488.389	107.56
488.607	99.56
488.825	86.56
489.043	99.56
489.261	95.56
489.479	89.56
489.696	111.56
489.914	91.56
490.132	99.56
490.35	92.56
490.568	92.56
490.786	96.56
491.003	87.56
491.221	96.56
491.439	97.56
491.657	99.56
491.874	99.56
492.092	92.56
492.31	94.56
492.527	102.56
492.745	100.56
492.963	101.56
493.18	97.56
493.398	99.56
493.615	100.56
493.833	95.56
494.05	89.56
494.268	89.56
494.485	86.56
494.703	91.56
494.92	70.56
495.138	96.56
495.355	92.56
495.573	94.56
495.79	83.56
496.008	85.56
496.225	96.56
496.442	93.56
496.66	85.56
496.877	84.56
497.094	93.56
497.312	100.56
497.529	82.56
497.746	89.56
497.963	70.56
498.181	87.56
498.398	111.56
498.615	111.56
498.832	104.56
499.049	106.56
499.267	109.56
499.484	94.56
499.701	97.56
499.918	99.56
500.135	89.56
500.352	95.56
500.569	93.56
500.786	89.56
501.003	96.56
501.22	83.56
501.437	96.56
501.654	97.56
501.871	106.56
502.088	91.56
502.305	97.56
502.522	88.56
502.739	101.56
502.956	95.56
503.172	91.56
503.389	102.56
503.606	87.56
503.823	103.56
504.04	112.56
504.256	104.56
504.473	87.56
504.69	91.56
504.907	92.56
505.123	85.56
505.34	91.56
505.557	92.56
505.773	83.56
505.99	96.56
506.207	100.56
506.423	87.56
506.64	101.56
506.856	99.56
507.073	108.56
507.289	92.56
507.506	111.56
507.722	99.56
507.939	110.56
508.155	105.56
508.372	94.56
508.588	96.56
508.805	103.56
509.021	117.56
509.238	105.56
509.454	93.56
509.67	121.56
509.887	102.56
510.103	129.56
510.319	173.56
510.536	554.56
510.752	1610.56
510.968	487.56
511.184	137.56
511.401	111.56
511.617	98.56
511.833	96.56
512.049	96.56
512.265	96.56
512.481	91.56
512.698	86.56
512.914	94.56
513.13	84.56
513.346	83.56
513.562	92.56
513.778	92.56
513.994	95.56
514.21	108.56
514.426	105.56
514.642	115.56
514.858	100.56
515.074	141.56
