Data from Uncirc_1992_H10_HRD10591_00025.txt Node
Date: Wed Jan 03 11:46:21 EST 2024
User: Yrep
Spectrometer: HR+D1059
Trigger mode: 1
Integration Time (sec): 1.000000E-1
Scans to average: 1
Electric dark correction enabled: true
Nonlinearity correction enabled: false
Boxcar width: 0
XAxis mode: Wavelengths
Number of Pixels in Spectrum: 2048
>>>>>Begin Spectral Data<<<<<
223.165	-32.25
223.4	-32.25
223.635	-32.25
223.869	-8.25
224.104	-25.25
224.338	-28.25
224.573	-6.25
224.808	-5.25
225.042	-17.25
225.277	3.75
225.511	9.75
225.746	-8.25
225.98	13.75
226.215	14.75
226.449	19.75
226.683	26.75
226.918	16.75
227.152	25.75
227.387	41.75
227.621	33.75
227.856	42.75
228.09	31.75
228.324	41.75
228.559	51.75
228.793	62.75
229.027	71.75
229.262	47.75
229.496	69.75
229.73	87.75
229.964	81.75
230.199	73.75
230.433	78.75
230.667	77.75
230.901	87.75
231.136	77.75
231.37	88.75
231.604	95.75
231.838	82.75
232.072	92.75
232.306	65.75
232.541	73.75
232.775	88.75
233.009	80.75
233.243	79.75
233.477	84.75
233.711	85.75
233.945	81.75
234.179	90.75
234.413	72.75
234.647	79.75
234.881	63.75
235.115	76.75
235.349	80.75
235.583	68.75
235.817	92.75
236.051	93.75
236.285	81.75
236.519	84.75
236.753	91.75
236.987	81.75
237.221	72.75
237.455	90.75
237.689	76.75
237.922	89.75
238.156	79.75
238.39	57.75
238.624	79.75
238.858	79.75
239.091	76.75
239.325	86.75
239.559	76.75
239.793	84.75
240.027	78.75
240.26	79.75
240.494	61.75
240.728	67.75
240.961	82.75
241.195	76.75
241.429	80.75
241.662	81.75
241.896	84.75
242.13	67.75
242.363	79.75
242.597	79.75
242.83	79.75
243.064	74.75
243.298	83.75
243.531	65.75
243.765	70.75
243.998	81.75
244.232	82.75
244.465	93.75
244.699	77.75
244.932	65.75
245.166	76.75
245.399	73.75
245.633	85.75
245.866	81.75
246.099	74.75
246.333	91.75
246.566	67.75
246.8	81.75
247.033	84.75
247.266	82.75
247.5	82.75
247.733	76.75
247.966	78.75
248.2	89.75
248.433	92.75
248.666	83.75
248.899	68.75
249.133	68.75
249.366	88.75
249.599	98.75
249.832	76.75
250.066	89.75
250.299	80.75
250.532	65.75
250.765	80.75
250.998	78.75
251.231	76.75
251.465	88.75
251.698	74.75
251.931	74.75
252.164	74.75
252.397	72.75
252.63	67.75
252.863	83.75
253.096	67.75
253.329	93.75
253.562	87.75
253.795	79.75
254.028	68.75
254.261	75.75
254.494	89.75
254.727	74.75
254.96	84.75
255.193	76.75
255.426	77.75
255.659	92.75
255.892	103.75
256.124	83.75
256.357	71.75
256.59	73.75
256.823	84.75
257.056	71.75
257.289	82.75
257.521	87.75
257.754	69.75
257.987	91.75
258.22	76.75
258.452	74.75
258.685	78.75
258.918	77.75
259.151	82.75
259.383	81.75
259.616	84.75
259.849	68.75
260.081	83.75
260.314	75.75
260.547	83.75
260.779	83.75
261.012	81.75
261.244	84.75
261.477	98.75
261.71	79.75
261.942	93.75
262.175	103.75
262.407	82.75
262.64	90.75
262.872	85.75
263.105	97.75
263.337	83.75
263.57	77.75
263.802	92.75
264.035	80.75
264.267	80.75
264.499	78.75
264.732	79.75
264.964	73.75
265.197	80.75
265.429	85.75
265.661	87.75
265.894	66.75
266.126	87.75
266.358	90.75
266.591	81.75
266.823	82.75
267.055	83.75
267.287	97.75
267.52	92.75
267.752	102.75
267.984	89.75
268.216	83.75
268.448	82.75
268.681	92.75
268.913	74.75
269.145	76.75
269.377	79.75
269.609	69.75
269.841	91.75
270.073	89.75
270.306	76.75
270.538	90.75
270.77	86.75
271.002	79.75
271.234	79.75
271.466	83.75
271.698	79.75
271.93	91.75
272.162	87.75
272.394	92.75
272.626	95.75
272.858	81.75
273.09	92.75
273.322	92.75
273.553	85.75
273.785	84.75
274.017	81.75
274.249	76.75
274.481	88.75
274.713	89.75
274.945	105.75
275.176	87.75
275.408	83.75
275.64	82.75
275.872	85.75
276.104	83.75
276.335	96.75
276.567	110.75
276.799	100.75
277.031	96.75
277.262	84.75
277.494	84.75
277.726	69.75
277.957	64.75
278.189	91.75
278.421	96.75
278.652	83.75
278.884	74.75
279.115	83.75
279.347	92.75
279.579	91.75
279.81	81.75
280.042	97.75
280.273	85.75
280.505	85.75
280.736	79.75
280.968	80.75
281.199	106.75
281.431	87.75
281.662	88.75
281.894	91.75
282.125	101.75
282.356	109.75
282.588	117.75
282.819	97.75
283.051	78.75
283.282	96.75
283.513	83.75
283.745	93.75
283.976	90.75
284.207	81.75
284.439	95.75
284.67	90.75
284.901	80.75
285.132	83.75
285.364	83.75
285.595	95.75
285.826	67.75
286.057	86.75
286.288	90.75
286.52	81.75
286.751	84.75
286.982	84.75
287.213	82.75
287.444	91.75
287.675	87.75
287.906	92.75
288.138	98.75
288.369	85.75
288.6	87.75
288.831	77.75
289.062	105.75
289.293	84.75
289.524	83.75
289.755	97.75
289.986	97.75
290.217	88.75
290.448	83.75
290.679	78.75
290.91	89.75
291.141	95.75
291.371	78.75
291.602	84.75
291.833	100.75
292.064	78.75
292.295	83.75
292.526	85.75
292.757	82.75
292.987	85.75
293.218	80.75
293.449	83.75
293.68	90.75
293.91	75.75
294.141	80.75
294.372	78.75
294.603	89.75
294.833	89.75
295.064	94.75
295.295	90.75
295.525	96.75
295.756	87.75
295.987	96.75
296.217	108.75
296.448	95.75
296.679	95.75
296.909	76.75
297.14	88.75
297.37	89.75
297.601	92.75
297.831	77.75
298.062	103.75
298.292	97.75
298.523	74.75
298.753	74.75
298.984	92.75
299.214	86.75
299.445	77.75
299.675	87.75
299.905	87.75
300.136	92.75
300.366	92.75
300.597	91.75
300.827	103.75
301.057	98.75
301.288	101.75
301.518	84.75
301.748	76.75
301.979	101.75
302.209	84.75
302.439	96.75
302.669	83.75
302.9	77.75
303.13	89.75
303.36	82.75
303.59	96.75
303.82	97.75
304.051	100.75
304.281	87.75
304.511	73.75
304.741	94.75
304.971	91.75
305.201	94.75
305.431	91.75
305.661	94.75
305.891	77.75
306.121	106.75
306.352	88.75
306.582	98.75
306.812	91.75
307.042	92.75
307.272	95.75
307.502	87.75
307.731	79.75
307.961	79.75
308.191	90.75
308.421	76.75
308.651	77.75
308.881	97.75
309.111	93.75
309.341	101.75
309.571	91.75
309.8	84.75
310.03	91.75
310.26	97.75
310.49	87.75
310.72	97.75
310.949	94.75
311.179	106.75
311.409	105.75
311.639	93.75
311.868	97.75
312.098	98.75
312.328	79.75
312.557	84.75
312.787	91.75
313.017	95.75
313.246	98.75
313.476	91.75
313.706	88.75
313.935	91.75
314.165	101.75
314.394	95.75
314.624	99.75
314.853	77.75
315.083	93.75
315.312	93.75
315.542	96.75
315.771	95.75
316.001	90.75
316.23	94.75
316.46	91.75
316.689	94.75
316.919	88.75
317.148	91.75
317.377	94.75
317.607	87.75
317.836	92.75
318.065	80.75
318.295	77.75
318.524	84.75
318.753	78.75
318.983	89.75
319.212	97.75
319.441	103.75
319.67	88.75
319.9	84.75
320.129	75.75
320.358	107.75
320.587	94.75
320.816	94.75
321.046	92.75
321.275	88.75
321.504	92.75
321.733	89.75
321.962	84.75
322.191	99.75
322.42	105.75
322.649	101.75
322.878	98.75
323.108	97.75
323.337	108.75
323.566	108.75
323.795	135.75
324.024	174.75
324.253	332.75
324.482	640.75
324.71	1254.75
324.939	1659.75
325.168	605.75
325.397	186.75
325.626	135.75
325.855	112.75
326.084	122.75
326.313	115.75
326.542	131.75
326.77	208.75
326.999	365.75
327.228	725.75
327.457	1331.75
327.686	1025.75
327.914	285.75
328.143	159.75
328.372	113.75
328.6	112.75
328.829	119.75
329.058	100.75
329.287	118.75
329.515	111.75
329.744	105.75
329.972	84.75
330.201	90.75
330.43	91.75
330.658	108.75
330.887	116.75
331.115	106.75
331.344	97.75
331.572	86.75
331.801	102.75
332.03	87.75
332.258	84.75
332.486	83.75
332.715	96.75
332.943	93.75
333.172	97.75
333.4	99.75
333.629	87.75
333.857	108.75
334.085	99.75
334.314	88.75
334.542	99.75
334.771	92.75
334.999	104.75
335.227	93.75
335.455	92.75
335.684	99.75
335.912	95.75
336.14	100.75
336.369	100.75
336.597	101.75
336.825	90.75
337.053	79.75
337.281	90.75
337.51	80.75
337.738	98.75
337.966	87.75
338.194	101.75
338.422	105.75
338.65	95.75
338.878	86.75
339.106	85.75
339.334	91.75
339.562	94.75
339.79	91.75
340.018	86.75
340.246	94.75
340.474	80.75
340.702	102.75
340.93	79.75
341.158	94.75
341.386	93.75
341.614	81.75
341.842	99.75
342.07	88.75
342.298	93.75
342.526	88.75
342.754	105.75
342.981	87.75
343.209	80.75
343.437	101.75
343.665	79.75
343.893	100.75
344.12	80.75
344.348	78.75
344.576	80.75
344.804	91.75
345.031	83.75
345.259	95.75
345.487	92.75
345.714	79.75
345.942	88.75
346.17	87.75
346.397	89.75
346.625	104.75
346.853	97.75
347.08	87.75
347.308	96.75
347.535	101.75
347.763	100.75
347.99	87.75
348.218	104.75
348.445	92.75
348.673	97.75
348.9	87.75
349.128	93.75
349.355	91.75
349.583	83.75
349.81	75.75
350.037	96.75
350.265	87.75
350.492	92.75
350.72	98.75
350.947	95.75
351.174	94.75
351.402	101.75
351.629	91.75
351.856	93.75
352.083	96.75
352.311	91.75
352.538	90.75
352.765	105.75
352.992	114.75
353.22	91.75
353.447	100.75
353.674	87.75
353.901	94.75
354.128	94.75
354.355	95.75
354.583	93.75
354.81	102.75
355.037	91.75
355.264	80.75
355.491	89.75
355.718	85.75
355.945	87.75
356.172	107.75
356.399	99.75
356.626	89.75
356.853	82.75
357.08	103.75
357.307	95.75
357.534	91.75
357.761	98.75
357.988	95.75
358.215	98.75
358.441	89.75
358.668	97.75
358.895	97.75
359.122	81.75
359.349	93.75
359.576	90.75
359.802	100.75
360.029	93.75
360.256	108.75
360.483	92.75
360.709	85.75
360.936	87.75
361.163	79.75
361.39	84.75
361.616	85.75
361.843	84.75
362.07	88.75
362.296	93.75
362.523	85.75
362.749	106.75
362.976	94.75
363.203	95.75
363.429	103.75
363.656	88.75
363.882	76.75
364.109	88.75
364.335	84.75
364.562	75.75
364.788	83.75
365.015	86.75
365.241	110.75
365.468	98.75
365.694	103.75
365.92	98.75
366.147	81.75
366.373	87.75
366.599	76.75
366.826	95.75
367.052	90.75
367.278	102.75
367.505	98.75
367.731	85.75
367.957	89.75
368.184	85.75
368.41	91.75
368.636	96.75
368.862	99.75
369.089	103.75
369.315	92.75
369.541	87.75
369.767	73.75
369.993	84.75
370.219	82.75
370.445	72.75
370.672	87.75
370.898	98.75
371.124	87.75
371.35	68.75
371.576	84.75
371.802	91.75
372.028	79.75
372.254	80.75
372.48	97.75
372.706	102.75
372.932	98.75
373.158	84.75
373.384	87.75
373.61	83.75
373.835	93.75
374.061	89.75
374.287	87.75
374.513	91.75
374.739	87.75
374.965	84.75
375.191	77.75
375.416	84.75
375.642	96.75
375.868	87.75
376.094	88.75
376.319	85.75
376.545	95.75
376.771	81.75
376.997	101.75
377.222	106.75
377.448	95.75
377.674	84.75
377.899	95.75
378.125	98.75
378.35	79.75
378.576	100.75
378.802	69.75
379.027	106.75
379.253	99.75
379.478	76.75
379.704	73.75
379.929	90.75
380.155	98.75
380.38	81.75
380.606	82.75
380.831	109.75
381.057	96.75
381.282	89.75
381.507	76.75
381.733	88.75
381.958	94.75
382.184	91.75
382.409	98.75
382.634	90.75
382.86	91.75
383.085	98.75
383.31	104.75
383.535	88.75
383.761	97.75
383.986	85.75
384.211	105.75
384.436	81.75
384.662	96.75
384.887	90.75
385.112	94.75
385.337	97.75
385.562	97.75
385.787	100.75
386.013	108.75
386.238	104.75
386.463	116.75
386.688	98.75
386.913	95.75
387.138	104.75
387.363	88.75
387.588	91.75
387.813	103.75
388.038	108.75
388.263	131.75
388.488	103.75
388.713	97.75
388.938	82.75
389.163	83.75
389.387	98.75
389.612	101.75
389.837	84.75
390.062	87.75
390.287	81.75
390.512	102.75
390.736	79.75
390.961	74.75
391.186	78.75
391.411	91.75
391.636	86.75
391.86	71.75
392.085	90.75
392.31	85.75
392.534	79.75
392.759	72.75
392.984	85.75
393.208	83.75
393.433	88.75
393.658	92.75
393.882	79.75
394.107	81.75
394.331	89.75
394.556	94.75
394.78	80.75
395.005	76.75
395.229	75.75
395.454	83.75
395.678	84.75
395.903	78.75
396.127	83.75
396.352	76.75
396.576	88.75
396.801	89.75
397.025	97.75
397.249	94.75
397.474	89.75
397.698	83.75
397.922	95.75
398.147	84.75
398.371	80.75
398.595	80.75
398.82	83.75
399.044	75.75
399.268	73.75
399.492	87.75
399.717	99.75
399.941	91.75
400.165	87.75
400.389	79.75
400.613	89.75
400.837	81.75
401.062	89.75
401.286	89.75
401.51	83.75
401.734	84.75
401.958	97.75
402.182	121.75
402.406	135.75
402.63	93.75
402.854	97.75
403.078	87.75
403.302	67.75
403.526	82.75
403.75	79.75
403.974	79.75
404.198	71.75
404.422	92.75
404.645	71.75
404.869	94.75
405.093	79.75
405.317	95.75
405.541	105.75
405.765	108.75
405.988	106.75
406.212	153.75
406.436	175.75
406.66	128.75
406.883	94.75
407.107	82.75
407.331	77.75
407.555	83.75
407.778	88.75
408.002	78.75
408.226	74.75
408.449	85.75
408.673	88.75
408.896	74.75
409.12	102.75
409.344	81.75
409.567	91.75
409.791	71.75
410.014	89.75
410.238	93.75
410.461	89.75
410.685	94.75
410.908	94.75
411.132	96.75
411.355	81.75
411.578	97.75
411.802	87.75
412.025	84.75
412.249	68.75
412.472	87.75
412.695	81.75
412.919	75.75
413.142	80.75
413.365	82.75
413.589	87.75
413.812	99.75
414.035	89.75
414.258	95.75
414.482	94.75
414.705	96.75
414.928	82.75
415.151	91.75
415.374	98.75
415.597	81.75
415.821	83.75
416.044	92.75
416.267	88.75
416.49	84.75
416.713	92.75
416.936	82.75
417.159	98.75
417.382	92.75
417.605	95.75
417.828	94.75
418.051	98.75
418.274	90.75
418.497	85.75
418.72	86.75
418.943	72.75
419.166	82.75
419.389	88.75
419.611	81.75
419.834	87.75
420.057	83.75
420.28	84.75
420.503	94.75
420.726	96.75
420.948	84.75
421.171	75.75
421.394	79.75
421.617	96.75
421.839	103.75
422.062	92.75
422.285	86.75
422.507	93.75
422.73	104.75
422.953	95.75
423.175	83.75
423.398	89.75
423.621	90.75
423.843	87.75
424.066	82.75
424.288	78.75
424.511	92.75
424.733	87.75
424.956	96.75
425.178	95.75
425.401	92.75
425.623	94.75
425.846	104.75
426.068	84.75
426.291	92.75
426.513	111.75
426.735	89.75
426.958	72.75
427.18	101.75
427.402	113.75
427.625	128.75
427.847	98.75
428.069	103.75
428.292	82.75
428.514	79.75
428.736	73.75
428.958	92.75
429.181	84.75
429.403	92.75
429.625	75.75
429.847	73.75
430.069	89.75
430.292	91.75
430.514	77.75
430.736	87.75
430.958	75.75
431.18	82.75
431.402	88.75
431.624	87.75
431.846	72.75
432.068	76.75
432.29	80.75
432.512	83.75
432.734	74.75
432.956	75.75
433.178	100.75
433.4	96.75
433.622	88.75
433.844	89.75
434.066	94.75
434.287	93.75
434.509	85.75
434.731	95.75
434.953	77.75
435.175	95.75
435.397	90.75
435.618	94.75
435.84	93.75
436.062	114.75
436.284	82.75
436.505	94.75
436.727	96.75
436.949	95.75
437.17	79.75
437.392	71.75
437.614	85.75
437.835	100.75
438.057	102.75
438.278	106.75
438.5	84.75
438.721	108.75
438.943	99.75
439.165	77.75
439.386	79.75
439.608	85.75
439.829	91.75
440.05	107.75
440.272	131.75
440.493	90.75
440.715	87.75
440.936	79.75
441.158	85.75
441.379	81.75
441.6	87.75
441.822	93.75
442.043	80.75
442.264	91.75
442.486	101.75
442.707	92.75
442.928	89.75
443.149	115.75
443.371	106.75
443.592	88.75
443.813	99.75
444.034	96.75
444.255	95.75
444.476	91.75
444.698	87.75
444.919	68.75
445.14	139.75
445.361	120.75
445.582	95.75
445.803	112.75
446.024	105.75
446.245	114.75
446.466	107.75
446.687	91.75
446.908	88.75
447.129	77.75
447.35	94.75
447.571	83.75
447.792	79.75
448.013	93.75
448.234	106.75
448.455	96.75
448.675	95.75
448.896	90.75
449.117	101.75
449.338	101.75
449.559	115.75
449.779	123.75
450	87.75
450.221	84.75
450.442	91.75
450.662	83.75
450.883	96.75
451.104	101.75
451.324	94.75
451.545	88.75
451.766	87.75
451.986	90.75
452.207	88.75
452.428	83.75
452.648	97.75
452.869	99.75
453.089	101.75
453.31	104.75
453.53	96.75
453.751	91.75
453.971	96.75
454.192	90.75
454.412	93.75
454.633	86.75
454.853	98.75
455.073	83.75
455.294	85.75
455.514	82.75
455.734	72.75
455.955	87.75
456.175	92.75
456.395	95.75
456.616	90.75
456.836	83.75
457.056	65.75
457.276	82.75
457.497	89.75
457.717	82.75
457.937	68.75
458.157	88.75
458.377	93.75
458.598	96.75
458.818	105.75
459.038	137.75
459.258	96.75
459.478	74.75
459.698	83.75
459.918	87.75
460.138	87.75
460.358	95.75
460.578	101.75
460.798	79.75
461.018	84.75
461.238	82.75
461.458	82.75
461.678	96.75
461.898	93.75
462.118	84.75
462.338	78.75
462.558	88.75
462.777	85.75
462.997	73.75
463.217	64.75
463.437	81.75
463.657	78.75
463.876	92.75
464.096	84.75
464.316	88.75
464.536	84.75
464.755	82.75
464.975	90.75
465.195	148.75
465.414	133.75
465.634	88.75
465.854	74.75
466.073	86.75
466.293	106.75
466.512	85.75
466.732	84.75
466.951	87.75
467.171	97.75
467.391	92.75
467.61	103.75
467.829	92.75
468.049	90.75
468.268	83.75
468.488	85.75
468.707	93.75
468.927	87.75
469.146	89.75
469.365	93.75
469.585	81.75
469.804	89.75
470.023	90.75
470.243	91.75
470.462	99.75
470.681	83.75
470.901	88.75
471.12	82.75
471.339	79.75
471.558	88.75
471.777	96.75
471.997	84.75
472.216	77.75
472.435	77.75
472.654	90.75
472.873	84.75
473.092	92.75
473.311	76.75
473.53	85.75
473.749	96.75
473.968	87.75
474.187	98.75
474.406	104.75
474.625	109.75
474.844	85.75
475.063	97.75
475.282	96.75
475.501	80.75
475.72	83.75
475.939	80.75
476.158	68.75
476.377	87.75
476.596	87.75
476.814	93.75
477.033	90.75
477.252	95.75
477.471	88.75
477.69	85.75
477.908	101.75
478.127	101.75
478.346	85.75
478.564	83.75
478.783	73.75
479.002	91.75
479.22	91.75
479.439	93.75
479.658	91.75
479.876	85.75
480.095	77.75
480.313	91.75
480.532	87.75
480.751	100.75
480.969	82.75
481.188	97.75
481.406	82.75
481.624	75.75
481.843	77.75
482.061	97.75
482.28	91.75
482.498	87.75
482.717	82.75
482.935	90.75
483.153	79.75
483.372	81.75
483.59	93.75
483.808	79.75
484.027	86.75
484.245	82.75
484.463	84.75
484.681	96.75
484.9	95.75
485.118	84.75
485.336	97.75
485.554	95.75
485.772	88.75
485.99	100.75
486.209	87.75
486.427	100.75
486.645	114.75
486.863	108.75
487.081	99.75
487.299	87.75
487.517	94.75
487.735	101.75
487.953	93.75
488.171	93.75
488.389	98.75
488.607	96.75
488.825	96.75
489.043	95.75
489.261	95.75
489.479	88.75
489.696	80.75
489.914	82.75
490.132	64.75
490.35	104.75
490.568	83.75
490.786	100.75
491.003	85.75
491.221	91.75
491.439	86.75
491.657	86.75
491.874	92.75
492.092	94.75
492.31	88.75
492.527	92.75
492.745	87.75
492.963	93.75
493.18	83.75
493.398	100.75
493.615	92.75
493.833	91.75
494.05	97.75
494.268	92.75
494.485	100.75
494.703	82.75
494.92	93.75
495.138	96.75
495.355	90.75
495.573	88.75
495.79	105.75
496.008	76.75
496.225	92.75
496.442	99.75
496.66	95.75
496.877	83.75
497.094	85.75
497.312	93.75
497.529	94.75
497.746	97.75
497.963	80.75
498.181	92.75
498.398	105.75
498.615	104.75
498.832	95.75
499.049	95.75
499.267	101.75
499.484	94.75
499.701	89.75
499.918	87.75
500.135	86.75
500.352	87.75
500.569	103.75
500.786	90.75
501.003	84.75
501.22	80.75
501.437	95.75
501.654	108.75
501.871	95.75
502.088	79.75
502.305	93.75
502.522	92.75
502.739	88.75
502.956	91.75
503.172	108.75
503.389	93.75
503.606	107.75
503.823	105.75
504.04	87.75
504.256	91.75
504.473	87.75
504.69	95.75
504.907	88.75
505.123	74.75
505.34	88.75
505.557	90.75
505.773	87.75
505.99	88.75
506.207	80.75
506.423	81.75
506.64	85.75
506.856	84.75
507.073	85.75
507.289	84.75
507.506	86.75
507.722	124.75
507.939	99.75
508.155	108.75
508.372	100.75
508.588	89.75
508.805	96.75
509.021	86.75
509.238	79.75
509.454	100.75
509.67	111.75
509.887	112.75
510.103	119.75
510.319	176.75
510.536	621.75
510.752	1778.75
510.968	510.75
511.184	129.75
511.401	114.75
511.617	83.75
511.833	92.75
512.049	87.75
512.265	90.75
512.481	101.75
512.698	91.75
512.914	77.75
513.13	111.75
513.346	103.75
513.562	93.75
513.778	93.75
513.994	95.75
514.21	94.75
514.426	103.75
514.642	112.75
514.858	110.75
515.074	146.75
515.29	351.75
515.506	1039.75
515.721	401.75
515.937	126.75
516.153	105.75
516.369	100.75
516.585	81.75
516.801	91.75
517.016	104.75
