Data from Uncirc_1992_H10_HRD10591_00060.txt Node
Date: Wed Jan 03 11:46:28 EST 2024
User: Yrep
Spectrometer: HR+D1059
Trigger mode: 1
Integration Time (sec): 1.000000E-1
Scans to average: 1
Electric dark correction enabled: true
Nonlinearity correction enabled: false
Boxcar width: 0
XAxis mode: Wavelengths
Number of Pixels in Spectrum: 2048
>>>>>Begin Spectral Data<<<<<
223.165	-19.88
223.4	-19.88
223.635	-19.88
223.869	-31.88
224.104	-34.88
224.338	-11.88
224.573	-12.88
224.808	-18.88
225.042	-7.88
225.277	12.12
225.511	-7.88
225.746	15.12
225.98	19.12
226.215	24.12
226.449	18.12
226.683	19.12
226.918	21.12
227.152	17.12
227.387	39.12
227.621	40.12
227.856	51.12
228.09	46.12
228.324	45.12
228.559	47.12
228.793	53.12
229.027	65.12
229.262	59.12
229.496	71.12
229.73	91.12
229.964	83.12
230.199	73.12
230.433	59.12
230.667	79.12
230.901	83.12
231.136	80.12
231.37	79.12
231.604	73.12
231.838	71.12
232.072	90.12
232.306	82.12
232.541	83.12
232.775	83.12
233.009	89.12
233.243	83.12
233.477	74.12
233.711	89.12
233.945	83.12
234.179	97.12
234.413	77.12
234.647	81.12
234.881	85.12
235.115	76.12
235.349	79.12
235.583	88.12
235.817	77.12
236.051	78.12
236.285	71.12
236.519	71.12
236.753	82.12
236.987	87.12
237.221	64.12
237.455	67.12
237.689	63.12
237.922	71.12
238.156	75.12
238.39	76.12
238.624	73.12
238.858	78.12
239.091	73.12
239.325	64.12
239.559	79.12
239.793	77.12
240.027	76.12
240.26	62.12
240.494	81.12
240.728	75.12
240.961	68.12
241.195	88.12
241.429	81.12
241.662	81.12
241.896	75.12
242.13	50.12
242.363	73.12
242.597	76.12
242.83	74.12
243.064	78.12
243.298	73.12
243.531	71.12
243.765	89.12
243.998	65.12
244.232	80.12
244.465	84.12
244.699	83.12
244.932	83.12
245.166	72.12
245.399	82.12
245.633	74.12
245.866	90.12
246.099	71.12
246.333	78.12
246.566	76.12
246.8	87.12
247.033	71.12
247.266	74.12
247.5	81.12
247.733	83.12
247.966	77.12
248.2	76.12
248.433	80.12
248.666	66.12
248.899	77.12
249.133	81.12
249.366	99.12
249.599	94.12
249.832	72.12
250.066	80.12
250.299	62.12
250.532	83.12
250.765	84.12
250.998	74.12
251.231	83.12
251.465	79.12
251.698	79.12
251.931	78.12
252.164	75.12
252.397	84.12
252.63	85.12
252.863	84.12
253.096	76.12
253.329	88.12
253.562	92.12
253.795	87.12
254.028	85.12
254.261	84.12
254.494	63.12
254.727	86.12
254.96	90.12
255.193	66.12
255.426	51.12
255.659	85.12
255.892	77.12
256.124	81.12
256.357	80.12
256.59	73.12
256.823	66.12
257.056	78.12
257.289	75.12
257.521	58.12
257.754	63.12
257.987	79.12
258.22	76.12
258.452	75.12
258.685	84.12
258.918	79.12
259.151	77.12
259.383	73.12
259.616	89.12
259.849	89.12
260.081	76.12
260.314	81.12
260.547	71.12
260.779	88.12
261.012	97.12
261.244	84.12
261.477	80.12
261.71	89.12
261.942	110.12
262.175	105.12
262.407	84.12
262.64	85.12
262.872	81.12
263.105	92.12
263.337	81.12
263.57	78.12
263.802	79.12
264.035	72.12
264.267	94.12
264.499	81.12
264.732	97.12
264.964	76.12
265.197	80.12
265.429	88.12
265.661	79.12
265.894	77.12
266.126	88.12
266.358	88.12
266.591	79.12
266.823	73.12
267.055	88.12
267.287	85.12
267.52	85.12
267.752	89.12
267.984	88.12
268.216	95.12
268.448	81.12
268.681	88.12
268.913	86.12
269.145	72.12
269.377	71.12
269.609	83.12
269.841	74.12
270.073	85.12
270.306	73.12
270.538	88.12
270.77	83.12
271.002	90.12
271.234	82.12
271.466	67.12
271.698	75.12
271.93	77.12
272.162	79.12
272.394	82.12
272.626	75.12
272.858	77.12
273.09	84.12
273.322	92.12
273.553	74.12
273.785	91.12
274.017	92.12
274.249	78.12
274.481	83.12
274.713	84.12
274.945	75.12
275.176	76.12
275.408	91.12
275.64	79.12
275.872	77.12
276.104	85.12
276.335	92.12
276.567	103.12
276.799	97.12
277.031	88.12
277.262	78.12
277.494	95.12
277.726	98.12
277.957	81.12
278.189	82.12
278.421	78.12
278.652	83.12
278.884	77.12
279.115	75.12
279.347	79.12
279.579	80.12
279.81	92.12
280.042	95.12
280.273	91.12
280.505	92.12
280.736	76.12
280.968	73.12
281.199	81.12
281.431	77.12
281.662	90.12
281.894	98.12
282.125	87.12
282.356	118.12
282.588	135.12
282.819	100.12
283.051	82.12
283.282	81.12
283.513	85.12
283.745	90.12
283.976	75.12
284.207	88.12
284.439	91.12
284.67	94.12
284.901	78.12
285.132	89.12
285.364	81.12
285.595	83.12
285.826	94.12
286.057	92.12
286.288	81.12
286.52	82.12
286.751	86.12
286.982	89.12
287.213	90.12
287.444	83.12
287.675	83.12
287.906	98.12
288.138	87.12
288.369	88.12
288.6	87.12
288.831	71.12
289.062	96.12
289.293	76.12
289.524	85.12
289.755	89.12
289.986	92.12
290.217	90.12
290.448	83.12
290.679	98.12
290.91	77.12
291.141	61.12
291.371	89.12
291.602	73.12
291.833	94.12
292.064	91.12
292.295	88.12
292.526	81.12
292.757	84.12
292.987	96.12
293.218	80.12
293.449	83.12
293.68	83.12
293.91	92.12
294.141	96.12
294.372	81.12
294.603	99.12
294.833	91.12
295.064	84.12
295.295	83.12
295.525	89.12
295.756	88.12
295.987	111.12
296.217	143.12
296.448	113.12
296.679	91.12
296.909	83.12
297.14	92.12
297.37	88.12
297.601	88.12
297.831	83.12
298.062	93.12
298.292	91.12
298.523	96.12
298.753	80.12
298.984	92.12
299.214	88.12
299.445	85.12
299.675	90.12
299.905	92.12
300.136	100.12
300.366	97.12
300.597	107.12
300.827	91.12
301.057	85.12
301.288	97.12
301.518	85.12
301.748	88.12
301.979	99.12
302.209	78.12
302.439	81.12
302.669	89.12
302.9	95.12
303.13	83.12
303.36	87.12
303.59	98.12
303.82	99.12
304.051	98.12
304.281	94.12
304.511	90.12
304.741	75.12
304.971	87.12
305.201	75.12
305.431	76.12
305.661	96.12
305.891	76.12
306.121	84.12
306.352	91.12
306.582	95.12
306.812	76.12
307.042	91.12
307.272	86.12
307.502	97.12
307.731	100.12
307.961	94.12
308.191	94.12
308.421	82.12
308.651	88.12
308.881	90.12
309.111	76.12
309.341	99.12
309.571	93.12
309.8	87.12
310.03	80.12
310.26	111.12
310.49	94.12
310.72	97.12
310.949	85.12
311.179	86.12
311.409	74.12
311.639	91.12
311.868	86.12
312.098	90.12
312.328	83.12
312.557	99.12
312.787	99.12
313.017	92.12
313.246	100.12
313.476	75.12
313.706	80.12
313.935	85.12
314.165	85.12
314.394	100.12
314.624	85.12
314.853	91.12
315.083	80.12
315.312	99.12
315.542	92.12
315.771	86.12
316.001	99.12
316.23	85.12
316.46	57.12
316.689	92.12
316.919	97.12
317.148	92.12
317.377	89.12
317.607	96.12
317.836	90.12
318.065	107.12
318.295	75.12
318.524	85.12
318.753	87.12
318.983	102.12
319.212	97.12
319.441	94.12
319.67	113.12
319.9	80.12
320.129	103.12
320.358	82.12
320.587	92.12
320.816	101.12
321.046	95.12
321.275	85.12
321.504	90.12
321.733	91.12
321.962	107.12
322.191	87.12
322.42	109.12
322.649	86.12
322.878	100.12
323.108	112.12
323.337	109.12
323.566	123.12
323.795	136.12
324.024	179.12
324.253	308.12
324.482	707.12
324.71	1395.12
324.939	1828.12
325.168	694.12
325.397	208.12
325.626	140.12
325.855	135.12
326.084	103.12
326.313	128.12
326.542	152.12
326.77	216.12
326.999	402.12
327.228	810.12
327.457	1417.12
327.686	1122.12
327.914	301.12
328.143	161.12
328.372	125.12
328.6	114.12
328.829	108.12
329.058	109.12
329.287	124.12
329.515	92.12
329.744	95.12
329.972	105.12
330.201	96.12
330.43	95.12
330.658	111.12
330.887	113.12
331.115	106.12
331.344	115.12
331.572	86.12
331.801	95.12
332.03	95.12
332.258	109.12
332.486	77.12
332.715	88.12
332.943	95.12
333.172	98.12
333.4	104.12
333.629	82.12
333.857	107.12
334.085	98.12
334.314	81.12
334.542	87.12
334.771	96.12
334.999	89.12
335.227	91.12
335.455	94.12
335.684	101.12
335.912	84.12
336.14	104.12
336.369	82.12
336.597	91.12
336.825	99.12
337.053	96.12
337.281	76.12
337.51	93.12
337.738	78.12
337.966	95.12
338.194	95.12
338.422	97.12
338.65	106.12
338.878	103.12
339.106	83.12
339.334	97.12
339.562	92.12
339.79	68.12
340.018	98.12
340.246	106.12
340.474	104.12
340.702	96.12
340.93	79.12
341.158	80.12
341.386	87.12
341.614	103.12
341.842	97.12
342.07	85.12
342.298	98.12
342.526	92.12
342.754	73.12
342.981	85.12
343.209	86.12
343.437	103.12
343.665	91.12
343.893	85.12
344.12	84.12
344.348	91.12
344.576	84.12
344.804	97.12
345.031	88.12
345.259	91.12
345.487	95.12
345.714	91.12
345.942	78.12
346.17	71.12
346.397	98.12
346.625	99.12
346.853	83.12
347.08	102.12
347.308	96.12
347.535	91.12
347.763	91.12
347.99	98.12
348.218	101.12
348.445	100.12
348.673	89.12
348.9	108.12
349.128	85.12
349.355	97.12
349.583	97.12
349.81	96.12
350.037	95.12
350.265	93.12
350.492	88.12
350.72	112.12
350.947	91.12
351.174	114.12
351.402	106.12
351.629	92.12
351.856	94.12
352.083	96.12
352.311	111.12
352.538	99.12
352.765	98.12
352.992	123.12
353.22	101.12
353.447	94.12
353.674	106.12
353.901	110.12
354.128	112.12
354.355	98.12
354.583	99.12
354.81	98.12
355.037	105.12
355.264	98.12
355.491	93.12
355.718	93.12
355.945	92.12
356.172	96.12
356.399	97.12
356.626	83.12
356.853	98.12
357.08	85.12
357.307	87.12
357.534	83.12
357.761	91.12
357.988	92.12
358.215	85.12
358.441	101.12
358.668	91.12
358.895	92.12
359.122	87.12
359.349	86.12
359.576	93.12
359.802	95.12
360.029	97.12
360.256	104.12
360.483	83.12
360.709	80.12
360.936	97.12
361.163	95.12
361.39	82.12
361.616	88.12
361.843	105.12
362.07	95.12
362.296	87.12
362.523	94.12
362.749	99.12
362.976	75.12
363.203	89.12
363.429	84.12
363.656	95.12
363.882	82.12
364.109	93.12
364.335	94.12
364.562	89.12
364.788	99.12
365.015	98.12
365.241	90.12
365.468	92.12
365.694	92.12
365.92	97.12
366.147	82.12
366.373	86.12
366.599	96.12
366.826	96.12
367.052	96.12
367.278	82.12
367.505	96.12
367.731	93.12
367.957	87.12
368.184	93.12
368.41	103.12
368.636	97.12
368.862	111.12
369.089	103.12
369.315	104.12
369.541	95.12
369.767	83.12
369.993	89.12
370.219	95.12
370.445	84.12
370.672	83.12
370.898	84.12
371.124	87.12
371.35	75.12
371.576	85.12
371.802	90.12
372.028	96.12
372.254	77.12
372.48	76.12
372.706	80.12
372.932	85.12
373.158	68.12
373.384	80.12
373.61	89.12
373.835	86.12
374.061	71.12
374.287	88.12
374.513	95.12
374.739	100.12
374.965	81.12
375.191	83.12
375.416	93.12
375.642	90.12
375.868	97.12
376.094	89.12
376.319	71.12
376.545	82.12
376.771	83.12
376.997	101.12
377.222	97.12
377.448	85.12
377.674	78.12
377.899	92.12
378.125	79.12
378.35	86.12
378.576	80.12
378.802	84.12
379.027	91.12
379.253	94.12
379.478	86.12
379.704	91.12
379.929	89.12
380.155	77.12
380.38	83.12
380.606	82.12
380.831	78.12
381.057	97.12
381.282	86.12
381.507	89.12
381.733	85.12
381.958	97.12
382.184	87.12
382.409	94.12
382.634	97.12
382.86	97.12
383.085	87.12
383.31	92.12
383.535	101.12
383.761	89.12
383.986	85.12
384.211	87.12
384.436	109.12
384.662	91.12
384.887	93.12
385.112	92.12
385.337	98.12
385.562	93.12
385.787	103.12
386.013	105.12
386.238	103.12
386.463	95.12
386.688	106.12
386.913	96.12
387.138	104.12
387.363	104.12
387.588	100.12
387.813	98.12
388.038	90.12
388.263	90.12
388.488	99.12
388.713	85.12
388.938	93.12
389.163	100.12
389.387	93.12
389.612	92.12
389.837	92.12
390.062	98.12
390.287	93.12
390.512	91.12
390.736	94.12
390.961	83.12
391.186	90.12
391.411	86.12
391.636	76.12
391.86	86.12
392.085	85.12
392.31	75.12
392.534	89.12
392.759	98.12
392.984	89.12
393.208	89.12
393.433	95.12
393.658	90.12
393.882	92.12
394.107	75.12
394.331	83.12
394.556	78.12
394.78	101.12
395.005	84.12
395.229	92.12
395.454	82.12
395.678	93.12
395.903	85.12
396.127	68.12
396.352	87.12
396.576	76.12
396.801	84.12
397.025	78.12
397.249	88.12
397.474	96.12
397.698	79.12
397.922	87.12
398.147	87.12
398.371	71.12
398.595	76.12
398.82	92.12
399.044	85.12
399.268	83.12
399.492	87.12
399.717	101.12
399.941	91.12
400.165	92.12
400.389	93.12
400.613	86.12
400.837	113.12
401.062	90.12
401.286	89.12
401.51	84.12
401.734	92.12
401.958	93.12
402.182	109.12
402.406	132.12
402.63	99.12
402.854	91.12
403.078	76.12
403.302	82.12
403.526	77.12
403.75	93.12
403.974	79.12
404.198	78.12
404.422	78.12
404.645	83.12
404.869	89.12
405.093	74.12
405.317	96.12
405.541	94.12
405.765	90.12
405.988	123.12
406.212	161.12
406.436	207.12
406.66	136.12
406.883	94.12
407.107	97.12
407.331	83.12
407.555	90.12
407.778	103.12
408.002	87.12
408.226	110.12
408.449	92.12
408.673	76.12
408.896	87.12
409.12	105.12
409.344	89.12
409.567	97.12
409.791	95.12
410.014	105.12
410.238	93.12
410.461	82.12
410.685	81.12
410.908	98.12
411.132	104.12
411.355	91.12
411.578	94.12
411.802	83.12
412.025	82.12
412.249	84.12
412.472	73.12
412.695	80.12
412.919	94.12
413.142	93.12
413.365	94.12
413.589	81.12
413.812	81.12
414.035	91.12
414.258	96.12
414.482	103.12
414.705	93.12
414.928	94.12
415.151	85.12
415.374	90.12
415.597	90.12
415.821	87.12
416.044	95.12
416.267	90.12
416.49	80.12
416.713	69.12
416.936	80.12
417.159	81.12
417.382	82.12
417.605	89.12
417.828	82.12
418.051	85.12
418.274	81.12
418.497	77.12
418.72	79.12
418.943	79.12
419.166	84.12
419.389	79.12
419.611	79.12
419.834	92.12
420.057	92.12
420.28	91.12
420.503	67.12
420.726	79.12
420.948	87.12
421.171	93.12
421.394	99.12
421.617	79.12
421.839	87.12
422.062	80.12
422.285	90.12
422.507	93.12
422.73	98.12
422.953	89.12
423.175	89.12
423.398	89.12
423.621	90.12
423.843	76.12
424.066	78.12
424.288	101.12
424.511	103.12
424.733	84.12
424.956	92.12
425.178	103.12
425.401	91.12
425.623	84.12
425.846	106.12
426.068	88.12
426.291	71.12
426.513	78.12
426.735	95.12
426.958	77.12
427.18	112.12
427.402	100.12
427.625	140.12
427.847	115.12
428.069	105.12
428.292	108.12
428.514	77.12
428.736	81.12
428.958	84.12
429.181	76.12
429.403	77.12
429.625	91.12
429.847	76.12
430.069	95.12
430.292	66.12
430.514	84.12
430.736	76.12
430.958	82.12
431.18	77.12
431.402	67.12
431.624	79.12
431.846	90.12
432.068	93.12
432.29	83.12
432.512	85.12
432.734	67.12
432.956	79.12
433.178	97.12
433.4	87.12
433.622	84.12
433.844	95.12
434.066	104.12
434.287	85.12
434.509	93.12
434.731	82.12
434.953	93.12
435.175	87.12
435.397	84.12
435.618	87.12
435.84	91.12
436.062	108.12
436.284	108.12
436.505	95.12
436.727	92.12
436.949	93.12
437.17	83.12
437.392	76.12
437.614	88.12
437.835	116.12
438.057	99.12
438.278	98.12
438.5	98.12
438.721	95.12
438.943	97.12
439.165	79.12
439.386	79.12
439.608	102.12
439.829	105.12
440.05	103.12
440.272	121.12
440.493	88.12
440.715	83.12
440.936	75.12
441.158	93.12
441.379	92.12
441.6	93.12
441.822	90.12
442.043	98.12
442.264	92.12
442.486	99.12
442.707	89.12
442.928	92.12
443.149	114.12
443.371	125.12
443.592	104.12
443.813	97.12
444.034	99.12
444.255	88.12
444.476	81.12
444.698	73.12
444.919	78.12
445.14	121.12
445.361	111.12
445.582	103.12
445.803	101.12
446.024	122.12
446.245	133.12
446.466	97.12
446.687	81.12
446.908	76.12
447.129	89.12
447.35	89.12
447.571	83.12
447.792	66.12
448.013	90.12
448.234	103.12
448.455	82.12
448.675	113.12
448.896	99.12
449.117	94.12
449.338	105.12
449.559	107.12
449.779	114.12
450	91.12
450.221	94.12
450.442	73.12
450.662	96.12
450.883	103.12
451.104	105.12
451.324	74.12
451.545	81.12
451.766	84.12
451.986	81.12
452.207	102.12
452.428	85.12
452.648	103.12
452.869	120.12
453.089	111.12
453.31	102.12
453.53	80.12
453.751	96.12
453.971	89.12
454.192	102.12
454.412	82.12
454.633	89.12
454.853	96.12
455.073	95.12
455.294	64.12
455.514	102.12
455.734	85.12
455.955	79.12
456.175	81.12
456.395	80.12
456.616	81.12
456.836	74.12
457.056	96.12
457.276	80.12
457.497	71.12
457.717	93.12
457.937	83.12
458.157	99.12
458.377	93.12
458.598	109.12
458.818	139.12
459.038	143.12
459.258	109.12
459.478	86.12
459.698	87.12
459.918	92.12
460.138	101.12
460.358	83.12
460.578	88.12
460.798	89.12
461.018	79.12
461.238	73.12
461.458	88.12
461.678	100.12
461.898	82.12
462.118	80.12
462.338	84.12
462.558	79.12
462.777	73.12
462.997	80.12
463.217	73.12
463.437	84.12
463.657	67.12
463.876	78.12
464.096	107.12
464.316	79.12
464.536	84.12
464.755	93.12
464.975	106.12
465.195	135.12
465.414	142.12
465.634	83.12
465.854	83.12
466.073	90.12
466.293	74.12
466.512	81.12
466.732	74.12
466.951	96.12
467.171	102.12
467.391	95.12
467.61	105.12
467.829	99.12
468.049	103.12
468.268	84.12
468.488	75.12
468.707	98.12
468.927	84.12
469.146	82.12
469.365	94.12
469.585	89.12
469.804	90.12
470.023	92.12
470.243	78.12
470.462	94.12
470.681	101.12
470.901	92.12
471.12	84.12
471.339	98.12
471.558	89.12
471.777	75.12
471.997	87.12
472.216	77.12
472.435	93.12
472.654	89.12
472.873	87.12
473.092	83.12
473.311	88.12
473.53	87.12
473.749	95.12
473.968	103.12
474.187	98.12
474.406	87.12
474.625	77.12
474.844	81.12
475.063	74.12
475.282	75.12
475.501	74.12
475.72	85.12
475.939	76.12
476.158	104.12
476.377	79.12
476.596	89.12
476.814	95.12
477.033	102.12
477.252	90.12
477.471	98.12
477.69	87.12
477.908	88.12
478.127	96.12
478.346	94.12
478.564	87.12
478.783	88.12
479.002	96.12
479.22	95.12
479.439	103.12
479.658	83.12
479.876	91.12
480.095	84.12
480.313	89.12
480.532	86.12
480.751	87.12
480.969	92.12
481.188	86.12
481.406	101.12
481.624	87.12
481.843	75.12
482.061	88.12
482.28	82.12
482.498	85.12
482.717	90.12
482.935	80.12
483.153	87.12
483.372	98.12
483.59	100.12
483.808	91.12
484.027	84.12
484.245	91.12
484.463	78.12
484.681	108.12
484.9	99.12
485.118	97.12
485.336	108.12
485.554	92.12
485.772	114.12
485.99	99.12
486.209	111.12
486.427	88.12
486.645	102.12
486.863	113.12
487.081	98.12
487.299	101.12
487.517	92.12
487.735	76.12
487.953	98.12
488.171	91.12
488.389	98.12
488.607	98.12
488.825	90.12
489.043	89.12
489.261	98.12
489.479	93.12
489.696	86.12
489.914	85.12
490.132	77.12
490.35	73.12
490.568	82.12
490.786	94.12
491.003	92.12
491.221	91.12
491.439	90.12
491.657	88.12
491.874	78.12
492.092	76.12
492.31	90.12
492.527	75.12
492.745	95.12
492.963	83.12
493.18	84.12
493.398	99.12
493.615	103.12
493.833	98.12
494.05	82.12
494.268	102.12
494.485	91.12
494.703	87.12
494.92	79.12
495.138	90.12
495.355	100.12
495.573	87.12
495.79	87.12
496.008	87.12
496.225	98.12
496.442	87.12
496.66	98.12
496.877	90.12
497.094	85.12
497.312	92.12
497.529	90.12
497.746	92.12
497.963	112.12
498.181	90.12
498.398	94.12
498.615	106.12
498.832	105.12
499.049	82.12
499.267	79.12
499.484	89.12
499.701	80.12
499.918	79.12
500.135	73.12
500.352	90.12
500.569	77.12
500.786	87.12
501.003	76.12
501.22	87.12
501.437	76.12
501.654	79.12
501.871	107.12
502.088	76.12
502.305	90.12
502.522	88.12
502.739	84.12
502.956	96.12
503.172	78.12
503.389	88.12
503.606	92.12
503.823	92.12
504.04	87.12
504.256	99.12
504.473	103.12
504.69	91.12
504.907	97.12
505.123	81.12
505.34	95.12
505.557	81.12
505.773	90.12
505.99	85.12
506.207	84.12
506.423	71.12
506.64	77.12
506.856	84.12
507.073	97.12
507.289	94.12
507.506	91.12
507.722	92.12
507.939	108.12
508.155	93.12
508.372	100.12
508.588	102.12
508.805	91.12
509.021	83.12
509.238	95.12
509.454	91.12
509.67	110.12
509.887	121.12
510.103	127.12
510.319	186.12
510.536	723.12
510.752	2065.12
510.968	566.12
511.184	177.12
511.401	116.12
511.617	87.12
511.833	102.12
512.049	89.12
512.265	99.12
512.481	89.12
512.698	83.12
512.914	103.12
513.13	84.12
513.346	80.12
513.562	95.12
513.778	107.12
513.994	89.12
514.21	85.12
514.426	100.12
514.642	129.12
514.858	112.12
515.074	147.12
515.29	407.12
515.506	1221.12
515.721	459.12
515.937	137.12
516.153	104.12
516.369	81.12
516.585	100.12
516.801	77.12
517.016	85.12
