Data from Uncirc_1992_H10_HRD10591_00015.txt Node
Date: Wed Jan 03 11:46:19 EST 2024
User: Yrep
Spectrometer: HR+D1059
Trigger mode: 1
Integration Time (sec): 1.000000E-1
Scans to average: 1
Electric dark correction enabled: true
Nonlinearity correction enabled: false
Boxcar width: 0
XAxis mode: Wavelengths
Number of Pixels in Spectrum: 2048
>>>>>Begin Spectral Data<<<<<
223.165	-7.38
223.4	-7.38
223.635	-7.38
223.869	-12.38
224.104	-12.38
224.338	-22.38
224.573	-12.38
224.808	-23.38
225.042	-0.38
225.277	3.62
225.511	-4.38
225.746	5.62
225.98	-9.38
226.215	9.62
226.449	13.62
226.683	21.62
226.918	21.62
227.152	28.62
227.387	26.62
227.621	45.62
227.856	54.62
228.09	45.62
228.324	59.62
228.559	58.62
228.793	53.62
229.027	75.62
229.262	73.62
229.496	66.62
229.73	90.62
229.964	70.62
230.199	65.62
230.433	77.62
230.667	74.62
230.901	77.62
231.136	78.62
231.37	81.62
231.604	77.62
231.838	75.62
232.072	81.62
232.306	74.62
232.541	100.62
232.775	83.62
233.009	86.62
233.243	84.62
233.477	89.62
233.711	75.62
233.945	66.62
234.179	80.62
234.413	67.62
234.647	81.62
234.881	71.62
235.115	70.62
235.349	85.62
235.583	78.62
235.817	84.62
236.051	83.62
236.285	79.62
236.519	81.62
236.753	82.62
236.987	61.62
237.221	77.62
237.455	76.62
237.689	53.62
237.922	80.62
238.156	70.62
238.39	73.62
238.624	71.62
238.858	65.62
239.091	73.62
239.325	86.62
239.559	84.62
239.793	91.62
240.027	81.62
240.26	77.62
240.494	84.62
240.728	62.62
240.961	95.62
241.195	84.62
241.429	87.62
241.662	78.62
241.896	79.62
242.13	75.62
242.363	73.62
242.597	68.62
242.83	86.62
243.064	81.62
243.298	78.62
243.531	78.62
243.765	83.62
243.998	85.62
244.232	87.62
244.465	83.62
244.699	81.62
244.932	80.62
245.166	90.62
245.399	79.62
245.633	77.62
245.866	71.62
246.099	81.62
246.333	71.62
246.566	94.62
246.8	79.62
247.033	75.62
247.266	86.62
247.5	77.62
247.733	94.62
247.966	72.62
248.2	77.62
248.433	66.62
248.666	80.62
248.899	87.62
249.133	93.62
249.366	93.62
249.599	80.62
249.832	74.62
250.066	91.62
250.299	98.62
250.532	66.62
250.765	87.62
250.998	71.62
251.231	82.62
251.465	79.62
251.698	68.62
251.931	85.62
252.164	91.62
252.397	93.62
252.63	77.62
252.863	83.62
253.096	84.62
253.329	75.62
253.562	83.62
253.795	87.62
254.028	85.62
254.261	84.62
254.494	75.62
254.727	80.62
254.96	89.62
255.193	80.62
255.426	80.62
255.659	76.62
255.892	83.62
256.124	83.62
256.357	80.62
256.59	83.62
256.823	89.62
257.056	95.62
257.289	88.62
257.521	81.62
257.754	77.62
257.987	77.62
258.22	95.62
258.452	73.62
258.685	74.62
258.918	97.62
259.151	90.62
259.383	84.62
259.616	90.62
259.849	78.62
260.081	85.62
260.314	90.62
260.547	83.62
260.779	85.62
261.012	77.62
261.244	84.62
261.477	91.62
261.71	89.62
261.942	111.62
262.175	93.62
262.407	81.62
262.64	85.62
262.872	82.62
263.105	87.62
263.337	91.62
263.57	96.62
263.802	73.62
264.035	78.62
264.267	91.62
264.499	78.62
264.732	81.62
264.964	84.62
265.197	83.62
265.429	79.62
265.661	68.62
265.894	77.62
266.126	93.62
266.358	84.62
266.591	79.62
266.823	100.62
267.055	66.62
267.287	83.62
267.52	80.62
267.752	87.62
267.984	85.62
268.216	78.62
268.448	80.62
268.681	84.62
268.913	89.62
269.145	91.62
269.377	91.62
269.609	79.62
269.841	87.62
270.073	84.62
270.306	85.62
270.538	85.62
270.77	84.62
271.002	86.62
271.234	76.62
271.466	78.62
271.698	77.62
271.93	80.62
272.162	92.62
272.394	66.62
272.626	70.62
272.858	70.62
273.09	83.62
273.322	89.62
273.553	94.62
273.785	77.62
274.017	82.62
274.249	90.62
274.481	92.62
274.713	87.62
274.945	86.62
275.176	74.62
275.408	97.62
275.64	82.62
275.872	84.62
276.104	86.62
276.335	103.62
276.567	94.62
276.799	105.62
277.031	89.62
277.262	87.62
277.494	85.62
277.726	92.62
277.957	83.62
278.189	77.62
278.421	96.62
278.652	85.62
278.884	95.62
279.115	93.62
279.347	73.62
279.579	95.62
279.81	89.62
280.042	91.62
280.273	79.62
280.505	96.62
280.736	88.62
280.968	94.62
281.199	90.62
281.431	91.62
281.662	86.62
281.894	95.62
282.125	90.62
282.356	112.62
282.588	119.62
282.819	116.62
283.051	92.62
283.282	82.62
283.513	97.62
283.745	92.62
283.976	83.62
284.207	101.62
284.439	99.62
284.67	94.62
284.901	83.62
285.132	94.62
285.364	75.62
285.595	102.62
285.826	90.62
286.057	87.62
286.288	85.62
286.52	94.62
286.751	93.62
286.982	78.62
287.213	89.62
287.444	87.62
287.675	93.62
287.906	89.62
288.138	94.62
288.369	93.62
288.6	89.62
288.831	87.62
289.062	97.62
289.293	89.62
289.524	82.62
289.755	98.62
289.986	94.62
290.217	77.62
290.448	87.62
290.679	91.62
290.91	85.62
291.141	90.62
291.371	91.62
291.602	102.62
291.833	75.62
292.064	104.62
292.295	74.62
292.526	86.62
292.757	97.62
292.987	83.62
293.218	94.62
293.449	101.62
293.68	103.62
293.91	84.62
294.141	95.62
294.372	85.62
294.603	78.62
294.833	89.62
295.064	84.62
295.295	83.62
295.525	95.62
295.756	101.62
295.987	108.62
296.217	132.62
296.448	114.62
296.679	94.62
296.909	83.62
297.14	87.62
297.37	97.62
297.601	81.62
297.831	90.62
298.062	83.62
298.292	90.62
298.523	91.62
298.753	85.62
298.984	97.62
299.214	90.62
299.445	85.62
299.675	96.62
299.905	103.62
300.136	87.62
300.366	93.62
300.597	87.62
300.827	88.62
301.057	86.62
301.288	100.62
301.518	70.62
301.748	72.62
301.979	109.62
302.209	98.62
302.439	91.62
302.669	102.62
302.9	74.62
303.13	87.62
303.36	93.62
303.59	95.62
303.82	94.62
304.051	95.62
304.281	93.62
304.511	97.62
304.741	95.62
304.971	99.62
305.201	94.62
305.431	98.62
305.661	89.62
305.891	95.62
306.121	98.62
306.352	106.62
306.582	93.62
306.812	91.62
307.042	105.62
307.272	92.62
307.502	96.62
307.731	80.62
307.961	99.62
308.191	93.62
308.421	95.62
308.651	84.62
308.881	87.62
309.111	81.62
309.341	92.62
309.571	94.62
309.8	93.62
310.03	90.62
310.26	105.62
310.49	98.62
310.72	91.62
310.949	111.62
311.179	98.62
311.409	98.62
311.639	102.62
311.868	91.62
312.098	93.62
312.328	115.62
312.557	93.62
312.787	100.62
313.017	94.62
313.246	98.62
313.476	86.62
313.706	99.62
313.935	94.62
314.165	103.62
314.394	105.62
314.624	97.62
314.853	102.62
315.083	95.62
315.312	108.62
315.542	89.62
315.771	89.62
316.001	91.62
316.23	94.62
316.46	89.62
316.689	84.62
316.919	87.62
317.148	79.62
317.377	102.62
317.607	70.62
317.836	84.62
318.065	84.62
318.295	92.62
318.524	91.62
318.753	88.62
318.983	90.62
319.212	98.62
319.441	106.62
319.67	100.62
319.9	107.62
320.129	87.62
320.358	99.62
320.587	98.62
320.816	102.62
321.046	100.62
321.275	106.62
321.504	81.62
321.733	94.62
321.962	101.62
322.191	88.62
322.42	97.62
322.649	110.62
322.878	116.62
323.108	103.62
323.337	116.62
323.566	105.62
323.795	133.62
324.024	178.62
324.253	315.62
324.482	673.62
324.71	1321.62
324.939	1703.62
325.168	665.62
325.397	208.62
325.626	139.62
325.855	124.62
326.084	108.62
326.313	110.62
326.542	144.62
326.77	195.62
326.999	393.62
327.228	779.62
327.457	1346.62
327.686	1076.62
327.914	297.62
328.143	177.62
328.372	125.62
328.6	116.62
328.829	110.62
329.058	127.62
329.287	126.62
329.515	109.62
329.744	94.62
329.972	101.62
330.201	106.62
330.43	116.62
330.658	126.62
330.887	120.62
331.115	109.62
331.344	98.62
331.572	73.62
331.801	101.62
332.03	100.62
332.258	94.62
332.486	90.62
332.715	92.62
332.943	92.62
333.172	101.62
333.4	100.62
333.629	100.62
333.857	102.62
334.085	107.62
334.314	89.62
334.542	89.62
334.771	101.62
334.999	110.62
335.227	92.62
335.455	93.62
335.684	81.62
335.912	92.62
336.14	85.62
336.369	92.62
336.597	105.62
336.825	101.62
337.053	95.62
337.281	89.62
337.51	91.62
337.738	93.62
337.966	99.62
338.194	101.62
338.422	90.62
338.65	89.62
338.878	88.62
339.106	81.62
339.334	93.62
339.562	85.62
339.79	91.62
340.018	86.62
340.246	75.62
340.474	92.62
340.702	87.62
340.93	97.62
341.158	86.62
341.386	95.62
341.614	83.62
341.842	89.62
342.07	86.62
342.298	102.62
342.526	98.62
342.754	88.62
342.981	77.62
343.209	98.62
343.437	99.62
343.665	92.62
343.893	102.62
344.12	85.62
344.348	98.62
344.576	102.62
344.804	97.62
345.031	94.62
345.259	95.62
345.487	96.62
345.714	96.62
345.942	86.62
346.17	84.62
346.397	104.62
346.625	106.62
346.853	91.62
347.08	87.62
347.308	76.62
347.535	89.62
347.763	104.62
347.99	99.62
348.218	94.62
348.445	100.62
348.673	98.62
348.9	98.62
349.128	109.62
349.355	96.62
349.583	95.62
349.81	90.62
350.037	86.62
350.265	96.62
350.492	90.62
350.72	103.62
350.947	96.62
351.174	114.62
351.402	109.62
351.629	104.62
351.856	71.62
352.083	98.62
352.311	99.62
352.538	107.62
352.765	109.62
352.992	113.62
353.22	107.62
353.447	94.62
353.674	83.62
353.901	81.62
354.128	89.62
354.355	96.62
354.583	83.62
354.81	104.62
355.037	106.62
355.264	99.62
355.491	103.62
355.718	78.62
355.945	104.62
356.172	98.62
356.399	107.62
356.626	100.62
356.853	89.62
357.08	100.62
357.307	91.62
357.534	85.62
357.761	94.62
357.988	96.62
358.215	88.62
358.441	109.62
358.668	91.62
358.895	94.62
359.122	87.62
359.349	89.62
359.576	90.62
359.802	84.62
360.029	100.62
360.256	101.62
360.483	100.62
360.709	74.62
360.936	99.62
361.163	100.62
361.39	104.62
361.616	93.62
361.843	81.62
362.07	84.62
362.296	90.62
362.523	99.62
362.749	99.62
362.976	103.62
363.203	96.62
363.429	80.62
363.656	92.62
363.882	99.62
364.109	96.62
364.335	94.62
364.562	81.62
364.788	97.62
365.015	100.62
365.241	101.62
365.468	112.62
365.694	102.62
365.92	94.62
366.147	80.62
366.373	87.62
366.599	89.62
366.826	93.62
367.052	97.62
367.278	76.62
367.505	84.62
367.731	98.62
367.957	89.62
368.184	96.62
368.41	119.62
368.636	104.62
368.862	111.62
369.089	104.62
369.315	114.62
369.541	81.62
369.767	83.62
369.993	86.62
370.219	88.62
370.445	79.62
370.672	95.62
370.898	83.62
371.124	84.62
371.35	89.62
371.576	84.62
371.802	74.62
372.028	95.62
372.254	94.62
372.48	96.62
372.706	93.62
372.932	91.62
373.158	95.62
373.384	95.62
373.61	91.62
373.835	92.62
374.061	91.62
374.287	89.62
374.513	92.62
374.739	93.62
374.965	98.62
375.191	98.62
375.416	87.62
375.642	91.62
375.868	94.62
376.094	86.62
376.319	91.62
376.545	90.62
376.771	93.62
376.997	89.62
377.222	87.62
377.448	99.62
377.674	107.62
377.899	100.62
378.125	98.62
378.35	82.62
378.576	84.62
378.802	91.62
379.027	86.62
379.253	94.62
379.478	107.62
379.704	98.62
379.929	93.62
380.155	99.62
380.38	93.62
380.606	84.62
380.831	97.62
381.057	97.62
381.282	91.62
381.507	93.62
381.733	96.62
381.958	108.62
382.184	91.62
382.409	87.62
382.634	98.62
382.86	102.62
383.085	100.62
383.31	97.62
383.535	95.62
383.761	101.62
383.986	95.62
384.211	92.62
384.436	105.62
384.662	90.62
384.887	96.62
385.112	86.62
385.337	91.62
385.562	99.62
385.787	94.62
386.013	92.62
386.238	108.62
386.463	96.62
386.688	113.62
386.913	113.62
387.138	110.62
387.363	91.62
387.588	98.62
387.813	92.62
388.038	94.62
388.263	110.62
388.488	109.62
388.713	97.62
388.938	89.62
389.163	93.62
389.387	96.62
389.612	102.62
389.837	94.62
390.062	85.62
390.287	98.62
390.512	98.62
390.736	88.62
390.961	95.62
391.186	92.62
391.411	97.62
391.636	105.62
391.86	94.62
392.085	91.62
392.31	96.62
392.534	85.62
392.759	93.62
392.984	89.62
393.208	107.62
393.433	93.62
393.658	113.62
393.882	97.62
394.107	75.62
394.331	95.62
394.556	91.62
394.78	90.62
395.005	73.62
395.229	81.62
395.454	82.62
395.678	80.62
395.903	93.62
396.127	79.62
396.352	86.62
396.576	93.62
396.801	97.62
397.025	76.62
397.249	93.62
397.474	86.62
397.698	82.62
397.922	99.62
398.147	78.62
398.371	93.62
398.595	86.62
398.82	85.62
399.044	69.62
399.268	90.62
399.492	87.62
399.717	84.62
399.941	107.62
400.165	77.62
400.389	81.62
400.613	100.62
400.837	91.62
401.062	92.62
401.286	83.62
401.51	95.62
401.734	79.62
401.958	97.62
402.182	113.62
402.406	157.62
402.63	115.62
402.854	93.62
403.078	77.62
403.302	79.62
403.526	87.62
403.75	99.62
403.974	77.62
404.198	71.62
404.422	83.62
404.645	83.62
404.869	89.62
405.093	84.62
405.317	97.62
405.541	99.62
405.765	95.62
405.988	108.62
406.212	141.62
406.436	207.62
406.66	140.62
406.883	84.62
407.107	89.62
407.331	82.62
407.555	89.62
407.778	92.62
408.002	83.62
408.226	81.62
408.449	81.62
408.673	84.62
408.896	97.62
409.12	96.62
409.344	91.62
409.567	90.62
409.791	90.62
410.014	101.62
410.238	103.62
410.461	90.62
410.685	104.62
410.908	98.62
411.132	82.62
411.355	103.62
411.578	102.62
411.802	82.62
412.025	81.62
412.249	80.62
412.472	97.62
412.695	102.62
412.919	78.62
413.142	89.62
413.365	103.62
413.589	89.62
413.812	86.62
414.035	84.62
414.258	92.62
414.482	95.62
414.705	101.62
414.928	91.62
415.151	99.62
415.374	92.62
415.597	96.62
415.821	95.62
416.044	101.62
416.267	97.62
416.49	89.62
416.713	71.62
416.936	79.62
417.159	79.62
417.382	98.62
417.605	96.62
417.828	79.62
418.051	90.62
418.274	95.62
418.497	76.62
418.72	81.62
418.943	87.62
419.166	81.62
419.389	102.62
419.611	95.62
419.834	94.62
420.057	79.62
420.28	81.62
420.503	87.62
420.726	78.62
420.948	92.62
421.171	90.62
421.394	94.62
421.617	94.62
421.839	80.62
422.062	89.62
422.285	93.62
422.507	102.62
422.73	105.62
422.953	94.62
423.175	90.62
423.398	92.62
423.621	100.62
423.843	94.62
424.066	77.62
424.288	62.62
424.511	87.62
424.733	84.62
424.956	75.62
425.178	92.62
425.401	81.62
425.623	103.62
425.846	82.62
426.068	90.62
426.291	91.62
426.513	90.62
426.735	79.62
426.958	89.62
427.18	100.62
427.402	120.62
427.625	140.62
427.847	108.62
428.069	89.62
428.292	90.62
428.514	92.62
428.736	84.62
428.958	93.62
429.181	92.62
429.403	95.62
429.625	90.62
429.847	93.62
430.069	92.62
430.292	87.62
430.514	85.62
430.736	77.62
430.958	87.62
431.18	88.62
431.402	100.62
431.624	73.62
431.846	86.62
432.068	85.62
432.29	93.62
432.512	105.62
432.734	95.62
432.956	82.62
433.178	89.62
433.4	92.62
433.622	89.62
433.844	91.62
434.066	96.62
434.287	83.62
434.509	83.62
434.731	81.62
434.953	94.62
435.175	94.62
435.397	93.62
435.618	92.62
435.84	102.62
436.062	117.62
436.284	100.62
436.505	97.62
436.727	89.62
436.949	96.62
437.17	86.62
437.392	96.62
437.614	100.62
437.835	105.62
438.057	102.62
438.278	98.62
438.5	113.62
438.721	114.62
438.943	101.62
439.165	87.62
439.386	88.62
439.608	105.62
439.829	103.62
440.05	108.62
440.272	134.62
440.493	88.62
440.715	80.62
440.936	110.62
441.158	96.62
441.379	80.62
441.6	78.62
441.822	95.62
442.043	95.62
442.264	88.62
442.486	91.62
442.707	92.62
442.928	109.62
443.149	118.62
443.371	112.62
443.592	98.62
443.813	107.62
444.034	102.62
444.255	81.62
444.476	76.62
444.698	89.62
444.919	90.62
445.14	132.62
445.361	122.62
445.582	102.62
445.803	135.62
446.024	111.62
446.245	107.62
446.466	106.62
446.687	95.62
446.908	101.62
447.129	78.62
447.35	95.62
447.571	101.62
447.792	102.62
448.013	101.62
448.234	109.62
448.455	97.62
448.675	93.62
448.896	109.62
449.117	85.62
449.338	98.62
449.559	113.62
449.779	125.62
450	99.62
450.221	95.62
450.442	78.62
450.662	100.62
450.883	107.62
451.104	125.62
451.324	98.62
451.545	88.62
451.766	79.62
451.986	91.62
452.207	93.62
452.428	102.62
452.648	102.62
452.869	107.62
453.089	92.62
453.31	107.62
453.53	89.62
453.751	93.62
453.971	100.62
454.192	106.62
454.412	82.62
454.633	85.62
454.853	103.62
455.073	85.62
455.294	87.62
455.514	96.62
455.734	94.62
455.955	82.62
456.175	93.62
456.395	81.62
456.616	83.62
456.836	81.62
457.056	89.62
457.276	79.62
457.497	85.62
457.717	77.62
457.937	91.62
458.157	88.62
458.377	94.62
458.598	102.62
458.818	143.62
459.038	141.62
459.258	98.62
459.478	82.62
459.698	72.62
459.918	91.62
460.138	87.62
460.358	85.62
460.578	106.62
460.798	89.62
461.018	89.62
461.238	84.62
461.458	87.62
461.678	85.62
461.898	95.62
462.118	93.62
462.338	82.62
462.558	79.62
462.777	80.62
462.997	76.62
463.217	82.62
463.437	86.62
463.657	74.62
463.876	93.62
464.096	88.62
464.316	87.62
464.536	95.62
464.755	105.62
464.975	105.62
465.195	128.62
465.414	138.62
465.634	97.62
465.854	92.62
466.073	77.62
466.293	106.62
466.512	89.62
466.732	83.62
466.951	90.62
467.171	90.62
467.391	103.62
467.61	98.62
467.829	94.62
468.049	88.62
468.268	84.62
468.488	93.62
468.707	86.62
468.927	71.62
469.146	85.62
469.365	77.62
469.585	85.62
469.804	100.62
470.023	96.62
470.243	95.62
470.462	97.62
470.681	105.62
470.901	97.62
471.12	107.62
471.339	91.62
471.558	92.62
471.777	81.62
471.997	81.62
472.216	90.62
472.435	80.62
472.654	87.62
472.873	102.62
473.092	86.62
473.311	82.62
473.53	81.62
473.749	97.62
473.968	89.62
474.187	102.62
474.406	83.62
474.625	69.62
474.844	83.62
475.063	95.62
475.282	82.62
475.501	100.62
475.72	95.62
475.939	84.62
476.158	93.62
476.377	101.62
476.596	101.62
476.814	93.62
477.033	87.62
477.252	93.62
477.471	86.62
477.69	90.62
477.908	83.62
478.127	84.62
478.346	84.62
478.564	86.62
478.783	93.62
479.002	89.62
479.22	96.62
479.439	95.62
479.658	88.62
479.876	88.62
480.095	85.62
480.313	88.62
480.532	90.62
480.751	79.62
480.969	84.62
481.188	95.62
481.406	85.62
481.624	75.62
481.843	86.62
482.061	83.62
482.28	94.62
482.498	85.62
482.717	95.62
482.935	81.62
483.153	107.62
483.372	93.62
483.59	97.62
483.808	87.62
484.027	103.62
484.245	96.62
484.463	84.62
484.681	90.62
484.9	85.62
485.118	109.62
485.336	98.62
485.554	107.62
485.772	107.62
485.99	107.62
486.209	114.62
486.427	106.62
486.645	118.62
486.863	127.62
487.081	110.62
487.299	93.62
487.517	97.62
487.735	87.62
487.953	78.62
488.171	94.62
488.389	93.62
488.607	93.62
488.825	102.62
489.043	86.62
489.261	79.62
489.479	84.62
489.696	82.62
489.914	92.62
490.132	93.62
490.35	91.62
490.568	84.62
490.786	101.62
491.003	83.62
491.221	90.62
491.439	85.62
491.657	95.62
491.874	109.62
492.092	87.62
492.31	89.62
492.527	89.62
492.745	112.62
492.963	101.62
493.18	96.62
493.398	91.62
493.615	96.62
493.833	105.62
494.05	104.62
494.268	93.62
494.485	97.62
494.703	92.62
494.92	104.62
495.138	100.62
495.355	108.62
495.573	86.62
495.79	81.62
496.008	90.62
496.225	89.62
496.442	84.62
496.66	92.62
496.877	76.62
497.094	98.62
497.312	95.62
497.529	83.62
497.746	89.62
497.963	85.62
498.181	99.62
498.398	94.62
498.615	105.62
498.832	83.62
499.049	95.62
499.267	107.62
499.484	86.62
499.701	74.62
499.918	91.62
500.135	95.62
500.352	81.62
500.569	78.62
500.786	88.62
501.003	95.62
501.22	83.62
501.437	89.62
501.654	89.62
501.871	103.62
502.088	95.62
502.305	80.62
502.522	87.62
502.739	107.62
502.956	89.62
503.172	86.62
503.389	106.62
503.606	94.62
503.823	93.62
504.04	88.62
504.256	99.62
504.473	85.62
504.69	88.62
504.907	91.62
505.123	97.62
505.34	93.62
505.557	101.62
505.773	99.62
505.99	99.62
506.207	101.62
506.423	94.62
506.64	98.62
506.856	100.62
507.073	90.62
507.289	110.62
507.506	91.62
507.722	114.62
507.939	117.62
508.155	106.62
508.372	98.62
508.588	99.62
508.805	101.62
509.021	84.62
509.238	87.62
509.454	107.62
509.67	103.62
509.887	111.62
510.103	126.62
510.319	189.62
510.536	691.62
510.752	2051.62
510.968	572.62
511.184	146.62
511.401	108.62
511.617	105.62
511.833	99.62
512.049	93.62
512.265	97.62
512.481	84.62
512.698	91.62
512.914	82.62
513.13	101.62
513.346	87.62
513.562	90.62
513.778	102.62
513.994	103.62
514.21	104.62
514.426	112.62
514.642	121.62
514.858	112.62
515.074	157.62
515.29	399.62
515.506	1244.62
515.721	469.62
515.937	141.62
