Data from Uncirc_1992_H10_HRD10591_00058.txt Node
Date: Wed Jan 03 11:46:27 EST 2024
User: Yrep
Spectrometer: HR+D1059
Trigger mode: 1
Integration Time (sec): 1.000000E-1
Scans to average: 1
Electric dark correction enabled: true
Nonlinearity correction enabled: false
Boxcar width: 0
XAxis mode: Wavelengths
Number of Pixels in Spectrum: 2048
>>>>>Begin Spectral Data<<<<<
223.165	-28
223.4	-28
223.635	-28
223.869	-13
224.104	-25
224.338	-21
224.573	-16
224.808	-6
225.042	-8
225.277	-11
225.511	-5
225.746	6
225.98	10
226.215	20
226.449	17
226.683	24
226.918	21
227.152	35
227.387	25
227.621	34
227.856	43
228.09	55
228.324	48
228.559	61
228.793	59
229.027	51
229.262	57
229.496	58
229.73	71
229.964	69
230.199	75
230.433	73
230.667	79
230.901	81
231.136	75
231.37	83
231.604	80
231.838	85
232.072	83
232.306	86
232.541	73
232.775	69
233.009	66
233.243	83
233.477	87
233.711	78
233.945	74
234.179	77
234.413	82
234.647	80
234.881	82
235.115	72
235.349	69
235.583	81
235.817	80
236.051	81
236.285	70
236.519	85
236.753	89
236.987	74
237.221	83
237.455	76
237.689	69
237.922	69
238.156	86
238.39	74
238.624	76
238.858	88
239.091	74
239.325	70
239.559	66
239.793	86
240.027	83
240.26	82
240.494	80
240.728	71
240.961	81
241.195	76
241.429	70
241.662	71
241.896	71
242.13	76
242.363	73
242.597	84
242.83	81
243.064	69
243.298	77
243.531	89
243.765	80
243.998	75
244.232	73
244.465	82
244.699	84
244.932	76
245.166	81
245.399	78
245.633	83
245.866	76
246.099	90
246.333	65
246.566	80
246.8	82
247.033	73
247.266	86
247.5	87
247.733	80
247.966	82
248.2	67
248.433	79
248.666	73
248.899	82
249.133	87
249.366	90
249.599	85
249.832	79
250.066	69
250.299	76
250.532	83
250.765	80
250.998	96
251.231	81
251.465	87
251.698	84
251.931	81
252.164	70
252.397	90
252.63	87
252.863	81
253.096	76
253.329	69
253.562	81
253.795	76
254.028	77
254.261	66
254.494	66
254.727	75
254.96	89
255.193	81
255.426	78
255.659	69
255.892	91
256.124	77
256.357	79
256.59	74
256.823	79
257.056	77
257.289	75
257.521	94
257.754	92
257.987	75
258.22	78
258.452	67
258.685	76
258.918	73
259.151	74
259.383	79
259.616	92
259.849	85
260.081	86
260.314	76
260.547	73
260.779	70
261.012	85
261.244	89
261.477	91
261.71	110
261.942	97
262.175	105
262.407	97
262.64	93
262.872	81
263.105	89
263.337	82
263.57	92
263.802	93
264.035	85
264.267	75
264.499	91
264.732	85
264.964	95
265.197	85
265.429	77
265.661	77
265.894	80
266.126	78
266.358	80
266.591	90
266.823	86
267.055	79
267.287	87
267.52	90
267.752	82
267.984	97
268.216	67
268.448	71
268.681	73
268.913	81
269.145	103
269.377	98
269.609	75
269.841	94
270.073	89
270.306	91
270.538	96
270.77	82
271.002	85
271.234	86
271.466	90
271.698	82
271.93	84
272.162	82
272.394	92
272.626	98
272.858	96
273.09	78
273.322	68
273.553	81
273.785	82
274.017	88
274.249	87
274.481	95
274.713	80
274.945	86
275.176	91
275.408	92
275.64	63
275.872	90
276.104	90
276.335	98
276.567	87
276.799	90
277.031	90
277.262	80
277.494	90
277.726	81
277.957	79
278.189	79
278.421	87
278.652	86
278.884	79
279.115	82
279.347	76
279.579	82
279.81	89
280.042	95
280.273	74
280.505	73
280.736	90
280.968	89
281.199	75
281.431	81
281.662	92
281.894	98
282.125	96
282.356	114
282.588	122
282.819	104
283.051	94
283.282	90
283.513	91
283.745	99
283.976	83
284.207	89
284.439	85
284.67	75
284.901	94
285.132	88
285.364	94
285.595	91
285.826	79
286.057	78
286.288	88
286.52	94
286.751	74
286.982	95
287.213	79
287.444	76
287.675	90
287.906	100
288.138	89
288.369	99
288.6	92
288.831	84
289.062	89
289.293	81
289.524	91
289.755	106
289.986	82
290.217	93
290.448	87
290.679	78
290.91	92
291.141	74
291.371	83
291.602	89
291.833	95
292.064	103
292.295	78
292.526	77
292.757	86
292.987	78
293.218	97
293.449	84
293.68	93
293.91	88
294.141	91
294.372	90
294.603	90
294.833	100
295.064	82
295.295	86
295.525	87
295.756	99
295.987	125
296.217	139
296.448	117
296.679	100
296.909	89
297.14	79
297.37	83
297.601	93
297.831	86
298.062	76
298.292	85
298.523	86
298.753	82
298.984	93
299.214	93
299.445	87
299.675	101
299.905	96
300.136	93
300.366	91
300.597	70
300.827	83
301.057	106
301.288	86
301.518	82
301.748	103
301.979	97
302.209	80
302.439	97
302.669	86
302.9	87
303.13	90
303.36	90
303.59	94
303.82	102
304.051	85
304.281	111
304.511	98
304.741	84
304.971	90
305.201	83
305.431	80
305.661	94
305.891	91
306.121	90
306.352	117
306.582	94
306.812	86
307.042	94
307.272	101
307.502	85
307.731	99
307.961	94
308.191	78
308.421	99
308.651	102
308.881	93
309.111	99
309.341	100
309.571	95
309.8	95
310.03	94
310.26	96
310.49	99
310.72	84
310.949	99
311.179	91
311.409	92
311.639	105
311.868	78
312.098	87
312.328	87
312.557	84
312.787	85
313.017	104
313.246	81
313.476	87
313.706	103
313.935	110
314.165	92
314.394	109
314.624	95
314.853	92
315.083	91
315.312	87
315.542	84
315.771	93
316.001	93
316.23	87
316.46	94
316.689	83
316.919	94
317.148	96
317.377	87
317.607	94
317.836	99
318.065	86
318.295	92
318.524	98
318.753	82
318.983	77
319.212	104
319.441	83
319.67	113
319.9	87
320.129	90
320.358	99
320.587	98
320.816	89
321.046	90
321.275	81
321.504	86
321.733	93
321.962	108
322.191	86
322.42	112
322.649	113
322.878	108
323.108	109
323.337	125
323.566	146
323.795	149
324.024	186
324.253	357
324.482	719
324.71	1423
324.939	1835
325.168	685
325.397	235
325.626	155
325.855	130
326.084	129
326.313	129
326.542	142
326.77	211
326.999	402
327.228	794
327.457	1421
327.686	1121
327.914	316
328.143	177
328.372	122
328.6	122
328.829	115
329.058	137
329.287	119
329.515	109
329.744	114
329.972	98
330.201	89
330.43	108
330.658	113
330.887	121
331.115	114
331.344	98
331.572	114
331.801	105
332.03	99
332.258	96
332.486	92
332.715	95
332.943	82
333.172	86
333.4	103
333.629	110
333.857	109
334.085	99
334.314	98
334.542	93
334.771	109
334.999	105
335.227	94
335.455	93
335.684	94
335.912	101
336.14	99
336.369	93
336.597	98
336.825	88
337.053	94
337.281	95
337.51	96
337.738	88
337.966	86
338.194	105
338.422	93
338.65	87
338.878	75
339.106	103
339.334	81
339.562	88
339.79	85
340.018	91
340.246	86
340.474	85
340.702	105
340.93	103
341.158	86
341.386	86
341.614	89
341.842	89
342.07	73
342.298	91
342.526	79
342.754	77
342.981	91
343.209	84
343.437	100
343.665	90
343.893	86
344.12	83
344.348	91
344.576	97
344.804	77
345.031	103
345.259	95
345.487	94
345.714	92
345.942	105
346.17	104
346.397	97
346.625	102
346.853	77
347.08	85
347.308	90
347.535	92
347.763	82
347.99	98
348.218	98
348.445	102
348.673	103
348.9	109
349.128	109
349.355	64
349.583	80
349.81	108
350.037	99
350.265	96
350.492	95
350.72	100
350.947	106
351.174	113
351.402	103
351.629	103
351.856	84
352.083	105
352.311	103
352.538	99
352.765	109
352.992	118
353.22	121
353.447	106
353.674	96
353.901	99
354.128	94
354.355	111
354.583	100
354.81	105
355.037	97
355.264	96
355.491	81
355.718	95
355.945	100
356.172	96
356.399	101
356.626	102
356.853	86
357.08	96
357.307	81
357.534	87
357.761	100
357.988	76
358.215	94
358.441	101
358.668	80
358.895	81
359.122	79
359.349	88
359.576	89
359.802	83
360.029	113
360.256	117
360.483	91
360.709	97
360.936	69
361.163	88
361.39	94
361.616	94
361.843	93
362.07	87
362.296	113
362.523	101
362.749	84
362.976	83
363.203	89
363.429	87
363.656	94
363.882	93
364.109	94
364.335	103
364.562	78
364.788	96
365.015	112
365.241	83
365.468	97
365.694	103
365.92	98
366.147	96
366.373	79
366.599	89
366.826	81
367.052	81
367.278	99
367.505	91
367.731	101
367.957	97
368.184	104
368.41	94
368.636	100
368.862	110
369.089	95
369.315	91
369.541	91
369.767	90
369.993	85
370.219	69
370.445	95
370.672	80
370.898	78
371.124	89
371.35	80
371.576	86
371.802	96
372.028	81
372.254	93
372.48	97
372.706	85
372.932	84
373.158	94
373.384	94
373.61	83
373.835	90
374.061	101
374.287	93
374.513	90
374.739	104
374.965	91
375.191	86
375.416	89
375.642	80
375.868	89
376.094	98
376.319	79
376.545	93
376.771	85
376.997	96
377.222	90
377.448	107
377.674	113
377.899	81
378.125	98
378.35	104
378.576	104
378.802	98
379.027	96
379.253	95
379.478	96
379.704	92
379.929	87
380.155	94
380.38	77
380.606	99
380.831	91
381.057	105
381.282	87
381.507	82
381.733	103
381.958	94
382.184	89
382.409	105
382.634	88
382.86	90
383.085	97
383.31	99
383.535	90
383.761	114
383.986	95
384.211	86
384.436	103
384.662	100
384.887	106
385.112	92
385.337	91
385.562	97
385.787	116
386.013	102
386.238	109
386.463	111
386.688	114
386.913	91
387.138	96
387.363	106
387.588	111
387.813	117
388.038	105
388.263	106
388.488	105
388.713	105
388.938	106
389.163	93
389.387	86
389.612	99
389.837	95
390.062	98
390.287	107
390.512	89
390.736	81
390.961	91
391.186	88
391.411	94
391.636	101
391.86	84
392.085	84
392.31	84
392.534	80
392.759	90
392.984	84
393.208	95
393.433	86
393.658	87
393.882	96
394.107	80
394.331	89
394.556	84
394.78	89
395.005	79
395.229	81
395.454	94
395.678	86
395.903	94
396.127	95
396.352	87
396.576	94
396.801	82
397.025	88
397.249	84
397.474	91
397.698	75
397.922	92
398.147	87
398.371	78
398.595	92
398.82	87
399.044	93
399.268	101
399.492	101
399.717	81
399.941	78
400.165	85
400.389	96
400.613	96
400.837	98
401.062	90
401.286	100
401.51	78
401.734	100
401.958	110
402.182	138
402.406	155
402.63	108
402.854	84
403.078	89
403.302	89
403.526	86
403.75	81
403.974	73
404.198	83
404.422	82
404.645	93
404.869	93
405.093	80
405.317	100
405.541	100
405.765	99
405.988	113
406.212	165
406.436	214
406.66	135
406.883	92
407.107	94
407.331	86
407.555	102
407.778	91
408.002	84
408.226	89
408.449	96
408.673	85
408.896	98
409.12	85
409.344	87
409.567	94
409.791	106
410.014	93
410.238	89
410.461	96
410.685	82
410.908	86
411.132	112
411.355	110
411.578	92
411.802	70
412.025	77
412.249	83
412.472	85
412.695	87
412.919	75
413.142	69
413.365	100
413.589	96
413.812	92
414.035	92
414.258	95
414.482	87
414.705	92
414.928	90
415.151	85
415.374	93
415.597	101
415.821	80
416.044	78
416.267	84
416.49	91
416.713	101
416.936	102
417.159	95
417.382	102
417.605	85
417.828	85
418.051	86
418.274	86
418.497	81
418.72	88
418.943	92
419.166	90
419.389	80
419.611	98
419.834	87
420.057	84
420.28	86
420.503	93
420.726	85
420.948	89
421.171	92
421.394	103
421.617	79
421.839	87
422.062	84
422.285	109
422.507	99
422.73	108
422.953	82
423.175	99
423.398	77
423.621	93
423.843	81
424.066	98
424.288	94
424.511	96
424.733	85
424.956	104
425.178	99
425.401	113
425.623	104
425.846	83
426.068	87
426.291	96
426.513	93
426.735	97
426.958	103
427.18	111
427.402	114
427.625	159
427.847	132
428.069	87
428.292	97
428.514	85
428.736	85
428.958	67
429.181	91
429.403	82
429.625	86
429.847	83
430.069	89
430.292	86
430.514	85
430.736	83
430.958	94
431.18	92
431.402	85
431.624	64
431.846	82
432.068	88
432.29	82
432.512	85
432.734	80
432.956	95
433.178	95
433.4	83
433.622	89
433.844	96
434.066	94
434.287	92
434.509	85
434.731	92
434.953	95
435.175	90
435.397	99
435.618	91
435.84	92
436.062	108
436.284	97
436.505	94
436.727	98
436.949	81
437.17	102
437.392	98
437.614	97
437.835	98
438.057	107
438.278	107
438.5	108
438.721	100
438.943	83
439.165	95
439.386	105
439.608	90
439.829	109
440.05	120
440.272	127
440.493	93
440.715	102
440.936	83
441.158	83
441.379	85
441.6	85
441.822	82
442.043	95
442.264	103
442.486	101
442.707	79
442.928	124
443.149	140
443.371	132
443.592	101
443.813	108
444.034	107
444.255	89
444.476	82
444.698	86
444.919	80
445.14	128
445.361	132
445.582	113
445.803	125
446.024	113
446.245	118
446.466	102
446.687	89
446.908	77
447.129	91
447.35	95
447.571	89
447.792	94
448.013	94
448.234	111
448.455	117
448.675	100
448.896	120
449.117	96
449.338	93
449.559	110
449.779	118
450	85
450.221	79
450.442	89
450.662	105
450.883	108
451.104	101
451.324	95
451.545	82
451.766	82
451.986	91
452.207	88
452.428	84
452.648	104
452.869	105
453.089	101
453.31	115
453.53	92
453.751	100
453.971	105
454.192	117
454.412	89
454.633	82
454.853	91
455.073	83
455.294	98
455.514	98
455.734	94
455.955	83
456.175	93
456.395	91
456.616	89
456.836	93
457.056	74
457.276	82
457.497	81
457.717	87
457.937	89
458.157	73
458.377	91
458.598	112
458.818	134
459.038	147
459.258	111
459.478	100
459.698	86
459.918	79
460.138	98
460.358	84
460.578	94
460.798	89
461.018	85
461.238	81
461.458	84
461.678	84
461.898	87
462.118	83
462.338	74
462.558	83
462.777	94
462.997	78
463.217	93
463.437	89
463.657	91
463.876	97
464.096	94
464.316	85
464.536	95
464.755	113
464.975	102
465.195	149
465.414	150
465.634	78
465.854	92
466.073	98
466.293	91
466.512	87
466.732	88
466.951	99
467.171	91
467.391	88
467.61	125
467.829	97
468.049	83
468.268	85
468.488	88
468.707	79
468.927	85
469.146	68
469.365	107
469.585	95
469.804	89
470.023	102
470.243	83
470.462	91
470.681	92
470.901	97
471.12	86
471.339	91
471.558	89
471.777	82
471.997	99
472.216	99
472.435	97
472.654	77
472.873	96
473.092	83
473.311	84
473.53	85
473.749	86
473.968	82
474.187	95
474.406	85
474.625	88
474.844	95
475.063	82
475.282	82
475.501	85
475.72	95
475.939	86
476.158	81
476.377	89
476.596	107
476.814	87
477.033	74
477.252	88
477.471	93
477.69	100
477.908	86
478.127	101
478.346	91
478.564	85
478.783	98
479.002	96
479.22	88
479.439	97
479.658	105
479.876	86
480.095	73
480.313	95
480.532	87
480.751	98
480.969	86
481.188	92
481.406	89
481.624	89
481.843	87
482.061	85
482.28	86
482.498	96
482.717	98
482.935	97
483.153	101
483.372	98
483.59	94
483.808	68
484.027	92
484.245	89
484.463	87
484.681	111
484.9	104
485.118	105
485.336	104
485.554	105
485.772	98
485.99	107
486.209	110
486.427	96
486.645	125
486.863	121
487.081	97
487.299	92
487.517	85
487.735	77
487.953	89
488.171	84
488.389	84
488.607	86
488.825	93
489.043	75
489.261	89
489.479	89
489.696	83
489.914	82
490.132	99
490.35	102
490.568	87
490.786	91
491.003	92
491.221	84
491.439	74
491.657	78
491.874	88
492.092	87
492.31	91
492.527	93
492.745	89
492.963	96
493.18	94
493.398	84
493.615	84
493.833	94
494.05	78
494.268	80
494.485	86
494.703	93
494.92	98
495.138	93
495.355	89
495.573	93
495.79	82
496.008	93
496.225	71
496.442	90
496.66	90
496.877	86
497.094	97
497.312	87
497.529	78
497.746	96
497.963	93
498.181	93
498.398	99
498.615	115
498.832	113
499.049	89
499.267	98
499.484	105
499.701	98
499.918	94
500.135	88
500.352	93
500.569	88
500.786	85
501.003	89
501.22	87
501.437	84
501.654	98
501.871	121
502.088	93
502.305	94
502.522	86
502.739	92
502.956	73
503.172	103
503.389	95
503.606	103
503.823	92
504.04	85
504.256	94
504.473	99
504.69	83
504.907	103
505.123	69
505.34	99
505.557	88
505.773	93
505.99	97
506.207	93
506.423	77
506.64	85
506.856	94
507.073	101
507.289	96
507.506	97
507.722	109
507.939	89
508.155	92
508.372	94
508.588	86
508.805	96
509.021	104
509.238	103
509.454	91
509.67	114
509.887	127
510.103	138
510.319	209
510.536	767
510.752	2260
510.968	612
511.184	149
511.401	112
511.617	103
511.833	92
512.049	94
512.265	99
512.481	105
512.698	101
512.914	92
513.13	95
513.346	97
513.562	83
513.778	84
513.994	122
514.21	86
514.426	113
514.642	125
514.858	120
515.074	157
515.29	447
515.506	1397
515.721	492
515.937	142
516.153	99
516.369	98
516.585	92
516.801	91
517.016	99
517.232	86
517.448	89
517.664	94
517.879	101
518.095	86
518.311	91
518.527	92
518.742	98
518.958	93
519.173	84
519.389	76
519.605	83
519.82	88
520.036	107
520.251	117
520.467	84
520.682	96
520.898	117
521.113	100
521.329	138
521.544	201
521.76	552
521.975	2313
522.19	1325
522.406	281
522.621	120
522.836	110
523.052	94
523.267	90
523.482	97
523.698	96
523.913	106
524.128	105
524.343	106
524.559	94
524.774	92
524.989	99
525.204	103
525.419	102
525.634	86
525.849	67
526.064	82
526.28	97
526.495	81
526.71	94
526.925	92
527.14	98
527.355	93
527.57	89
527.785	91
527.999	81
528.214	85
528.429	87
528.644	99
528.859	95
529.074	88
529.289	109
529.503	174
529.718	102
529.933	87
530.148	97
530.363	88
530.577	85
530.792	91
531.007	74
531.221	85
531.436	85
531.651	92
531.865	90
532.08	89
532.295	85
532.509	85
532.724	83
532.938	89
533.153	99
533.367	84
533.582	99
533.796	101
534.011	99
534.225	98
534.44	93
534.654	96
534.868	80
535.083	75
535.297	101
535.511	93
535.726	103
535.94	113
536.154	101
536.369	98
536.583	87
536.797	91
537.011	85
537.225	86
537.44	93
537.654	89
537.868	86
538.082	91
538.296	90
538.51	100
538.724	100
538.938	82
539.153	98
539.367	105
539.581	92
539.795	95
540.009	93
540.222	79
540.436	84
540.65	98
540.864	97
541.078	85
541.292	91
541.506	78
541.72	98
541.934	100
542.147	99
542.361	82
542.575	78
542.789	89
543.002	89
543.216	94
543.43	95
543.644	86
543.857	85
544.071	95
544.285	101
544.498	71
544.712	98
544.925	96
545.139	89
545.352	77
545.566	86
545.779	82
545.993	93
546.206	94
546.42	100
546.633	87
546.847	96
547.06	92
547.274	88
547.487	93
547.7	84
547.914	88
548.127	75
548.34	96
548.554	94
548.767	105
548.98	96
549.193	91
549.407	92
549.62	94
549.833	90
550.046	81
550.259	93
550.473	88
550.686	78
550.899	99
551.112	87
551.325	83
551.538	84
551.751	90
551.964	90
552.177	85
552.39	92
552.603	86
552.816	95
553.029	93
553.242	85
553.455	114
553.667	111
553.88	104
554.093	94
554.306	95
554.519	91
554.732	97
554.944	86
555.157	81
555.37	99
555.583	100
555.795	85
556.008	96
556.221	100
556.433	94
556.646	94
556.859	102
557.071	91
557.284	79
557.496	105
557.709	94
557.921	96
558.134	94
558.346	91
558.559	84
558.771	96
558.984	89
559.196	73
559.409	96
559.621	79
559.833	95
560.046	82
560.258	93
560.47	95
560.683	87
560.895	88
561.107	93
561.32	82
561.532	92
561.744	82
561.956	94
562.168	91
562.381	86
562.593	100
562.805	83
563.017	92
563.229	86
563.441	76
563.653	91
563.865	81
564.077	82
564.289	94
564.501	96
564.713	96
564.925	84
565.137	101
565.349	86
565.561	81
565.773	93
565.985	74
566.197	82
566.408	89
566.62	80
566.832	83
567.044	89
567.255	74
567.467	93
567.679	85
567.891	92
568.102	90
568.314	80
568.526	81
568.737	82
568.949	99
569.161	99
569.372	71
569.584	92
569.795	100
570.007	101
570.218	223
570.43	113
570.641	87
570.853	89
571.064	83
571.276	91
571.487	92
571.698	89
571.91	95
572.121	80
572.333	88
572.544	61
572.755	86
572.966	87
573.178	81
573.389	90
573.6	94
573.811	84
574.023	95
574.234	91
574.445	90
574.656	88
574.867	88
575.078	95
575.289	89
575.501	91
575.712	106
575.923	85
576.134	85
576.345	86
576.556	93
576.767	96
576.978	83
577.188	91
577.399	90
577.61	89
577.821	92
578.032	111
578.243	277
578.454	757
578.665	209
578.875	110
579.086	99
579.297	94
579.508	86
579.718	86
579.929	97
580.14	88
580.35	93
580.561	82
580.772	87
580.982	79
581.193	86
581.403	96
581.614	90
581.825	75
582.035	90
582.246	87
582.456	91
582.667	88
582.877	75
583.087	83
583.298	83
583.508	86
583.719	82
583.929	90
584.139	78
584.35	91
584.56	86
584.77	99
584.981	82
