Data from Uncirc_1992_H10_HRD10591_00054.txt Node
Date: Wed Jan 03 11:46:27 EST 2024
User: Yrep
Spectrometer: HR+D1059
Trigger mode: 1
Integration Time (sec): 1.000000E-1
Scans to average: 1
Electric dark correction enabled: true
Nonlinearity correction enabled: false
Boxcar width: 0
XAxis mode: Wavelengths
Number of Pixels in Spectrum: 2048
>>>>>Begin Spectral Data<<<<<
223.165	-15.62
223.4	-15.62
223.635	-15.62
223.869	-21.62
224.104	-8.62
224.338	-18.62
224.573	-16.62
224.808	-10.62
225.042	-4.62
225.277	-10.62
225.511	6.38
225.746	4.38
225.98	-11.62
226.215	26.38
226.449	21.38
226.683	7.38
226.918	27.38
227.152	25.38
227.387	26.38
227.621	53.38
227.856	41.38
228.09	60.38
228.324	48.38
228.559	70.38
228.793	51.38
229.027	60.38
229.262	58.38
229.496	85.38
229.73	85.38
229.964	70.38
230.199	81.38
230.433	100.38
230.667	84.38
230.901	82.38
231.136	85.38
231.37	84.38
231.604	85.38
231.838	84.38
232.072	89.38
232.306	87.38
232.541	102.38
232.775	66.38
233.009	80.38
233.243	86.38
233.477	78.38
233.711	73.38
233.945	83.38
234.179	92.38
234.413	77.38
234.647	73.38
234.881	82.38
235.115	89.38
235.349	84.38
235.583	93.38
235.817	82.38
236.051	75.38
236.285	81.38
236.519	85.38
236.753	72.38
236.987	96.38
237.221	79.38
237.455	81.38
237.689	76.38
237.922	77.38
238.156	78.38
238.39	88.38
238.624	79.38
238.858	70.38
239.091	72.38
239.325	81.38
239.559	86.38
239.793	77.38
240.027	83.38
240.26	81.38
240.494	87.38
240.728	81.38
240.961	69.38
241.195	84.38
241.429	83.38
241.662	75.38
241.896	82.38
242.13	86.38
242.363	82.38
242.597	96.38
242.83	81.38
243.064	81.38
243.298	80.38
243.531	65.38
243.765	77.38
243.998	85.38
244.232	105.38
244.465	67.38
244.699	85.38
244.932	78.38
245.166	88.38
245.399	83.38
245.633	80.38
245.866	78.38
246.099	86.38
246.333	75.38
246.566	78.38
246.8	92.38
247.033	63.38
247.266	67.38
247.5	75.38
247.733	78.38
247.966	71.38
248.2	75.38
248.433	83.38
248.666	79.38
248.899	91.38
249.133	93.38
249.366	94.38
249.599	81.38
249.832	84.38
250.066	78.38
250.299	85.38
250.532	76.38
250.765	76.38
250.998	89.38
251.231	93.38
251.465	72.38
251.698	83.38
251.931	89.38
252.164	76.38
252.397	81.38
252.63	84.38
252.863	80.38
253.096	81.38
253.329	80.38
253.562	86.38
253.795	78.38
254.028	100.38
254.261	88.38
254.494	82.38
254.727	103.38
254.96	84.38
255.193	73.38
255.426	79.38
255.659	85.38
255.892	78.38
256.124	94.38
256.357	73.38
256.59	89.38
256.823	84.38
257.056	86.38
257.289	78.38
257.521	72.38
257.754	74.38
257.987	91.38
258.22	93.38
258.452	80.38
258.685	79.38
258.918	91.38
259.151	70.38
259.383	99.38
259.616	88.38
259.849	84.38
260.081	86.38
260.314	83.38
260.547	69.38
260.779	87.38
261.012	75.38
261.244	79.38
261.477	85.38
261.71	83.38
261.942	104.38
262.175	111.38
262.407	91.38
262.64	75.38
262.872	67.38
263.105	93.38
263.337	85.38
263.57	84.38
263.802	79.38
264.035	76.38
264.267	89.38
264.499	95.38
264.732	80.38
264.964	83.38
265.197	82.38
265.429	80.38
265.661	81.38
265.894	80.38
266.126	78.38
266.358	93.38
266.591	88.38
266.823	89.38
267.055	81.38
267.287	97.38
267.52	93.38
267.752	92.38
267.984	87.38
268.216	85.38
268.448	78.38
268.681	73.38
268.913	84.38
269.145	75.38
269.377	93.38
269.609	86.38
269.841	79.38
270.073	82.38
270.306	98.38
270.538	85.38
270.77	80.38
271.002	94.38
271.234	92.38
271.466	86.38
271.698	86.38
271.93	95.38
272.162	75.38
272.394	88.38
272.626	101.38
272.858	87.38
273.09	95.38
273.322	88.38
273.553	79.38
273.785	94.38
274.017	80.38
274.249	84.38
274.481	88.38
274.713	93.38
274.945	101.38
275.176	92.38
275.408	91.38
275.64	99.38
275.872	97.38
276.104	98.38
276.335	81.38
276.567	96.38
276.799	95.38
277.031	93.38
277.262	89.38
277.494	91.38
277.726	94.38
277.957	91.38
278.189	79.38
278.421	83.38
278.652	80.38
278.884	89.38
279.115	86.38
279.347	93.38
279.579	79.38
279.81	78.38
280.042	85.38
280.273	82.38
280.505	86.38
280.736	96.38
280.968	85.38
281.199	84.38
281.431	90.38
281.662	92.38
281.894	68.38
282.125	96.38
282.356	107.38
282.588	123.38
282.819	117.38
283.051	89.38
283.282	72.38
283.513	84.38
283.745	76.38
283.976	94.38
284.207	81.38
284.439	88.38
284.67	92.38
284.901	93.38
285.132	88.38
285.364	82.38
285.595	83.38
285.826	79.38
286.057	89.38
286.288	85.38
286.52	83.38
286.751	72.38
286.982	83.38
287.213	72.38
287.444	83.38
287.675	98.38
287.906	99.38
288.138	81.38
288.369	109.38
288.6	100.38
288.831	94.38
289.062	88.38
289.293	87.38
289.524	91.38
289.755	99.38
289.986	77.38
290.217	95.38
290.448	79.38
290.679	87.38
290.91	87.38
291.141	83.38
291.371	87.38
291.602	82.38
291.833	88.38
292.064	77.38
292.295	92.38
292.526	85.38
292.757	102.38
292.987	92.38
293.218	93.38
293.449	97.38
293.68	84.38
293.91	75.38
294.141	81.38
294.372	79.38
294.603	86.38
294.833	90.38
295.064	96.38
295.295	96.38
295.525	95.38
295.756	97.38
295.987	104.38
296.217	123.38
296.448	121.38
296.679	93.38
296.909	100.38
297.14	81.38
297.37	92.38
297.601	85.38
297.831	77.38
298.062	80.38
298.292	87.38
298.523	89.38
298.753	98.38
298.984	101.38
299.214	89.38
299.445	93.38
299.675	99.38
299.905	92.38
300.136	91.38
300.366	90.38
300.597	81.38
300.827	106.38
301.057	102.38
301.288	91.38
301.518	92.38
301.748	95.38
301.979	104.38
302.209	88.38
302.439	78.38
302.669	93.38
302.9	88.38
303.13	88.38
303.36	104.38
303.59	118.38
303.82	90.38
304.051	87.38
304.281	83.38
304.511	101.38
304.741	96.38
304.971	99.38
305.201	87.38
305.431	101.38
305.661	88.38
305.891	94.38
306.121	104.38
306.352	99.38
306.582	100.38
306.812	100.38
307.042	84.38
307.272	95.38
307.502	98.38
307.731	92.38
307.961	101.38
308.191	91.38
308.421	100.38
308.651	100.38
308.881	93.38
309.111	93.38
309.341	97.38
309.571	103.38
309.8	90.38
310.03	109.38
310.26	93.38
310.49	89.38
310.72	91.38
310.949	99.38
311.179	91.38
311.409	95.38
311.639	86.38
311.868	89.38
312.098	112.38
312.328	99.38
312.557	91.38
312.787	91.38
313.017	89.38
313.246	70.38
313.476	94.38
313.706	92.38
313.935	88.38
314.165	100.38
314.394	101.38
314.624	89.38
314.853	97.38
315.083	98.38
315.312	88.38
315.542	88.38
315.771	98.38
316.001	108.38
316.23	92.38
316.46	96.38
316.689	84.38
316.919	100.38
317.148	97.38
317.377	99.38
317.607	91.38
317.836	96.38
318.065	99.38
318.295	93.38
318.524	91.38
318.753	96.38
318.983	87.38
319.212	89.38
319.441	109.38
319.67	95.38
319.9	108.38
320.129	86.38
320.358	81.38
320.587	101.38
320.816	104.38
321.046	102.38
321.275	108.38
321.504	99.38
321.733	93.38
321.962	105.38
322.191	104.38
322.42	105.38
322.649	102.38
322.878	119.38
323.108	115.38
323.337	117.38
323.566	123.38
323.795	147.38
324.024	183.38
324.253	342.38
324.482	680.38
324.71	1373.38
324.939	1752.38
325.168	658.38
325.397	232.38
325.626	141.38
325.855	121.38
326.084	132.38
326.313	128.38
326.542	143.38
326.77	213.38
326.999	395.38
327.228	744.38
327.457	1340.38
327.686	1071.38
327.914	293.38
328.143	183.38
328.372	126.38
328.6	125.38
328.829	115.38
329.058	116.38
329.287	112.38
329.515	112.38
329.744	103.38
329.972	88.38
330.201	99.38
330.43	101.38
330.658	110.38
330.887	121.38
331.115	115.38
331.344	97.38
331.572	95.38
331.801	104.38
332.03	101.38
332.258	117.38
332.486	91.38
332.715	84.38
332.943	87.38
333.172	108.38
333.4	83.38
333.629	95.38
333.857	105.38
334.085	97.38
334.314	93.38
334.542	93.38
334.771	87.38
334.999	111.38
335.227	111.38
335.455	101.38
335.684	112.38
335.912	102.38
336.14	88.38
336.369	86.38
336.597	116.38
336.825	103.38
337.053	109.38
337.281	93.38
337.51	104.38
337.738	92.38
337.966	82.38
338.194	90.38
338.422	79.38
338.65	95.38
338.878	72.38
339.106	100.38
339.334	96.38
339.562	102.38
339.79	93.38
340.018	105.38
340.246	102.38
340.474	91.38
340.702	107.38
340.93	100.38
341.158	97.38
341.386	93.38
341.614	100.38
341.842	103.38
342.07	96.38
342.298	93.38
342.526	97.38
342.754	106.38
342.981	88.38
343.209	91.38
343.437	98.38
343.665	88.38
343.893	93.38
344.12	89.38
344.348	97.38
344.576	100.38
344.804	90.38
345.031	99.38
345.259	106.38
345.487	95.38
345.714	102.38
345.942	99.38
346.17	110.38
346.397	93.38
346.625	96.38
346.853	86.38
347.08	101.38
347.308	95.38
347.535	103.38
347.763	99.38
347.99	104.38
348.218	93.38
348.445	102.38
348.673	104.38
348.9	90.38
349.128	108.38
349.355	100.38
349.583	100.38
349.81	97.38
350.037	88.38
350.265	87.38
350.492	96.38
350.72	93.38
350.947	105.38
351.174	111.38
351.402	110.38
351.629	94.38
351.856	102.38
352.083	103.38
352.311	86.38
352.538	104.38
352.765	101.38
352.992	113.38
353.22	108.38
353.447	103.38
353.674	95.38
353.901	92.38
354.128	95.38
354.355	91.38
354.583	94.38
354.81	81.38
355.037	87.38
355.264	92.38
355.491	96.38
355.718	95.38
355.945	85.38
356.172	87.38
356.399	83.38
356.626	111.38
356.853	92.38
357.08	97.38
357.307	89.38
357.534	93.38
357.761	75.38
357.988	96.38
358.215	101.38
358.441	95.38
358.668	92.38
358.895	95.38
359.122	82.38
359.349	87.38
359.576	98.38
359.802	96.38
360.029	105.38
360.256	104.38
360.483	98.38
360.709	84.38
360.936	95.38
361.163	91.38
361.39	108.38
361.616	94.38
361.843	95.38
362.07	88.38
362.296	99.38
362.523	81.38
362.749	83.38
362.976	100.38
363.203	87.38
363.429	92.38
363.656	94.38
363.882	86.38
364.109	89.38
364.335	82.38
364.562	95.38
364.788	98.38
365.015	93.38
365.241	103.38
365.468	118.38
365.694	105.38
365.92	93.38
366.147	73.38
366.373	80.38
366.599	94.38
366.826	89.38
367.052	82.38
367.278	77.38
367.505	105.38
367.731	117.38
367.957	95.38
368.184	104.38
368.41	98.38
368.636	97.38
368.862	110.38
369.089	97.38
369.315	104.38
369.541	99.38
369.767	92.38
369.993	89.38
370.219	90.38
370.445	94.38
370.672	93.38
370.898	94.38
371.124	101.38
371.35	105.38
371.576	96.38
371.802	93.38
372.028	92.38
372.254	87.38
372.48	86.38
372.706	84.38
372.932	81.38
373.158	84.38
373.384	99.38
373.61	76.38
373.835	97.38
374.061	91.38
374.287	74.38
374.513	94.38
374.739	89.38
374.965	85.38
375.191	84.38
375.416	90.38
375.642	73.38
375.868	82.38
376.094	91.38
376.319	89.38
376.545	99.38
376.771	85.38
376.997	105.38
377.222	99.38
377.448	115.38
377.674	90.38
377.899	84.38
378.125	95.38
378.35	84.38
378.576	97.38
378.802	85.38
379.027	87.38
379.253	89.38
379.478	97.38
379.704	82.38
379.929	92.38
380.155	102.38
380.38	100.38
380.606	101.38
380.831	111.38
381.057	108.38
381.282	100.38
381.507	110.38
381.733	73.38
381.958	103.38
382.184	98.38
382.409	92.38
382.634	82.38
382.86	108.38
383.085	98.38
383.31	110.38
383.535	104.38
383.761	103.38
383.986	108.38
384.211	109.38
384.436	95.38
384.662	105.38
384.887	92.38
385.112	98.38
385.337	88.38
385.562	102.38
385.787	98.38
386.013	115.38
386.238	99.38
386.463	107.38
386.688	93.38
386.913	99.38
387.138	89.38
387.363	92.38
387.588	103.38
387.813	114.38
388.038	98.38
388.263	104.38
388.488	109.38
388.713	110.38
388.938	103.38
389.163	103.38
389.387	88.38
389.612	99.38
389.837	90.38
390.062	86.38
390.287	107.38
390.512	103.38
390.736	98.38
390.961	81.38
391.186	94.38
391.411	88.38
391.636	99.38
391.86	89.38
392.085	72.38
392.31	89.38
392.534	84.38
392.759	99.38
392.984	91.38
393.208	87.38
393.433	87.38
393.658	90.38
393.882	83.38
394.107	82.38
394.331	82.38
394.556	86.38
394.78	76.38
395.005	85.38
395.229	95.38
395.454	95.38
395.678	100.38
395.903	86.38
396.127	91.38
396.352	88.38
396.576	102.38
396.801	99.38
397.025	105.38
397.249	90.38
397.474	92.38
397.698	89.38
397.922	85.38
398.147	86.38
398.371	94.38
398.595	91.38
398.82	87.38
399.044	92.38
399.268	105.38
399.492	105.38
399.717	92.38
399.941	90.38
400.165	96.38
400.389	84.38
400.613	92.38
400.837	92.38
401.062	94.38
401.286	81.38
401.51	97.38
401.734	85.38
401.958	115.38
402.182	130.38
402.406	140.38
402.63	106.38
402.854	94.38
403.078	88.38
403.302	90.38
403.526	82.38
403.75	88.38
403.974	96.38
404.198	93.38
404.422	96.38
404.645	82.38
404.869	90.38
405.093	86.38
405.317	103.38
405.541	92.38
405.765	85.38
405.988	125.38
406.212	171.38
406.436	211.38
406.66	125.38
406.883	97.38
407.107	93.38
407.331	94.38
407.555	96.38
407.778	81.38
408.002	90.38
408.226	95.38
408.449	86.38
408.673	92.38
408.896	83.38
409.12	80.38
409.344	97.38
409.567	99.38
409.791	102.38
410.014	103.38
410.238	96.38
410.461	91.38
410.685	95.38
410.908	102.38
411.132	101.38
411.355	92.38
411.578	85.38
411.802	95.38
412.025	96.38
412.249	83.38
412.472	87.38
412.695	83.38
412.919	95.38
413.142	80.38
413.365	87.38
413.589	91.38
413.812	111.38
414.035	108.38
414.258	77.38
414.482	92.38
414.705	111.38
414.928	104.38
415.151	91.38
415.374	91.38
415.597	89.38
415.821	101.38
416.044	101.38
416.267	85.38
416.49	102.38
416.713	92.38
416.936	95.38
417.159	96.38
417.382	89.38
417.605	81.38
417.828	104.38
418.051	97.38
418.274	94.38
418.497	91.38
418.72	72.38
418.943	87.38
419.166	78.38
419.389	88.38
419.611	97.38
419.834	87.38
420.057	103.38
420.28	86.38
420.503	95.38
420.726	92.38
420.948	89.38
421.171	95.38
421.394	82.38
421.617	95.38
421.839	90.38
422.062	102.38
422.285	96.38
422.507	100.38
422.73	103.38
422.953	99.38
423.175	96.38
423.398	81.38
423.621	81.38
423.843	82.38
424.066	92.38
424.288	88.38
424.511	100.38
424.733	94.38
424.956	101.38
425.178	90.38
425.401	99.38
425.623	114.38
425.846	80.38
426.068	97.38
426.291	88.38
426.513	80.38
426.735	98.38
426.958	99.38
427.18	99.38
427.402	130.38
427.625	140.38
427.847	116.38
428.069	101.38
428.292	86.38
428.514	100.38
428.736	86.38
428.958	72.38
429.181	96.38
429.403	91.38
429.625	88.38
429.847	88.38
430.069	80.38
430.292	89.38
430.514	81.38
430.736	81.38
430.958	92.38
431.18	87.38
431.402	87.38
431.624	81.38
431.846	79.38
432.068	85.38
432.29	85.38
432.512	85.38
432.734	79.38
432.956	91.38
433.178	93.38
433.4	100.38
433.622	94.38
433.844	92.38
434.066	108.38
434.287	94.38
434.509	97.38
434.731	100.38
434.953	84.38
435.175	89.38
435.397	84.38
435.618	79.38
435.84	101.38
436.062	112.38
436.284	108.38
436.505	105.38
436.727	94.38
436.949	93.38
437.17	91.38
437.392	87.38
437.614	96.38
437.835	111.38
438.057	108.38
438.278	103.38
438.5	95.38
438.721	120.38
438.943	107.38
439.165	81.38
439.386	86.38
439.608	98.38
439.829	103.38
440.05	107.38
440.272	140.38
440.493	91.38
440.715	83.38
440.936	84.38
441.158	85.38
441.379	85.38
441.6	86.38
441.822	93.38
442.043	103.38
442.264	90.38
442.486	84.38
442.707	100.38
442.928	104.38
443.149	125.38
443.371	131.38
443.592	108.38
443.813	100.38
444.034	118.38
444.255	92.38
444.476	105.38
444.698	96.38
444.919	100.38
445.14	124.38
445.361	103.38
445.582	115.38
445.803	121.38
446.024	124.38
446.245	115.38
446.466	107.38
446.687	86.38
446.908	94.38
447.129	101.38
447.35	115.38
447.571	101.38
447.792	100.38
448.013	98.38
448.234	114.38
448.455	97.38
448.675	106.38
448.896	113.38
449.117	105.38
449.338	103.38
449.559	124.38
449.779	122.38
450	96.38
450.221	91.38
450.442	109.38
450.662	84.38
450.883	97.38
451.104	124.38
451.324	86.38
451.545	90.38
451.766	80.38
451.986	97.38
452.207	93.38
452.428	84.38
452.648	100.38
452.869	106.38
453.089	105.38
453.31	115.38
453.53	91.38
453.751	100.38
453.971	96.38
454.192	115.38
454.412	80.38
454.633	99.38
454.853	88.38
455.073	99.38
455.294	95.38
455.514	104.38
455.734	84.38
455.955	99.38
456.175	90.38
456.395	84.38
456.616	108.38
456.836	111.38
457.056	93.38
457.276	79.38
457.497	70.38
457.717	93.38
457.937	95.38
458.157	96.38
458.377	98.38
458.598	101.38
458.818	143.38
459.038	143.38
459.258	97.38
459.478	105.38
459.698	89.38
459.918	88.38
460.138	82.38
460.358	84.38
460.578	93.38
460.798	94.38
461.018	105.38
461.238	96.38
461.458	88.38
461.678	93.38
461.898	83.38
462.118	92.38
462.338	93.38
462.558	76.38
462.777	83.38
462.997	96.38
463.217	101.38
463.437	98.38
463.657	85.38
463.876	70.38
464.096	87.38
464.316	88.38
464.536	103.38
464.755	99.38
464.975	116.38
465.195	155.38
465.414	144.38
465.634	91.38
465.854	80.38
466.073	94.38
466.293	97.38
466.512	97.38
466.732	96.38
466.951	100.38
467.171	84.38
467.391	91.38
467.61	92.38
467.829	110.38
468.049	87.38
468.268	91.38
468.488	91.38
468.707	91.38
468.927	92.38
469.146	83.38
469.365	98.38
469.585	94.38
469.804	92.38
470.023	100.38
470.243	88.38
470.462	92.38
470.681	113.38
470.901	95.38
471.12	76.38
471.339	81.38
471.558	86.38
471.777	98.38
471.997	101.38
472.216	86.38
472.435	99.38
472.654	91.38
472.873	99.38
473.092	99.38
473.311	87.38
473.53	73.38
473.749	81.38
473.968	97.38
474.187	111.38
474.406	92.38
474.625	87.38
474.844	77.38
475.063	88.38
475.282	93.38
475.501	87.38
475.72	96.38
475.939	88.38
476.158	86.38
476.377	106.38
476.596	113.38
476.814	99.38
477.033	95.38
477.252	110.38
477.471	95.38
477.69	87.38
477.908	93.38
478.127	95.38
478.346	97.38
478.564	87.38
478.783	95.38
479.002	91.38
479.22	93.38
479.439	97.38
479.658	105.38
479.876	83.38
480.095	102.38
480.313	80.38
480.532	96.38
480.751	94.38
480.969	87.38
481.188	99.38
481.406	111.38
481.624	95.38
481.843	99.38
482.061	103.38
482.28	89.38
482.498	96.38
482.717	101.38
482.935	85.38
483.153	89.38
483.372	87.38
483.59	103.38
483.808	84.38
484.027	90.38
484.245	102.38
484.463	96.38
484.681	109.38
484.9	93.38
485.118	99.38
485.336	85.38
485.554	105.38
485.772	96.38
485.99	111.38
486.209	101.38
486.427	104.38
486.645	107.38
486.863	113.38
487.081	109.38
487.299	97.38
487.517	97.38
487.735	91.38
487.953	80.38
488.171	106.38
488.389	94.38
488.607	104.38
488.825	105.38
489.043	88.38
489.261	95.38
489.479	86.38
489.696	83.38
489.914	92.38
490.132	97.38
490.35	85.38
490.568	93.38
490.786	92.38
491.003	86.38
491.221	87.38
491.439	75.38
491.657	81.38
491.874	88.38
492.092	101.38
492.31	87.38
492.527	99.38
492.745	96.38
492.963	93.38
493.18	99.38
493.398	103.38
493.615	94.38
493.833	97.38
494.05	93.38
494.268	101.38
494.485	88.38
494.703	91.38
494.92	98.38
495.138	99.38
495.355	109.38
495.573	104.38
495.79	84.38
496.008	96.38
496.225	100.38
496.442	88.38
496.66	101.38
496.877	101.38
497.094	97.38
497.312	87.38
497.529	87.38
497.746	104.38
497.963	91.38
498.181	97.38
498.398	91.38
498.615	115.38
498.832	111.38
499.049	94.38
499.267	94.38
499.484	88.38
499.701	112.38
499.918	95.38
500.135	81.38
500.352	94.38
500.569	111.38
500.786	85.38
501.003	95.38
501.22	94.38
501.437	84.38
501.654	100.38
501.871	100.38
502.088	100.38
502.305	65.38
502.522	80.38
502.739	79.38
502.956	103.38
503.172	98.38
503.389	105.38
503.606	110.38
503.823	93.38
504.04	75.38
504.256	95.38
504.473	94.38
504.69	101.38
504.907	90.38
505.123	91.38
505.34	93.38
505.557	100.38
505.773	92.38
505.99	87.38
506.207	104.38
506.423	95.38
506.64	84.38
506.856	93.38
507.073	93.38
507.289	100.38
507.506	95.38
507.722	101.38
507.939	108.38
508.155	103.38
508.372	80.38
508.588	104.38
508.805	95.38
509.021	86.38
509.238	89.38
509.454	92.38
509.67	92.38
509.887	107.38
510.103	129.38
510.319	193.38
510.536	704.38
510.752	2081.38
510.968	565.38
511.184	141.38
511.401	95.38
511.617	104.38
511.833	87.38
512.049	98.38
512.265	103.38
512.481	76.38
512.698	94.38
512.914	91.38
513.13	87.38
513.346	98.38
513.562	86.38
513.778	93.38
513.994	95.38
514.21	95.38
514.426	117.38
514.642	136.38
514.858	122.38
515.074	160.38
