Data from Uncirc_1992_H10_HRD10591_00059.txt Node
Date: Wed Jan 03 11:46:28 EST 2024
User: Yrep
Spectrometer: HR+D1059
Trigger mode: 1
Integration Time (sec): 1.000000E-1
Scans to average: 1
Electric dark correction enabled: true
Nonlinearity correction enabled: false
Boxcar width: 0
XAxis mode: Wavelengths
Number of Pixels in Spectrum: 2048
>>>>>Begin Spectral Data<<<<<
223.165	-22.81
223.4	-22.81
223.635	-22.81
223.869	-21.81
224.104	-20.81
224.338	1.19
224.573	-10.81
224.808	-14.81
225.042	-8.81
225.277	1.19
225.511	2.19
225.746	-6.81
225.98	8.19
226.215	11.19
226.449	11.19
226.683	17.19
226.918	23.19
227.152	31.19
227.387	39.19
227.621	46.19
227.856	57.19
228.09	57.19
228.324	56.19
228.559	52.19
228.793	52.19
229.027	69.19
229.262	79.19
229.496	63.19
229.73	82.19
229.964	77.19
230.199	83.19
230.433	70.19
230.667	91.19
230.901	62.19
231.136	92.19
231.37	85.19
231.604	73.19
231.838	76.19
232.072	85.19
232.306	84.19
232.541	80.19
232.775	70.19
233.009	83.19
233.243	69.19
233.477	89.19
233.711	75.19
233.945	79.19
234.179	73.19
234.413	73.19
234.647	75.19
234.881	83.19
235.115	77.19
235.349	82.19
235.583	91.19
235.817	94.19
236.051	81.19
236.285	92.19
236.519	83.19
236.753	83.19
236.987	62.19
237.221	75.19
237.455	73.19
237.689	73.19
237.922	66.19
238.156	76.19
238.39	77.19
238.624	77.19
238.858	84.19
239.091	93.19
239.325	81.19
239.559	87.19
239.793	68.19
240.027	68.19
240.26	73.19
240.494	86.19
240.728	89.19
240.961	73.19
241.195	82.19
241.429	82.19
241.662	71.19
241.896	83.19
242.13	76.19
242.363	70.19
242.597	70.19
242.83	72.19
243.064	88.19
243.298	94.19
243.531	90.19
243.765	68.19
243.998	64.19
244.232	83.19
244.465	87.19
244.699	79.19
244.932	79.19
245.166	70.19
245.399	74.19
245.633	85.19
245.866	81.19
246.099	77.19
246.333	73.19
246.566	70.19
246.8	77.19
247.033	74.19
247.266	92.19
247.5	74.19
247.733	91.19
247.966	82.19
248.2	75.19
248.433	79.19
248.666	74.19
248.899	79.19
249.133	78.19
249.366	95.19
249.599	77.19
249.832	76.19
250.066	69.19
250.299	79.19
250.532	73.19
250.765	71.19
250.998	88.19
251.231	89.19
251.465	91.19
251.698	87.19
251.931	89.19
252.164	74.19
252.397	67.19
252.63	78.19
252.863	77.19
253.096	67.19
253.329	75.19
253.562	89.19
253.795	68.19
254.028	83.19
254.261	91.19
254.494	90.19
254.727	100.19
254.96	92.19
255.193	84.19
255.426	77.19
255.659	95.19
255.892	73.19
256.124	68.19
256.357	83.19
256.59	72.19
256.823	73.19
257.056	79.19
257.289	84.19
257.521	81.19
257.754	81.19
257.987	82.19
258.22	83.19
258.452	83.19
258.685	73.19
258.918	77.19
259.151	66.19
259.383	70.19
259.616	69.19
259.849	83.19
260.081	91.19
260.314	78.19
260.547	81.19
260.779	89.19
261.012	83.19
261.244	84.19
261.477	93.19
261.71	93.19
261.942	109.19
262.175	104.19
262.407	77.19
262.64	89.19
262.872	77.19
263.105	66.19
263.337	98.19
263.57	83.19
263.802	86.19
264.035	93.19
264.267	84.19
264.499	84.19
264.732	81.19
264.964	77.19
265.197	86.19
265.429	91.19
265.661	92.19
265.894	94.19
266.126	85.19
266.358	86.19
266.591	98.19
266.823	90.19
267.055	87.19
267.287	87.19
267.52	80.19
267.752	78.19
267.984	80.19
268.216	82.19
268.448	82.19
268.681	96.19
268.913	83.19
269.145	82.19
269.377	91.19
269.609	89.19
269.841	94.19
270.073	83.19
270.306	81.19
270.538	81.19
270.77	74.19
271.002	87.19
271.234	74.19
271.466	89.19
271.698	82.19
271.93	83.19
272.162	82.19
272.394	99.19
272.626	93.19
272.858	81.19
273.09	79.19
273.322	85.19
273.553	87.19
273.785	93.19
274.017	70.19
274.249	63.19
274.481	77.19
274.713	92.19
274.945	84.19
275.176	89.19
275.408	78.19
275.64	80.19
275.872	82.19
276.104	78.19
276.335	89.19
276.567	96.19
276.799	104.19
277.031	85.19
277.262	96.19
277.494	91.19
277.726	84.19
277.957	70.19
278.189	93.19
278.421	85.19
278.652	80.19
278.884	83.19
279.115	89.19
279.347	84.19
279.579	90.19
279.81	85.19
280.042	85.19
280.273	86.19
280.505	84.19
280.736	84.19
280.968	93.19
281.199	85.19
281.431	97.19
281.662	88.19
281.894	82.19
282.125	89.19
282.356	121.19
282.588	148.19
282.819	111.19
283.051	92.19
283.282	86.19
283.513	85.19
283.745	96.19
283.976	101.19
284.207	85.19
284.439	98.19
284.67	71.19
284.901	97.19
285.132	84.19
285.364	91.19
285.595	98.19
285.826	62.19
286.057	99.19
286.288	81.19
286.52	81.19
286.751	74.19
286.982	90.19
287.213	94.19
287.444	86.19
287.675	85.19
287.906	76.19
288.138	98.19
288.369	105.19
288.6	77.19
288.831	99.19
289.062	82.19
289.293	75.19
289.524	89.19
289.755	82.19
289.986	91.19
290.217	85.19
290.448	73.19
290.679	85.19
290.91	86.19
291.141	69.19
291.371	97.19
291.602	85.19
291.833	98.19
292.064	92.19
292.295	95.19
292.526	85.19
292.757	82.19
292.987	87.19
293.218	71.19
293.449	94.19
293.68	85.19
293.91	94.19
294.141	97.19
294.372	93.19
294.603	85.19
294.833	86.19
295.064	82.19
295.295	83.19
295.525	98.19
295.756	91.19
295.987	101.19
296.217	131.19
296.448	115.19
296.679	101.19
296.909	79.19
297.14	98.19
297.37	85.19
297.601	86.19
297.831	86.19
298.062	95.19
298.292	80.19
298.523	85.19
298.753	95.19
298.984	83.19
299.214	86.19
299.445	89.19
299.675	81.19
299.905	85.19
300.136	96.19
300.366	87.19
300.597	88.19
300.827	90.19
301.057	96.19
301.288	95.19
301.518	98.19
301.748	85.19
301.979	96.19
302.209	97.19
302.439	89.19
302.669	89.19
302.9	92.19
303.13	87.19
303.36	96.19
303.59	94.19
303.82	100.19
304.051	104.19
304.281	81.19
304.511	88.19
304.741	81.19
304.971	90.19
305.201	87.19
305.431	96.19
305.661	75.19
305.891	100.19
306.121	96.19
306.352	98.19
306.582	96.19
306.812	79.19
307.042	94.19
307.272	99.19
307.502	80.19
307.731	86.19
307.961	82.19
308.191	99.19
308.421	100.19
308.651	82.19
308.881	101.19
309.111	89.19
309.341	86.19
309.571	97.19
309.8	93.19
310.03	103.19
310.26	80.19
310.49	102.19
310.72	97.19
310.949	96.19
311.179	102.19
311.409	106.19
311.639	89.19
311.868	92.19
312.098	105.19
312.328	91.19
312.557	117.19
312.787	99.19
313.017	86.19
313.246	83.19
313.476	99.19
313.706	87.19
313.935	101.19
314.165	101.19
314.394	71.19
314.624	102.19
314.853	86.19
315.083	87.19
315.312	80.19
315.542	81.19
315.771	89.19
316.001	86.19
316.23	91.19
316.46	92.19
316.689	94.19
316.919	92.19
317.148	100.19
317.377	91.19
317.607	83.19
317.836	83.19
318.065	86.19
318.295	97.19
318.524	89.19
318.753	91.19
318.983	95.19
319.212	91.19
319.441	106.19
319.67	115.19
319.9	100.19
320.129	100.19
320.358	92.19
320.587	78.19
320.816	90.19
321.046	83.19
321.275	85.19
321.504	83.19
321.733	89.19
321.962	94.19
322.191	103.19
322.42	109.19
322.649	99.19
322.878	106.19
323.108	112.19
323.337	117.19
323.566	133.19
323.795	151.19
324.024	179.19
324.253	320.19
324.482	643.19
324.71	1307.19
324.939	1727.19
325.168	667.19
325.397	189.19
325.626	128.19
325.855	121.19
326.084	120.19
326.313	119.19
326.542	128.19
326.77	189.19
326.999	384.19
327.228	771.19
327.457	1331.19
327.686	1051.19
327.914	318.19
328.143	146.19
328.372	130.19
328.6	103.19
328.829	102.19
329.058	106.19
329.287	122.19
329.515	98.19
329.744	98.19
329.972	106.19
330.201	101.19
330.43	114.19
330.658	117.19
330.887	111.19
331.115	94.19
331.344	88.19
331.572	91.19
331.801	98.19
332.03	102.19
332.258	108.19
332.486	87.19
332.715	82.19
332.943	108.19
333.172	102.19
333.4	91.19
333.629	96.19
333.857	109.19
334.085	98.19
334.314	93.19
334.542	96.19
334.771	95.19
334.999	96.19
335.227	75.19
335.455	109.19
335.684	103.19
335.912	97.19
336.14	98.19
336.369	99.19
336.597	84.19
336.825	98.19
337.053	107.19
337.281	89.19
337.51	92.19
337.738	85.19
337.966	104.19
338.194	94.19
338.422	85.19
338.65	91.19
338.878	86.19
339.106	95.19
339.334	89.19
339.562	89.19
339.79	93.19
340.018	86.19
340.246	78.19
340.474	85.19
340.702	95.19
340.93	98.19
341.158	98.19
341.386	85.19
341.614	83.19
341.842	84.19
342.07	84.19
342.298	90.19
342.526	97.19
342.754	71.19
342.981	80.19
343.209	79.19
343.437	94.19
343.665	100.19
343.893	99.19
344.12	94.19
344.348	94.19
344.576	85.19
344.804	94.19
345.031	87.19
345.259	94.19
345.487	99.19
345.714	94.19
345.942	100.19
346.17	91.19
346.397	82.19
346.625	99.19
346.853	84.19
347.08	80.19
347.308	101.19
347.535	96.19
347.763	85.19
347.99	95.19
348.218	92.19
348.445	90.19
348.673	97.19
348.9	101.19
349.128	91.19
349.355	102.19
349.583	85.19
349.81	81.19
350.037	93.19
350.265	88.19
350.492	95.19
350.72	99.19
350.947	99.19
351.174	108.19
351.402	107.19
351.629	106.19
351.856	109.19
352.083	102.19
352.311	105.19
352.538	111.19
352.765	109.19
352.992	113.19
353.22	111.19
353.447	102.19
353.674	98.19
353.901	106.19
354.128	101.19
354.355	90.19
354.583	85.19
354.81	114.19
355.037	100.19
355.264	93.19
355.491	97.19
355.718	97.19
355.945	101.19
356.172	101.19
356.399	88.19
356.626	98.19
356.853	90.19
357.08	89.19
357.307	100.19
357.534	92.19
357.761	91.19
357.988	92.19
358.215	94.19
358.441	92.19
358.668	83.19
358.895	94.19
359.122	90.19
359.349	91.19
359.576	91.19
359.802	94.19
360.029	108.19
360.256	107.19
360.483	96.19
360.709	81.19
360.936	93.19
361.163	108.19
361.39	86.19
361.616	95.19
361.843	87.19
362.07	98.19
362.296	87.19
362.523	91.19
362.749	102.19
362.976	90.19
363.203	85.19
363.429	80.19
363.656	79.19
363.882	93.19
364.109	95.19
364.335	86.19
364.562	80.19
364.788	82.19
365.015	84.19
365.241	89.19
365.468	114.19
365.694	85.19
365.92	90.19
366.147	97.19
366.373	81.19
366.599	95.19
366.826	91.19
367.052	101.19
367.278	101.19
367.505	74.19
367.731	94.19
367.957	86.19
368.184	99.19
368.41	101.19
368.636	101.19
368.862	107.19
369.089	89.19
369.315	77.19
369.541	95.19
369.767	77.19
369.993	82.19
370.219	85.19
370.445	85.19
370.672	94.19
370.898	85.19
371.124	88.19
371.35	77.19
371.576	84.19
371.802	100.19
372.028	93.19
372.254	92.19
372.48	97.19
372.706	86.19
372.932	83.19
373.158	86.19
373.384	85.19
373.61	87.19
373.835	86.19
374.061	80.19
374.287	92.19
374.513	79.19
374.739	93.19
374.965	92.19
375.191	62.19
375.416	96.19
375.642	83.19
375.868	98.19
376.094	85.19
376.319	94.19
376.545	82.19
376.771	81.19
376.997	93.19
377.222	93.19
377.448	96.19
377.674	86.19
377.899	84.19
378.125	84.19
378.35	81.19
378.576	104.19
378.802	93.19
379.027	91.19
379.253	93.19
379.478	92.19
379.704	80.19
379.929	96.19
380.155	89.19
380.38	89.19
380.606	93.19
380.831	92.19
381.057	99.19
381.282	93.19
381.507	82.19
381.733	90.19
381.958	86.19
382.184	100.19
382.409	107.19
382.634	93.19
382.86	104.19
383.085	98.19
383.31	91.19
383.535	91.19
383.761	96.19
383.986	91.19
384.211	95.19
384.436	87.19
384.662	95.19
384.887	99.19
385.112	93.19
385.337	110.19
385.562	91.19
385.787	96.19
386.013	100.19
386.238	101.19
386.463	103.19
386.688	102.19
386.913	88.19
387.138	99.19
387.363	107.19
387.588	91.19
387.813	96.19
388.038	107.19
388.263	116.19
388.488	91.19
388.713	97.19
388.938	89.19
389.163	87.19
389.387	84.19
389.612	93.19
389.837	105.19
390.062	93.19
390.287	95.19
390.512	95.19
390.736	91.19
390.961	88.19
391.186	90.19
391.411	81.19
391.636	105.19
391.86	83.19
392.085	92.19
392.31	87.19
392.534	85.19
392.759	90.19
392.984	80.19
393.208	81.19
393.433	96.19
393.658	94.19
393.882	91.19
394.107	85.19
394.331	76.19
394.556	71.19
394.78	82.19
395.005	79.19
395.229	95.19
395.454	84.19
395.678	100.19
395.903	78.19
396.127	99.19
396.352	96.19
396.576	97.19
396.801	99.19
397.025	88.19
397.249	91.19
397.474	95.19
397.698	82.19
397.922	69.19
398.147	105.19
398.371	82.19
398.595	89.19
398.82	79.19
399.044	88.19
399.268	93.19
399.492	101.19
399.717	98.19
399.941	102.19
400.165	93.19
400.389	90.19
400.613	81.19
400.837	91.19
401.062	95.19
401.286	85.19
401.51	103.19
401.734	82.19
401.958	95.19
402.182	117.19
402.406	131.19
402.63	108.19
402.854	88.19
403.078	93.19
403.302	83.19
403.526	96.19
403.75	93.19
403.974	83.19
404.198	79.19
404.422	82.19
404.645	82.19
404.869	100.19
405.093	103.19
405.317	98.19
405.541	90.19
405.765	84.19
405.988	118.19
406.212	172.19
406.436	187.19
406.66	117.19
406.883	105.19
407.107	77.19
407.331	95.19
407.555	89.19
407.778	86.19
408.002	90.19
408.226	93.19
408.449	102.19
408.673	87.19
408.896	91.19
409.12	115.19
409.344	95.19
409.567	84.19
409.791	93.19
410.014	93.19
410.238	85.19
410.461	91.19
410.685	92.19
410.908	99.19
411.132	103.19
411.355	99.19
411.578	101.19
411.802	88.19
412.025	81.19
412.249	92.19
412.472	98.19
412.695	95.19
412.919	75.19
413.142	89.19
413.365	83.19
413.589	90.19
413.812	91.19
414.035	92.19
414.258	83.19
414.482	87.19
414.705	89.19
414.928	91.19
415.151	93.19
415.374	107.19
415.597	95.19
415.821	89.19
416.044	85.19
416.267	86.19
416.49	97.19
416.713	98.19
416.936	73.19
417.159	95.19
417.382	85.19
417.605	84.19
417.828	92.19
418.051	101.19
418.274	106.19
418.497	103.19
418.72	92.19
418.943	86.19
419.166	83.19
419.389	98.19
419.611	97.19
419.834	79.19
420.057	80.19
420.28	67.19
420.503	98.19
420.726	86.19
420.948	85.19
421.171	82.19
421.394	85.19
421.617	95.19
421.839	95.19
422.062	89.19
422.285	97.19
422.507	103.19
422.73	98.19
422.953	91.19
423.175	81.19
423.398	84.19
423.621	98.19
423.843	106.19
424.066	81.19
424.288	73.19
424.511	91.19
424.733	103.19
424.956	83.19
425.178	97.19
425.401	101.19
425.623	84.19
425.846	84.19
426.068	99.19
426.291	93.19
426.513	87.19
426.735	99.19
426.958	87.19
427.18	104.19
427.402	129.19
427.625	135.19
427.847	107.19
428.069	96.19
428.292	92.19
428.514	92.19
428.736	89.19
428.958	86.19
429.181	79.19
429.403	84.19
429.625	93.19
429.847	89.19
430.069	85.19
430.292	82.19
430.514	79.19
430.736	86.19
430.958	87.19
431.18	87.19
431.402	98.19
431.624	94.19
431.846	97.19
432.068	95.19
432.29	80.19
432.512	89.19
432.734	93.19
432.956	93.19
433.178	101.19
433.4	102.19
433.622	99.19
433.844	78.19
434.066	97.19
434.287	84.19
434.509	109.19
434.731	92.19
434.953	84.19
435.175	85.19
435.397	87.19
435.618	85.19
435.84	83.19
436.062	109.19
436.284	109.19
436.505	95.19
436.727	112.19
436.949	95.19
437.17	90.19
437.392	91.19
437.614	89.19
437.835	91.19
438.057	117.19
438.278	83.19
438.5	101.19
438.721	96.19
438.943	93.19
439.165	94.19
439.386	85.19
439.608	76.19
439.829	100.19
440.05	103.19
440.272	123.19
440.493	84.19
440.715	83.19
440.936	93.19
441.158	105.19
441.379	77.19
441.6	109.19
441.822	90.19
442.043	98.19
442.264	111.19
442.486	100.19
442.707	96.19
442.928	120.19
443.149	111.19
443.371	118.19
443.592	102.19
443.813	98.19
444.034	83.19
444.255	83.19
444.476	91.19
444.698	90.19
444.919	95.19
445.14	131.19
445.361	121.19
445.582	125.19
445.803	113.19
446.024	117.19
446.245	115.19
446.466	102.19
446.687	93.19
446.908	96.19
447.129	95.19
447.35	79.19
447.571	89.19
447.792	84.19
448.013	94.19
448.234	94.19
448.455	101.19
448.675	108.19
448.896	106.19
449.117	109.19
449.338	85.19
449.559	127.19
449.779	123.19
450	100.19
450.221	80.19
450.442	99.19
450.662	91.19
450.883	101.19
451.104	112.19
451.324	89.19
451.545	86.19
451.766	75.19
451.986	84.19
452.207	103.19
452.428	91.19
452.648	101.19
452.869	89.19
453.089	114.19
453.31	97.19
453.53	95.19
453.751	96.19
453.971	104.19
454.192	103.19
454.412	91.19
454.633	89.19
454.853	88.19
455.073	98.19
455.294	86.19
455.514	91.19
455.734	81.19
455.955	91.19
456.175	99.19
456.395	96.19
456.616	79.19
456.836	93.19
457.056	86.19
457.276	77.19
457.497	73.19
457.717	83.19
457.937	97.19
458.157	97.19
458.377	99.19
458.598	99.19
458.818	117.19
459.038	127.19
459.258	122.19
459.478	92.19
459.698	82.19
459.918	82.19
460.138	87.19
460.358	98.19
460.578	93.19
460.798	94.19
461.018	91.19
461.238	81.19
461.458	87.19
461.678	82.19
461.898	97.19
462.118	84.19
462.338	79.19
462.558	76.19
462.777	85.19
462.997	97.19
463.217	78.19
463.437	93.19
463.657	86.19
463.876	99.19
464.096	97.19
464.316	90.19
464.536	95.19
464.755	86.19
464.975	109.19
465.195	141.19
465.414	129.19
465.634	90.19
465.854	84.19
466.073	90.19
466.293	91.19
466.512	87.19
466.732	84.19
466.951	82.19
467.171	78.19
467.391	88.19
467.61	106.19
467.829	88.19
468.049	78.19
468.268	93.19
468.488	91.19
468.707	82.19
468.927	81.19
469.146	86.19
469.365	86.19
469.585	71.19
469.804	97.19
470.023	81.19
470.243	86.19
470.462	89.19
470.681	107.19
470.901	95.19
471.12	80.19
471.339	92.19
471.558	85.19
471.777	76.19
471.997	93.19
472.216	78.19
472.435	86.19
472.654	93.19
472.873	83.19
473.092	82.19
473.311	98.19
473.53	94.19
473.749	92.19
473.968	92.19
474.187	102.19
474.406	84.19
474.625	101.19
474.844	85.19
475.063	94.19
475.282	84.19
475.501	93.19
475.72	91.19
475.939	73.19
476.158	86.19
476.377	79.19
476.596	76.19
476.814	86.19
477.033	83.19
477.252	92.19
477.471	90.19
477.69	89.19
477.908	86.19
478.127	100.19
478.346	99.19
478.564	91.19
478.783	99.19
479.002	93.19
479.22	100.19
479.439	87.19
479.658	100.19
479.876	71.19
480.095	96.19
480.313	89.19
480.532	103.19
480.751	93.19
480.969	84.19
481.188	91.19
481.406	88.19
481.624	93.19
481.843	91.19
482.061	84.19
482.28	99.19
482.498	87.19
482.717	91.19
482.935	97.19
483.153	107.19
483.372	92.19
483.59	106.19
483.808	87.19
484.027	94.19
484.245	94.19
484.463	89.19
484.681	102.19
484.9	87.19
485.118	90.19
485.336	102.19
485.554	103.19
485.772	96.19
485.99	96.19
486.209	82.19
486.427	100.19
486.645	108.19
486.863	110.19
487.081	102.19
487.299	110.19
487.517	97.19
487.735	85.19
487.953	96.19
488.171	90.19
488.389	95.19
488.607	89.19
488.825	91.19
489.043	89.19
489.261	88.19
489.479	96.19
489.696	94.19
489.914	81.19
490.132	93.19
490.35	86.19
490.568	83.19
490.786	79.19
491.003	93.19
491.221	91.19
491.439	98.19
491.657	82.19
491.874	77.19
492.092	93.19
492.31	88.19
492.527	94.19
492.745	100.19
492.963	87.19
493.18	85.19
493.398	90.19
493.615	98.19
493.833	94.19
494.05	97.19
494.268	87.19
494.485	90.19
494.703	93.19
494.92	99.19
495.138	77.19
495.355	70.19
495.573	85.19
495.79	95.19
496.008	90.19
496.225	93.19
496.442	82.19
496.66	95.19
496.877	85.19
497.094	98.19
497.312	94.19
497.529	93.19
497.746	84.19
497.963	91.19
498.181	86.19
498.398	90.19
498.615	95.19
498.832	103.19
499.049	86.19
499.267	83.19
499.484	99.19
499.701	84.19
499.918	79.19
500.135	100.19
500.352	84.19
500.569	83.19
500.786	100.19
501.003	97.19
501.22	101.19
501.437	100.19
501.654	108.19
501.871	93.19
502.088	91.19
502.305	95.19
502.522	96.19
502.739	92.19
502.956	107.19
503.172	94.19
503.389	89.19
503.606	99.19
503.823	96.19
504.04	101.19
504.256	84.19
504.473	86.19
504.69	79.19
504.907	89.19
505.123	78.19
505.34	99.19
505.557	86.19
505.773	97.19
505.99	86.19
506.207	89.19
506.423	94.19
506.64	79.19
506.856	94.19
507.073	82.19
507.289	90.19
507.506	91.19
507.722	103.19
507.939	114.19
508.155	97.19
508.372	81.19
508.588	91.19
508.805	93.19
509.021	85.19
509.238	92.19
509.454	98.19
509.67	98.19
509.887	99.19
510.103	144.19
510.319	187.19
510.536	667.19
510.752	2073.19
510.968	573.19
511.184	141.19
511.401	95.19
511.617	97.19
511.833	81.19
512.049	100.19
512.265	88.19
512.481	97.19
512.698	98.19
512.914	98.19
513.13	85.19
513.346	87.19
513.562	95.19
513.778	106.19
513.994	94.19
514.21	93.19
514.426	118.19
514.642	108.19
514.858	140.19
515.074	143.19
515.29	381.19
515.506	1195.19
515.721	435.19
515.937	139.19
516.153	99.19
516.369	86.19
516.585	98.19
