Data from Uncirc_1992_H10_HRD10591_00062.txt Node
Date: Wed Jan 03 11:46:28 EST 2024
User: Yrep
Spectrometer: HR+D1059
Trigger mode: 1
Integration Time (sec): 1.000000E-1
Scans to average: 1
Electric dark correction enabled: true
Nonlinearity correction enabled: false
Boxcar width: 0
XAxis mode: Wavelengths
Number of Pixels in Spectrum: 2048
>>>>>Begin Spectral Data<<<<<
223.165	-26.75
223.4	-26.75
223.635	-26.75
223.869	-10.75
224.104	-18.75
224.338	-21.75
224.573	0.25
224.808	-12.75
225.042	-20.75
225.277	1.25
225.511	-2.75
225.746	2.25
225.98	8.25
226.215	10.25
226.449	12.25
226.683	15.25
226.918	31.25
227.152	33.25
227.387	32.25
227.621	40.25
227.856	42.25
228.09	54.25
228.324	47.25
228.559	58.25
228.793	59.25
229.027	65.25
229.262	72.25
229.496	61.25
229.73	76.25
229.964	85.25
230.199	86.25
230.433	77.25
230.667	90.25
230.901	79.25
231.136	86.25
231.37	90.25
231.604	88.25
231.838	89.25
232.072	84.25
232.306	89.25
232.541	74.25
232.775	96.25
233.009	83.25
233.243	72.25
233.477	90.25
233.711	90.25
233.945	90.25
234.179	75.25
234.413	91.25
234.647	81.25
234.881	82.25
235.115	86.25
235.349	79.25
235.583	80.25
235.817	83.25
236.051	76.25
236.285	63.25
236.519	78.25
236.753	76.25
236.987	71.25
237.221	88.25
237.455	92.25
237.689	80.25
237.922	86.25
238.156	80.25
238.39	65.25
238.624	64.25
238.858	78.25
239.091	76.25
239.325	68.25
239.559	81.25
239.793	68.25
240.027	74.25
240.26	87.25
240.494	75.25
240.728	80.25
240.961	70.25
241.195	82.25
241.429	72.25
241.662	71.25
241.896	74.25
242.13	68.25
242.363	94.25
242.597	66.25
242.83	65.25
243.064	75.25
243.298	80.25
243.531	92.25
243.765	71.25
243.998	74.25
244.232	95.25
244.465	92.25
244.699	80.25
244.932	76.25
245.166	83.25
245.399	89.25
245.633	83.25
245.866	83.25
246.099	74.25
246.333	82.25
246.566	82.25
246.8	96.25
247.033	89.25
247.266	88.25
247.5	87.25
247.733	70.25
247.966	76.25
248.2	82.25
248.433	72.25
248.666	70.25
248.899	82.25
249.133	85.25
249.366	101.25
249.599	98.25
249.832	82.25
250.066	95.25
250.299	92.25
250.532	86.25
250.765	79.25
250.998	72.25
251.231	85.25
251.465	83.25
251.698	67.25
251.931	84.25
252.164	79.25
252.397	83.25
252.63	86.25
252.863	88.25
253.096	83.25
253.329	60.25
253.562	85.25
253.795	91.25
254.028	74.25
254.261	82.25
254.494	88.25
254.727	85.25
254.96	94.25
255.193	90.25
255.426	89.25
255.659	86.25
255.892	77.25
256.124	79.25
256.357	78.25
256.59	83.25
256.823	89.25
257.056	78.25
257.289	88.25
257.521	88.25
257.754	82.25
257.987	79.25
258.22	80.25
258.452	82.25
258.685	83.25
258.918	96.25
259.151	76.25
259.383	93.25
259.616	96.25
259.849	88.25
260.081	91.25
260.314	83.25
260.547	80.25
260.779	101.25
261.012	94.25
261.244	67.25
261.477	93.25
261.71	88.25
261.942	106.25
262.175	123.25
262.407	83.25
262.64	80.25
262.872	69.25
263.105	65.25
263.337	88.25
263.57	82.25
263.802	82.25
264.035	76.25
264.267	76.25
264.499	94.25
264.732	83.25
264.964	78.25
265.197	79.25
265.429	103.25
265.661	79.25
265.894	83.25
266.126	68.25
266.358	84.25
266.591	79.25
266.823	83.25
267.055	80.25
267.287	81.25
267.52	79.25
267.752	83.25
267.984	69.25
268.216	90.25
268.448	91.25
268.681	89.25
268.913	99.25
269.145	88.25
269.377	82.25
269.609	70.25
269.841	83.25
270.073	86.25
270.306	91.25
270.538	86.25
270.77	71.25
271.002	78.25
271.234	84.25
271.466	93.25
271.698	82.25
271.93	80.25
272.162	94.25
272.394	93.25
272.626	75.25
272.858	83.25
273.09	104.25
273.322	72.25
273.553	90.25
273.785	83.25
274.017	79.25
274.249	83.25
274.481	85.25
274.713	81.25
274.945	89.25
275.176	92.25
275.408	97.25
275.64	91.25
275.872	70.25
276.104	90.25
276.335	97.25
276.567	90.25
276.799	115.25
277.031	95.25
277.262	90.25
277.494	99.25
277.726	81.25
277.957	76.25
278.189	79.25
278.421	76.25
278.652	92.25
278.884	88.25
279.115	73.25
279.347	90.25
279.579	80.25
279.81	88.25
280.042	94.25
280.273	82.25
280.505	76.25
280.736	101.25
280.968	90.25
281.199	79.25
281.431	97.25
281.662	89.25
281.894	92.25
282.125	94.25
282.356	106.25
282.588	132.25
282.819	126.25
283.051	92.25
283.282	83.25
283.513	94.25
283.745	87.25
283.976	89.25
284.207	88.25
284.439	78.25
284.67	97.25
284.901	81.25
285.132	86.25
285.364	93.25
285.595	92.25
285.826	88.25
286.057	104.25
286.288	79.25
286.52	98.25
286.751	81.25
286.982	76.25
287.213	93.25
287.444	74.25
287.675	82.25
287.906	97.25
288.138	76.25
288.369	99.25
288.6	90.25
288.831	88.25
289.062	83.25
289.293	93.25
289.524	90.25
289.755	87.25
289.986	96.25
290.217	93.25
290.448	82.25
290.679	96.25
290.91	92.25
291.141	90.25
291.371	97.25
291.602	71.25
291.833	81.25
292.064	98.25
292.295	79.25
292.526	105.25
292.757	86.25
292.987	96.25
293.218	90.25
293.449	87.25
293.68	94.25
293.91	83.25
294.141	87.25
294.372	87.25
294.603	78.25
294.833	87.25
295.064	75.25
295.295	81.25
295.525	91.25
295.756	108.25
295.987	117.25
296.217	134.25
296.448	110.25
296.679	86.25
296.909	99.25
297.14	90.25
297.37	99.25
297.601	94.25
297.831	84.25
298.062	92.25
298.292	102.25
298.523	98.25
298.753	93.25
298.984	87.25
299.214	95.25
299.445	83.25
299.675	98.25
299.905	109.25
300.136	89.25
300.366	80.25
300.597	87.25
300.827	112.25
301.057	98.25
301.288	100.25
301.518	99.25
301.748	99.25
301.979	104.25
302.209	86.25
302.439	96.25
302.669	83.25
302.9	98.25
303.13	94.25
303.36	92.25
303.59	103.25
303.82	97.25
304.051	91.25
304.281	94.25
304.511	79.25
304.741	82.25
304.971	83.25
305.201	81.25
305.431	94.25
305.661	93.25
305.891	77.25
306.121	90.25
306.352	101.25
306.582	95.25
306.812	90.25
307.042	91.25
307.272	108.25
307.502	95.25
307.731	102.25
307.961	99.25
308.191	86.25
308.421	108.25
308.651	100.25
308.881	92.25
309.111	90.25
309.341	87.25
309.571	92.25
309.8	89.25
310.03	94.25
310.26	100.25
310.49	93.25
310.72	79.25
310.949	90.25
311.179	90.25
311.409	89.25
311.639	106.25
311.868	97.25
312.098	108.25
312.328	100.25
312.557	86.25
312.787	101.25
313.017	101.25
313.246	83.25
313.476	91.25
313.706	80.25
313.935	97.25
314.165	86.25
314.394	106.25
314.624	97.25
314.853	110.25
315.083	88.25
315.312	96.25
315.542	78.25
315.771	98.25
316.001	100.25
316.23	85.25
316.46	99.25
316.689	83.25
316.919	87.25
317.148	97.25
317.377	95.25
317.607	78.25
317.836	87.25
318.065	84.25
318.295	99.25
318.524	95.25
318.753	95.25
318.983	88.25
319.212	103.25
319.441	117.25
319.67	113.25
319.9	103.25
320.129	91.25
320.358	96.25
320.587	107.25
320.816	97.25
321.046	106.25
321.275	100.25
321.504	93.25
321.733	89.25
321.962	102.25
322.191	94.25
322.42	87.25
322.649	108.25
322.878	117.25
323.108	129.25
323.337	102.25
323.566	123.25
323.795	152.25
324.024	208.25
324.253	334.25
324.482	704.25
324.71	1426.25
324.939	1872.25
325.168	690.25
325.397	230.25
325.626	135.25
325.855	111.25
326.084	119.25
326.313	132.25
326.542	146.25
326.77	215.25
326.999	384.25
327.228	816.25
327.457	1439.25
327.686	1159.25
327.914	314.25
328.143	187.25
328.372	144.25
328.6	127.25
328.829	113.25
329.058	112.25
329.287	105.25
329.515	110.25
329.744	107.25
329.972	101.25
330.201	89.25
330.43	96.25
330.658	106.25
330.887	124.25
331.115	115.25
331.344	109.25
331.572	109.25
331.801	109.25
332.03	100.25
332.258	96.25
332.486	96.25
332.715	92.25
332.943	103.25
333.172	99.25
333.4	86.25
333.629	109.25
333.857	93.25
334.085	102.25
334.314	98.25
334.542	90.25
334.771	94.25
334.999	92.25
335.227	96.25
335.455	90.25
335.684	104.25
335.912	108.25
336.14	94.25
336.369	109.25
336.597	115.25
336.825	91.25
337.053	101.25
337.281	86.25
337.51	87.25
337.738	88.25
337.966	98.25
338.194	101.25
338.422	103.25
338.65	101.25
338.878	86.25
339.106	78.25
339.334	91.25
339.562	100.25
339.79	101.25
340.018	100.25
340.246	87.25
340.474	89.25
340.702	97.25
340.93	82.25
341.158	78.25
341.386	111.25
341.614	98.25
341.842	87.25
342.07	95.25
342.298	101.25
342.526	91.25
342.754	84.25
342.981	94.25
343.209	90.25
343.437	102.25
343.665	86.25
343.893	104.25
344.12	94.25
344.348	86.25
344.576	94.25
344.804	83.25
345.031	78.25
345.259	74.25
345.487	85.25
345.714	79.25
345.942	90.25
346.17	100.25
346.397	94.25
346.625	93.25
346.853	81.25
347.08	88.25
347.308	91.25
347.535	92.25
347.763	95.25
347.99	107.25
348.218	102.25
348.445	109.25
348.673	92.25
348.9	90.25
349.128	93.25
349.355	88.25
349.583	96.25
349.81	90.25
350.037	91.25
350.265	92.25
350.492	93.25
350.72	96.25
350.947	100.25
351.174	114.25
351.402	107.25
351.629	102.25
351.856	99.25
352.083	95.25
352.311	108.25
352.538	110.25
352.765	113.25
352.992	108.25
353.22	103.25
353.447	112.25
353.674	93.25
353.901	107.25
354.128	94.25
354.355	102.25
354.583	91.25
354.81	91.25
355.037	87.25
355.264	96.25
355.491	100.25
355.718	93.25
355.945	114.25
356.172	90.25
356.399	95.25
356.626	104.25
356.853	90.25
357.08	83.25
357.307	111.25
357.534	81.25
357.761	100.25
357.988	95.25
358.215	101.25
358.441	94.25
358.668	82.25
358.895	88.25
359.122	98.25
359.349	85.25
359.576	91.25
359.802	96.25
360.029	101.25
360.256	97.25
360.483	101.25
360.709	86.25
360.936	101.25
361.163	103.25
361.39	108.25
361.616	95.25
361.843	78.25
362.07	102.25
362.296	100.25
362.523	92.25
362.749	99.25
362.976	110.25
363.203	100.25
363.429	85.25
363.656	95.25
363.882	83.25
364.109	97.25
364.335	86.25
364.562	89.25
364.788	89.25
365.015	94.25
365.241	96.25
365.468	87.25
365.694	96.25
365.92	108.25
366.147	102.25
366.373	86.25
366.599	83.25
366.826	82.25
367.052	99.25
367.278	96.25
367.505	103.25
367.731	90.25
367.957	85.25
368.184	92.25
368.41	85.25
368.636	88.25
368.862	110.25
369.089	115.25
369.315	87.25
369.541	101.25
369.767	94.25
369.993	99.25
370.219	82.25
370.445	96.25
370.672	80.25
370.898	87.25
371.124	88.25
371.35	87.25
371.576	95.25
371.802	76.25
372.028	88.25
372.254	90.25
372.48	94.25
372.706	83.25
372.932	85.25
373.158	96.25
373.384	89.25
373.61	95.25
373.835	99.25
374.061	101.25
374.287	74.25
374.513	86.25
374.739	87.25
374.965	94.25
375.191	97.25
375.416	110.25
375.642	89.25
375.868	86.25
376.094	86.25
376.319	94.25
376.545	81.25
376.771	106.25
376.997	90.25
377.222	92.25
377.448	86.25
377.674	84.25
377.899	79.25
378.125	94.25
378.35	88.25
378.576	95.25
378.802	83.25
379.027	99.25
379.253	88.25
379.478	108.25
379.704	78.25
379.929	95.25
380.155	94.25
380.38	79.25
380.606	88.25
380.831	91.25
381.057	105.25
381.282	99.25
381.507	101.25
381.733	91.25
381.958	94.25
382.184	91.25
382.409	90.25
382.634	90.25
382.86	98.25
383.085	99.25
383.31	94.25
383.535	110.25
383.761	88.25
383.986	82.25
384.211	95.25
384.436	74.25
384.662	93.25
384.887	88.25
385.112	99.25
385.337	105.25
385.562	103.25
385.787	100.25
386.013	111.25
386.238	91.25
386.463	98.25
386.688	108.25
386.913	108.25
387.138	106.25
387.363	109.25
387.588	96.25
387.813	92.25
388.038	102.25
388.263	95.25
388.488	90.25
388.713	94.25
388.938	89.25
389.163	100.25
389.387	92.25
389.612	102.25
389.837	88.25
390.062	95.25
390.287	85.25
390.512	102.25
390.736	107.25
390.961	81.25
391.186	106.25
391.411	89.25
391.636	89.25
391.86	90.25
392.085	74.25
392.31	82.25
392.534	79.25
392.759	95.25
392.984	88.25
393.208	90.25
393.433	83.25
393.658	89.25
393.882	88.25
394.107	87.25
394.331	74.25
394.556	81.25
394.78	89.25
395.005	84.25
395.229	93.25
395.454	76.25
395.678	93.25
395.903	86.25
396.127	96.25
396.352	82.25
396.576	80.25
396.801	84.25
397.025	88.25
397.249	96.25
397.474	86.25
397.698	82.25
397.922	85.25
398.147	79.25
398.371	83.25
398.595	77.25
398.82	78.25
399.044	90.25
399.268	74.25
399.492	79.25
399.717	81.25
399.941	92.25
400.165	97.25
400.389	76.25
400.613	82.25
400.837	79.25
401.062	87.25
401.286	85.25
401.51	90.25
401.734	94.25
401.958	104.25
402.182	115.25
402.406	143.25
402.63	113.25
402.854	94.25
403.078	88.25
403.302	86.25
403.526	94.25
403.75	99.25
403.974	82.25
404.198	84.25
404.422	85.25
404.645	76.25
404.869	76.25
405.093	81.25
405.317	88.25
405.541	84.25
405.765	86.25
405.988	119.25
406.212	160.25
406.436	205.25
406.66	147.25
406.883	106.25
407.107	91.25
407.331	94.25
407.555	95.25
407.778	88.25
408.002	100.25
408.226	89.25
408.449	90.25
408.673	101.25
408.896	78.25
409.12	84.25
409.344	96.25
409.567	96.25
409.791	96.25
410.014	91.25
410.238	84.25
410.461	106.25
410.685	96.25
410.908	112.25
411.132	109.25
411.355	95.25
411.578	99.25
411.802	84.25
412.025	88.25
412.249	94.25
412.472	82.25
412.695	80.25
412.919	94.25
413.142	87.25
413.365	98.25
413.589	85.25
413.812	93.25
414.035	94.25
414.258	77.25
414.482	86.25
414.705	83.25
414.928	80.25
415.151	79.25
415.374	99.25
415.597	74.25
415.821	88.25
416.044	87.25
416.267	94.25
416.49	89.25
416.713	88.25
416.936	90.25
417.159	92.25
417.382	97.25
417.605	90.25
417.828	79.25
418.051	102.25
418.274	97.25
418.497	89.25
418.72	94.25
418.943	75.25
419.166	78.25
419.389	90.25
419.611	92.25
419.834	74.25
420.057	84.25
420.28	87.25
420.503	86.25
420.726	92.25
420.948	84.25
421.171	98.25
421.394	87.25
421.617	72.25
421.839	83.25
422.062	85.25
422.285	92.25
422.507	102.25
422.73	103.25
422.953	91.25
423.175	86.25
423.398	86.25
423.621	85.25
423.843	94.25
424.066	89.25
424.288	81.25
424.511	94.25
424.733	108.25
424.956	106.25
425.178	81.25
425.401	90.25
425.623	102.25
425.846	83.25
426.068	92.25
426.291	92.25
426.513	103.25
426.735	77.25
426.958	90.25
427.18	107.25
427.402	120.25
427.625	139.25
427.847	129.25
428.069	108.25
428.292	86.25
428.514	95.25
428.736	94.25
428.958	77.25
429.181	75.25
429.403	80.25
429.625	87.25
429.847	75.25
430.069	94.25
430.292	87.25
430.514	87.25
430.736	76.25
430.958	87.25
431.18	86.25
431.402	88.25
431.624	98.25
431.846	90.25
432.068	71.25
432.29	82.25
432.512	98.25
432.734	82.25
432.956	89.25
433.178	87.25
433.4	100.25
433.622	89.25
433.844	84.25
434.066	87.25
434.287	98.25
434.509	96.25
434.731	93.25
434.953	88.25
435.175	82.25
435.397	87.25
435.618	90.25
435.84	110.25
436.062	109.25
436.284	93.25
436.505	114.25
436.727	94.25
436.949	99.25
437.17	82.25
437.392	93.25
437.614	95.25
437.835	87.25
438.057	119.25
438.278	105.25
438.5	101.25
438.721	125.25
438.943	101.25
439.165	95.25
439.386	78.25
439.608	73.25
439.829	96.25
440.05	107.25
440.272	125.25
440.493	99.25
440.715	86.25
440.936	92.25
441.158	103.25
441.379	89.25
441.6	94.25
441.822	106.25
442.043	83.25
442.264	91.25
442.486	98.25
442.707	99.25
442.928	87.25
443.149	124.25
443.371	116.25
443.592	115.25
443.813	102.25
444.034	96.25
444.255	102.25
444.476	84.25
444.698	87.25
444.919	81.25
445.14	132.25
445.361	125.25
445.582	108.25
445.803	128.25
446.024	141.25
446.245	130.25
446.466	92.25
446.687	92.25
446.908	75.25
447.129	82.25
447.35	95.25
447.571	86.25
447.792	94.25
448.013	98.25
448.234	94.25
448.455	96.25
448.675	108.25
448.896	115.25
449.117	90.25
449.338	83.25
449.559	108.25
449.779	120.25
450	95.25
450.221	101.25
450.442	107.25
450.662	102.25
450.883	117.25
451.104	112.25
451.324	102.25
451.545	88.25
451.766	89.25
451.986	101.25
452.207	100.25
452.428	90.25
452.648	99.25
452.869	99.25
453.089	96.25
453.31	115.25
453.53	116.25
453.751	97.25
453.971	106.25
454.192	103.25
454.412	89.25
454.633	84.25
454.853	86.25
455.073	90.25
455.294	89.25
455.514	91.25
455.734	81.25
455.955	96.25
456.175	75.25
456.395	87.25
456.616	90.25
456.836	66.25
457.056	87.25
457.276	86.25
457.497	93.25
457.717	86.25
457.937	98.25
458.157	92.25
458.377	88.25
458.598	86.25
458.818	129.25
459.038	159.25
459.258	95.25
459.478	96.25
459.698	84.25
459.918	83.25
460.138	83.25
460.358	81.25
460.578	86.25
460.798	90.25
461.018	80.25
461.238	85.25
461.458	92.25
461.678	84.25
461.898	92.25
462.118	81.25
462.338	85.25
462.558	82.25
462.777	92.25
462.997	81.25
463.217	99.25
463.437	91.25
463.657	107.25
463.876	105.25
464.096	81.25
464.316	74.25
464.536	76.25
464.755	91.25
464.975	98.25
465.195	157.25
465.414	150.25
465.634	72.25
465.854	84.25
466.073	80.25
466.293	67.25
466.512	79.25
466.732	79.25
466.951	95.25
467.171	83.25
467.391	99.25
467.61	107.25
467.829	84.25
468.049	94.25
468.268	102.25
468.488	80.25
468.707	84.25
468.927	83.25
469.146	93.25
469.365	82.25
469.585	92.25
469.804	98.25
470.023	95.25
470.243	97.25
470.462	97.25
470.681	96.25
470.901	76.25
471.12	101.25
471.339	90.25
471.558	77.25
471.777	82.25
471.997	90.25
472.216	89.25
472.435	94.25
472.654	93.25
472.873	85.25
473.092	82.25
473.311	82.25
473.53	94.25
473.749	74.25
473.968	99.25
474.187	81.25
474.406	85.25
474.625	93.25
474.844	89.25
475.063	87.25
475.282	84.25
475.501	82.25
475.72	86.25
475.939	87.25
476.158	86.25
476.377	86.25
476.596	100.25
476.814	83.25
477.033	79.25
477.252	88.25
477.471	83.25
477.69	81.25
477.908	83.25
478.127	90.25
478.346	80.25
478.564	63.25
478.783	91.25
479.002	94.25
479.22	99.25
479.439	98.25
479.658	96.25
479.876	97.25
480.095	92.25
480.313	94.25
480.532	101.25
480.751	94.25
480.969	88.25
481.188	85.25
481.406	76.25
481.624	88.25
481.843	84.25
482.061	90.25
482.28	95.25
482.498	87.25
482.717	79.25
482.935	108.25
483.153	94.25
483.372	85.25
483.59	95.25
483.808	86.25
484.027	94.25
484.245	90.25
484.463	90.25
484.681	112.25
484.9	87.25
485.118	110.25
485.336	102.25
485.554	96.25
485.772	82.25
485.99	95.25
486.209	114.25
486.427	101.25
486.645	115.25
486.863	117.25
487.081	98.25
487.299	104.25
487.517	87.25
487.735	92.25
487.953	85.25
488.171	85.25
488.389	92.25
488.607	98.25
488.825	94.25
489.043	97.25
489.261	101.25
489.479	88.25
489.696	88.25
489.914	102.25
490.132	86.25
490.35	99.25
490.568	98.25
490.786	80.25
491.003	92.25
491.221	85.25
491.439	87.25
491.657	93.25
491.874	74.25
492.092	83.25
492.31	101.25
492.527	86.25
492.745	110.25
492.963	96.25
493.18	77.25
493.398	88.25
493.615	79.25
493.833	95.25
494.05	100.25
494.268	95.25
494.485	83.25
494.703	91.25
494.92	87.25
495.138	81.25
495.355	93.25
495.573	88.25
495.79	87.25
496.008	97.25
496.225	91.25
496.442	85.25
496.66	92.25
496.877	94.25
497.094	96.25
497.312	100.25
497.529	89.25
497.746	85.25
497.963	97.25
498.181	96.25
498.398	98.25
498.615	111.25
498.832	94.25
499.049	93.25
499.267	86.25
499.484	97.25
499.701	93.25
499.918	104.25
500.135	85.25
500.352	90.25
500.569	84.25
500.786	110.25
501.003	88.25
501.22	90.25
501.437	101.25
501.654	104.25
501.871	100.25
502.088	93.25
502.305	102.25
502.522	92.25
502.739	102.25
502.956	91.25
503.172	100.25
503.389	90.25
503.606	121.25
503.823	111.25
504.04	90.25
504.256	101.25
504.473	88.25
504.69	101.25
504.907	102.25
505.123	93.25
505.34	66.25
505.557	80.25
505.773	97.25
505.99	94.25
506.207	90.25
506.423	87.25
506.64	83.25
506.856	71.25
507.073	101.25
507.289	105.25
507.506	99.25
507.722	112.25
507.939	107.25
508.155	78.25
508.372	94.25
508.588	112.25
508.805	97.25
509.021	92.25
509.238	92.25
509.454	109.25
509.67	109.25
509.887	107.25
510.103	144.25
510.319	206.25
510.536	738.25
510.752	2150.25
510.968	582.25
511.184	161.25
511.401	98.25
511.617	106.25
511.833	99.25
512.049	88.25
512.265	102.25
512.481	91.25
512.698	92.25
512.914	97.25
513.13	95.25
513.346	76.25
513.562	98.25
513.778	86.25
513.994	92.25
514.21	100.25
514.426	102.25
514.642	129.25
514.858	105.25
515.074	157.25
515.29	412.25
515.506	1272.25
515.721	500.25
515.937	151.25
