Data from Uncirc_1992_H10_HRD10591_00078.txt Node
Date: Wed Jan 03 11:46:31 EST 2024
User: Yrep
Spectrometer: HR+D1059
Trigger mode: 1
Integration Time (sec): 1.000000E-1
Scans to average: 1
Electric dark correction enabled: true
Nonlinearity correction enabled: false
Boxcar width: 0
XAxis mode: Wavelengths
Number of Pixels in Spectrum: 2048
>>>>>Begin Spectral Data<<<<<
223.165	-13.44
223.4	-13.44
223.635	-13.44
223.869	-15.44
224.104	-21.44
224.338	-21.44
224.573	-19.44
224.808	-7.44
225.042	-0.44
225.277	-13.44
225.511	-7.44
225.746	3.56
225.98	14.56
226.215	-1.44
226.449	13.56
226.683	17.56
226.918	33.56
227.152	38.56
227.387	47.56
227.621	44.56
227.856	36.56
228.09	45.56
228.324	48.56
228.559	60.56
228.793	54.56
229.027	60.56
229.262	50.56
229.496	72.56
229.73	86.56
229.964	80.56
230.199	62.56
230.433	74.56
230.667	69.56
230.901	74.56
231.136	89.56
231.37	64.56
231.604	75.56
231.838	78.56
232.072	64.56
232.306	66.56
232.541	64.56
232.775	74.56
233.009	60.56
233.243	77.56
233.477	74.56
233.711	67.56
233.945	68.56
234.179	69.56
234.413	65.56
234.647	70.56
234.881	80.56
235.115	67.56
235.349	69.56
235.583	81.56
235.817	63.56
236.051	71.56
236.285	74.56
236.519	69.56
236.753	81.56
236.987	75.56
237.221	91.56
237.455	87.56
237.689	65.56
237.922	73.56
238.156	58.56
238.39	80.56
238.624	57.56
238.858	77.56
239.091	80.56
239.325	82.56
239.559	80.56
239.793	62.56
240.027	79.56
240.26	79.56
240.494	79.56
240.728	74.56
240.961	69.56
241.195	71.56
241.429	65.56
241.662	70.56
241.896	85.56
242.13	87.56
242.363	87.56
242.597	64.56
242.83	74.56
243.064	83.56
243.298	72.56
243.531	54.56
243.765	82.56
243.998	77.56
244.232	75.56
244.465	75.56
244.699	60.56
244.932	73.56
245.166	73.56
245.399	93.56
245.633	83.56
245.866	74.56
246.099	73.56
246.333	62.56
246.566	79.56
246.8	87.56
247.033	61.56
247.266	65.56
247.5	70.56
247.733	73.56
247.966	66.56
248.2	80.56
248.433	75.56
248.666	71.56
248.899	66.56
249.133	79.56
249.366	99.56
249.599	96.56
249.832	78.56
250.066	85.56
250.299	77.56
250.532	77.56
250.765	74.56
250.998	67.56
251.231	69.56
251.465	78.56
251.698	75.56
251.931	75.56
252.164	73.56
252.397	76.56
252.63	76.56
252.863	62.56
253.096	78.56
253.329	75.56
253.562	64.56
253.795	78.56
254.028	77.56
254.261	79.56
254.494	71.56
254.727	76.56
254.96	69.56
255.193	73.56
255.426	71.56
255.659	89.56
255.892	80.56
256.124	67.56
256.357	61.56
256.59	66.56
256.823	83.56
257.056	93.56
257.289	81.56
257.521	83.56
257.754	89.56
257.987	72.56
258.22	88.56
258.452	69.56
258.685	86.56
258.918	78.56
259.151	73.56
259.383	89.56
259.616	60.56
259.849	73.56
260.081	76.56
260.314	81.56
260.547	69.56
260.779	82.56
261.012	60.56
261.244	82.56
261.477	88.56
261.71	87.56
261.942	89.56
262.175	93.56
262.407	84.56
262.64	80.56
262.872	73.56
263.105	82.56
263.337	86.56
263.57	93.56
263.802	83.56
264.035	78.56
264.267	66.56
264.499	68.56
264.732	75.56
264.964	81.56
265.197	81.56
265.429	90.56
265.661	75.56
265.894	84.56
266.126	87.56
266.358	83.56
266.591	75.56
266.823	84.56
267.055	79.56
267.287	99.56
267.52	80.56
267.752	70.56
267.984	77.56
268.216	102.56
268.448	81.56
268.681	85.56
268.913	73.56
269.145	83.56
269.377	72.56
269.609	71.56
269.841	88.56
270.073	75.56
270.306	71.56
270.538	73.56
270.77	67.56
271.002	69.56
271.234	77.56
271.466	79.56
271.698	79.56
271.93	86.56
272.162	83.56
272.394	87.56
272.626	98.56
272.858	81.56
273.09	80.56
273.322	69.56
273.553	86.56
273.785	91.56
274.017	86.56
274.249	77.56
274.481	70.56
274.713	69.56
274.945	79.56
275.176	79.56
275.408	90.56
275.64	78.56
275.872	106.56
276.104	82.56
276.335	87.56
276.567	93.56
276.799	98.56
277.031	89.56
277.262	90.56
277.494	75.56
277.726	88.56
277.957	81.56
278.189	82.56
278.421	82.56
278.652	83.56
278.884	72.56
279.115	80.56
279.347	85.56
279.579	86.56
279.81	98.56
280.042	75.56
280.273	74.56
280.505	85.56
280.736	82.56
280.968	89.56
281.199	89.56
281.431	78.56
281.662	87.56
281.894	82.56
282.125	83.56
282.356	99.56
282.588	119.56
282.819	97.56
283.051	79.56
283.282	84.56
283.513	77.56
283.745	75.56
283.976	82.56
284.207	89.56
284.439	76.56
284.67	75.56
284.901	70.56
285.132	81.56
285.364	89.56
285.595	78.56
285.826	92.56
286.057	87.56
286.288	86.56
286.52	77.56
286.751	92.56
286.982	87.56
287.213	80.56
287.444	73.56
287.675	81.56
287.906	91.56
288.138	91.56
288.369	88.56
288.6	93.56
288.831	88.56
289.062	85.56
289.293	77.56
289.524	74.56
289.755	90.56
289.986	85.56
290.217	69.56
290.448	74.56
290.679	93.56
290.91	92.56
291.141	83.56
291.371	91.56
291.602	84.56
291.833	87.56
292.064	102.56
292.295	83.56
292.526	88.56
292.757	61.56
292.987	79.56
293.218	78.56
293.449	78.56
293.68	85.56
293.91	80.56
294.141	94.56
294.372	86.56
294.603	89.56
294.833	81.56
295.064	73.56
295.295	80.56
295.525	73.56
295.756	93.56
295.987	111.56
296.217	119.56
296.448	107.56
296.679	92.56
296.909	89.56
297.14	82.56
297.37	76.56
297.601	90.56
297.831	85.56
298.062	94.56
298.292	94.56
298.523	80.56
298.753	88.56
298.984	89.56
299.214	88.56
299.445	97.56
299.675	83.56
299.905	96.56
300.136	83.56
300.366	87.56
300.597	105.56
300.827	86.56
301.057	100.56
301.288	89.56
301.518	79.56
301.748	84.56
301.979	94.56
302.209	95.56
302.439	98.56
302.669	87.56
302.9	93.56
303.13	82.56
303.36	93.56
303.59	94.56
303.82	105.56
304.051	73.56
304.281	86.56
304.511	84.56
304.741	81.56
304.971	83.56
305.201	80.56
305.431	78.56
305.661	81.56
305.891	86.56
306.121	103.56
306.352	101.56
306.582	99.56
306.812	81.56
307.042	102.56
307.272	88.56
307.502	86.56
307.731	95.56
307.961	85.56
308.191	77.56
308.421	86.56
308.651	81.56
308.881	88.56
309.111	97.56
309.341	76.56
309.571	93.56
309.8	88.56
310.03	105.56
310.26	108.56
310.49	84.56
310.72	90.56
310.949	81.56
311.179	98.56
311.409	94.56
311.639	83.56
311.868	82.56
312.098	80.56
312.328	77.56
312.557	102.56
312.787	95.56
313.017	90.56
313.246	75.56
313.476	93.56
313.706	97.56
313.935	99.56
314.165	87.56
314.394	103.56
314.624	83.56
314.853	88.56
315.083	79.56
315.312	82.56
315.542	71.56
315.771	96.56
316.001	87.56
316.23	75.56
316.46	90.56
316.689	86.56
316.919	83.56
317.148	91.56
317.377	99.56
317.607	88.56
317.836	93.56
318.065	98.56
318.295	82.56
318.524	94.56
318.753	93.56
318.983	89.56
319.212	92.56
319.441	104.56
319.67	107.56
319.9	82.56
320.129	87.56
320.358	84.56
320.587	97.56
320.816	99.56
321.046	76.56
321.275	88.56
321.504	74.56
321.733	91.56
321.962	109.56
322.191	86.56
322.42	102.56
322.649	98.56
322.878	97.56
323.108	97.56
323.337	106.56
323.566	137.56
323.795	130.56
324.024	181.56
324.253	341.56
324.482	710.56
324.71	1420.56
324.939	1865.56
325.168	695.56
325.397	197.56
325.626	126.56
325.855	126.56
326.084	118.56
326.313	123.56
326.542	134.56
326.77	209.56
326.999	415.56
327.228	830.56
327.457	1454.56
327.686	1165.56
327.914	331.56
328.143	169.56
328.372	133.56
328.6	104.56
328.829	118.56
329.058	108.56
329.287	115.56
329.515	107.56
329.744	93.56
329.972	96.56
330.201	105.56
330.43	99.56
330.658	105.56
330.887	130.56
331.115	127.56
331.344	91.56
331.572	81.56
331.801	98.56
332.03	90.56
332.258	77.56
332.486	79.56
332.715	78.56
332.943	90.56
333.172	77.56
333.4	85.56
333.629	112.56
333.857	104.56
334.085	94.56
334.314	82.56
334.542	92.56
334.771	95.56
334.999	110.56
335.227	95.56
335.455	85.56
335.684	96.56
335.912	74.56
336.14	88.56
336.369	96.56
336.597	91.56
336.825	97.56
337.053	91.56
337.281	97.56
337.51	102.56
337.738	88.56
337.966	87.56
338.194	84.56
338.422	93.56
338.65	74.56
338.878	89.56
339.106	89.56
339.334	87.56
339.562	86.56
339.79	90.56
340.018	103.56
340.246	103.56
340.474	95.56
340.702	97.56
340.93	78.56
341.158	102.56
341.386	82.56
341.614	85.56
341.842	93.56
342.07	98.56
342.298	95.56
342.526	82.56
342.754	90.56
342.981	87.56
343.209	90.56
343.437	87.56
343.665	84.56
343.893	79.56
344.12	96.56
344.348	84.56
344.576	97.56
344.804	87.56
345.031	75.56
345.259	108.56
345.487	97.56
345.714	79.56
345.942	87.56
346.17	81.56
346.397	91.56
346.625	97.56
346.853	82.56
347.08	71.56
347.308	79.56
347.535	90.56
347.763	89.56
347.99	91.56
348.218	94.56
348.445	94.56
348.673	83.56
348.9	88.56
349.128	96.56
349.355	81.56
349.583	91.56
349.81	95.56
350.037	99.56
350.265	82.56
350.492	91.56
350.72	91.56
350.947	106.56
351.174	96.56
351.402	112.56
351.629	100.56
351.856	90.56
352.083	84.56
352.311	90.56
352.538	85.56
352.765	109.56
352.992	97.56
353.22	106.56
353.447	98.56
353.674	95.56
353.901	78.56
354.128	82.56
354.355	81.56
354.583	97.56
354.81	91.56
355.037	77.56
355.264	81.56
355.491	74.56
355.718	83.56
355.945	88.56
356.172	83.56
356.399	96.56
356.626	97.56
356.853	82.56
357.08	94.56
357.307	89.56
357.534	85.56
357.761	86.56
357.988	88.56
358.215	86.56
358.441	95.56
358.668	85.56
358.895	90.56
359.122	76.56
359.349	80.56
359.576	86.56
359.802	87.56
360.029	110.56
360.256	95.56
360.483	95.56
360.709	92.56
360.936	92.56
361.163	87.56
361.39	88.56
361.616	79.56
361.843	101.56
362.07	96.56
362.296	116.56
362.523	88.56
362.749	90.56
362.976	91.56
363.203	85.56
363.429	83.56
363.656	100.56
363.882	76.56
364.109	84.56
364.335	87.56
364.562	88.56
364.788	87.56
365.015	87.56
365.241	85.56
365.468	97.56
365.694	95.56
365.92	99.56
366.147	97.56
366.373	82.56
366.599	81.56
366.826	78.56
367.052	82.56
367.278	94.56
367.505	82.56
367.731	87.56
367.957	83.56
368.184	105.56
368.41	101.56
368.636	105.56
368.862	110.56
369.089	115.56
369.315	105.56
369.541	102.56
369.767	87.56
369.993	98.56
370.219	84.56
370.445	86.56
370.672	90.56
370.898	92.56
371.124	89.56
371.35	76.56
371.576	77.56
371.802	66.56
372.028	70.56
372.254	71.56
372.48	106.56
372.706	81.56
372.932	80.56
373.158	85.56
373.384	90.56
373.61	80.56
373.835	79.56
374.061	81.56
374.287	72.56
374.513	91.56
374.739	75.56
374.965	72.56
375.191	85.56
375.416	80.56
375.642	80.56
375.868	105.56
376.094	94.56
376.319	76.56
376.545	89.56
376.771	83.56
376.997	89.56
377.222	98.56
377.448	96.56
377.674	96.56
377.899	82.56
378.125	87.56
378.35	91.56
378.576	80.56
378.802	74.56
379.027	81.56
379.253	89.56
379.478	88.56
379.704	85.56
379.929	86.56
380.155	83.56
380.38	92.56
380.606	91.56
380.831	86.56
381.057	86.56
381.282	103.56
381.507	88.56
381.733	106.56
381.958	94.56
382.184	97.56
382.409	96.56
382.634	96.56
382.86	96.56
383.085	103.56
383.31	86.56
383.535	80.56
383.761	94.56
383.986	95.56
384.211	95.56
384.436	96.56
384.662	99.56
384.887	91.56
385.112	97.56
385.337	82.56
385.562	91.56
385.787	90.56
386.013	107.56
386.238	102.56
386.463	95.56
386.688	107.56
386.913	94.56
387.138	97.56
387.363	90.56
387.588	93.56
387.813	105.56
388.038	88.56
388.263	104.56
388.488	104.56
388.713	95.56
388.938	87.56
389.163	82.56
389.387	103.56
389.612	96.56
389.837	87.56
390.062	99.56
390.287	98.56
390.512	98.56
390.736	91.56
390.961	81.56
391.186	90.56
391.411	97.56
391.636	89.56
391.86	90.56
392.085	72.56
392.31	75.56
392.534	70.56
392.759	85.56
392.984	71.56
393.208	69.56
393.433	67.56
393.658	93.56
393.882	84.56
394.107	79.56
394.331	85.56
394.556	82.56
394.78	80.56
395.005	92.56
395.229	70.56
395.454	82.56
395.678	85.56
395.903	74.56
396.127	94.56
396.352	89.56
396.576	71.56
396.801	70.56
397.025	89.56
397.249	85.56
397.474	99.56
397.698	78.56
397.922	85.56
398.147	80.56
398.371	83.56
398.595	83.56
398.82	69.56
399.044	80.56
399.268	83.56
399.492	91.56
399.717	89.56
399.941	85.56
400.165	89.56
400.389	83.56
400.613	77.56
400.837	74.56
401.062	82.56
401.286	74.56
401.51	83.56
401.734	78.56
401.958	94.56
402.182	107.56
402.406	139.56
402.63	107.56
402.854	95.56
403.078	81.56
403.302	89.56
403.526	82.56
403.75	99.56
403.974	73.56
404.198	77.56
404.422	69.56
404.645	84.56
404.869	95.56
405.093	75.56
405.317	86.56
405.541	94.56
405.765	102.56
405.988	112.56
406.212	151.56
406.436	177.56
406.66	123.56
406.883	94.56
407.107	80.56
407.331	91.56
407.555	84.56
407.778	93.56
408.002	89.56
408.226	94.56
408.449	97.56
408.673	85.56
408.896	100.56
409.12	90.56
409.344	95.56
409.567	101.56
409.791	89.56
410.014	94.56
410.238	91.56
410.461	87.56
410.685	87.56
410.908	88.56
411.132	110.56
411.355	98.56
411.578	93.56
411.802	80.56
412.025	90.56
412.249	90.56
412.472	80.56
412.695	88.56
412.919	106.56
413.142	83.56
413.365	87.56
413.589	87.56
413.812	83.56
414.035	89.56
414.258	86.56
414.482	75.56
414.705	88.56
414.928	75.56
415.151	91.56
415.374	94.56
415.597	82.56
415.821	97.56
416.044	81.56
416.267	62.56
416.49	79.56
416.713	80.56
416.936	79.56
417.159	63.56
417.382	80.56
417.605	92.56
417.828	89.56
418.051	81.56
418.274	79.56
418.497	78.56
418.72	96.56
418.943	95.56
419.166	89.56
419.389	89.56
419.611	93.56
419.834	79.56
420.057	83.56
420.28	90.56
420.503	87.56
420.726	92.56
420.948	92.56
421.171	86.56
421.394	95.56
421.617	85.56
421.839	90.56
422.062	90.56
422.285	95.56
422.507	95.56
422.73	81.56
422.953	95.56
423.175	83.56
423.398	77.56
423.621	103.56
423.843	78.56
424.066	84.56
424.288	95.56
424.511	85.56
424.733	92.56
424.956	95.56
425.178	94.56
425.401	98.56
425.623	97.56
425.846	93.56
426.068	91.56
426.291	95.56
426.513	106.56
426.735	103.56
426.958	91.56
427.18	93.56
427.402	128.56
427.625	161.56
427.847	112.56
428.069	83.56
428.292	74.56
428.514	85.56
428.736	80.56
428.958	91.56
429.181	87.56
429.403	80.56
429.625	82.56
429.847	87.56
430.069	84.56
430.292	92.56
430.514	86.56
430.736	74.56
430.958	81.56
431.18	71.56
431.402	76.56
431.624	74.56
431.846	65.56
432.068	74.56
432.29	81.56
432.512	84.56
432.734	79.56
432.956	85.56
433.178	90.56
433.4	83.56
433.622	91.56
433.844	91.56
434.066	96.56
434.287	81.56
434.509	88.56
434.731	92.56
434.953	88.56
435.175	88.56
435.397	76.56
435.618	79.56
435.84	96.56
436.062	94.56
436.284	103.56
436.505	95.56
436.727	111.56
436.949	84.56
437.17	84.56
437.392	62.56
437.614	77.56
437.835	96.56
438.057	107.56
438.278	93.56
438.5	84.56
438.721	124.56
438.943	95.56
439.165	90.56
439.386	82.56
439.608	99.56
439.829	109.56
440.05	103.56
440.272	133.56
440.493	101.56
440.715	98.56
440.936	87.56
441.158	71.56
441.379	83.56
441.6	85.56
441.822	82.56
442.043	83.56
442.264	90.56
442.486	99.56
442.707	103.56
442.928	113.56
443.149	118.56
443.371	117.56
443.592	91.56
443.813	111.56
444.034	93.56
444.255	94.56
444.476	97.56
444.698	83.56
444.919	81.56
445.14	122.56
445.361	114.56
445.582	95.56
445.803	126.56
446.024	129.56
446.245	107.56
446.466	105.56
446.687	80.56
446.908	67.56
447.129	80.56
447.35	96.56
447.571	87.56
447.792	91.56
448.013	105.56
448.234	83.56
448.455	98.56
448.675	111.56
448.896	99.56
449.117	86.56
449.338	102.56
449.559	109.56
449.779	102.56
450	88.56
450.221	85.56
450.442	87.56
450.662	97.56
450.883	101.56
451.104	102.56
451.324	85.56
451.545	85.56
451.766	90.56
451.986	94.56
452.207	97.56
452.428	83.56
452.648	110.56
452.869	94.56
453.089	87.56
453.31	111.56
453.53	74.56
453.751	84.56
453.971	81.56
454.192	89.56
454.412	85.56
454.633	88.56
454.853	78.56
455.073	88.56
455.294	87.56
455.514	94.56
455.734	100.56
455.955	81.56
456.175	99.56
456.395	84.56
456.616	81.56
456.836	74.56
457.056	68.56
457.276	78.56
457.497	82.56
457.717	67.56
457.937	89.56
458.157	89.56
458.377	92.56
458.598	115.56
458.818	133.56
459.038	135.56
459.258	102.56
459.478	92.56
459.698	91.56
459.918	82.56
460.138	74.56
460.358	86.56
460.578	74.56
460.798	76.56
461.018	82.56
461.238	90.56
461.458	76.56
461.678	79.56
461.898	85.56
462.118	89.56
462.338	86.56
462.558	93.56
462.777	75.56
462.997	67.56
463.217	67.56
463.437	80.56
463.657	76.56
463.876	66.56
464.096	83.56
464.316	71.56
464.536	89.56
464.755	78.56
464.975	90.56
465.195	154.56
465.414	146.56
465.634	86.56
465.854	81.56
466.073	85.56
466.293	93.56
466.512	82.56
466.732	92.56
466.951	80.56
467.171	85.56
467.391	91.56
467.61	95.56
467.829	83.56
468.049	83.56
468.268	73.56
468.488	66.56
468.707	93.56
468.927	73.56
469.146	83.56
469.365	75.56
469.585	78.56
469.804	87.56
470.023	87.56
470.243	94.56
470.462	89.56
470.681	93.56
470.901	73.56
471.12	81.56
471.339	88.56
471.558	81.56
471.777	87.56
471.997	90.56
472.216	98.56
472.435	85.56
472.654	78.56
472.873	80.56
473.092	89.56
473.311	83.56
473.53	75.56
473.749	79.56
473.968	92.56
474.187	113.56
474.406	71.56
474.625	74.56
474.844	87.56
475.063	89.56
475.282	80.56
475.501	79.56
475.72	94.56
475.939	80.56
476.158	75.56
476.377	79.56
476.596	75.56
476.814	91.56
477.033	75.56
477.252	69.56
477.471	84.56
477.69	88.56
477.908	78.56
478.127	86.56
478.346	71.56
478.564	82.56
478.783	100.56
479.002	98.56
479.22	93.56
479.439	98.56
479.658	92.56
479.876	91.56
480.095	82.56
480.313	78.56
480.532	81.56
480.751	95.56
480.969	90.56
481.188	105.56
481.406	75.56
481.624	73.56
481.843	86.56
482.061	86.56
482.28	87.56
482.498	92.56
482.717	76.56
482.935	72.56
483.153	87.56
483.372	91.56
483.59	84.56
483.808	75.56
484.027	82.56
484.245	89.56
484.463	90.56
484.681	99.56
484.9	88.56
485.118	100.56
485.336	96.56
485.554	95.56
485.772	85.56
485.99	106.56
486.209	89.56
486.427	113.56
486.645	94.56
486.863	106.56
487.081	78.56
487.299	106.56
487.517	92.56
487.735	93.56
487.953	83.56
488.171	75.56
488.389	77.56
488.607	99.56
488.825	98.56
489.043	96.56
489.261	82.56
489.479	76.56
489.696	107.56
489.914	90.56
490.132	96.56
490.35	91.56
490.568	80.56
490.786	85.56
491.003	72.56
491.221	89.56
491.439	86.56
491.657	97.56
491.874	85.56
492.092	84.56
492.31	87.56
492.527	97.56
492.745	84.56
492.963	77.56
493.18	96.56
493.398	95.56
493.615	80.56
493.833	86.56
494.05	86.56
494.268	93.56
494.485	85.56
494.703	98.56
494.92	82.56
495.138	91.56
495.355	97.56
495.573	99.56
495.79	92.56
496.008	79.56
496.225	89.56
496.442	78.56
496.66	83.56
496.877	94.56
497.094	101.56
497.312	79.56
497.529	81.56
497.746	83.56
497.963	81.56
498.181	88.56
498.398	82.56
498.615	103.56
498.832	89.56
499.049	89.56
499.267	79.56
499.484	87.56
499.701	78.56
499.918	94.56
500.135	91.56
500.352	75.56
500.569	97.56
500.786	93.56
501.003	97.56
501.22	88.56
501.437	88.56
501.654	95.56
501.871	78.56
502.088	90.56
502.305	96.56
502.522	94.56
502.739	90.56
502.956	96.56
503.172	102.56
503.389	96.56
503.606	87.56
503.823	85.56
504.04	86.56
504.256	79.56
504.473	89.56
504.69	76.56
504.907	82.56
505.123	96.56
505.34	76.56
505.557	86.56
505.773	89.56
505.99	88.56
506.207	86.56
506.423	80.56
506.64	83.56
506.856	83.56
507.073	98.56
507.289	78.56
507.506	88.56
507.722	110.56
507.939	102.56
508.155	89.56
508.372	81.56
508.588	89.56
508.805	85.56
509.021	96.56
509.238	99.56
509.454	86.56
509.67	85.56
509.887	92.56
510.103	124.56
510.319	203.56
510.536	701.56
510.752	2050.56
510.968	566.56
511.184	134.56
511.401	115.56
511.617	99.56
511.833	88.56
512.049	87.56
512.265	90.56
512.481	90.56
512.698	91.56
512.914	83.56
513.13	94.56
513.346	79.56
513.562	78.56
513.778	96.56
513.994	106.56
514.21	102.56
514.426	109.56
514.642	122.56
514.858	118.56
515.074	166.56
515.29	398.56
515.506	1266.56
515.721	448.56
515.937	129.56
516.153	109.56
516.369	100.56
516.585	87.56
516.801	81.56
517.016	96.56
517.232	79.56
517.448	80.56
517.664	83.56
