Data from Uncirc_1992_H10_HRD10591_00087.txt Node
Date: Wed Jan 03 11:46:33 EST 2024
User: Yrep
Spectrometer: HR+D1059
Trigger mode: 1
Integration Time (sec): 1.000000E-1
Scans to average: 1
Electric dark correction enabled: true
Nonlinearity correction enabled: false
Boxcar width: 0
XAxis mode: Wavelengths
Number of Pixels in Spectrum: 2048
>>>>>Begin Spectral Data<<<<<
223.165	-27.12
223.4	-27.12
223.635	-27.12
223.869	-11.12
224.104	-16.12
224.338	-19.12
224.573	-23.12
224.808	-10.12
225.042	3.88
225.277	-10.12
225.511	-11.12
225.746	-3.12
225.98	8.88
226.215	13.88
226.449	19.88
226.683	20.88
226.918	31.88
227.152	31.88
227.387	30.88
227.621	31.88
227.856	58.88
228.09	49.88
228.324	26.88
228.559	39.88
228.793	55.88
229.027	63.88
229.262	60.88
229.496	67.88
229.73	73.88
229.964	75.88
230.199	60.88
230.433	82.88
230.667	73.88
230.901	84.88
231.136	75.88
231.37	77.88
231.604	67.88
231.838	68.88
232.072	73.88
232.306	76.88
232.541	78.88
232.775	78.88
233.009	68.88
233.243	73.88
233.477	72.88
233.711	76.88
233.945	61.88
234.179	79.88
234.413	69.88
234.647	74.88
234.881	79.88
235.115	81.88
235.349	72.88
235.583	80.88
235.817	74.88
236.051	73.88
236.285	68.88
236.519	73.88
236.753	72.88
236.987	67.88
237.221	57.88
237.455	79.88
237.689	73.88
237.922	67.88
238.156	72.88
238.39	79.88
238.624	64.88
238.858	76.88
239.091	62.88
239.325	69.88
239.559	60.88
239.793	71.88
240.027	77.88
240.26	65.88
240.494	78.88
240.728	75.88
240.961	60.88
241.195	59.88
241.429	82.88
241.662	67.88
241.896	75.88
242.13	75.88
242.363	87.88
242.597	62.88
242.83	87.88
243.064	73.88
243.298	75.88
243.531	80.88
243.765	63.88
243.998	86.88
244.232	82.88
244.465	85.88
244.699	87.88
244.932	84.88
245.166	71.88
245.399	72.88
245.633	77.88
245.866	69.88
246.099	69.88
246.333	77.88
246.566	68.88
246.8	77.88
247.033	79.88
247.266	76.88
247.5	73.88
247.733	64.88
247.966	75.88
248.2	78.88
248.433	67.88
248.666	75.88
248.899	75.88
249.133	93.88
249.366	85.88
249.599	81.88
249.832	83.88
250.066	79.88
250.299	69.88
250.532	79.88
250.765	81.88
250.998	79.88
251.231	74.88
251.465	74.88
251.698	75.88
251.931	59.88
252.164	62.88
252.397	68.88
252.63	78.88
252.863	57.88
253.096	79.88
253.329	82.88
253.562	75.88
253.795	68.88
254.028	90.88
254.261	77.88
254.494	64.88
254.727	79.88
254.96	68.88
255.193	72.88
255.426	74.88
255.659	81.88
255.892	79.88
256.124	78.88
256.357	76.88
256.59	72.88
256.823	71.88
257.056	81.88
257.289	67.88
257.521	82.88
257.754	84.88
257.987	67.88
258.22	59.88
258.452	65.88
258.685	75.88
258.918	70.88
259.151	75.88
259.383	72.88
259.616	78.88
259.849	77.88
260.081	74.88
260.314	87.88
260.547	84.88
260.779	79.88
261.012	77.88
261.244	87.88
261.477	96.88
261.71	96.88
261.942	101.88
262.175	103.88
262.407	74.88
262.64	73.88
262.872	71.88
263.105	77.88
263.337	89.88
263.57	76.88
263.802	63.88
264.035	88.88
264.267	64.88
264.499	82.88
264.732	87.88
264.964	87.88
265.197	70.88
265.429	84.88
265.661	88.88
265.894	78.88
266.126	74.88
266.358	71.88
266.591	85.88
266.823	85.88
267.055	79.88
267.287	68.88
267.52	77.88
267.752	77.88
267.984	87.88
268.216	63.88
268.448	63.88
268.681	83.88
268.913	81.88
269.145	86.88
269.377	80.88
269.609	69.88
269.841	62.88
270.073	79.88
270.306	83.88
270.538	77.88
270.77	83.88
271.002	67.88
271.234	77.88
271.466	73.88
271.698	77.88
271.93	98.88
272.162	69.88
272.394	94.88
272.626	85.88
272.858	90.88
273.09	77.88
273.322	73.88
273.553	91.88
273.785	79.88
274.017	80.88
274.249	71.88
274.481	67.88
274.713	87.88
274.945	93.88
275.176	83.88
275.408	84.88
275.64	85.88
275.872	76.88
276.104	92.88
276.335	81.88
276.567	88.88
276.799	95.88
277.031	90.88
277.262	85.88
277.494	79.88
277.726	84.88
277.957	85.88
278.189	70.88
278.421	99.88
278.652	86.88
278.884	71.88
279.115	80.88
279.347	80.88
279.579	65.88
279.81	77.88
280.042	69.88
280.273	92.88
280.505	84.88
280.736	81.88
280.968	83.88
281.199	91.88
281.431	83.88
281.662	89.88
281.894	84.88
282.125	86.88
282.356	111.88
282.588	117.88
282.819	93.88
283.051	83.88
283.282	83.88
283.513	72.88
283.745	96.88
283.976	94.88
284.207	74.88
284.439	79.88
284.67	94.88
284.901	81.88
285.132	69.88
285.364	80.88
285.595	79.88
285.826	81.88
286.057	79.88
286.288	81.88
286.52	87.88
286.751	101.88
286.982	74.88
287.213	86.88
287.444	81.88
287.675	75.88
287.906	73.88
288.138	85.88
288.369	92.88
288.6	72.88
288.831	71.88
289.062	73.88
289.293	76.88
289.524	65.88
289.755	81.88
289.986	96.88
290.217	85.88
290.448	79.88
290.679	69.88
290.91	81.88
291.141	91.88
291.371	91.88
291.602	78.88
291.833	74.88
292.064	77.88
292.295	93.88
292.526	78.88
292.757	85.88
292.987	85.88
293.218	84.88
293.449	86.88
293.68	80.88
293.91	71.88
294.141	88.88
294.372	79.88
294.603	73.88
294.833	73.88
295.064	71.88
295.295	77.88
295.525	106.88
295.756	97.88
295.987	104.88
296.217	127.88
296.448	118.88
296.679	80.88
296.909	81.88
297.14	87.88
297.37	95.88
297.601	84.88
297.831	80.88
298.062	79.88
298.292	72.88
298.523	76.88
298.753	85.88
298.984	85.88
299.214	87.88
299.445	83.88
299.675	90.88
299.905	103.88
300.136	97.88
300.366	90.88
300.597	77.88
300.827	88.88
301.057	85.88
301.288	89.88
301.518	83.88
301.748	73.88
301.979	89.88
302.209	89.88
302.439	107.88
302.669	90.88
302.9	72.88
303.13	89.88
303.36	87.88
303.59	89.88
303.82	94.88
304.051	88.88
304.281	88.88
304.511	86.88
304.741	84.88
304.971	80.88
305.201	89.88
305.431	76.88
305.661	76.88
305.891	76.88
306.121	88.88
306.352	104.88
306.582	100.88
306.812	88.88
307.042	85.88
307.272	94.88
307.502	85.88
307.731	84.88
307.961	77.88
308.191	88.88
308.421	85.88
308.651	89.88
308.881	90.88
309.111	84.88
309.341	92.88
309.571	88.88
309.8	100.88
310.03	93.88
310.26	101.88
310.49	87.88
310.72	86.88
310.949	109.88
311.179	101.88
311.409	103.88
311.639	95.88
311.868	102.88
312.098	80.88
312.328	99.88
312.557	104.88
312.787	100.88
313.017	74.88
313.246	100.88
313.476	91.88
313.706	99.88
313.935	78.88
314.165	93.88
314.394	89.88
314.624	93.88
314.853	86.88
315.083	80.88
315.312	78.88
315.542	100.88
315.771	79.88
316.001	87.88
316.23	82.88
316.46	89.88
316.689	84.88
316.919	85.88
317.148	89.88
317.377	83.88
317.607	92.88
317.836	96.88
318.065	92.88
318.295	85.88
318.524	79.88
318.753	77.88
318.983	79.88
319.212	91.88
319.441	104.88
319.67	103.88
319.9	91.88
320.129	89.88
320.358	96.88
320.587	85.88
320.816	92.88
321.046	100.88
321.275	91.88
321.504	87.88
321.733	94.88
321.962	80.88
322.191	92.88
322.42	88.88
322.649	104.88
322.878	96.88
323.108	117.88
323.337	110.88
323.566	112.88
323.795	148.88
324.024	197.88
324.253	372.88
324.482	823.88
324.71	1627.88
324.939	2117.88
325.168	793.88
325.397	236.88
325.626	133.88
325.855	128.88
326.084	122.88
326.313	105.88
326.542	147.88
326.77	219.88
326.999	424.88
327.228	898.88
327.457	1629.88
327.686	1287.88
327.914	342.88
328.143	176.88
328.372	124.88
328.6	116.88
328.829	107.88
329.058	113.88
329.287	107.88
329.515	96.88
329.744	96.88
329.972	93.88
330.201	86.88
330.43	95.88
330.658	105.88
330.887	139.88
331.115	112.88
331.344	84.88
331.572	93.88
331.801	94.88
332.03	101.88
332.258	78.88
332.486	75.88
332.715	87.88
332.943	91.88
333.172	89.88
333.4	81.88
333.629	97.88
333.857	102.88
334.085	91.88
334.314	96.88
334.542	104.88
334.771	83.88
334.999	82.88
335.227	100.88
335.455	87.88
335.684	80.88
335.912	89.88
336.14	97.88
336.369	97.88
336.597	88.88
336.825	92.88
337.053	74.88
337.281	89.88
337.51	93.88
337.738	83.88
337.966	83.88
338.194	85.88
338.422	103.88
338.65	93.88
338.878	73.88
339.106	84.88
339.334	84.88
339.562	78.88
339.79	90.88
340.018	92.88
340.246	96.88
340.474	77.88
340.702	91.88
340.93	66.88
341.158	73.88
341.386	99.88
341.614	91.88
341.842	87.88
342.07	91.88
342.298	89.88
342.526	74.88
342.754	100.88
342.981	87.88
343.209	71.88
343.437	100.88
343.665	87.88
343.893	92.88
344.12	89.88
344.348	89.88
344.576	102.88
344.804	84.88
345.031	98.88
345.259	102.88
345.487	95.88
345.714	80.88
345.942	88.88
346.17	79.88
346.397	73.88
346.625	96.88
346.853	92.88
347.08	83.88
347.308	83.88
347.535	89.88
347.763	90.88
347.99	88.88
348.218	94.88
348.445	92.88
348.673	87.88
348.9	94.88
349.128	90.88
349.355	93.88
349.583	91.88
349.81	83.88
350.037	87.88
350.265	89.88
350.492	81.88
350.72	85.88
350.947	92.88
351.174	99.88
351.402	89.88
351.629	99.88
351.856	94.88
352.083	91.88
352.311	94.88
352.538	92.88
352.765	104.88
352.992	99.88
353.22	84.88
353.447	85.88
353.674	102.88
353.901	89.88
354.128	97.88
354.355	91.88
354.583	84.88
354.81	90.88
355.037	92.88
355.264	91.88
355.491	87.88
355.718	93.88
355.945	73.88
356.172	95.88
356.399	95.88
356.626	74.88
356.853	91.88
357.08	90.88
357.307	81.88
357.534	89.88
357.761	85.88
357.988	103.88
358.215	87.88
358.441	76.88
358.668	79.88
358.895	90.88
359.122	89.88
359.349	90.88
359.576	67.88
359.802	85.88
360.029	120.88
360.256	111.88
360.483	80.88
360.709	95.88
360.936	91.88
361.163	86.88
361.39	85.88
361.616	87.88
361.843	88.88
362.07	86.88
362.296	87.88
362.523	101.88
362.749	91.88
362.976	82.88
363.203	89.88
363.429	84.88
363.656	79.88
363.882	95.88
364.109	73.88
364.335	92.88
364.562	88.88
364.788	80.88
365.015	77.88
365.241	104.88
365.468	95.88
365.694	101.88
365.92	91.88
366.147	85.88
366.373	76.88
366.599	91.88
366.826	64.88
367.052	82.88
367.278	97.88
367.505	82.88
367.731	99.88
367.957	85.88
368.184	87.88
368.41	89.88
368.636	108.88
368.862	115.88
369.089	99.88
369.315	92.88
369.541	95.88
369.767	75.88
369.993	75.88
370.219	83.88
370.445	89.88
370.672	73.88
370.898	94.88
371.124	77.88
371.35	86.88
371.576	87.88
371.802	85.88
372.028	85.88
372.254	76.88
372.48	73.88
372.706	84.88
372.932	91.88
373.158	83.88
373.384	73.88
373.61	81.88
373.835	88.88
374.061	73.88
374.287	85.88
374.513	85.88
374.739	86.88
374.965	79.88
375.191	86.88
375.416	93.88
375.642	94.88
375.868	97.88
376.094	99.88
376.319	87.88
376.545	76.88
376.771	86.88
376.997	77.88
377.222	88.88
377.448	77.88
377.674	88.88
377.899	91.88
378.125	78.88
378.35	88.88
378.576	93.88
378.802	92.88
379.027	82.88
379.253	81.88
379.478	73.88
379.704	93.88
379.929	92.88
380.155	84.88
380.38	91.88
380.606	67.88
380.831	81.88
381.057	84.88
381.282	73.88
381.507	107.88
381.733	92.88
381.958	87.88
382.184	85.88
382.409	82.88
382.634	101.88
382.86	93.88
383.085	103.88
383.31	97.88
383.535	83.88
383.761	86.88
383.986	88.88
384.211	87.88
384.436	95.88
384.662	87.88
384.887	97.88
385.112	108.88
385.337	99.88
385.562	103.88
385.787	98.88
386.013	102.88
386.238	107.88
386.463	102.88
386.688	104.88
386.913	72.88
387.138	99.88
387.363	101.88
387.588	89.88
387.813	90.88
388.038	83.88
388.263	100.88
388.488	104.88
388.713	102.88
388.938	86.88
389.163	97.88
389.387	91.88
389.612	80.88
389.837	89.88
390.062	92.88
390.287	87.88
390.512	80.88
390.736	88.88
390.961	90.88
391.186	84.88
391.411	94.88
391.636	98.88
391.86	75.88
392.085	80.88
392.31	79.88
392.534	75.88
392.759	96.88
392.984	81.88
393.208	74.88
393.433	71.88
393.658	75.88
393.882	72.88
394.107	76.88
394.331	79.88
394.556	83.88
394.78	76.88
395.005	81.88
395.229	79.88
395.454	83.88
395.678	75.88
395.903	80.88
396.127	79.88
396.352	92.88
396.576	76.88
396.801	75.88
397.025	87.88
397.249	91.88
397.474	100.88
397.698	97.88
397.922	87.88
398.147	86.88
398.371	73.88
398.595	62.88
398.82	84.88
399.044	59.88
399.268	79.88
399.492	93.88
399.717	91.88
399.941	84.88
400.165	91.88
400.389	94.88
400.613	97.88
400.837	77.88
401.062	92.88
401.286	82.88
401.51	87.88
401.734	78.88
401.958	84.88
402.182	110.88
402.406	152.88
402.63	96.88
402.854	76.88
403.078	85.88
403.302	88.88
403.526	93.88
403.75	93.88
403.974	85.88
404.198	86.88
404.422	73.88
404.645	83.88
404.869	86.88
405.093	94.88
405.317	82.88
405.541	82.88
405.765	83.88
405.988	101.88
406.212	158.88
406.436	216.88
406.66	139.88
406.883	82.88
407.107	80.88
407.331	100.88
407.555	93.88
407.778	87.88
408.002	93.88
408.226	81.88
408.449	95.88
408.673	71.88
408.896	85.88
409.12	91.88
409.344	93.88
409.567	89.88
409.791	97.88
410.014	79.88
410.238	101.88
410.461	89.88
410.685	103.88
410.908	75.88
411.132	99.88
411.355	100.88
411.578	97.88
411.802	79.88
412.025	76.88
412.249	90.88
412.472	95.88
412.695	77.88
412.919	102.88
413.142	80.88
413.365	80.88
413.589	81.88
413.812	98.88
414.035	85.88
414.258	95.88
414.482	75.88
414.705	78.88
414.928	75.88
415.151	81.88
415.374	103.88
415.597	88.88
415.821	82.88
416.044	83.88
416.267	80.88
416.49	75.88
416.713	73.88
416.936	74.88
417.159	90.88
417.382	86.88
417.605	82.88
417.828	90.88
418.051	84.88
418.274	75.88
418.497	82.88
418.72	75.88
418.943	81.88
419.166	96.88
419.389	89.88
419.611	80.88
419.834	92.88
420.057	78.88
420.28	71.88
420.503	91.88
420.726	89.88
420.948	76.88
421.171	87.88
421.394	101.88
421.617	84.88
421.839	83.88
422.062	77.88
422.285	78.88
422.507	97.88
422.73	96.88
422.953	81.88
423.175	81.88
423.398	84.88
423.621	85.88
423.843	83.88
424.066	85.88
424.288	92.88
424.511	95.88
424.733	90.88
424.956	95.88
425.178	94.88
425.401	105.88
425.623	82.88
425.846	86.88
426.068	88.88
426.291	97.88
426.513	88.88
426.735	79.88
426.958	81.88
427.18	93.88
427.402	113.88
427.625	151.88
427.847	109.88
428.069	93.88
428.292	81.88
428.514	92.88
428.736	80.88
428.958	71.88
429.181	82.88
429.403	89.88
429.625	83.88
429.847	85.88
430.069	98.88
430.292	107.88
430.514	92.88
430.736	88.88
430.958	73.88
431.18	70.88
431.402	73.88
431.624	75.88
431.846	84.88
432.068	83.88
432.29	89.88
432.512	105.88
432.734	93.88
432.956	84.88
433.178	93.88
433.4	88.88
433.622	81.88
433.844	76.88
434.066	83.88
434.287	80.88
434.509	86.88
434.731	96.88
434.953	86.88
435.175	78.88
435.397	77.88
435.618	94.88
435.84	89.88
436.062	103.88
436.284	113.88
436.505	108.88
436.727	88.88
436.949	75.88
437.17	81.88
437.392	85.88
437.614	93.88
437.835	94.88
438.057	116.88
438.278	97.88
438.5	101.88
438.721	115.88
438.943	92.88
439.165	76.88
439.386	96.88
439.608	84.88
439.829	95.88
440.05	118.88
440.272	128.88
440.493	98.88
440.715	91.88
440.936	86.88
441.158	71.88
441.379	83.88
441.6	79.88
441.822	89.88
442.043	81.88
442.264	95.88
442.486	104.88
442.707	103.88
442.928	91.88
443.149	118.88
443.371	135.88
443.592	92.88
443.813	101.88
444.034	95.88
444.255	91.88
444.476	83.88
444.698	77.88
444.919	81.88
445.14	109.88
445.361	117.88
445.582	104.88
445.803	112.88
446.024	116.88
446.245	142.88
446.466	113.88
446.687	92.88
446.908	96.88
447.129	88.88
447.35	78.88
447.571	81.88
447.792	76.88
448.013	87.88
448.234	117.88
448.455	99.88
448.675	100.88
448.896	102.88
449.117	101.88
449.338	81.88
449.559	105.88
449.779	120.88
450	92.88
450.221	102.88
450.442	82.88
450.662	89.88
450.883	98.88
451.104	99.88
451.324	88.88
451.545	81.88
451.766	80.88
451.986	86.88
452.207	80.88
452.428	95.88
452.648	81.88
452.869	109.88
453.089	109.88
453.31	104.88
453.53	83.88
453.751	87.88
453.971	96.88
454.192	105.88
454.412	91.88
454.633	96.88
454.853	77.88
455.073	87.88
455.294	81.88
455.514	87.88
455.734	82.88
455.955	75.88
456.175	82.88
456.395	74.88
456.616	79.88
456.836	85.88
457.056	73.88
457.276	86.88
457.497	83.88
457.717	83.88
457.937	77.88
458.157	83.88
458.377	87.88
458.598	95.88
458.818	141.88
459.038	128.88
459.258	104.88
459.478	82.88
459.698	62.88
459.918	73.88
460.138	86.88
460.358	82.88
460.578	83.88
460.798	89.88
461.018	81.88
461.238	77.88
461.458	78.88
461.678	96.88
461.898	90.88
462.118	89.88
462.338	92.88
462.558	89.88
462.777	86.88
462.997	79.88
463.217	70.88
463.437	90.88
463.657	79.88
463.876	94.88
464.096	83.88
464.316	85.88
464.536	93.88
464.755	82.88
464.975	99.88
465.195	178.88
465.414	147.88
465.634	107.88
465.854	85.88
466.073	85.88
466.293	88.88
466.512	76.88
466.732	76.88
466.951	90.88
467.171	84.88
467.391	92.88
467.61	90.88
467.829	82.88
468.049	64.88
468.268	101.88
468.488	80.88
468.707	77.88
468.927	77.88
469.146	86.88
469.365	89.88
469.585	86.88
469.804	90.88
470.023	91.88
470.243	103.88
470.462	88.88
470.681	97.88
470.901	94.88
471.12	86.88
471.339	93.88
471.558	75.88
471.777	90.88
471.997	83.88
472.216	75.88
472.435	82.88
472.654	83.88
472.873	61.88
473.092	86.88
473.311	82.88
473.53	76.88
473.749	86.88
473.968	85.88
474.187	101.88
474.406	75.88
474.625	84.88
474.844	89.88
475.063	96.88
475.282	78.88
475.501	69.88
475.72	83.88
475.939	79.88
476.158	79.88
476.377	90.88
476.596	82.88
476.814	80.88
477.033	93.88
477.252	96.88
477.471	87.88
477.69	92.88
477.908	93.88
478.127	84.88
478.346	88.88
478.564	83.88
478.783	93.88
479.002	83.88
479.22	85.88
479.439	89.88
479.658	89.88
479.876	86.88
480.095	89.88
480.313	87.88
480.532	88.88
480.751	78.88
480.969	92.88
481.188	98.88
481.406	79.88
481.624	77.88
481.843	77.88
482.061	79.88
482.28	82.88
482.498	70.88
482.717	89.88
482.935	71.88
483.153	71.88
483.372	80.88
483.59	90.88
483.808	88.88
484.027	75.88
484.245	92.88
484.463	84.88
484.681	78.88
484.9	94.88
485.118	101.88
485.336	94.88
485.554	94.88
485.772	97.88
485.99	89.88
486.209	100.88
486.427	104.88
486.645	104.88
486.863	111.88
487.081	106.88
487.299	101.88
487.517	91.88
487.735	85.88
487.953	86.88
488.171	92.88
488.389	79.88
488.607	95.88
488.825	91.88
489.043	80.88
489.261	74.88
489.479	83.88
489.696	83.88
489.914	96.88
490.132	86.88
490.35	79.88
490.568	75.88
490.786	79.88
491.003	70.88
491.221	81.88
491.439	83.88
491.657	106.88
491.874	83.88
492.092	80.88
492.31	80.88
492.527	98.88
492.745	77.88
492.963	85.88
493.18	84.88
493.398	99.88
493.615	98.88
493.833	91.88
494.05	81.88
494.268	86.88
494.485	81.88
494.703	94.88
494.92	85.88
495.138	93.88
495.355	85.88
495.573	93.88
495.79	86.88
496.008	92.88
496.225	84.88
496.442	75.88
496.66	95.88
496.877	103.88
497.094	96.88
497.312	88.88
497.529	83.88
497.746	93.88
497.963	90.88
498.181	94.88
498.398	95.88
498.615	101.88
498.832	103.88
499.049	90.88
499.267	79.88
499.484	94.88
499.701	77.88
499.918	99.88
500.135	89.88
500.352	92.88
500.569	77.88
500.786	78.88
501.003	93.88
501.22	80.88
501.437	94.88
501.654	78.88
501.871	94.88
502.088	84.88
502.305	91.88
502.522	89.88
502.739	88.88
502.956	88.88
503.172	83.88
503.389	94.88
503.606	96.88
503.823	94.88
504.04	91.88
504.256	85.88
504.473	85.88
504.69	68.88
504.907	84.88
505.123	78.88
505.34	97.88
505.557	83.88
505.773	88.88
505.99	80.88
506.207	93.88
506.423	79.88
506.64	89.88
506.856	78.88
507.073	102.88
507.289	94.88
507.506	89.88
507.722	117.88
507.939	102.88
508.155	99.88
508.372	87.88
508.588	85.88
508.805	85.88
509.021	92.88
509.238	103.88
509.454	83.88
509.67	99.88
509.887	111.88
510.103	117.88
510.319	213.88
510.536	753.88
510.752	2318.88
510.968	609.88
511.184	148.88
511.401	116.88
511.617	85.88
511.833	80.88
512.049	83.88
512.265	91.88
512.481	81.88
512.698	85.88
512.914	79.88
513.13	95.88
513.346	92.88
513.562	97.88
513.778	97.88
513.994	96.88
514.21	99.88
514.426	109.88
514.642	131.88
514.858	121.88
515.074	160.88
515.29	431.88
515.506	1431.88
515.721	495.88
515.937	143.88
516.153	107.88
516.369	95.88
516.585	84.88
516.801	92.88
517.016	85.88
517.232	92.88
517.448	96.88
