Data from Uncirc_1992_H10_HRD10591_00037.txt Node
Date: Wed Jan 03 11:46:23 EST 2024
User: Yrep
Spectrometer: HR+D1059
Trigger mode: 1
Integration Time (sec): 1.000000E-1
Scans to average: 1
Electric dark correction enabled: true
Nonlinearity correction enabled: false
Boxcar width: 0
XAxis mode: Wavelengths
Number of Pixels in Spectrum: 2048
>>>>>Begin Spectral Data<<<<<
223.165	-25.62
223.4	-25.62
223.635	-25.62
223.869	-26.62
224.104	-17.62
224.338	-18.62
224.573	-12.62
224.808	-5.62
225.042	-3.62
225.277	-14.62
225.511	-2.62
225.746	10.38
225.98	7.38
226.215	11.38
226.449	7.38
226.683	24.38
226.918	27.38
227.152	39.38
227.387	27.38
227.621	49.38
227.856	55.38
228.09	41.38
228.324	43.38
228.559	54.38
228.793	60.38
229.027	68.38
229.262	62.38
229.496	68.38
229.73	76.38
229.964	86.38
230.199	83.38
230.433	82.38
230.667	56.38
230.901	71.38
231.136	82.38
231.37	91.38
231.604	68.38
231.838	101.38
232.072	92.38
232.306	80.38
232.541	85.38
232.775	68.38
233.009	87.38
233.243	86.38
233.477	75.38
233.711	82.38
233.945	75.38
234.179	88.38
234.413	66.38
234.647	89.38
234.881	97.38
235.115	74.38
235.349	80.38
235.583	72.38
235.817	80.38
236.051	100.38
236.285	68.38
236.519	90.38
236.753	77.38
236.987	72.38
237.221	75.38
237.455	83.38
237.689	72.38
237.922	64.38
238.156	70.38
238.39	68.38
238.624	75.38
238.858	72.38
239.091	72.38
239.325	92.38
239.559	74.38
239.793	71.38
240.027	68.38
240.26	82.38
240.494	74.38
240.728	68.38
240.961	88.38
241.195	71.38
241.429	68.38
241.662	70.38
241.896	67.38
242.13	89.38
242.363	79.38
242.597	67.38
242.83	83.38
243.064	65.38
243.298	85.38
243.531	81.38
243.765	88.38
243.998	78.38
244.232	70.38
244.465	89.38
244.699	89.38
244.932	64.38
245.166	88.38
245.399	73.38
245.633	68.38
245.866	68.38
246.099	72.38
246.333	68.38
246.566	73.38
246.8	61.38
247.033	74.38
247.266	73.38
247.5	57.38
247.733	74.38
247.966	73.38
248.2	82.38
248.433	69.38
248.666	76.38
248.899	93.38
249.133	92.38
249.366	89.38
249.599	87.38
249.832	79.38
250.066	78.38
250.299	86.38
250.532	92.38
250.765	71.38
250.998	84.38
251.231	75.38
251.465	85.38
251.698	79.38
251.931	80.38
252.164	81.38
252.397	77.38
252.63	76.38
252.863	79.38
253.096	90.38
253.329	81.38
253.562	99.38
253.795	88.38
254.028	91.38
254.261	80.38
254.494	80.38
254.727	84.38
254.96	76.38
255.193	79.38
255.426	80.38
255.659	81.38
255.892	92.38
256.124	75.38
256.357	81.38
256.59	81.38
256.823	73.38
257.056	59.38
257.289	74.38
257.521	93.38
257.754	86.38
257.987	89.38
258.22	75.38
258.452	80.38
258.685	77.38
258.918	78.38
259.151	77.38
259.383	78.38
259.616	72.38
259.849	83.38
260.081	71.38
260.314	85.38
260.547	85.38
260.779	91.38
261.012	89.38
261.244	76.38
261.477	91.38
261.71	92.38
261.942	98.38
262.175	108.38
262.407	87.38
262.64	73.38
262.872	95.38
263.105	85.38
263.337	83.38
263.57	78.38
263.802	97.38
264.035	73.38
264.267	71.38
264.499	65.38
264.732	86.38
264.964	82.38
265.197	64.38
265.429	88.38
265.661	91.38
265.894	85.38
266.126	83.38
266.358	98.38
266.591	93.38
266.823	71.38
267.055	92.38
267.287	86.38
267.52	66.38
267.752	85.38
267.984	84.38
268.216	77.38
268.448	75.38
268.681	90.38
268.913	82.38
269.145	69.38
269.377	73.38
269.609	77.38
269.841	74.38
270.073	79.38
270.306	76.38
270.538	93.38
270.77	80.38
271.002	88.38
271.234	81.38
271.466	83.38
271.698	82.38
271.93	76.38
272.162	89.38
272.394	96.38
272.626	91.38
272.858	78.38
273.09	97.38
273.322	84.38
273.553	79.38
273.785	80.38
274.017	83.38
274.249	80.38
274.481	88.38
274.713	79.38
274.945	104.38
275.176	90.38
275.408	98.38
275.64	91.38
275.872	88.38
276.104	89.38
276.335	94.38
276.567	96.38
276.799	108.38
277.031	86.38
277.262	87.38
277.494	77.38
277.726	84.38
277.957	88.38
278.189	83.38
278.421	77.38
278.652	72.38
278.884	83.38
279.115	98.38
279.347	87.38
279.579	82.38
279.81	83.38
280.042	75.38
280.273	85.38
280.505	89.38
280.736	83.38
280.968	67.38
281.199	86.38
281.431	72.38
281.662	94.38
281.894	89.38
282.125	99.38
282.356	117.38
282.588	117.38
282.819	99.38
283.051	87.38
283.282	90.38
283.513	94.38
283.745	66.38
283.976	81.38
284.207	79.38
284.439	92.38
284.67	95.38
284.901	104.38
285.132	85.38
285.364	81.38
285.595	98.38
285.826	77.38
286.057	77.38
286.288	92.38
286.52	92.38
286.751	83.38
286.982	79.38
287.213	66.38
287.444	96.38
287.675	83.38
287.906	82.38
288.138	84.38
288.369	76.38
288.6	96.38
288.831	88.38
289.062	97.38
289.293	78.38
289.524	90.38
289.755	75.38
289.986	77.38
290.217	85.38
290.448	88.38
290.679	82.38
290.91	67.38
291.141	85.38
291.371	94.38
291.602	83.38
291.833	87.38
292.064	76.38
292.295	78.38
292.526	84.38
292.757	100.38
292.987	84.38
293.218	80.38
293.449	82.38
293.68	86.38
293.91	88.38
294.141	89.38
294.372	105.38
294.603	85.38
294.833	87.38
295.064	99.38
295.295	89.38
295.525	84.38
295.756	94.38
295.987	102.38
296.217	113.38
296.448	123.38
296.679	96.38
296.909	89.38
297.14	95.38
297.37	91.38
297.601	91.38
297.831	67.38
298.062	91.38
298.292	86.38
298.523	92.38
298.753	98.38
298.984	89.38
299.214	72.38
299.445	90.38
299.675	87.38
299.905	93.38
300.136	97.38
300.366	84.38
300.597	84.38
300.827	79.38
301.057	88.38
301.288	95.38
301.518	98.38
301.748	98.38
301.979	88.38
302.209	93.38
302.439	86.38
302.669	79.38
302.9	96.38
303.13	87.38
303.36	100.38
303.59	104.38
303.82	106.38
304.051	89.38
304.281	96.38
304.511	99.38
304.741	83.38
304.971	95.38
305.201	90.38
305.431	75.38
305.661	84.38
305.891	81.38
306.121	93.38
306.352	97.38
306.582	91.38
306.812	97.38
307.042	91.38
307.272	95.38
307.502	93.38
307.731	100.38
307.961	77.38
308.191	72.38
308.421	86.38
308.651	93.38
308.881	83.38
309.111	90.38
309.341	92.38
309.571	88.38
309.8	85.38
310.03	91.38
310.26	75.38
310.49	101.38
310.72	89.38
310.949	97.38
311.179	106.38
311.409	88.38
311.639	90.38
311.868	88.38
312.098	81.38
312.328	82.38
312.557	94.38
312.787	96.38
313.017	96.38
313.246	96.38
313.476	82.38
313.706	92.38
313.935	96.38
314.165	93.38
314.394	91.38
314.624	93.38
314.853	96.38
315.083	89.38
315.312	95.38
315.542	94.38
315.771	90.38
316.001	93.38
316.23	94.38
316.46	99.38
316.689	80.38
316.919	85.38
317.148	82.38
317.377	96.38
317.607	79.38
317.836	82.38
318.065	87.38
318.295	101.38
318.524	82.38
318.753	89.38
318.983	95.38
319.212	83.38
319.441	90.38
319.67	112.38
319.9	95.38
320.129	97.38
320.358	102.38
320.587	102.38
320.816	109.38
321.046	88.38
321.275	105.38
321.504	88.38
321.733	83.38
321.962	88.38
322.191	101.38
322.42	91.38
322.649	112.38
322.878	117.38
323.108	103.38
323.337	113.38
323.566	129.38
323.795	146.38
324.024	201.38
324.253	336.38
324.482	675.38
324.71	1411.38
324.939	1742.38
325.168	658.38
325.397	217.38
325.626	144.38
325.855	119.38
326.084	112.38
326.313	140.38
326.542	139.38
326.77	200.38
326.999	399.38
327.228	751.38
327.457	1353.38
327.686	1091.38
327.914	291.38
328.143	176.38
328.372	119.38
328.6	117.38
328.829	112.38
329.058	122.38
329.287	124.38
329.515	98.38
329.744	101.38
329.972	91.38
330.201	87.38
330.43	99.38
330.658	120.38
330.887	135.38
331.115	113.38
331.344	95.38
331.572	92.38
331.801	97.38
332.03	104.38
332.258	97.38
332.486	98.38
332.715	84.38
332.943	90.38
333.172	99.38
333.4	100.38
333.629	98.38
333.857	109.38
334.085	81.38
334.314	100.38
334.542	91.38
334.771	96.38
334.999	88.38
335.227	98.38
335.455	82.38
335.684	103.38
335.912	94.38
336.14	99.38
336.369	104.38
336.597	87.38
336.825	104.38
337.053	100.38
337.281	82.38
337.51	93.38
337.738	87.38
337.966	93.38
338.194	109.38
338.422	100.38
338.65	67.38
338.878	74.38
339.106	85.38
339.334	101.38
339.562	86.38
339.79	86.38
340.018	88.38
340.246	88.38
340.474	101.38
340.702	85.38
340.93	93.38
341.158	85.38
341.386	89.38
341.614	103.38
341.842	99.38
342.07	92.38
342.298	86.38
342.526	84.38
342.754	96.38
342.981	96.38
343.209	84.38
343.437	92.38
343.665	77.38
343.893	82.38
344.12	97.38
344.348	88.38
344.576	75.38
344.804	92.38
345.031	93.38
345.259	97.38
345.487	92.38
345.714	93.38
345.942	88.38
346.17	79.38
346.397	98.38
346.625	90.38
346.853	104.38
347.08	98.38
347.308	80.38
347.535	103.38
347.763	102.38
347.99	77.38
348.218	110.38
348.445	102.38
348.673	94.38
348.9	105.38
349.128	92.38
349.355	83.38
349.583	95.38
349.81	93.38
350.037	94.38
350.265	98.38
350.492	96.38
350.72	88.38
350.947	88.38
351.174	95.38
351.402	105.38
351.629	112.38
351.856	92.38
352.083	98.38
352.311	88.38
352.538	102.38
352.765	120.38
352.992	121.38
353.22	106.38
353.447	93.38
353.674	93.38
353.901	89.38
354.128	86.38
354.355	92.38
354.583	99.38
354.81	93.38
355.037	98.38
355.264	101.38
355.491	98.38
355.718	104.38
355.945	87.38
356.172	87.38
356.399	101.38
356.626	80.38
356.853	73.38
357.08	76.38
357.307	90.38
357.534	105.38
357.761	88.38
357.988	92.38
358.215	98.38
358.441	87.38
358.668	93.38
358.895	84.38
359.122	84.38
359.349	89.38
359.576	107.38
359.802	85.38
360.029	112.38
360.256	94.38
360.483	80.38
360.709	98.38
360.936	99.38
361.163	98.38
361.39	92.38
361.616	87.38
361.843	89.38
362.07	88.38
362.296	92.38
362.523	97.38
362.749	78.38
362.976	92.38
363.203	91.38
363.429	94.38
363.656	82.38
363.882	96.38
364.109	84.38
364.335	87.38
364.562	82.38
364.788	87.38
365.015	97.38
365.241	94.38
365.468	104.38
365.694	88.38
365.92	92.38
366.147	94.38
366.373	83.38
366.599	107.38
366.826	92.38
367.052	91.38
367.278	91.38
367.505	90.38
367.731	97.38
367.957	99.38
368.184	106.38
368.41	87.38
368.636	111.38
368.862	111.38
369.089	100.38
369.315	101.38
369.541	108.38
369.767	79.38
369.993	72.38
370.219	89.38
370.445	88.38
370.672	95.38
370.898	85.38
371.124	99.38
371.35	80.38
371.576	88.38
371.802	84.38
372.028	82.38
372.254	101.38
372.48	96.38
372.706	97.38
372.932	91.38
373.158	88.38
373.384	84.38
373.61	99.38
373.835	78.38
374.061	95.38
374.287	88.38
374.513	85.38
374.739	105.38
374.965	92.38
375.191	90.38
375.416	73.38
375.642	87.38
375.868	77.38
376.094	86.38
376.319	86.38
376.545	99.38
376.771	90.38
376.997	86.38
377.222	72.38
377.448	85.38
377.674	81.38
377.899	97.38
378.125	90.38
378.35	86.38
378.576	94.38
378.802	79.38
379.027	92.38
379.253	99.38
379.478	86.38
379.704	83.38
379.929	93.38
380.155	83.38
380.38	93.38
380.606	104.38
380.831	87.38
381.057	104.38
381.282	85.38
381.507	94.38
381.733	98.38
381.958	94.38
382.184	89.38
382.409	98.38
382.634	106.38
382.86	104.38
383.085	89.38
383.31	99.38
383.535	93.38
383.761	95.38
383.986	107.38
384.211	84.38
384.436	95.38
384.662	93.38
384.887	95.38
385.112	106.38
385.337	95.38
385.562	97.38
385.787	88.38
386.013	103.38
386.238	105.38
386.463	107.38
386.688	96.38
386.913	88.38
387.138	94.38
387.363	79.38
387.588	89.38
387.813	89.38
388.038	107.38
388.263	116.38
388.488	116.38
388.713	115.38
388.938	78.38
389.163	100.38
389.387	105.38
389.612	100.38
389.837	91.38
390.062	88.38
390.287	87.38
390.512	89.38
390.736	83.38
390.961	90.38
391.186	87.38
391.411	98.38
391.636	74.38
391.86	79.38
392.085	93.38
392.31	86.38
392.534	96.38
392.759	92.38
392.984	96.38
393.208	85.38
393.433	96.38
393.658	71.38
393.882	88.38
394.107	84.38
394.331	95.38
394.556	73.38
394.78	74.38
395.005	75.38
395.229	91.38
395.454	88.38
395.678	74.38
395.903	79.38
396.127	80.38
396.352	91.38
396.576	93.38
396.801	88.38
397.025	81.38
397.249	93.38
397.474	79.38
397.698	82.38
397.922	87.38
398.147	91.38
398.371	84.38
398.595	92.38
398.82	88.38
399.044	79.38
399.268	89.38
399.492	94.38
399.717	99.38
399.941	80.38
400.165	87.38
400.389	93.38
400.613	88.38
400.837	69.38
401.062	79.38
401.286	89.38
401.51	81.38
401.734	81.38
401.958	91.38
402.182	114.38
402.406	163.38
402.63	111.38
402.854	68.38
403.078	88.38
403.302	90.38
403.526	77.38
403.75	92.38
403.974	83.38
404.198	73.38
404.422	69.38
404.645	96.38
404.869	92.38
405.093	91.38
405.317	97.38
405.541	85.38
405.765	93.38
405.988	98.38
406.212	158.38
406.436	200.38
406.66	117.38
406.883	71.38
407.107	87.38
407.331	90.38
407.555	91.38
407.778	104.38
408.002	97.38
408.226	89.38
408.449	85.38
408.673	89.38
408.896	93.38
409.12	98.38
409.344	82.38
409.567	94.38
409.791	89.38
410.014	101.38
410.238	88.38
410.461	91.38
410.685	87.38
410.908	90.38
411.132	88.38
411.355	105.38
411.578	76.38
411.802	100.38
412.025	71.38
412.249	92.38
412.472	82.38
412.695	79.38
412.919	90.38
413.142	81.38
413.365	90.38
413.589	76.38
413.812	68.38
414.035	87.38
414.258	85.38
414.482	97.38
414.705	69.38
414.928	68.38
415.151	82.38
415.374	97.38
415.597	103.38
415.821	76.38
416.044	93.38
416.267	90.38
416.49	75.38
416.713	92.38
416.936	87.38
417.159	79.38
417.382	77.38
417.605	81.38
417.828	66.38
418.051	83.38
418.274	93.38
418.497	89.38
418.72	94.38
418.943	101.38
419.166	74.38
419.389	81.38
419.611	76.38
419.834	95.38
420.057	100.38
420.28	76.38
420.503	91.38
420.726	81.38
420.948	75.38
421.171	98.38
421.394	100.38
421.617	98.38
421.839	86.38
422.062	83.38
422.285	110.38
422.507	97.38
422.73	103.38
422.953	94.38
423.175	84.38
423.398	94.38
423.621	77.38
423.843	78.38
424.066	65.38
424.288	71.38
424.511	86.38
424.733	95.38
424.956	90.38
425.178	103.38
425.401	92.38
425.623	80.38
425.846	83.38
426.068	77.38
426.291	88.38
426.513	93.38
426.735	88.38
426.958	80.38
427.18	86.38
427.402	117.38
427.625	140.38
427.847	115.38
428.069	87.38
428.292	85.38
428.514	85.38
428.736	72.38
428.958	82.38
429.181	71.38
429.403	83.38
429.625	85.38
429.847	95.38
430.069	87.38
430.292	92.38
430.514	77.38
430.736	77.38
430.958	82.38
431.18	82.38
431.402	83.38
431.624	87.38
431.846	80.38
432.068	89.38
432.29	90.38
432.512	85.38
432.734	83.38
432.956	86.38
433.178	102.38
433.4	104.38
433.622	106.38
433.844	83.38
434.066	76.38
434.287	79.38
434.509	75.38
434.731	93.38
434.953	91.38
435.175	83.38
435.397	87.38
435.618	83.38
435.84	93.38
436.062	107.38
436.284	109.38
436.505	91.38
436.727	83.38
436.949	77.38
437.17	77.38
437.392	88.38
437.614	94.38
437.835	101.38
438.057	104.38
438.278	116.38
438.5	94.38
438.721	101.38
438.943	101.38
439.165	86.38
439.386	81.38
439.608	77.38
439.829	88.38
440.05	113.38
440.272	129.38
440.493	88.38
440.715	81.38
440.936	87.38
441.158	84.38
441.379	86.38
441.6	80.38
441.822	91.38
442.043	94.38
442.264	87.38
442.486	94.38
442.707	78.38
442.928	103.38
443.149	113.38
443.371	117.38
443.592	99.38
443.813	105.38
444.034	93.38
444.255	89.38
444.476	91.38
444.698	65.38
444.919	90.38
445.14	123.38
445.361	121.38
445.582	101.38
445.803	122.38
446.024	128.38
446.245	103.38
446.466	108.38
446.687	91.38
446.908	83.38
447.129	92.38
447.35	82.38
447.571	90.38
447.792	83.38
448.013	95.38
448.234	97.38
448.455	89.38
448.675	91.38
448.896	101.38
449.117	108.38
449.338	100.38
449.559	102.38
449.779	116.38
450	85.38
450.221	80.38
450.442	82.38
450.662	96.38
450.883	103.38
451.104	104.38
451.324	86.38
451.545	73.38
451.766	84.38
451.986	88.38
452.207	94.38
452.428	93.38
452.648	94.38
452.869	95.38
453.089	101.38
453.31	122.38
453.53	84.38
453.751	84.38
453.971	98.38
454.192	104.38
454.412	82.38
454.633	73.38
454.853	71.38
455.073	81.38
455.294	84.38
455.514	81.38
455.734	71.38
455.955	91.38
456.175	77.38
456.395	85.38
456.616	91.38
456.836	80.38
457.056	98.38
457.276	74.38
457.497	80.38
457.717	88.38
457.937	84.38
458.157	69.38
458.377	82.38
458.598	109.38
458.818	128.38
459.038	140.38
459.258	111.38
459.478	90.38
459.698	84.38
459.918	89.38
460.138	88.38
460.358	80.38
460.578	90.38
460.798	100.38
461.018	81.38
461.238	80.38
461.458	81.38
461.678	90.38
461.898	78.38
462.118	90.38
462.338	68.38
462.558	82.38
462.777	84.38
462.997	88.38
463.217	80.38
463.437	80.38
463.657	69.38
463.876	75.38
464.096	84.38
464.316	85.38
464.536	91.38
464.755	91.38
464.975	110.38
465.195	160.38
465.414	156.38
465.634	85.38
465.854	98.38
466.073	76.38
466.293	93.38
466.512	85.38
466.732	87.38
466.951	84.38
467.171	93.38
467.391	90.38
467.61	73.38
467.829	104.38
468.049	80.38
468.268	73.38
468.488	78.38
468.707	71.38
468.927	88.38
469.146	80.38
469.365	80.38
469.585	96.38
469.804	72.38
470.023	87.38
470.243	84.38
470.462	90.38
470.681	122.38
470.901	101.38
471.12	79.38
471.339	75.38
471.558	92.38
471.777	76.38
471.997	84.38
472.216	66.38
472.435	76.38
472.654	85.38
472.873	83.38
473.092	75.38
473.311	91.38
473.53	86.38
473.749	74.38
473.968	94.38
474.187	94.38
474.406	85.38
474.625	90.38
474.844	85.38
475.063	75.38
475.282	85.38
475.501	86.38
475.72	79.38
475.939	74.38
476.158	83.38
476.377	76.38
476.596	83.38
476.814	75.38
477.033	82.38
477.252	81.38
477.471	92.38
477.69	79.38
477.908	91.38
478.127	84.38
478.346	81.38
478.564	94.38
478.783	98.38
479.002	89.38
479.22	84.38
479.439	93.38
479.658	89.38
479.876	92.38
480.095	84.38
480.313	84.38
480.532	86.38
480.751	97.38
480.969	71.38
481.188	85.38
481.406	95.38
481.624	99.38
481.843	95.38
482.061	84.38
482.28	77.38
482.498	88.38
482.717	82.38
482.935	89.38
483.153	90.38
483.372	93.38
483.59	83.38
483.808	95.38
484.027	84.38
484.245	95.38
484.463	90.38
484.681	93.38
484.9	83.38
485.118	84.38
485.336	105.38
485.554	81.38
485.772	96.38
485.99	105.38
486.209	101.38
486.427	86.38
486.645	87.38
486.863	106.38
487.081	110.38
487.299	95.38
487.517	95.38
487.735	103.38
487.953	93.38
488.171	101.38
488.389	102.38
488.607	103.38
488.825	89.38
489.043	96.38
489.261	95.38
489.479	94.38
489.696	95.38
489.914	96.38
490.132	80.38
490.35	80.38
490.568	91.38
490.786	75.38
491.003	87.38
491.221	77.38
491.439	84.38
491.657	83.38
491.874	82.38
492.092	98.38
492.31	84.38
492.527	79.38
492.745	86.38
492.963	79.38
493.18	95.38
493.398	97.38
493.615	103.38
493.833	103.38
494.05	87.38
494.268	84.38
494.485	85.38
494.703	79.38
494.92	93.38
495.138	100.38
495.355	98.38
495.573	85.38
495.79	90.38
496.008	83.38
496.225	91.38
496.442	86.38
496.66	90.38
496.877	87.38
497.094	111.38
497.312	91.38
497.529	67.38
497.746	99.38
497.963	90.38
498.181	80.38
498.398	73.38
498.615	85.38
498.832	102.38
499.049	89.38
499.267	90.38
499.484	73.38
499.701	81.38
499.918	93.38
500.135	77.38
500.352	81.38
500.569	81.38
500.786	79.38
501.003	89.38
501.22	82.38
501.437	92.38
501.654	75.38
501.871	93.38
502.088	82.38
502.305	67.38
502.522	89.38
502.739	90.38
502.956	79.38
503.172	89.38
503.389	89.38
503.606	86.38
503.823	95.38
504.04	94.38
504.256	90.38
504.473	85.38
504.69	96.38
504.907	95.38
505.123	103.38
505.34	104.38
505.557	101.38
505.773	91.38
505.99	92.38
506.207	81.38
506.423	67.38
506.64	85.38
506.856	91.38
507.073	81.38
507.289	91.38
507.506	106.38
507.722	89.38
507.939	87.38
508.155	85.38
508.372	101.38
508.588	97.38
508.805	97.38
509.021	107.38
509.238	105.38
509.454	121.38
509.67	87.38
509.887	103.38
510.103	118.38
510.319	193.38
510.536	712.38
510.752	2162.38
510.968	570.38
511.184	142.38
511.401	89.38
511.617	94.38
511.833	75.38
512.049	95.38
512.265	85.38
512.481	95.38
512.698	89.38
512.914	88.38
513.13	93.38
513.346	73.38
513.562	80.38
513.778	92.38
513.994	92.38
514.21	90.38
514.426	113.38
514.642	119.38
514.858	122.38
515.074	161.38
515.29	432.38
515.506	1325.38
515.721	473.38
515.937	139.38
516.153	100.38
516.369	90.38
516.585	76.38
516.801	104.38
517.016	96.38
