Data from Uncirc_1992_H10_HRD10591_00069.txt Node
Date: Wed Jan 03 11:46:30 EST 2024
User: Yrep
Spectrometer: HR+D1059
Trigger mode: 1
Integration Time (sec): 1.000000E-1
Scans to average: 1
Electric dark correction enabled: true
Nonlinearity correction enabled: false
Boxcar width: 0
XAxis mode: Wavelengths
Number of Pixels in Spectrum: 2048
>>>>>Begin Spectral Data<<<<<
223.165	-12.75
223.4	-12.75
223.635	-12.75
223.869	-29.75
224.104	-19.75
224.338	-25.75
224.573	-7.75
224.808	-13.75
225.042	-6.75
225.277	-7.75
225.511	-2.75
225.746	-1.75
225.98	4.25
226.215	13.25
226.449	13.25
226.683	26.25
226.918	35.25
227.152	36.25
227.387	31.25
227.621	27.25
227.856	37.25
228.09	51.25
228.324	47.25
228.559	76.25
228.793	75.25
229.027	57.25
229.262	57.25
229.496	55.25
229.73	87.25
229.964	85.25
230.199	68.25
230.433	68.25
230.667	69.25
230.901	72.25
231.136	72.25
231.37	73.25
231.604	84.25
231.838	69.25
232.072	70.25
232.306	83.25
232.541	74.25
232.775	84.25
233.009	91.25
233.243	87.25
233.477	83.25
233.711	87.25
233.945	80.25
234.179	79.25
234.413	83.25
234.647	80.25
234.881	84.25
235.115	68.25
235.349	81.25
235.583	86.25
235.817	53.25
236.051	88.25
236.285	83.25
236.519	72.25
236.753	88.25
236.987	79.25
237.221	79.25
237.455	77.25
237.689	75.25
237.922	83.25
238.156	82.25
238.39	80.25
238.624	68.25
238.858	68.25
239.091	56.25
239.325	80.25
239.559	72.25
239.793	74.25
240.027	80.25
240.26	72.25
240.494	74.25
240.728	81.25
240.961	83.25
241.195	82.25
241.429	74.25
241.662	69.25
241.896	74.25
242.13	84.25
242.363	76.25
242.597	83.25
242.83	86.25
243.064	78.25
243.298	67.25
243.531	76.25
243.765	85.25
243.998	58.25
244.232	66.25
244.465	83.25
244.699	83.25
244.932	72.25
245.166	84.25
245.399	78.25
245.633	77.25
245.866	83.25
246.099	72.25
246.333	66.25
246.566	72.25
246.8	68.25
247.033	69.25
247.266	84.25
247.5	82.25
247.733	78.25
247.966	72.25
248.2	83.25
248.433	85.25
248.666	79.25
248.899	66.25
249.133	72.25
249.366	94.25
249.599	91.25
249.832	75.25
250.066	71.25
250.299	76.25
250.532	73.25
250.765	80.25
250.998	76.25
251.231	94.25
251.465	80.25
251.698	75.25
251.931	83.25
252.164	64.25
252.397	78.25
252.63	74.25
252.863	89.25
253.096	73.25
253.329	77.25
253.562	83.25
253.795	86.25
254.028	82.25
254.261	81.25
254.494	72.25
254.727	90.25
254.96	90.25
255.193	64.25
255.426	82.25
255.659	94.25
255.892	83.25
256.124	84.25
256.357	76.25
256.59	93.25
256.823	77.25
257.056	77.25
257.289	78.25
257.521	76.25
257.754	70.25
257.987	84.25
258.22	86.25
258.452	100.25
258.685	96.25
258.918	76.25
259.151	72.25
259.383	83.25
259.616	84.25
259.849	81.25
260.081	85.25
260.314	96.25
260.547	78.25
260.779	85.25
261.012	83.25
261.244	79.25
261.477	94.25
261.71	98.25
261.942	109.25
262.175	117.25
262.407	84.25
262.64	85.25
262.872	89.25
263.105	88.25
263.337	92.25
263.57	66.25
263.802	88.25
264.035	84.25
264.267	73.25
264.499	77.25
264.732	98.25
264.964	89.25
265.197	86.25
265.429	84.25
265.661	88.25
265.894	89.25
266.126	80.25
266.358	75.25
266.591	87.25
266.823	92.25
267.055	83.25
267.287	83.25
267.52	88.25
267.752	72.25
267.984	81.25
268.216	83.25
268.448	74.25
268.681	86.25
268.913	90.25
269.145	79.25
269.377	91.25
269.609	69.25
269.841	86.25
270.073	74.25
270.306	84.25
270.538	83.25
270.77	79.25
271.002	75.25
271.234	80.25
271.466	68.25
271.698	78.25
271.93	90.25
272.162	88.25
272.394	76.25
272.626	87.25
272.858	93.25
273.09	85.25
273.322	82.25
273.553	65.25
273.785	83.25
274.017	91.25
274.249	75.25
274.481	102.25
274.713	81.25
274.945	72.25
275.176	101.25
275.408	99.25
275.64	79.25
275.872	88.25
276.104	81.25
276.335	93.25
276.567	103.25
276.799	88.25
277.031	80.25
277.262	87.25
277.494	77.25
277.726	84.25
277.957	80.25
278.189	91.25
278.421	85.25
278.652	76.25
278.884	93.25
279.115	76.25
279.347	102.25
279.579	93.25
279.81	78.25
280.042	90.25
280.273	78.25
280.505	83.25
280.736	74.25
280.968	72.25
281.199	77.25
281.431	78.25
281.662	87.25
281.894	93.25
282.125	94.25
282.356	115.25
282.588	123.25
282.819	114.25
283.051	80.25
283.282	78.25
283.513	86.25
283.745	89.25
283.976	86.25
284.207	79.25
284.439	90.25
284.67	89.25
284.901	87.25
285.132	90.25
285.364	85.25
285.595	91.25
285.826	80.25
286.057	92.25
286.288	97.25
286.52	83.25
286.751	69.25
286.982	80.25
287.213	76.25
287.444	85.25
287.675	104.25
287.906	90.25
288.138	94.25
288.369	88.25
288.6	79.25
288.831	75.25
289.062	83.25
289.293	86.25
289.524	96.25
289.755	82.25
289.986	83.25
290.217	77.25
290.448	85.25
290.679	90.25
290.91	83.25
291.141	90.25
291.371	79.25
291.602	86.25
291.833	71.25
292.064	68.25
292.295	93.25
292.526	96.25
292.757	82.25
292.987	97.25
293.218	80.25
293.449	77.25
293.68	97.25
293.91	91.25
294.141	80.25
294.372	90.25
294.603	88.25
294.833	91.25
295.064	80.25
295.295	80.25
295.525	89.25
295.756	94.25
295.987	106.25
296.217	127.25
296.448	115.25
296.679	96.25
296.909	80.25
297.14	81.25
297.37	86.25
297.601	96.25
297.831	90.25
298.062	72.25
298.292	98.25
298.523	97.25
298.753	90.25
298.984	72.25
299.214	72.25
299.445	77.25
299.675	99.25
299.905	101.25
300.136	78.25
300.366	95.25
300.597	74.25
300.827	87.25
301.057	97.25
301.288	94.25
301.518	84.25
301.748	77.25
301.979	109.25
302.209	93.25
302.439	91.25
302.669	85.25
302.9	85.25
303.13	90.25
303.36	93.25
303.59	82.25
303.82	103.25
304.051	92.25
304.281	88.25
304.511	92.25
304.741	85.25
304.971	89.25
305.201	107.25
305.431	95.25
305.661	94.25
305.891	100.25
306.121	84.25
306.352	95.25
306.582	95.25
306.812	90.25
307.042	92.25
307.272	102.25
307.502	95.25
307.731	78.25
307.961	86.25
308.191	92.25
308.421	86.25
308.651	85.25
308.881	75.25
309.111	85.25
309.341	76.25
309.571	91.25
309.8	97.25
310.03	93.25
310.26	89.25
310.49	93.25
310.72	88.25
310.949	89.25
311.179	88.25
311.409	86.25
311.639	97.25
311.868	85.25
312.098	91.25
312.328	97.25
312.557	100.25
312.787	103.25
313.017	104.25
313.246	100.25
313.476	106.25
313.706	89.25
313.935	86.25
314.165	92.25
314.394	101.25
314.624	98.25
314.853	92.25
315.083	74.25
315.312	85.25
315.542	88.25
315.771	95.25
316.001	92.25
316.23	97.25
316.46	92.25
316.689	93.25
316.919	92.25
317.148	81.25
317.377	96.25
317.607	84.25
317.836	107.25
318.065	95.25
318.295	93.25
318.524	86.25
318.753	80.25
318.983	96.25
319.212	91.25
319.441	107.25
319.67	91.25
319.9	100.25
320.129	95.25
320.358	108.25
320.587	90.25
320.816	81.25
321.046	85.25
321.275	86.25
321.504	89.25
321.733	90.25
321.962	94.25
322.191	96.25
322.42	108.25
322.649	101.25
322.878	100.25
323.108	98.25
323.337	118.25
323.566	122.25
323.795	161.25
324.024	200.25
324.253	346.25
324.482	700.25
324.71	1426.25
324.939	1820.25
325.168	709.25
325.397	220.25
325.626	131.25
325.855	118.25
326.084	120.25
326.313	122.25
326.542	141.25
326.77	218.25
326.999	368.25
327.228	756.25
327.457	1454.25
327.686	1118.25
327.914	308.25
328.143	178.25
328.372	147.25
328.6	125.25
328.829	111.25
329.058	106.25
329.287	107.25
329.515	90.25
329.744	91.25
329.972	93.25
330.201	100.25
330.43	99.25
330.658	112.25
330.887	130.25
331.115	118.25
331.344	95.25
331.572	105.25
331.801	104.25
332.03	92.25
332.258	91.25
332.486	79.25
332.715	88.25
332.943	93.25
333.172	92.25
333.4	92.25
333.629	95.25
333.857	110.25
334.085	97.25
334.314	96.25
334.542	107.25
334.771	95.25
334.999	87.25
335.227	90.25
335.455	108.25
335.684	100.25
335.912	87.25
336.14	82.25
336.369	92.25
336.597	93.25
336.825	96.25
337.053	109.25
337.281	91.25
337.51	103.25
337.738	107.25
337.966	93.25
338.194	91.25
338.422	99.25
338.65	100.25
338.878	93.25
339.106	109.25
339.334	93.25
339.562	90.25
339.79	84.25
340.018	92.25
340.246	89.25
340.474	103.25
340.702	100.25
340.93	92.25
341.158	100.25
341.386	99.25
341.614	97.25
341.842	106.25
342.07	98.25
342.298	95.25
342.526	85.25
342.754	98.25
342.981	80.25
343.209	94.25
343.437	104.25
343.665	88.25
343.893	92.25
344.12	92.25
344.348	89.25
344.576	81.25
344.804	106.25
345.031	85.25
345.259	99.25
345.487	101.25
345.714	91.25
345.942	83.25
346.17	97.25
346.397	84.25
346.625	94.25
346.853	103.25
347.08	78.25
347.308	93.25
347.535	109.25
347.763	98.25
347.99	101.25
348.218	106.25
348.445	98.25
348.673	93.25
348.9	109.25
349.128	101.25
349.355	105.25
349.583	99.25
349.81	84.25
350.037	92.25
350.265	101.25
350.492	101.25
350.72	86.25
350.947	100.25
351.174	110.25
351.402	112.25
351.629	109.25
351.856	112.25
352.083	102.25
352.311	102.25
352.538	88.25
352.765	91.25
352.992	107.25
353.22	113.25
353.447	107.25
353.674	103.25
353.901	93.25
354.128	84.25
354.355	93.25
354.583	103.25
354.81	98.25
355.037	93.25
355.264	100.25
355.491	90.25
355.718	90.25
355.945	101.25
356.172	77.25
356.399	96.25
356.626	82.25
356.853	96.25
357.08	96.25
357.307	97.25
357.534	77.25
357.761	101.25
357.988	86.25
358.215	107.25
358.441	94.25
358.668	96.25
358.895	93.25
359.122	92.25
359.349	76.25
359.576	79.25
359.802	101.25
360.029	108.25
360.256	106.25
360.483	93.25
360.709	84.25
360.936	74.25
361.163	115.25
361.39	88.25
361.616	91.25
361.843	86.25
362.07	97.25
362.296	85.25
362.523	81.25
362.749	92.25
362.976	96.25
363.203	87.25
363.429	84.25
363.656	76.25
363.882	88.25
364.109	103.25
364.335	90.25
364.562	95.25
364.788	88.25
365.015	91.25
365.241	101.25
365.468	106.25
365.694	90.25
365.92	101.25
366.147	92.25
366.373	95.25
366.599	70.25
366.826	95.25
367.052	84.25
367.278	78.25
367.505	94.25
367.731	95.25
367.957	95.25
368.184	94.25
368.41	92.25
368.636	102.25
368.862	100.25
369.089	107.25
369.315	92.25
369.541	80.25
369.767	89.25
369.993	93.25
370.219	93.25
370.445	92.25
370.672	87.25
370.898	94.25
371.124	84.25
371.35	87.25
371.576	85.25
371.802	82.25
372.028	92.25
372.254	91.25
372.48	93.25
372.706	94.25
372.932	79.25
373.158	85.25
373.384	98.25
373.61	96.25
373.835	92.25
374.061	94.25
374.287	105.25
374.513	94.25
374.739	84.25
374.965	83.25
375.191	83.25
375.416	102.25
375.642	104.25
375.868	86.25
376.094	81.25
376.319	83.25
376.545	95.25
376.771	97.25
376.997	94.25
377.222	88.25
377.448	88.25
377.674	77.25
377.899	84.25
378.125	78.25
378.35	96.25
378.576	91.25
378.802	89.25
379.027	81.25
379.253	95.25
379.478	100.25
379.704	80.25
379.929	84.25
380.155	88.25
380.38	93.25
380.606	84.25
380.831	98.25
381.057	94.25
381.282	105.25
381.507	96.25
381.733	92.25
381.958	85.25
382.184	93.25
382.409	101.25
382.634	99.25
382.86	92.25
383.085	88.25
383.31	93.25
383.535	98.25
383.761	98.25
383.986	89.25
384.211	96.25
384.436	102.25
384.662	97.25
384.887	93.25
385.112	104.25
385.337	89.25
385.562	96.25
385.787	86.25
386.013	99.25
386.238	98.25
386.463	94.25
386.688	107.25
386.913	99.25
387.138	91.25
387.363	108.25
387.588	93.25
387.813	90.25
388.038	94.25
388.263	90.25
388.488	86.25
388.713	93.25
388.938	85.25
389.163	95.25
389.387	92.25
389.612	85.25
389.837	98.25
390.062	98.25
390.287	84.25
390.512	104.25
390.736	97.25
390.961	101.25
391.186	93.25
391.411	96.25
391.636	88.25
391.86	86.25
392.085	82.25
392.31	81.25
392.534	83.25
392.759	109.25
392.984	105.25
393.208	75.25
393.433	101.25
393.658	94.25
393.882	91.25
394.107	87.25
394.331	99.25
394.556	88.25
394.78	105.25
395.005	81.25
395.229	82.25
395.454	89.25
395.678	82.25
395.903	77.25
396.127	102.25
396.352	89.25
396.576	81.25
396.801	84.25
397.025	83.25
397.249	89.25
397.474	93.25
397.698	89.25
397.922	78.25
398.147	88.25
398.371	78.25
398.595	86.25
398.82	84.25
399.044	96.25
399.268	82.25
399.492	108.25
399.717	96.25
399.941	100.25
400.165	83.25
400.389	86.25
400.613	79.25
400.837	86.25
401.062	81.25
401.286	94.25
401.51	100.25
401.734	96.25
401.958	106.25
402.182	114.25
402.406	140.25
402.63	116.25
402.854	92.25
403.078	96.25
403.302	87.25
403.526	85.25
403.75	92.25
403.974	88.25
404.198	93.25
404.422	72.25
404.645	96.25
404.869	88.25
405.093	99.25
405.317	89.25
405.541	92.25
405.765	93.25
405.988	103.25
406.212	166.25
406.436	182.25
406.66	130.25
406.883	117.25
407.107	98.25
407.331	95.25
407.555	105.25
407.778	96.25
408.002	98.25
408.226	84.25
408.449	84.25
408.673	98.25
408.896	88.25
409.12	99.25
409.344	83.25
409.567	92.25
409.791	91.25
410.014	91.25
410.238	90.25
410.461	93.25
410.685	92.25
410.908	90.25
411.132	100.25
411.355	118.25
411.578	78.25
411.802	85.25
412.025	83.25
412.249	90.25
412.472	91.25
412.695	99.25
412.919	99.25
413.142	69.25
413.365	86.25
413.589	93.25
413.812	92.25
414.035	82.25
414.258	93.25
414.482	80.25
414.705	72.25
414.928	96.25
415.151	91.25
415.374	104.25
415.597	92.25
415.821	72.25
416.044	68.25
416.267	76.25
416.49	83.25
416.713	81.25
416.936	95.25
417.159	84.25
417.382	86.25
417.605	90.25
417.828	92.25
418.051	92.25
418.274	79.25
418.497	79.25
418.72	85.25
418.943	107.25
419.166	106.25
419.389	89.25
419.611	91.25
419.834	79.25
420.057	96.25
420.28	81.25
420.503	96.25
420.726	95.25
420.948	89.25
421.171	95.25
421.394	97.25
421.617	89.25
421.839	97.25
422.062	97.25
422.285	82.25
422.507	103.25
422.73	85.25
422.953	98.25
423.175	82.25
423.398	88.25
423.621	79.25
423.843	79.25
424.066	84.25
424.288	85.25
424.511	78.25
424.733	93.25
424.956	104.25
425.178	92.25
425.401	87.25
425.623	106.25
425.846	95.25
426.068	85.25
426.291	89.25
426.513	76.25
426.735	91.25
426.958	101.25
427.18	84.25
427.402	122.25
427.625	140.25
427.847	106.25
428.069	104.25
428.292	94.25
428.514	81.25
428.736	88.25
428.958	89.25
429.181	86.25
429.403	81.25
429.625	97.25
429.847	90.25
430.069	83.25
430.292	100.25
430.514	88.25
430.736	90.25
430.958	82.25
431.18	103.25
431.402	95.25
431.624	72.25
431.846	84.25
432.068	91.25
432.29	85.25
432.512	84.25
432.734	88.25
432.956	96.25
433.178	91.25
433.4	105.25
433.622	83.25
433.844	90.25
434.066	90.25
434.287	94.25
434.509	82.25
434.731	84.25
434.953	98.25
435.175	95.25
435.397	88.25
435.618	88.25
435.84	78.25
436.062	114.25
436.284	105.25
436.505	83.25
436.727	95.25
436.949	94.25
437.17	82.25
437.392	91.25
437.614	74.25
437.835	114.25
438.057	108.25
438.278	120.25
438.5	84.25
438.721	105.25
438.943	94.25
439.165	83.25
439.386	74.25
439.608	85.25
439.829	87.25
440.05	105.25
440.272	137.25
440.493	97.25
440.715	97.25
440.936	93.25
441.158	90.25
441.379	86.25
441.6	92.25
441.822	93.25
442.043	80.25
442.264	100.25
442.486	93.25
442.707	96.25
442.928	96.25
443.149	115.25
443.371	109.25
443.592	109.25
443.813	123.25
444.034	92.25
444.255	89.25
444.476	85.25
444.698	84.25
444.919	80.25
445.14	123.25
445.361	104.25
445.582	109.25
445.803	115.25
446.024	121.25
446.245	130.25
446.466	108.25
446.687	90.25
446.908	85.25
447.129	92.25
447.35	93.25
447.571	84.25
447.792	92.25
448.013	90.25
448.234	117.25
448.455	84.25
448.675	99.25
448.896	112.25
449.117	97.25
449.338	90.25
449.559	125.25
449.779	120.25
450	94.25
450.221	85.25
450.442	85.25
450.662	81.25
450.883	95.25
451.104	99.25
451.324	94.25
451.545	86.25
451.766	82.25
451.986	90.25
452.207	81.25
452.428	91.25
452.648	96.25
452.869	107.25
453.089	110.25
453.31	109.25
453.53	84.25
453.751	96.25
453.971	94.25
454.192	104.25
454.412	105.25
454.633	84.25
454.853	86.25
455.073	64.25
455.294	84.25
455.514	97.25
455.734	100.25
455.955	85.25
456.175	92.25
456.395	92.25
456.616	100.25
456.836	93.25
457.056	84.25
457.276	83.25
457.497	77.25
457.717	96.25
457.937	86.25
458.157	84.25
458.377	90.25
458.598	84.25
458.818	131.25
459.038	147.25
459.258	106.25
459.478	88.25
459.698	90.25
459.918	77.25
460.138	85.25
460.358	77.25
460.578	77.25
460.798	92.25
461.018	74.25
461.238	94.25
461.458	96.25
461.678	83.25
461.898	84.25
462.118	84.25
462.338	88.25
462.558	89.25
462.777	76.25
462.997	75.25
463.217	88.25
463.437	94.25
463.657	71.25
463.876	88.25
464.096	67.25
464.316	88.25
464.536	81.25
464.755	89.25
464.975	110.25
465.195	142.25
465.414	121.25
465.634	88.25
465.854	91.25
466.073	74.25
466.293	100.25
466.512	84.25
466.732	89.25
466.951	81.25
467.171	79.25
467.391	97.25
467.61	102.25
467.829	89.25
468.049	88.25
468.268	76.25
468.488	88.25
468.707	79.25
468.927	82.25
469.146	82.25
469.365	75.25
469.585	95.25
469.804	96.25
470.023	85.25
470.243	82.25
470.462	98.25
470.681	115.25
470.901	92.25
471.12	104.25
471.339	92.25
471.558	78.25
471.777	97.25
471.997	89.25
472.216	84.25
472.435	85.25
472.654	74.25
472.873	89.25
473.092	90.25
473.311	85.25
473.53	84.25
473.749	86.25
473.968	95.25
474.187	94.25
474.406	74.25
474.625	86.25
474.844	85.25
475.063	89.25
475.282	78.25
475.501	93.25
475.72	87.25
475.939	90.25
476.158	74.25
476.377	90.25
476.596	72.25
476.814	91.25
477.033	94.25
477.252	88.25
477.471	90.25
477.69	93.25
477.908	76.25
478.127	87.25
478.346	61.25
478.564	79.25
478.783	84.25
479.002	82.25
479.22	100.25
479.439	102.25
479.658	82.25
479.876	93.25
480.095	86.25
480.313	74.25
480.532	82.25
480.751	99.25
480.969	84.25
481.188	105.25
481.406	90.25
481.624	91.25
481.843	77.25
482.061	93.25
482.28	76.25
482.498	79.25
482.717	92.25
482.935	83.25
483.153	99.25
483.372	85.25
483.59	97.25
483.808	87.25
484.027	83.25
484.245	86.25
484.463	89.25
484.681	93.25
484.9	99.25
485.118	95.25
485.336	94.25
485.554	97.25
485.772	91.25
485.99	95.25
486.209	102.25
486.427	116.25
486.645	90.25
486.863	102.25
487.081	94.25
487.299	98.25
487.517	100.25
487.735	92.25
487.953	90.25
488.171	88.25
488.389	86.25
488.607	88.25
488.825	86.25
489.043	92.25
489.261	80.25
489.479	81.25
489.696	94.25
489.914	97.25
490.132	97.25
490.35	95.25
490.568	94.25
490.786	97.25
491.003	90.25
491.221	92.25
491.439	85.25
491.657	96.25
491.874	95.25
492.092	97.25
492.31	99.25
492.527	105.25
492.745	93.25
492.963	88.25
493.18	87.25
493.398	89.25
493.615	111.25
493.833	92.25
494.05	85.25
494.268	91.25
494.485	93.25
494.703	80.25
494.92	90.25
495.138	74.25
495.355	97.25
495.573	84.25
495.79	78.25
496.008	85.25
496.225	86.25
496.442	84.25
496.66	88.25
496.877	83.25
497.094	80.25
497.312	80.25
497.529	100.25
497.746	92.25
497.963	98.25
498.181	85.25
498.398	91.25
498.615	95.25
498.832	112.25
499.049	93.25
499.267	82.25
499.484	107.25
499.701	102.25
499.918	84.25
500.135	75.25
500.352	100.25
500.569	80.25
500.786	83.25
501.003	101.25
501.22	88.25
501.437	90.25
501.654	102.25
501.871	101.25
502.088	97.25
502.305	82.25
502.522	76.25
502.739	82.25
502.956	83.25
503.172	97.25
503.389	91.25
503.606	99.25
503.823	92.25
504.04	88.25
504.256	98.25
504.473	86.25
504.69	73.25
504.907	81.25
505.123	92.25
505.34	86.25
505.557	84.25
505.773	80.25
505.99	82.25
506.207	104.25
506.423	97.25
506.64	85.25
506.856	97.25
507.073	82.25
507.289	94.25
507.506	90.25
507.722	103.25
507.939	110.25
508.155	89.25
508.372	93.25
508.588	81.25
508.805	98.25
509.021	84.25
509.238	94.25
509.454	101.25
509.67	109.25
509.887	119.25
510.103	133.25
510.319	190.25
510.536	696.25
510.752	2078.25
510.968	579.25
511.184	149.25
511.401	102.25
511.617	99.25
511.833	102.25
512.049	81.25
512.265	89.25
512.481	80.25
512.698	92.25
512.914	99.25
513.13	86.25
513.346	89.25
513.562	89.25
513.778	106.25
513.994	81.25
514.21	95.25
514.426	115.25
514.642	122.25
514.858	111.25
515.074	157.25
515.29	383.25
515.506	1226.25
515.721	464.25
515.937	149.25
516.153	108.25
516.369	80.25
516.585	92.25
