Data from Uncirc_1992_H10_HRD10591_00044.txt Node
Date: Wed Jan 03 11:46:25 EST 2024
User: Yrep
Spectrometer: HR+D1059
Trigger mode: 1
Integration Time (sec): 1.000000E-1
Scans to average: 1
Electric dark correction enabled: true
Nonlinearity correction enabled: false
Boxcar width: 0
XAxis mode: Wavelengths
Number of Pixels in Spectrum: 2048
>>>>>Begin Spectral Data<<<<<
223.165	-25.75
223.4	-25.75
223.635	-25.75
223.869	-16.75
224.104	-32.75
224.338	-4.75
224.573	-19.75
224.808	-3.75
225.042	-7.75
225.277	-0.75
225.511	2.25
225.746	7.25
225.98	14.25
226.215	0.25
226.449	22.25
226.683	25.25
226.918	17.25
227.152	23.25
227.387	32.25
227.621	21.25
227.856	45.25
228.09	43.25
228.324	52.25
228.559	57.25
228.793	68.25
229.027	64.25
229.262	66.25
229.496	57.25
229.73	82.25
229.964	80.25
230.199	73.25
230.433	71.25
230.667	88.25
230.901	76.25
231.136	78.25
231.37	71.25
231.604	75.25
231.838	80.25
232.072	69.25
232.306	83.25
232.541	75.25
232.775	67.25
233.009	76.25
233.243	71.25
233.477	91.25
233.711	77.25
233.945	79.25
234.179	78.25
234.413	77.25
234.647	90.25
234.881	84.25
235.115	82.25
235.349	76.25
235.583	68.25
235.817	69.25
236.051	61.25
236.285	75.25
236.519	79.25
236.753	77.25
236.987	87.25
237.221	75.25
237.455	74.25
237.689	68.25
237.922	69.25
238.156	81.25
238.39	70.25
238.624	77.25
238.858	68.25
239.091	85.25
239.325	75.25
239.559	73.25
239.793	90.25
240.027	73.25
240.26	63.25
240.494	78.25
240.728	78.25
240.961	92.25
241.195	63.25
241.429	71.25
241.662	69.25
241.896	96.25
242.13	75.25
242.363	80.25
242.597	88.25
242.83	71.25
243.064	82.25
243.298	83.25
243.531	78.25
243.765	75.25
243.998	64.25
244.232	82.25
244.465	87.25
244.699	60.25
244.932	87.25
245.166	75.25
245.399	74.25
245.633	85.25
245.866	71.25
246.099	85.25
246.333	75.25
246.566	68.25
246.8	69.25
247.033	87.25
247.266	70.25
247.5	83.25
247.733	72.25
247.966	73.25
248.2	72.25
248.433	75.25
248.666	82.25
248.899	81.25
249.133	81.25
249.366	101.25
249.599	71.25
249.832	81.25
250.066	71.25
250.299	75.25
250.532	76.25
250.765	90.25
250.998	74.25
251.231	75.25
251.465	69.25
251.698	62.25
251.931	71.25
252.164	73.25
252.397	84.25
252.63	81.25
252.863	79.25
253.096	67.25
253.329	77.25
253.562	91.25
253.795	72.25
254.028	88.25
254.261	95.25
254.494	97.25
254.727	85.25
254.96	76.25
255.193	81.25
255.426	81.25
255.659	81.25
255.892	83.25
256.124	74.25
256.357	77.25
256.59	89.25
256.823	72.25
257.056	75.25
257.289	83.25
257.521	72.25
257.754	89.25
257.987	80.25
258.22	79.25
258.452	91.25
258.685	92.25
258.918	72.25
259.151	81.25
259.383	83.25
259.616	72.25
259.849	83.25
260.081	69.25
260.314	78.25
260.547	93.25
260.779	75.25
261.012	75.25
261.244	84.25
261.477	94.25
261.71	92.25
261.942	101.25
262.175	111.25
262.407	74.25
262.64	99.25
262.872	103.25
263.105	84.25
263.337	88.25
263.57	81.25
263.802	79.25
264.035	74.25
264.267	80.25
264.499	83.25
264.732	92.25
264.964	83.25
265.197	87.25
265.429	76.25
265.661	80.25
265.894	65.25
266.126	93.25
266.358	75.25
266.591	80.25
266.823	97.25
267.055	84.25
267.287	91.25
267.52	88.25
267.752	69.25
267.984	71.25
268.216	77.25
268.448	79.25
268.681	87.25
268.913	91.25
269.145	75.25
269.377	80.25
269.609	74.25
269.841	67.25
270.073	83.25
270.306	90.25
270.538	97.25
270.77	85.25
271.002	80.25
271.234	87.25
271.466	76.25
271.698	69.25
271.93	93.25
272.162	75.25
272.394	91.25
272.626	88.25
272.858	70.25
273.09	83.25
273.322	84.25
273.553	85.25
273.785	84.25
274.017	89.25
274.249	76.25
274.481	78.25
274.713	95.25
274.945	80.25
275.176	77.25
275.408	93.25
275.64	107.25
275.872	77.25
276.104	78.25
276.335	89.25
276.567	103.25
276.799	98.25
277.031	92.25
277.262	101.25
277.494	78.25
277.726	79.25
277.957	81.25
278.189	94.25
278.421	90.25
278.652	74.25
278.884	87.25
279.115	71.25
279.347	84.25
279.579	99.25
279.81	82.25
280.042	88.25
280.273	95.25
280.505	77.25
280.736	69.25
280.968	94.25
281.199	92.25
281.431	79.25
281.662	83.25
281.894	93.25
282.125	96.25
282.356	124.25
282.588	126.25
282.819	120.25
283.051	96.25
283.282	104.25
283.513	91.25
283.745	73.25
283.976	85.25
284.207	93.25
284.439	83.25
284.67	81.25
284.901	85.25
285.132	81.25
285.364	89.25
285.595	94.25
285.826	90.25
286.057	96.25
286.288	93.25
286.52	92.25
286.751	80.25
286.982	83.25
287.213	94.25
287.444	80.25
287.675	85.25
287.906	79.25
288.138	77.25
288.369	91.25
288.6	89.25
288.831	100.25
289.062	89.25
289.293	96.25
289.524	81.25
289.755	98.25
289.986	89.25
290.217	89.25
290.448	75.25
290.679	80.25
290.91	93.25
291.141	75.25
291.371	86.25
291.602	76.25
291.833	97.25
292.064	90.25
292.295	85.25
292.526	79.25
292.757	92.25
292.987	84.25
293.218	84.25
293.449	74.25
293.68	80.25
293.91	95.25
294.141	92.25
294.372	91.25
294.603	100.25
294.833	90.25
295.064	91.25
295.295	73.25
295.525	96.25
295.756	114.25
295.987	107.25
296.217	125.25
296.448	113.25
296.679	88.25
296.909	88.25
297.14	91.25
297.37	74.25
297.601	89.25
297.831	92.25
298.062	88.25
298.292	92.25
298.523	84.25
298.753	75.25
298.984	89.25
299.214	83.25
299.445	95.25
299.675	88.25
299.905	85.25
300.136	85.25
300.366	77.25
300.597	84.25
300.827	83.25
301.057	105.25
301.288	115.25
301.518	94.25
301.748	85.25
301.979	100.25
302.209	105.25
302.439	100.25
302.669	73.25
302.9	98.25
303.13	102.25
303.36	87.25
303.59	107.25
303.82	101.25
304.051	87.25
304.281	98.25
304.511	88.25
304.741	87.25
304.971	93.25
305.201	96.25
305.431	99.25
305.661	82.25
305.891	90.25
306.121	90.25
306.352	92.25
306.582	95.25
306.812	98.25
307.042	94.25
307.272	88.25
307.502	93.25
307.731	79.25
307.961	87.25
308.191	79.25
308.421	97.25
308.651	92.25
308.881	85.25
309.111	95.25
309.341	98.25
309.571	102.25
309.8	96.25
310.03	84.25
310.26	88.25
310.49	101.25
310.72	92.25
310.949	86.25
311.179	95.25
311.409	90.25
311.639	94.25
311.868	83.25
312.098	98.25
312.328	97.25
312.557	93.25
312.787	95.25
313.017	86.25
313.246	89.25
313.476	75.25
313.706	88.25
313.935	100.25
314.165	82.25
314.394	99.25
314.624	90.25
314.853	84.25
315.083	89.25
315.312	85.25
315.542	91.25
315.771	91.25
316.001	97.25
316.23	96.25
316.46	90.25
316.689	90.25
316.919	101.25
317.148	93.25
317.377	93.25
317.607	77.25
317.836	88.25
318.065	81.25
318.295	92.25
318.524	84.25
318.753	89.25
318.983	100.25
319.212	106.25
319.441	96.25
319.67	116.25
319.9	91.25
320.129	95.25
320.358	88.25
320.587	105.25
320.816	104.25
321.046	104.25
321.275	84.25
321.504	93.25
321.733	100.25
321.962	98.25
322.191	82.25
322.42	108.25
322.649	106.25
322.878	105.25
323.108	103.25
323.337	118.25
323.566	126.25
323.795	151.25
324.024	174.25
324.253	343.25
324.482	725.25
324.71	1419.25
324.939	1821.25
325.168	701.25
325.397	208.25
325.626	135.25
325.855	120.25
326.084	114.25
326.313	128.25
326.542	141.25
326.77	212.25
326.999	414.25
327.228	817.25
327.457	1434.25
327.686	1147.25
327.914	328.25
328.143	187.25
328.372	122.25
328.6	111.25
328.829	119.25
329.058	116.25
329.287	117.25
329.515	104.25
329.744	103.25
329.972	92.25
330.201	99.25
330.43	108.25
330.658	114.25
330.887	125.25
331.115	98.25
331.344	103.25
331.572	91.25
331.801	99.25
332.03	100.25
332.258	95.25
332.486	93.25
332.715	80.25
332.943	100.25
333.172	84.25
333.4	77.25
333.629	117.25
333.857	84.25
334.085	100.25
334.314	86.25
334.542	95.25
334.771	100.25
334.999	94.25
335.227	97.25
335.455	107.25
335.684	87.25
335.912	90.25
336.14	106.25
336.369	99.25
336.597	97.25
336.825	96.25
337.053	100.25
337.281	97.25
337.51	99.25
337.738	94.25
337.966	96.25
338.194	82.25
338.422	92.25
338.65	75.25
338.878	96.25
339.106	103.25
339.334	95.25
339.562	79.25
339.79	87.25
340.018	82.25
340.246	83.25
340.474	82.25
340.702	93.25
340.93	88.25
341.158	85.25
341.386	93.25
341.614	83.25
341.842	90.25
342.07	98.25
342.298	92.25
342.526	98.25
342.754	85.25
342.981	84.25
343.209	93.25
343.437	92.25
343.665	75.25
343.893	83.25
344.12	83.25
344.348	92.25
344.576	96.25
344.804	93.25
345.031	95.25
345.259	71.25
345.487	85.25
345.714	97.25
345.942	89.25
346.17	79.25
346.397	98.25
346.625	95.25
346.853	98.25
347.08	100.25
347.308	82.25
347.535	91.25
347.763	86.25
347.99	98.25
348.218	109.25
348.445	106.25
348.673	95.25
348.9	95.25
349.128	87.25
349.355	92.25
349.583	99.25
349.81	82.25
350.037	107.25
350.265	94.25
350.492	91.25
350.72	104.25
350.947	105.25
351.174	104.25
351.402	106.25
351.629	97.25
351.856	93.25
352.083	99.25
352.311	100.25
352.538	100.25
352.765	100.25
352.992	116.25
353.22	109.25
353.447	95.25
353.674	96.25
353.901	88.25
354.128	91.25
354.355	93.25
354.583	96.25
354.81	112.25
355.037	86.25
355.264	100.25
355.491	117.25
355.718	89.25
355.945	87.25
356.172	84.25
356.399	88.25
356.626	103.25
356.853	91.25
357.08	81.25
357.307	85.25
357.534	83.25
357.761	90.25
357.988	97.25
358.215	100.25
358.441	89.25
358.668	84.25
358.895	89.25
359.122	90.25
359.349	93.25
359.576	83.25
359.802	90.25
360.029	106.25
360.256	92.25
360.483	93.25
360.709	87.25
360.936	78.25
361.163	103.25
361.39	93.25
361.616	83.25
361.843	100.25
362.07	99.25
362.296	97.25
362.523	80.25
362.749	81.25
362.976	83.25
363.203	77.25
363.429	88.25
363.656	90.25
363.882	72.25
364.109	91.25
364.335	84.25
364.562	91.25
364.788	68.25
365.015	75.25
365.241	89.25
365.468	108.25
365.694	99.25
365.92	89.25
366.147	90.25
366.373	101.25
366.599	79.25
366.826	91.25
367.052	85.25
367.278	100.25
367.505	102.25
367.731	97.25
367.957	86.25
368.184	83.25
368.41	98.25
368.636	116.25
368.862	117.25
369.089	105.25
369.315	87.25
369.541	98.25
369.767	95.25
369.993	91.25
370.219	91.25
370.445	86.25
370.672	84.25
370.898	93.25
371.124	81.25
371.35	81.25
371.576	99.25
371.802	94.25
372.028	75.25
372.254	87.25
372.48	81.25
372.706	86.25
372.932	83.25
373.158	79.25
373.384	98.25
373.61	95.25
373.835	84.25
374.061	91.25
374.287	101.25
374.513	84.25
374.739	103.25
374.965	91.25
375.191	81.25
375.416	95.25
375.642	97.25
375.868	100.25
376.094	84.25
376.319	94.25
376.545	91.25
376.771	70.25
376.997	101.25
377.222	95.25
377.448	82.25
377.674	77.25
377.899	85.25
378.125	84.25
378.35	83.25
378.576	80.25
378.802	88.25
379.027	99.25
379.253	76.25
379.478	95.25
379.704	82.25
379.929	82.25
380.155	90.25
380.38	83.25
380.606	87.25
380.831	83.25
381.057	91.25
381.282	101.25
381.507	80.25
381.733	94.25
381.958	99.25
382.184	100.25
382.409	95.25
382.634	100.25
382.86	98.25
383.085	94.25
383.31	101.25
383.535	94.25
383.761	95.25
383.986	77.25
384.211	96.25
384.436	98.25
384.662	97.25
384.887	94.25
385.112	93.25
385.337	99.25
385.562	90.25
385.787	98.25
386.013	104.25
386.238	101.25
386.463	90.25
386.688	96.25
386.913	99.25
387.138	108.25
387.363	98.25
387.588	101.25
387.813	85.25
388.038	98.25
388.263	99.25
388.488	111.25
388.713	89.25
388.938	82.25
389.163	98.25
389.387	95.25
389.612	89.25
389.837	97.25
390.062	94.25
390.287	96.25
390.512	95.25
390.736	85.25
390.961	81.25
391.186	86.25
391.411	103.25
391.636	76.25
391.86	74.25
392.085	78.25
392.31	80.25
392.534	106.25
392.759	100.25
392.984	79.25
393.208	82.25
393.433	86.25
393.658	81.25
393.882	85.25
394.107	69.25
394.331	82.25
394.556	87.25
394.78	91.25
395.005	97.25
395.229	83.25
395.454	94.25
395.678	76.25
395.903	89.25
396.127	89.25
396.352	71.25
396.576	77.25
396.801	81.25
397.025	86.25
397.249	77.25
397.474	94.25
397.698	84.25
397.922	77.25
398.147	89.25
398.371	77.25
398.595	82.25
398.82	95.25
399.044	78.25
399.268	93.25
399.492	86.25
399.717	93.25
399.941	71.25
400.165	90.25
400.389	85.25
400.613	81.25
400.837	87.25
401.062	83.25
401.286	87.25
401.51	93.25
401.734	82.25
401.958	95.25
402.182	104.25
402.406	157.25
402.63	103.25
402.854	83.25
403.078	87.25
403.302	87.25
403.526	90.25
403.75	89.25
403.974	77.25
404.198	84.25
404.422	86.25
404.645	100.25
404.869	96.25
405.093	102.25
405.317	89.25
405.541	90.25
405.765	94.25
405.988	120.25
406.212	158.25
406.436	191.25
406.66	135.25
406.883	87.25
407.107	91.25
407.331	89.25
407.555	105.25
407.778	87.25
408.002	85.25
408.226	92.25
408.449	92.25
408.673	83.25
408.896	87.25
409.12	81.25
409.344	97.25
409.567	81.25
409.791	88.25
410.014	99.25
410.238	94.25
410.461	85.25
410.685	83.25
410.908	99.25
411.132	108.25
411.355	101.25
411.578	91.25
411.802	83.25
412.025	75.25
412.249	81.25
412.472	83.25
412.695	81.25
412.919	99.25
413.142	79.25
413.365	75.25
413.589	77.25
413.812	74.25
414.035	80.25
414.258	87.25
414.482	78.25
414.705	79.25
414.928	98.25
415.151	83.25
415.374	91.25
415.597	81.25
415.821	97.25
416.044	85.25
416.267	79.25
416.49	82.25
416.713	89.25
416.936	86.25
417.159	85.25
417.382	89.25
417.605	69.25
417.828	86.25
418.051	82.25
418.274	82.25
418.497	87.25
418.72	80.25
418.943	74.25
419.166	97.25
419.389	76.25
419.611	78.25
419.834	95.25
420.057	89.25
420.28	82.25
420.503	92.25
420.726	98.25
420.948	93.25
421.171	95.25
421.394	95.25
421.617	74.25
421.839	95.25
422.062	97.25
422.285	87.25
422.507	80.25
422.73	84.25
422.953	87.25
423.175	90.25
423.398	79.25
423.621	78.25
423.843	84.25
424.066	95.25
424.288	95.25
424.511	87.25
424.733	96.25
424.956	98.25
425.178	89.25
425.401	96.25
425.623	85.25
425.846	95.25
426.068	83.25
426.291	77.25
426.513	93.25
426.735	86.25
426.958	93.25
427.18	99.25
427.402	122.25
427.625	151.25
427.847	120.25
428.069	94.25
428.292	88.25
428.514	80.25
428.736	83.25
428.958	94.25
429.181	81.25
429.403	92.25
429.625	89.25
429.847	88.25
430.069	104.25
430.292	89.25
430.514	80.25
430.736	68.25
430.958	93.25
431.18	71.25
431.402	72.25
431.624	96.25
431.846	98.25
432.068	92.25
432.29	76.25
432.512	80.25
432.734	80.25
432.956	81.25
433.178	89.25
433.4	97.25
433.622	84.25
433.844	86.25
434.066	93.25
434.287	84.25
434.509	84.25
434.731	87.25
434.953	80.25
435.175	87.25
435.397	85.25
435.618	81.25
435.84	99.25
436.062	111.25
436.284	109.25
436.505	87.25
436.727	89.25
436.949	78.25
437.17	85.25
437.392	84.25
437.614	96.25
437.835	105.25
438.057	113.25
438.278	108.25
438.5	91.25
438.721	109.25
438.943	106.25
439.165	100.25
439.386	92.25
439.608	96.25
439.829	102.25
440.05	103.25
440.272	126.25
440.493	95.25
440.715	90.25
440.936	83.25
441.158	91.25
441.379	82.25
441.6	100.25
441.822	101.25
442.043	83.25
442.264	104.25
442.486	84.25
442.707	94.25
442.928	115.25
443.149	127.25
443.371	106.25
443.592	105.25
443.813	106.25
444.034	82.25
444.255	101.25
444.476	90.25
444.698	84.25
444.919	83.25
445.14	125.25
445.361	125.25
445.582	108.25
445.803	111.25
446.024	113.25
446.245	111.25
446.466	93.25
446.687	86.25
446.908	81.25
447.129	68.25
447.35	76.25
447.571	89.25
447.792	91.25
448.013	93.25
448.234	106.25
448.455	102.25
448.675	98.25
448.896	116.25
449.117	95.25
449.338	92.25
449.559	120.25
449.779	122.25
450	86.25
450.221	83.25
450.442	81.25
450.662	101.25
450.883	93.25
451.104	95.25
451.324	88.25
451.545	79.25
451.766	85.25
451.986	82.25
452.207	76.25
452.428	99.25
452.648	105.25
452.869	111.25
453.089	108.25
453.31	109.25
453.53	107.25
453.751	89.25
453.971	103.25
454.192	93.25
454.412	78.25
454.633	85.25
454.853	82.25
455.073	93.25
455.294	83.25
455.514	105.25
455.734	94.25
455.955	93.25
456.175	87.25
456.395	83.25
456.616	87.25
456.836	89.25
457.056	84.25
457.276	85.25
457.497	66.25
457.717	81.25
457.937	76.25
458.157	75.25
458.377	73.25
458.598	108.25
458.818	126.25
459.038	129.25
459.258	112.25
459.478	79.25
459.698	80.25
459.918	76.25
460.138	88.25
460.358	87.25
460.578	88.25
460.798	95.25
461.018	73.25
461.238	90.25
461.458	85.25
461.678	94.25
461.898	89.25
462.118	79.25
462.338	72.25
462.558	77.25
462.777	75.25
462.997	97.25
463.217	81.25
463.437	82.25
463.657	85.25
463.876	78.25
464.096	87.25
464.316	87.25
464.536	84.25
464.755	84.25
464.975	101.25
465.195	157.25
465.414	148.25
465.634	89.25
465.854	92.25
466.073	87.25
466.293	87.25
466.512	86.25
466.732	68.25
466.951	88.25
467.171	102.25
467.391	89.25
467.61	91.25
467.829	88.25
468.049	89.25
468.268	92.25
468.488	93.25
468.707	83.25
468.927	77.25
469.146	89.25
469.365	86.25
469.585	89.25
469.804	106.25
470.023	74.25
470.243	90.25
470.462	97.25
470.681	112.25
470.901	77.25
471.12	79.25
471.339	73.25
471.558	79.25
471.777	76.25
471.997	74.25
472.216	74.25
472.435	100.25
472.654	76.25
472.873	75.25
473.092	79.25
473.311	86.25
473.53	87.25
473.749	85.25
473.968	93.25
474.187	89.25
474.406	88.25
474.625	84.25
474.844	80.25
475.063	80.25
475.282	77.25
475.501	97.25
475.72	104.25
475.939	80.25
476.158	78.25
476.377	90.25
476.596	83.25
476.814	94.25
477.033	77.25
477.252	73.25
477.471	83.25
477.69	97.25
477.908	88.25
478.127	88.25
478.346	87.25
478.564	84.25
478.783	96.25
479.002	104.25
479.22	84.25
479.439	89.25
479.658	107.25
479.876	91.25
480.095	91.25
480.313	90.25
480.532	102.25
480.751	88.25
480.969	85.25
481.188	86.25
481.406	84.25
481.624	100.25
481.843	84.25
482.061	91.25
482.28	89.25
482.498	71.25
482.717	95.25
482.935	94.25
483.153	79.25
483.372	61.25
483.59	80.25
483.808	92.25
484.027	67.25
484.245	95.25
484.463	84.25
484.681	90.25
484.9	90.25
485.118	90.25
485.336	83.25
485.554	99.25
485.772	93.25
485.99	100.25
486.209	99.25
486.427	114.25
486.645	100.25
486.863	114.25
487.081	98.25
487.299	84.25
487.517	94.25
487.735	89.25
487.953	96.25
488.171	87.25
488.389	91.25
488.607	92.25
488.825	80.25
489.043	76.25
489.261	101.25
489.479	83.25
489.696	89.25
489.914	67.25
490.132	67.25
490.35	81.25
490.568	87.25
490.786	73.25
491.003	69.25
491.221	78.25
491.439	83.25
491.657	81.25
491.874	87.25
492.092	85.25
492.31	81.25
492.527	74.25
492.745	84.25
492.963	76.25
493.18	91.25
493.398	95.25
493.615	96.25
493.833	109.25
494.05	92.25
494.268	90.25
494.485	80.25
494.703	102.25
494.92	80.25
495.138	85.25
495.355	101.25
495.573	87.25
495.79	90.25
496.008	96.25
496.225	100.25
496.442	92.25
496.66	88.25
496.877	97.25
497.094	90.25
497.312	92.25
497.529	100.25
497.746	91.25
497.963	84.25
498.181	90.25
498.398	87.25
498.615	99.25
498.832	99.25
499.049	83.25
499.267	92.25
499.484	95.25
499.701	94.25
499.918	80.25
500.135	93.25
500.352	99.25
500.569	101.25
500.786	92.25
501.003	87.25
501.22	72.25
501.437	65.25
501.654	78.25
501.871	88.25
502.088	88.25
502.305	100.25
502.522	98.25
502.739	85.25
502.956	92.25
503.172	98.25
503.389	76.25
503.606	111.25
503.823	99.25
504.04	88.25
504.256	88.25
504.473	88.25
504.69	79.25
504.907	96.25
505.123	81.25
505.34	96.25
505.557	93.25
505.773	99.25
505.99	101.25
506.207	90.25
506.423	89.25
506.64	81.25
506.856	79.25
507.073	84.25
507.289	97.25
507.506	103.25
507.722	111.25
507.939	105.25
508.155	87.25
508.372	80.25
508.588	84.25
508.805	80.25
509.021	103.25
509.238	105.25
509.454	96.25
509.67	99.25
509.887	109.25
510.103	129.25
510.319	198.25
510.536	710.25
510.752	2171.25
510.968	608.25
511.184	133.25
511.401	113.25
511.617	93.25
511.833	103.25
512.049	95.25
512.265	88.25
512.481	90.25
512.698	97.25
512.914	90.25
513.13	93.25
513.346	96.25
513.562	87.25
513.778	75.25
513.994	91.25
514.21	99.25
514.426	114.25
514.642	128.25
514.858	115.25
515.074	155.25
515.29	422.25
515.506	1309.25
515.721	482.25
515.937	138.25
516.153	117.25
516.369	92.25
516.585	107.25
516.801	88.25
