Data from Uncirc_1992_H10_HRD10591_00052.txt Node
Date: Wed Jan 03 11:46:26 EST 2024
User: Yrep
Spectrometer: HR+D1059
Trigger mode: 1
Integration Time (sec): 1.000000E-1
Scans to average: 1
Electric dark correction enabled: true
Nonlinearity correction enabled: false
Boxcar width: 0
XAxis mode: Wavelengths
Number of Pixels in Spectrum: 2048
>>>>>Begin Spectral Data<<<<<
223.165	-16.44
223.4	-16.44
223.635	-16.44
223.869	-10.44
224.104	-11.44
224.338	-13.44
224.573	6.56
224.808	-15.44
225.042	-23.44
225.277	-17.44
225.511	-1.44
225.746	4.56
225.98	-10.44
226.215	8.56
226.449	19.56
226.683	19.56
226.918	30.56
227.152	30.56
227.387	37.56
227.621	33.56
227.856	50.56
228.09	53.56
228.324	34.56
228.559	54.56
228.793	160.56
229.027	428.56
229.262	471.56
229.496	548.56
229.73	704.56
229.964	719.56
230.199	517.56
230.433	452.56
230.667	462.56
230.901	443.56
231.136	446.56
231.37	445.56
231.604	458.56
231.838	431.56
232.072	439.56
232.306	427.56
232.541	436.56
232.775	451.56
233.009	452.56
233.243	477.56
233.477	482.56
233.711	473.56
233.945	471.56
234.179	511.56
234.413	507.56
234.647	503.56
234.881	489.56
235.115	523.56
235.349	539.56
235.583	534.56
235.817	562.56
236.051	580.56
236.285	566.56
236.519	576.56
236.753	688.56
236.987	855.56
237.221	1245.56
237.455	1337.56
237.689	815.56
237.922	675.56
238.156	678.56
238.39	629.56
238.624	607.56
238.858	628.56
239.091	638.56
239.325	626.56
239.559	643.56
239.793	657.56
240.027	707.56
240.26	825.56
240.494	896.56
240.728	879.56
240.961	839.56
241.195	789.56
241.429	751.56
241.662	749.56
241.896	742.56
242.13	762.56
242.363	750.56
242.597	772.56
242.83	803.56
243.064	791.56
243.298	781.56
243.531	814.56
243.765	817.56
243.998	797.56
244.232	815.56
244.465	846.56
244.699	852.56
244.932	889.56
245.166	869.56
245.399	870.56
245.633	858.56
245.866	886.56
246.099	877.56
246.333	885.56
246.566	936.56
246.8	962.56
247.033	962.56
247.266	987.56
247.5	1060.56
247.733	1116.56
247.966	1107.56
248.2	1099.56
248.433	1138.56
248.666	1158.56
248.899	1278.56
249.133	1372.56
249.366	1314.56
249.599	1210.56
249.832	1151.56
250.066	1174.56
250.299	1193.56
250.532	1261.56
250.765	1386.56
250.998	1608.56
251.231	1539.56
251.465	1380.56
251.698	1366.56
251.931	1343.56
252.164	1314.56
252.397	1349.56
252.63	1357.56
252.863	1497.56
253.096	1570.56
253.329	1600.56
253.562	1596.56
253.795	1482.56
254.028	1480.56
254.261	1539.56
254.494	1685.56
254.727	1933.56
254.96	2070.56
255.193	1803.56
255.426	1662.56
255.659	1574.56
255.892	1479.56
256.124	1476.56
256.357	1455.56
256.59	1466.56
256.823	1460.56
257.056	1443.56
257.289	1457.56
257.521	1492.56
257.754	1473.56
257.987	1478.56
258.22	1464.56
258.452	1471.56
258.685	1466.56
258.918	1471.56
259.151	1568.56
259.383	1591.56
259.616	1599.56
259.849	1685.56
260.081	1824.56
260.314	1962.56
260.547	1913.56
260.779	1764.56
261.012	1688.56
261.244	1657.56
261.477	1588.56
261.71	1646.56
261.942	1636.56
262.175	1663.56
262.407	1615.56
262.64	1571.56
262.872	1591.56
263.105	1611.56
263.337	1565.56
263.57	1566.56
263.802	1603.56
264.035	1620.56
264.267	1579.56
264.499	1607.56
264.732	1621.56
264.964	1628.56
265.197	1646.56
265.429	1671.56
265.661	1653.56
265.894	1687.56
266.126	1680.56
266.358	1723.56
266.591	1762.56
266.823	1805.56
267.055	1813.56
267.287	1789.56
267.52	1782.56
267.752	1768.56
267.984	1779.56
268.216	1843.56
268.448	1849.56
268.681	1914.56
268.913	1982.56
269.145	2192.56
269.377	2269.56
269.609	2155.56
269.841	2151.56
270.073	2241.56
270.306	2493.56
270.538	2561.56
270.77	2509.56
271.002	2389.56
271.234	2301.56
271.466	2471.56
271.698	2563.56
271.93	2562.56
272.162	2518.56
272.394	2544.56
272.626	2364.56
272.858	2273.56
273.09	2183.56
273.322	2144.56
273.553	2158.56
273.785	2167.56
274.017	2142.56
274.249	2158.56
274.481	2162.56
274.713	2170.56
274.945	2188.56
275.176	2170.56
275.408	2156.56
275.64	2169.56
275.872	2182.56
276.104	2193.56
276.335	2241.56
276.567	2283.56
276.799	2413.56
277.031	2619.56
277.262	2699.56
277.494	2586.56
277.726	2445.56
277.957	2355.56
278.189	2349.56
278.421	2272.56
278.652	2267.56
278.884	2320.56
279.115	2304.56
279.347	2268.56
279.579	2282.56
279.81	2255.56
280.042	2290.56
280.273	2305.56
280.505	2299.56
280.736	2302.56
280.968	2351.56
281.199	2317.56
281.431	2369.56
281.662	2367.56
281.894	2402.56
282.125	2428.56
282.356	2583.56
282.588	2642.56
282.819	2546.56
283.051	2465.56
283.282	2444.56
283.513	2489.56
283.745	2527.56
283.976	2539.56
284.207	2588.56
284.439	2529.56
284.67	2538.56
284.901	2509.56
285.132	2576.56
285.364	2509.56
285.595	2564.56
285.826	2535.56
286.057	2526.56
286.288	2592.56
286.52	2605.56
286.751	2583.56
286.982	2665.56
287.213	2641.56
287.444	2675.56
287.675	2716.56
287.906	2757.56
288.138	2796.56
288.369	2803.56
288.6	2812.56
288.831	2782.56
289.062	2687.56
289.293	2729.56
289.524	2714.56
289.755	2669.56
289.986	2686.56
290.217	2759.56
290.448	2739.56
290.679	2707.56
290.91	2695.56
291.141	2686.56
291.371	2738.56
291.602	2753.56
291.833	2746.56
292.064	2746.56
292.295	2725.56
292.526	2760.56
292.757	2717.56
292.987	2736.56
293.218	2743.56
293.449	2790.56
293.68	2752.56
293.91	2689.56
294.141	2744.56
294.372	2743.56
294.603	2776.56
294.833	2833.56
295.064	2814.56
295.295	2796.56
295.525	2819.56
295.756	2870.56
295.987	2912.56
296.217	3044.56
296.448	2977.56
296.679	2857.56
296.909	2844.56
297.14	2822.56
297.37	2946.56
297.601	2991.56
297.831	2993.56
298.062	2935.56
298.292	2977.56
298.523	2962.56
298.753	3047.56
298.984	2980.56
299.214	3026.56
299.445	3005.56
299.675	3013.56
299.905	3073.56
300.136	2991.56
300.366	3074.56
300.597	3088.56
300.827	3216.56
301.057	3208.56
301.288	3251.56
301.518	3175.56
301.748	3258.56
301.979	3336.56
302.209	3260.56
302.439	3247.56
302.669	3231.56
302.9	3230.56
303.13	3156.56
303.36	3209.56
303.59	3241.56
303.82	3345.56
304.051	3271.56
304.281	3229.56
304.511	3195.56
304.741	3206.56
304.971	3203.56
305.201	3228.56
305.431	3186.56
305.661	3200.56
305.891	3168.56
306.121	3200.56
306.352	3205.56
306.582	3215.56
306.812	3114.56
307.042	3192.56
307.272	3147.56
307.502	3209.56
307.731	3228.56
307.961	3150.56
308.191	3152.56
308.421	3193.56
308.651	3249.56
308.881	3211.56
309.111	3180.56
309.341	3209.56
309.571	3349.56
309.8	3339.56
310.03	3383.56
310.26	3406.56
310.49	3368.56
310.72	3522.56
310.949	3556.56
311.179	3531.56
311.409	3389.56
311.639	3435.56
311.868	3438.56
312.098	3493.56
312.328	3581.56
312.557	3686.56
312.787	3725.56
313.017	3671.56
313.246	3613.56
313.476	3597.56
313.706	3604.56
313.935	3761.56
314.165	3761.56
314.394	3765.56
314.624	3713.56
314.853	3674.56
315.083	3628.56
315.312	3583.56
315.542	3541.56
315.771	3531.56
316.001	3501.56
316.23	3537.56
316.46	3551.56
316.689	3623.56
316.919	3626.56
317.148	3621.56
317.377	3609.56
317.607	3561.56
317.836	3551.56
318.065	3581.56
318.295	3590.56
318.524	3558.56
318.753	3559.56
318.983	3557.56
319.212	3522.56
319.441	3578.56
319.67	3603.56
319.9	3546.56
320.129	3610.56
320.358	3599.56
320.587	3581.56
320.816	3650.56
321.046	3601.56
321.275	3684.56
321.504	3589.56
321.733	3642.56
321.962	3766.56
322.191	3821.56
322.42	3860.56
322.649	3863.56
322.878	3960.56
323.108	4021.56
323.337	4209.56
323.566	4378.56
323.795	4537.56
324.024	5029.56
324.253	6383.56
324.482	9419.56
324.71	13945.56
324.939	15548.56
325.168	10305.56
325.397	5861.56
325.626	4838.56
325.855	4463.56
326.084	4461.56
326.313	4434.56
326.542	4594.56
326.77	5107.56
326.999	6282.56
327.228	8929.56
327.457	12841.56
327.686	11843.56
327.914	6451.56
328.143	5155.56
328.372	4900.56
328.6	4735.56
328.829	4770.56
329.058	4920.56
329.287	4793.56
329.515	4620.56
329.744	4391.56
329.972	4482.56
330.201	4472.56
330.43	4723.56
330.658	4916.56
330.887	5138.56
331.115	4935.56
331.344	4653.56
331.572	4642.56
331.801	4726.56
332.03	4707.56
332.258	4689.56
332.486	4735.56
332.715	4820.56
332.943	4979.56
333.172	5113.56
333.4	5286.56
333.629	5348.56
333.857	5370.56
334.085	5281.56
334.314	5166.56
334.542	5134.56
334.771	5136.56
334.999	5061.56
335.227	5019.56
335.455	4952.56
335.684	4835.56
335.912	4795.56
336.14	4748.56
336.369	4779.56
336.597	4815.56
336.825	4768.56
337.053	4685.56
337.281	4567.56
337.51	4543.56
337.738	4576.56
337.966	4505.56
338.194	4483.56
338.422	4418.56
338.65	4385.56
338.878	4302.56
339.106	4346.56
339.334	4367.56
339.562	4285.56
339.79	4233.56
340.018	4247.56
340.246	4216.56
340.474	4183.56
340.702	4238.56
340.93	4228.56
341.158	4283.56
341.386	4258.56
341.614	4285.56
341.842	4165.56
342.07	4182.56
342.298	4135.56
342.526	4147.56
342.754	4126.56
342.981	4207.56
343.209	4297.56
343.437	4554.56
343.665	4732.56
343.893	5073.56
344.12	5035.56
344.348	4847.56
344.576	4626.56
344.804	4607.56
345.031	4451.56
345.259	4328.56
345.487	4257.56
345.714	4123.56
345.942	4117.56
346.17	4139.56
346.397	4077.56
346.625	4049.56
346.853	4013.56
347.08	3975.56
347.308	4007.56
347.535	4101.56
347.763	4130.56
347.99	4078.56
348.218	4059.56
348.445	4121.56
348.673	4065.56
348.9	4007.56
349.128	3986.56
349.355	3884.56
349.583	3897.56
349.81	3920.56
350.037	3895.56
350.265	3844.56
350.492	3873.56
350.72	3892.56
350.947	3991.56
351.174	3924.56
351.402	4055.56
351.629	3998.56
351.856	3953.56
352.083	4028.56
352.311	4045.56
352.538	4030.56
352.765	3979.56
352.992	3921.56
353.22	3924.56
353.447	3922.56
353.674	3841.56
353.901	3840.56
354.128	3818.56
354.355	3818.56
354.583	3860.56
354.81	3772.56
355.037	3876.56
355.264	3836.56
355.491	3841.56
355.718	3779.56
355.945	3819.56
356.172	3857.56
356.399	3805.56
356.626	3809.56
356.853	3885.56
357.08	3829.56
357.307	3761.56
357.534	3854.56
357.761	3850.56
357.988	3850.56
358.215	3809.56
358.441	3854.56
358.668	3887.56
358.895	3869.56
359.122	3909.56
359.349	3951.56
359.576	4135.56
359.802	4260.56
360.029	4311.56
360.256	4320.56
360.483	4229.56
360.709	4047.56
360.936	4049.56
361.163	3998.56
361.39	4021.56
361.616	4063.56
361.843	4032.56
362.07	3958.56
362.296	3968.56
362.523	3950.56
362.749	3940.56
362.976	3909.56
363.203	3922.56
363.429	3855.56
363.656	3931.56
363.882	3889.56
364.109	3866.56
364.335	3854.56
364.562	3843.56
364.788	3823.56
365.015	3871.56
365.241	3881.56
365.468	3854.56
365.694	3954.56
365.92	3885.56
366.147	3878.56
366.373	3886.56
366.599	3965.56
366.826	3881.56
367.052	3813.56
367.278	3892.56
367.505	3889.56
367.731	3909.56
367.957	3901.56
368.184	3913.56
368.41	3985.56
368.636	4103.56
368.862	4070.56
369.089	4034.56
369.315	4036.56
369.541	4045.56
369.767	4059.56
369.993	3994.56
370.219	3994.56
370.445	4033.56
370.672	4036.56
370.898	4101.56
371.124	4100.56
371.35	4179.56
371.576	4143.56
371.802	4090.56
372.028	4193.56
372.254	4131.56
372.48	4188.56
372.706	4255.56
372.932	4361.56
373.158	4347.56
373.384	4236.56
373.61	4209.56
373.835	4252.56
374.061	4235.56
374.287	4330.56
374.513	4345.56
374.739	4498.56
374.965	4615.56
375.191	4605.56
375.416	4579.56
375.642	4418.56
375.868	4405.56
376.094	4309.56
376.319	4230.56
376.545	4242.56
376.771	4233.56
376.997	4210.56
377.222	4185.56
377.448	4173.56
377.674	4200.56
377.899	4101.56
378.125	4178.56
378.35	4107.56
378.576	4141.56
378.802	4125.56
379.027	4111.56
379.253	4162.56
379.478	4176.56
379.704	4131.56
379.929	4230.56
380.155	4156.56
380.38	4148.56
380.606	4239.56
380.831	4111.56
381.057	4260.56
381.282	4225.56
381.507	4274.56
381.733	4273.56
381.958	4265.56
382.184	4391.56
382.409	4397.56
382.634	4472.56
382.86	4458.56
383.085	4529.56
383.31	4539.56
383.535	4602.56
383.761	4656.56
383.986	4681.56
384.211	4818.56
384.436	4857.56
384.662	4990.56
384.887	5023.56
385.112	4991.56
385.337	5124.56
385.562	5096.56
385.787	5098.56
386.013	5159.56
386.238	5155.56
386.463	5127.56
386.688	5145.56
386.913	5026.56
387.138	5045.56
387.363	5037.56
387.588	5034.56
387.813	4993.56
388.038	5025.56
388.263	5048.56
388.488	5066.56
388.713	5027.56
388.938	5043.56
389.163	5008.56
389.387	4993.56
389.612	4886.56
389.837	4968.56
390.062	4952.56
390.287	4981.56
390.512	4999.56
390.736	5029.56
390.961	5117.56
391.186	5188.56
391.411	5366.56
391.636	5472.56
391.86	5673.56
392.085	5712.56
392.31	5529.56
392.534	5468.56
392.759	5409.56
392.984	5314.56
393.208	5216.56
393.433	5298.56
393.658	5158.56
393.882	5250.56
394.107	5262.56
394.331	5250.56
394.556	5346.56
394.78	5394.56
395.005	5431.56
395.229	5477.56
395.454	5581.56
395.678	5645.56
395.903	5724.56
396.127	5658.56
396.352	5508.56
396.576	5312.56
396.801	5311.56
397.025	5416.56
397.249	5619.56
397.474	5669.56
397.698	5670.56
397.922	5836.56
398.147	5939.56
398.371	6009.56
398.595	6138.56
398.82	6451.56
399.044	7009.56
399.268	7748.56
399.492	8824.56
399.717	9537.56
399.941	9239.56
400.165	8590.56
400.389	7831.56
400.613	7153.56
400.837	6689.56
401.062	6579.56
401.286	6450.56
401.51	6309.56
401.734	6410.56
401.958	6477.56
402.182	6618.56
402.406	6738.56
402.63	6660.56
402.854	6833.56
403.078	6909.56
403.302	7149.56
403.526	7170.56
403.75	7197.56
403.974	7349.56
404.198	7281.56
404.422	7337.56
404.645	7232.56
404.869	7099.56
405.093	7310.56
405.317	7283.56
405.541	7282.56
405.765	7042.56
405.988	6981.56
406.212	7178.56
406.436	7281.56
406.66	7561.56
406.883	7529.56
407.107	8124.56
407.331	8644.56
407.555	9046.56
407.778	8778.56
408.002	8058.56
408.226	7688.56
408.449	7548.56
408.673	7457.56
408.896	7565.56
409.12	7751.56
409.344	7326.56
409.567	6963.56
409.791	6891.56
410.014	6896.56
410.238	6846.56
410.461	6822.56
410.685	6906.56
410.908	6887.56
411.132	7142.56
411.355	7147.56
411.578	6721.56
411.802	6596.56
412.025	6574.56
412.249	6695.56
412.472	6516.56
412.695	6417.56
412.919	6331.56
413.142	6181.56
413.365	6253.56
413.589	6259.56
413.812	6198.56
414.035	6085.56
414.258	6225.56
414.482	6196.56
414.705	6390.56
414.928	6253.56
415.151	6250.56
415.374	6246.56
415.597	6122.56
415.821	6136.56
416.044	6154.56
416.267	6221.56
416.49	6066.56
416.713	6001.56
416.936	6194.56
417.159	6117.56
417.382	6163.56
417.605	6217.56
417.828	6319.56
418.051	6426.56
418.274	6310.56
418.497	6288.56
418.72	6483.56
418.943	6305.56
419.166	6703.56
419.389	7129.56
419.611	7038.56
419.834	6626.56
420.057	6587.56
420.28	6494.56
420.503	6248.56
420.726	6257.56
420.948	6486.56
421.171	6804.56
421.394	6766.56
421.617	6315.56
421.839	6356.56
422.062	6475.56
422.285	6661.56
422.507	7238.56
422.73	7699.56
422.953	7115.56
423.175	6809.56
423.398	6887.56
423.621	6846.56
423.843	7071.56
424.066	7046.56
424.288	6962.56
424.511	7111.56
424.733	7600.56
424.956	7795.56
425.178	7483.56
425.401	7588.56
425.623	7449.56
425.846	6609.56
426.068	6435.56
426.291	6378.56
426.513	6299.56
426.735	6405.56
426.958	6821.56
427.18	7594.56
427.402	8529.56
427.625	8553.56
427.847	7162.56
428.069	6443.56
428.292	6066.56
428.514	5882.56
428.736	5748.56
428.958	5798.56
429.181	5622.56
429.403	5613.56
429.625	5759.56
429.847	6054.56
430.069	6569.56
430.292	6120.56
430.514	5659.56
430.736	5667.56
430.958	5543.56
431.18	5555.56
431.402	5552.56
431.624	5557.56
431.846	5602.56
432.068	5525.56
432.29	5623.56
432.512	5545.56
432.734	5722.56
432.956	5612.56
433.178	5657.56
433.4	5609.56
433.622	5498.56
433.844	5679.56
434.066	5646.56
434.287	5710.56
434.509	5980.56
434.731	6182.56
434.953	6335.56
435.175	6412.56
435.397	6418.56
435.618	6315.56
435.84	6702.56
436.062	7464.56
436.284	7421.56
436.505	6242.56
436.727	5990.56
436.949	5798.56
437.17	5643.56
437.392	5597.56
437.614	5785.56
437.835	6122.56
438.057	7029.56
438.278	7590.56
438.5	7521.56
438.721	8274.56
438.943	7153.56
439.165	6094.56
439.386	5994.56
439.608	6068.56
439.829	6087.56
440.05	6380.56
440.272	6636.56
440.493	6210.56
440.715	5949.56
440.936	5919.56
441.158	5942.56
441.379	6118.56
441.6	6404.56
441.822	6669.56
442.043	7033.56
442.264	7739.56
442.486	7459.56
442.707	6736.56
442.928	6561.56
443.149	6746.56
443.371	6871.56
443.592	7385.56
443.813	8369.56
444.034	8287.56
444.255	7318.56
444.476	7247.56
444.698	7327.56
444.919	7516.56
445.14	7272.56
445.361	6992.56
445.582	7086.56
445.803	7479.56
446.024	8071.56
446.245	7733.56
446.466	7041.56
446.687	6222.56
446.908	5907.56
447.129	5705.56
447.35	5534.56
447.571	5515.56
447.792	5381.56
448.013	5428.56
448.234	5632.56
448.455	6254.56
448.675	7334.56
448.896	7737.56
449.117	6441.56
449.338	6685.56
449.559	7829.56
449.779	7924.56
450	6217.56
450.221	5579.56
450.442	5371.56
450.662	5260.56
450.883	5333.56
451.104	5404.56
451.324	5251.56
451.545	5151.56
451.766	5098.56
451.986	4984.56
452.207	4961.56
452.428	4889.56
452.648	4878.56
452.869	4995.56
453.089	4949.56
453.31	5053.56
453.53	4917.56
453.751	4845.56
453.971	4911.56
454.192	5059.56
454.412	4812.56
454.633	4735.56
454.853	4742.56
455.073	4753.56
455.294	5185.56
455.514	5603.56
455.734	5168.56
455.955	4705.56
456.175	4597.56
456.395	4563.56
456.616	4427.56
456.836	4560.56
457.056	4485.56
457.276	4405.56
457.497	4632.56
457.717	4548.56
457.937	4586.56
458.157	4716.56
458.377	4817.56
458.598	5175.56
458.818	5684.56
459.038	6397.56
459.258	6309.56
459.478	5755.56
459.698	5703.56
459.918	5725.56
460.138	5918.56
460.358	6072.56
460.578	6158.56
460.798	6209.56
461.018	6201.56
461.238	6102.56
461.458	6093.56
461.678	6028.56
461.898	6171.56
462.118	6252.56
462.338	6653.56
462.558	6667.56
462.777	7022.56
462.997	7593.56
463.217	8078.56
463.437	7793.56
463.657	7204.56
463.876	7001.56
464.096	7092.56
464.316	7106.56
464.536	7096.56
464.755	6785.56
464.975	6689.56
465.195	6709.56
465.414	6656.56
465.634	5913.56
465.854	5642.56
466.073	5454.56
466.293	5349.56
466.512	5191.56
466.732	5085.56
466.951	5065.56
467.171	5068.56
467.391	5176.56
467.61	5171.56
467.829	5172.56
468.049	5055.56
468.268	4908.56
468.488	4878.56
468.707	4845.56
468.927	4846.56
469.146	4855.56
469.365	4886.56
469.585	4903.56
469.804	5116.56
470.023	5277.56
470.243	5198.56
470.462	5360.56
470.681	5388.56
470.901	5357.56
471.12	5194.56
471.339	5102.56
471.558	5078.56
471.777	5071.56
471.997	4898.56
472.216	4950.56
472.435	4863.56
472.654	4861.56
472.873	4782.56
473.092	4742.56
473.311	4806.56
473.53	4864.56
473.749	4958.56
473.968	5414.56
474.187	6264.56
474.406	5814.56
474.625	5105.56
474.844	4953.56
475.063	4878.56
475.282	4888.56
475.501	4945.56
475.72	4940.56
475.939	4967.56
476.158	4996.56
476.377	5068.56
476.596	5060.56
476.814	5133.56
477.033	5129.56
477.252	5234.56
477.471	5399.56
477.69	5516.56
477.908	5599.56
478.127	5765.56
478.346	5786.56
478.564	5896.56
478.783	6001.56
479.002	6156.56
479.22	6145.56
479.439	6205.56
479.658	6281.56
479.876	6272.56
480.095	6516.56
480.313	6970.56
480.532	6805.56
480.751	6657.56
480.969	6524.56
481.188	6445.56
481.406	6124.56
481.624	5976.56
481.843	5905.56
482.061	5725.56
482.28	5731.56
482.498	5684.56
482.717	5562.56
482.935	5601.56
483.153	5625.56
483.372	5586.56
483.59	5624.56
483.808	5680.56
484.027	5685.56
484.245	5679.56
484.463	5802.56
484.681	5880.56
484.9	5868.56
485.118	5906.56
485.336	5892.56
485.554	5924.56
485.772	5961.56
485.99	6001.56
486.209	6122.56
486.427	6043.56
486.645	6026.56
486.863	6125.56
487.081	6140.56
487.299	6089.56
487.517	6055.56
487.735	6033.56
487.953	6027.56
