Data from Uncirc_1992_H10_HRD10591_00028.txt Node
Date: Wed Jan 03 11:46:21 EST 2024
User: Yrep
Spectrometer: HR+D1059
Trigger mode: 1
Integration Time (sec): 1.000000E-1
Scans to average: 1
Electric dark correction enabled: true
Nonlinearity correction enabled: false
Boxcar width: 0
XAxis mode: Wavelengths
Number of Pixels in Spectrum: 2048
>>>>>Begin Spectral Data<<<<<
223.165	-10.88
223.4	-10.88
223.635	-10.88
223.869	-13.88
224.104	-21.88
224.338	-20.88
224.573	-19.88
224.808	-9.88
225.042	-13.88
225.277	-12.88
225.511	-5.88
225.746	1.12
225.98	15.12
226.215	3.12
226.449	20.12
226.683	23.12
226.918	36.12
227.152	31.12
227.387	33.12
227.621	40.12
227.856	40.12
228.09	51.12
228.324	58.12
228.559	59.12
228.793	63.12
229.027	71.12
229.262	68.12
229.496	64.12
229.73	71.12
229.964	75.12
230.199	71.12
230.433	86.12
230.667	84.12
230.901	76.12
231.136	80.12
231.37	90.12
231.604	67.12
231.838	93.12
232.072	98.12
232.306	81.12
232.541	80.12
232.775	79.12
233.009	78.12
233.243	62.12
233.477	79.12
233.711	79.12
233.945	79.12
234.179	77.12
234.413	71.12
234.647	87.12
234.881	80.12
235.115	67.12
235.349	76.12
235.583	64.12
235.817	74.12
236.051	78.12
236.285	88.12
236.519	80.12
236.753	71.12
236.987	76.12
237.221	86.12
237.455	87.12
237.689	86.12
237.922	82.12
238.156	81.12
238.39	78.12
238.624	101.12
238.858	68.12
239.091	67.12
239.325	67.12
239.559	63.12
239.793	76.12
240.027	82.12
240.26	83.12
240.494	87.12
240.728	77.12
240.961	77.12
241.195	80.12
241.429	84.12
241.662	79.12
241.896	71.12
242.13	82.12
242.363	76.12
242.597	74.12
242.83	91.12
243.064	82.12
243.298	69.12
243.531	69.12
243.765	77.12
243.998	94.12
244.232	80.12
244.465	82.12
244.699	90.12
244.932	81.12
245.166	81.12
245.399	70.12
245.633	77.12
245.866	68.12
246.099	85.12
246.333	76.12
246.566	78.12
246.8	82.12
247.033	80.12
247.266	78.12
247.5	87.12
247.733	76.12
247.966	68.12
248.2	84.12
248.433	92.12
248.666	74.12
248.899	70.12
249.133	81.12
249.366	94.12
249.599	73.12
249.832	90.12
250.066	92.12
250.299	71.12
250.532	79.12
250.765	65.12
250.998	90.12
251.231	86.12
251.465	88.12
251.698	76.12
251.931	94.12
252.164	79.12
252.397	90.12
252.63	86.12
252.863	76.12
253.096	72.12
253.329	94.12
253.562	64.12
253.795	74.12
254.028	79.12
254.261	87.12
254.494	67.12
254.727	69.12
254.96	82.12
255.193	99.12
255.426	94.12
255.659	95.12
255.892	80.12
256.124	89.12
256.357	70.12
256.59	74.12
256.823	78.12
257.056	80.12
257.289	95.12
257.521	97.12
257.754	78.12
257.987	86.12
258.22	88.12
258.452	86.12
258.685	84.12
258.918	81.12
259.151	83.12
259.383	84.12
259.616	92.12
259.849	79.12
260.081	94.12
260.314	80.12
260.547	84.12
260.779	86.12
261.012	72.12
261.244	89.12
261.477	103.12
261.71	86.12
261.942	103.12
262.175	100.12
262.407	96.12
262.64	93.12
262.872	81.12
263.105	68.12
263.337	92.12
263.57	78.12
263.802	77.12
264.035	71.12
264.267	82.12
264.499	80.12
264.732	98.12
264.964	77.12
265.197	90.12
265.429	75.12
265.661	87.12
265.894	80.12
266.126	86.12
266.358	75.12
266.591	91.12
266.823	93.12
267.055	85.12
267.287	80.12
267.52	91.12
267.752	90.12
267.984	82.12
268.216	71.12
268.448	90.12
268.681	94.12
268.913	92.12
269.145	93.12
269.377	94.12
269.609	88.12
269.841	89.12
270.073	85.12
270.306	94.12
270.538	83.12
270.77	90.12
271.002	89.12
271.234	96.12
271.466	84.12
271.698	74.12
271.93	78.12
272.162	69.12
272.394	86.12
272.626	92.12
272.858	82.12
273.09	94.12
273.322	74.12
273.553	80.12
273.785	102.12
274.017	81.12
274.249	88.12
274.481	83.12
274.713	78.12
274.945	96.12
275.176	93.12
275.408	93.12
275.64	96.12
275.872	86.12
276.104	80.12
276.335	93.12
276.567	89.12
276.799	85.12
277.031	98.12
277.262	86.12
277.494	90.12
277.726	89.12
277.957	84.12
278.189	60.12
278.421	86.12
278.652	91.12
278.884	80.12
279.115	90.12
279.347	95.12
279.579	96.12
279.81	82.12
280.042	85.12
280.273	71.12
280.505	86.12
280.736	87.12
280.968	85.12
281.199	90.12
281.431	89.12
281.662	78.12
281.894	79.12
282.125	95.12
282.356	108.12
282.588	112.12
282.819	111.12
283.051	95.12
283.282	85.12
283.513	94.12
283.745	88.12
283.976	90.12
284.207	88.12
284.439	84.12
284.67	94.12
284.901	84.12
285.132	92.12
285.364	94.12
285.595	101.12
285.826	85.12
286.057	96.12
286.288	88.12
286.52	84.12
286.751	73.12
286.982	95.12
287.213	100.12
287.444	88.12
287.675	87.12
287.906	100.12
288.138	100.12
288.369	94.12
288.6	85.12
288.831	70.12
289.062	99.12
289.293	82.12
289.524	91.12
289.755	81.12
289.986	95.12
290.217	94.12
290.448	94.12
290.679	78.12
290.91	86.12
291.141	92.12
291.371	87.12
291.602	86.12
291.833	90.12
292.064	93.12
292.295	83.12
292.526	81.12
292.757	93.12
292.987	81.12
293.218	90.12
293.449	82.12
293.68	93.12
293.91	88.12
294.141	99.12
294.372	91.12
294.603	93.12
294.833	98.12
295.064	89.12
295.295	83.12
295.525	97.12
295.756	93.12
295.987	100.12
296.217	104.12
296.448	111.12
296.679	101.12
296.909	86.12
297.14	102.12
297.37	87.12
297.601	92.12
297.831	89.12
298.062	97.12
298.292	94.12
298.523	91.12
298.753	100.12
298.984	94.12
299.214	94.12
299.445	95.12
299.675	105.12
299.905	103.12
300.136	93.12
300.366	94.12
300.597	95.12
300.827	98.12
301.057	90.12
301.288	105.12
301.518	82.12
301.748	78.12
301.979	87.12
302.209	85.12
302.439	102.12
302.669	87.12
302.9	91.12
303.13	91.12
303.36	101.12
303.59	86.12
303.82	108.12
304.051	99.12
304.281	86.12
304.511	92.12
304.741	87.12
304.971	94.12
305.201	88.12
305.431	87.12
305.661	91.12
305.891	89.12
306.121	86.12
306.352	97.12
306.582	109.12
306.812	100.12
307.042	100.12
307.272	88.12
307.502	85.12
307.731	109.12
307.961	109.12
308.191	90.12
308.421	86.12
308.651	83.12
308.881	81.12
309.111	85.12
309.341	96.12
309.571	96.12
309.8	85.12
310.03	98.12
310.26	83.12
310.49	90.12
310.72	98.12
310.949	95.12
311.179	100.12
311.409	94.12
311.639	88.12
311.868	95.12
312.098	86.12
312.328	99.12
312.557	84.12
312.787	88.12
313.017	90.12
313.246	99.12
313.476	107.12
313.706	109.12
313.935	84.12
314.165	98.12
314.394	104.12
314.624	101.12
314.853	94.12
315.083	96.12
315.312	92.12
315.542	90.12
315.771	95.12
316.001	89.12
316.23	78.12
316.46	89.12
316.689	94.12
316.919	102.12
317.148	92.12
317.377	82.12
317.607	85.12
317.836	90.12
318.065	74.12
318.295	84.12
318.524	68.12
318.753	100.12
318.983	93.12
319.212	102.12
319.441	107.12
319.67	98.12
319.9	116.12
320.129	83.12
320.358	96.12
320.587	110.12
320.816	99.12
321.046	94.12
321.275	97.12
321.504	91.12
321.733	95.12
321.962	105.12
322.191	92.12
322.42	93.12
322.649	85.12
322.878	102.12
323.108	110.12
323.337	128.12
323.566	132.12
323.795	125.12
324.024	183.12
324.253	317.12
324.482	676.12
324.71	1320.12
324.939	1740.12
325.168	648.12
325.397	210.12
325.626	138.12
325.855	122.12
326.084	129.12
326.313	132.12
326.542	147.12
326.77	206.12
326.999	398.12
327.228	756.12
327.457	1364.12
327.686	1060.12
327.914	302.12
328.143	155.12
328.372	134.12
328.6	123.12
328.829	103.12
329.058	114.12
329.287	112.12
329.515	112.12
329.744	104.12
329.972	99.12
330.201	104.12
330.43	104.12
330.658	112.12
330.887	110.12
331.115	109.12
331.344	111.12
331.572	86.12
331.801	98.12
332.03	100.12
332.258	105.12
332.486	92.12
332.715	85.12
332.943	104.12
333.172	90.12
333.4	95.12
333.629	86.12
333.857	107.12
334.085	103.12
334.314	83.12
334.542	91.12
334.771	95.12
334.999	83.12
335.227	107.12
335.455	107.12
335.684	109.12
335.912	103.12
336.14	95.12
336.369	90.12
336.597	104.12
336.825	103.12
337.053	95.12
337.281	99.12
337.51	84.12
337.738	95.12
337.966	94.12
338.194	103.12
338.422	109.12
338.65	96.12
338.878	89.12
339.106	87.12
339.334	87.12
339.562	86.12
339.79	90.12
340.018	89.12
340.246	92.12
340.474	85.12
340.702	96.12
340.93	95.12
341.158	95.12
341.386	102.12
341.614	103.12
341.842	98.12
342.07	85.12
342.298	98.12
342.526	88.12
342.754	86.12
342.981	75.12
343.209	92.12
343.437	101.12
343.665	92.12
343.893	92.12
344.12	87.12
344.348	92.12
344.576	86.12
344.804	92.12
345.031	98.12
345.259	94.12
345.487	83.12
345.714	97.12
345.942	86.12
346.17	104.12
346.397	100.12
346.625	94.12
346.853	94.12
347.08	99.12
347.308	97.12
347.535	104.12
347.763	100.12
347.99	98.12
348.218	84.12
348.445	83.12
348.673	103.12
348.9	103.12
349.128	99.12
349.355	108.12
349.583	88.12
349.81	82.12
350.037	107.12
350.265	80.12
350.492	97.12
350.72	115.12
350.947	112.12
351.174	103.12
351.402	116.12
351.629	94.12
351.856	100.12
352.083	105.12
352.311	119.12
352.538	105.12
352.765	118.12
352.992	109.12
353.22	112.12
353.447	96.12
353.674	104.12
353.901	119.12
354.128	99.12
354.355	110.12
354.583	104.12
354.81	108.12
355.037	90.12
355.264	108.12
355.491	87.12
355.718	77.12
355.945	99.12
356.172	105.12
356.399	92.12
356.626	117.12
356.853	96.12
357.08	86.12
357.307	99.12
357.534	90.12
357.761	93.12
357.988	82.12
358.215	98.12
358.441	94.12
358.668	87.12
358.895	83.12
359.122	91.12
359.349	95.12
359.576	106.12
359.802	92.12
360.029	94.12
360.256	102.12
360.483	90.12
360.709	88.12
360.936	98.12
361.163	100.12
361.39	96.12
361.616	97.12
361.843	92.12
362.07	78.12
362.296	99.12
362.523	106.12
362.749	100.12
362.976	92.12
363.203	92.12
363.429	99.12
363.656	99.12
363.882	93.12
364.109	90.12
364.335	88.12
364.562	87.12
364.788	92.12
365.015	109.12
365.241	108.12
365.468	103.12
365.694	94.12
365.92	111.12
366.147	92.12
366.373	76.12
366.599	77.12
366.826	104.12
367.052	81.12
367.278	90.12
367.505	98.12
367.731	109.12
367.957	76.12
368.184	86.12
368.41	112.12
368.636	108.12
368.862	113.12
369.089	116.12
369.315	91.12
369.541	100.12
369.767	93.12
369.993	95.12
370.219	82.12
370.445	80.12
370.672	77.12
370.898	91.12
371.124	72.12
371.35	83.12
371.576	105.12
371.802	92.12
372.028	99.12
372.254	86.12
372.48	89.12
372.706	88.12
372.932	96.12
373.158	85.12
373.384	92.12
373.61	92.12
373.835	95.12
374.061	98.12
374.287	86.12
374.513	87.12
374.739	94.12
374.965	92.12
375.191	85.12
375.416	92.12
375.642	87.12
375.868	92.12
376.094	90.12
376.319	81.12
376.545	91.12
376.771	87.12
376.997	82.12
377.222	100.12
377.448	83.12
377.674	85.12
377.899	102.12
378.125	97.12
378.35	92.12
378.576	90.12
378.802	90.12
379.027	84.12
379.253	89.12
379.478	108.12
379.704	90.12
379.929	90.12
380.155	85.12
380.38	95.12
380.606	98.12
380.831	82.12
381.057	87.12
381.282	86.12
381.507	95.12
381.733	90.12
381.958	98.12
382.184	104.12
382.409	100.12
382.634	96.12
382.86	93.12
383.085	88.12
383.31	105.12
383.535	108.12
383.761	101.12
383.986	96.12
384.211	110.12
384.436	93.12
384.662	96.12
384.887	101.12
385.112	91.12
385.337	108.12
385.562	104.12
385.787	99.12
386.013	104.12
386.238	118.12
386.463	94.12
386.688	107.12
386.913	111.12
387.138	91.12
387.363	92.12
387.588	96.12
387.813	101.12
388.038	113.12
388.263	103.12
388.488	110.12
388.713	106.12
388.938	100.12
389.163	96.12
389.387	96.12
389.612	78.12
389.837	94.12
390.062	78.12
390.287	94.12
390.512	107.12
390.736	89.12
390.961	98.12
391.186	100.12
391.411	103.12
391.636	90.12
391.86	84.12
392.085	94.12
392.31	76.12
392.534	88.12
392.759	91.12
392.984	79.12
393.208	92.12
393.433	93.12
393.658	87.12
393.882	81.12
394.107	83.12
394.331	79.12
394.556	84.12
394.78	105.12
395.005	88.12
395.229	85.12
395.454	81.12
395.678	87.12
395.903	94.12
396.127	82.12
396.352	81.12
396.576	87.12
396.801	82.12
397.025	79.12
397.249	97.12
397.474	99.12
397.698	90.12
397.922	84.12
398.147	82.12
398.371	88.12
398.595	88.12
398.82	97.12
399.044	93.12
399.268	97.12
399.492	93.12
399.717	101.12
399.941	90.12
400.165	92.12
400.389	86.12
400.613	90.12
400.837	86.12
401.062	87.12
401.286	83.12
401.51	84.12
401.734	87.12
401.958	113.12
402.182	117.12
402.406	141.12
402.63	105.12
402.854	100.12
403.078	102.12
403.302	78.12
403.526	95.12
403.75	92.12
403.974	77.12
404.198	82.12
404.422	84.12
404.645	111.12
404.869	99.12
405.093	92.12
405.317	94.12
405.541	74.12
405.765	97.12
405.988	110.12
406.212	152.12
406.436	171.12
406.66	117.12
406.883	94.12
407.107	106.12
407.331	95.12
407.555	102.12
407.778	86.12
408.002	87.12
408.226	90.12
408.449	84.12
408.673	68.12
408.896	82.12
409.12	84.12
409.344	88.12
409.567	95.12
409.791	95.12
410.014	92.12
410.238	92.12
410.461	95.12
410.685	109.12
410.908	98.12
411.132	112.12
411.355	101.12
411.578	83.12
411.802	94.12
412.025	89.12
412.249	90.12
412.472	94.12
412.695	100.12
412.919	94.12
413.142	84.12
413.365	83.12
413.589	103.12
413.812	91.12
414.035	99.12
414.258	94.12
414.482	86.12
414.705	87.12
414.928	100.12
415.151	104.12
415.374	102.12
415.597	79.12
415.821	95.12
416.044	88.12
416.267	84.12
416.49	91.12
416.713	100.12
416.936	104.12
417.159	87.12
417.382	85.12
417.605	95.12
417.828	77.12
418.051	70.12
418.274	86.12
418.497	87.12
418.72	99.12
418.943	95.12
419.166	99.12
419.389	98.12
419.611	72.12
419.834	79.12
420.057	90.12
420.28	78.12
420.503	101.12
420.726	90.12
420.948	97.12
421.171	74.12
421.394	80.12
421.617	94.12
421.839	93.12
422.062	87.12
422.285	85.12
422.507	96.12
422.73	101.12
422.953	88.12
423.175	92.12
423.398	94.12
423.621	96.12
423.843	90.12
424.066	86.12
424.288	76.12
424.511	94.12
424.733	108.12
424.956	102.12
425.178	102.12
425.401	94.12
425.623	97.12
425.846	88.12
426.068	100.12
426.291	90.12
426.513	90.12
426.735	86.12
426.958	78.12
427.18	91.12
427.402	123.12
427.625	131.12
427.847	115.12
428.069	104.12
428.292	92.12
428.514	84.12
428.736	78.12
428.958	94.12
429.181	74.12
429.403	78.12
429.625	89.12
429.847	82.12
430.069	94.12
430.292	104.12
430.514	96.12
430.736	99.12
430.958	90.12
431.18	98.12
431.402	74.12
431.624	89.12
431.846	90.12
432.068	82.12
432.29	78.12
432.512	95.12
432.734	94.12
432.956	84.12
433.178	113.12
433.4	87.12
433.622	95.12
433.844	111.12
434.066	91.12
434.287	95.12
434.509	95.12
434.731	101.12
434.953	100.12
435.175	95.12
435.397	98.12
435.618	102.12
435.84	107.12
436.062	108.12
436.284	111.12
436.505	82.12
436.727	92.12
436.949	93.12
437.17	99.12
437.392	86.12
437.614	84.12
437.835	98.12
438.057	115.12
438.278	96.12
438.5	96.12
438.721	113.12
438.943	82.12
439.165	93.12
439.386	100.12
439.608	93.12
439.829	92.12
440.05	100.12
440.272	118.12
440.493	94.12
440.715	91.12
440.936	87.12
441.158	79.12
441.379	78.12
441.6	86.12
441.822	90.12
442.043	76.12
442.264	97.12
442.486	100.12
442.707	87.12
442.928	98.12
443.149	91.12
443.371	113.12
443.592	92.12
443.813	90.12
444.034	103.12
444.255	101.12
444.476	77.12
444.698	84.12
444.919	75.12
445.14	127.12
445.361	108.12
445.582	119.12
445.803	114.12
446.024	124.12
446.245	127.12
446.466	118.12
446.687	86.12
446.908	71.12
447.129	110.12
447.35	90.12
447.571	88.12
447.792	101.12
448.013	98.12
448.234	102.12
448.455	88.12
448.675	116.12
448.896	104.12
449.117	89.12
449.338	102.12
449.559	110.12
449.779	115.12
450	95.12
450.221	84.12
450.442	90.12
450.662	92.12
450.883	99.12
451.104	103.12
451.324	87.12
451.545	90.12
451.766	99.12
451.986	92.12
452.207	91.12
452.428	71.12
452.648	97.12
452.869	107.12
453.089	111.12
453.31	115.12
453.53	80.12
453.751	89.12
453.971	95.12
454.192	97.12
454.412	94.12
454.633	83.12
454.853	87.12
455.073	94.12
455.294	92.12
455.514	97.12
455.734	76.12
455.955	88.12
456.175	82.12
456.395	78.12
456.616	88.12
456.836	82.12
457.056	91.12
457.276	89.12
457.497	87.12
457.717	72.12
457.937	86.12
458.157	96.12
458.377	93.12
458.598	100.12
458.818	125.12
459.038	142.12
459.258	114.12
459.478	87.12
459.698	82.12
459.918	86.12
460.138	84.12
460.358	79.12
460.578	76.12
460.798	88.12
461.018	90.12
461.238	84.12
461.458	91.12
461.678	74.12
461.898	98.12
462.118	92.12
462.338	78.12
462.558	93.12
462.777	79.12
462.997	83.12
463.217	93.12
463.437	104.12
463.657	100.12
463.876	86.12
464.096	96.12
464.316	99.12
464.536	86.12
464.755	93.12
464.975	108.12
465.195	132.12
465.414	143.12
465.634	96.12
465.854	93.12
466.073	89.12
466.293	92.12
466.512	103.12
466.732	87.12
466.951	77.12
467.171	97.12
467.391	97.12
467.61	99.12
467.829	85.12
468.049	95.12
468.268	92.12
468.488	81.12
468.707	90.12
468.927	88.12
469.146	91.12
469.365	95.12
469.585	78.12
469.804	83.12
470.023	89.12
470.243	81.12
470.462	83.12
470.681	85.12
470.901	78.12
471.12	90.12
471.339	86.12
471.558	96.12
471.777	99.12
471.997	82.12
472.216	75.12
472.435	93.12
472.654	99.12
472.873	97.12
473.092	88.12
473.311	86.12
473.53	86.12
473.749	66.12
473.968	97.12
474.187	90.12
474.406	94.12
474.625	87.12
474.844	100.12
475.063	69.12
475.282	84.12
475.501	81.12
475.72	90.12
475.939	87.12
476.158	86.12
476.377	93.12
476.596	95.12
476.814	98.12
477.033	83.12
477.252	79.12
477.471	75.12
477.69	92.12
477.908	75.12
478.127	88.12
478.346	82.12
478.564	86.12
478.783	82.12
479.002	91.12
479.22	86.12
479.439	99.12
479.658	89.12
479.876	84.12
480.095	110.12
480.313	105.12
480.532	102.12
480.751	98.12
480.969	94.12
481.188	107.12
481.406	94.12
481.624	90.12
481.843	88.12
482.061	84.12
482.28	93.12
482.498	94.12
482.717	89.12
482.935	86.12
483.153	81.12
483.372	92.12
483.59	81.12
483.808	101.12
484.027	104.12
484.245	97.12
484.463	93.12
484.681	80.12
484.9	87.12
485.118	91.12
485.336	99.12
485.554	96.12
485.772	90.12
485.99	90.12
486.209	89.12
486.427	94.12
486.645	97.12
486.863	102.12
487.081	92.12
487.299	105.12
487.517	84.12
487.735	89.12
487.953	93.12
488.171	89.12
488.389	87.12
488.607	99.12
488.825	99.12
489.043	93.12
489.261	92.12
489.479	90.12
489.696	95.12
489.914	85.12
490.132	96.12
490.35	105.12
490.568	91.12
490.786	84.12
491.003	82.12
491.221	89.12
491.439	100.12
491.657	98.12
491.874	94.12
492.092	99.12
492.31	91.12
492.527	82.12
492.745	88.12
492.963	76.12
493.18	95.12
493.398	103.12
493.615	87.12
493.833	92.12
494.05	86.12
494.268	101.12
494.485	93.12
494.703	89.12
494.92	86.12
495.138	96.12
495.355	96.12
495.573	93.12
495.79	107.12
496.008	98.12
496.225	99.12
496.442	97.12
496.66	90.12
496.877	74.12
497.094	101.12
497.312	84.12
497.529	96.12
497.746	91.12
497.963	102.12
498.181	89.12
498.398	102.12
498.615	114.12
498.832	84.12
499.049	86.12
499.267	101.12
499.484	79.12
499.701	99.12
499.918	94.12
500.135	105.12
500.352	88.12
500.569	94.12
500.786	95.12
501.003	82.12
501.22	80.12
501.437	96.12
501.654	104.12
501.871	98.12
502.088	87.12
502.305	97.12
502.522	85.12
502.739	95.12
502.956	88.12
503.172	96.12
503.389	92.12
503.606	103.12
503.823	96.12
504.04	97.12
504.256	97.12
504.473	87.12
504.69	82.12
504.907	87.12
505.123	82.12
505.34	93.12
505.557	68.12
505.773	85.12
505.99	86.12
506.207	87.12
506.423	76.12
506.64	84.12
506.856	91.12
507.073	90.12
507.289	101.12
507.506	96.12
507.722	114.12
507.939	103.12
508.155	86.12
508.372	94.12
508.588	96.12
508.805	93.12
509.021	91.12
509.238	99.12
509.454	103.12
509.67	99.12
509.887	95.12
510.103	133.12
510.319	192.12
510.536	613.12
510.752	1809.12
510.968	505.12
511.184	135.12
511.401	103.12
511.617	104.12
511.833	86.12
512.049	98.12
512.265	90.12
512.481	98.12
512.698	90.12
512.914	90.12
513.13	98.12
513.346	86.12
513.562	88.12
513.778	99.12
513.994	98.12
514.21	96.12
514.426	132.12
514.642	125.12
514.858	111.12
515.074	139.12
515.29	372.12
515.506	1058.12
515.721	413.12
515.937	131.12
