Data from Uncirc_1992_H10_HRD10591_00034.txt Node
Date: Wed Jan 03 11:46:23 EST 2024
User: Yrep
Spectrometer: HR+D1059
Trigger mode: 1
Integration Time (sec): 1.000000E-1
Scans to average: 1
Electric dark correction enabled: true
Nonlinearity correction enabled: false
Boxcar width: 0
XAxis mode: Wavelengths
Number of Pixels in Spectrum: 2048
>>>>>Begin Spectral Data<<<<<
223.165	-19.56
223.4	-19.56
223.635	-19.56
223.869	-24.56
224.104	-13.56
224.338	-12.56
224.573	-32.56
224.808	0.44
225.042	1.44
225.277	0.44
225.511	-10.56
225.746	20.44
225.98	13.44
226.215	9.44
226.449	12.44
226.683	20.44
226.918	14.44
227.152	20.44
227.387	27.44
227.621	20.44
227.856	49.44
228.09	52.44
228.324	58.44
228.559	56.44
228.793	57.44
229.027	62.44
229.262	55.44
229.496	70.44
229.73	64.44
229.964	84.44
230.199	74.44
230.433	65.44
230.667	51.44
230.901	80.44
231.136	73.44
231.37	88.44
231.604	76.44
231.838	65.44
232.072	79.44
232.306	70.44
232.541	69.44
232.775	94.44
233.009	69.44
233.243	81.44
233.477	81.44
233.711	90.44
233.945	79.44
234.179	82.44
234.413	96.44
234.647	93.44
234.881	95.44
235.115	85.44
235.349	87.44
235.583	84.44
235.817	85.44
236.051	73.44
236.285	68.44
236.519	78.44
236.753	67.44
236.987	74.44
237.221	80.44
237.455	75.44
237.689	73.44
237.922	83.44
238.156	71.44
238.39	73.44
238.624	64.44
238.858	75.44
239.091	75.44
239.325	81.44
239.559	90.44
239.793	82.44
240.027	73.44
240.26	85.44
240.494	79.44
240.728	76.44
240.961	68.44
241.195	62.44
241.429	86.44
241.662	79.44
241.896	68.44
242.13	77.44
242.363	77.44
242.597	66.44
242.83	73.44
243.064	68.44
243.298	85.44
243.531	85.44
243.765	78.44
243.998	81.44
244.232	66.44
244.465	93.44
244.699	93.44
244.932	80.44
245.166	73.44
245.399	80.44
245.633	76.44
245.866	75.44
246.099	62.44
246.333	87.44
246.566	69.44
246.8	76.44
247.033	66.44
247.266	81.44
247.5	75.44
247.733	81.44
247.966	80.44
248.2	72.44
248.433	75.44
248.666	74.44
248.899	83.44
249.133	70.44
249.366	98.44
249.599	89.44
249.832	77.44
250.066	85.44
250.299	78.44
250.532	92.44
250.765	73.44
250.998	92.44
251.231	64.44
251.465	77.44
251.698	92.44
251.931	83.44
252.164	77.44
252.397	77.44
252.63	76.44
252.863	84.44
253.096	67.44
253.329	81.44
253.562	86.44
253.795	89.44
254.028	75.44
254.261	84.44
254.494	77.44
254.727	71.44
254.96	83.44
255.193	84.44
255.426	85.44
255.659	73.44
255.892	86.44
256.124	75.44
256.357	78.44
256.59	78.44
256.823	80.44
257.056	92.44
257.289	83.44
257.521	75.44
257.754	86.44
257.987	79.44
258.22	83.44
258.452	83.44
258.685	77.44
258.918	83.44
259.151	98.44
259.383	87.44
259.616	76.44
259.849	92.44
260.081	93.44
260.314	75.44
260.547	89.44
260.779	82.44
261.012	76.44
261.244	93.44
261.477	93.44
261.71	94.44
261.942	109.44
262.175	104.44
262.407	88.44
262.64	86.44
262.872	84.44
263.105	79.44
263.337	81.44
263.57	87.44
263.802	87.44
264.035	82.44
264.267	84.44
264.499	86.44
264.732	77.44
264.964	84.44
265.197	84.44
265.429	83.44
265.661	100.44
265.894	85.44
266.126	91.44
266.358	80.44
266.591	68.44
266.823	77.44
267.055	80.44
267.287	91.44
267.52	78.44
267.752	93.44
267.984	77.44
268.216	83.44
268.448	105.44
268.681	77.44
268.913	101.44
269.145	86.44
269.377	91.44
269.609	86.44
269.841	87.44
270.073	79.44
270.306	93.44
270.538	70.44
270.77	92.44
271.002	94.44
271.234	95.44
271.466	75.44
271.698	91.44
271.93	82.44
272.162	94.44
272.394	97.44
272.626	90.44
272.858	85.44
273.09	70.44
273.322	90.44
273.553	79.44
273.785	80.44
274.017	92.44
274.249	98.44
274.481	75.44
274.713	80.44
274.945	96.44
275.176	81.44
275.408	92.44
275.64	87.44
275.872	88.44
276.104	89.44
276.335	73.44
276.567	102.44
276.799	90.44
277.031	96.44
277.262	86.44
277.494	85.44
277.726	86.44
277.957	84.44
278.189	81.44
278.421	83.44
278.652	91.44
278.884	78.44
279.115	77.44
279.347	79.44
279.579	93.44
279.81	92.44
280.042	82.44
280.273	106.44
280.505	97.44
280.736	94.44
280.968	66.44
281.199	101.44
281.431	78.44
281.662	99.44
281.894	86.44
282.125	82.44
282.356	110.44
282.588	126.44
282.819	107.44
283.051	79.44
283.282	71.44
283.513	86.44
283.745	91.44
283.976	67.44
284.207	99.44
284.439	84.44
284.67	85.44
284.901	81.44
285.132	103.44
285.364	99.44
285.595	90.44
285.826	84.44
286.057	99.44
286.288	71.44
286.52	77.44
286.751	64.44
286.982	80.44
287.213	95.44
287.444	96.44
287.675	85.44
287.906	92.44
288.138	74.44
288.369	105.44
288.6	85.44
288.831	86.44
289.062	85.44
289.293	90.44
289.524	84.44
289.755	92.44
289.986	94.44
290.217	86.44
290.448	89.44
290.679	85.44
290.91	91.44
291.141	79.44
291.371	88.44
291.602	87.44
291.833	93.44
292.064	82.44
292.295	86.44
292.526	85.44
292.757	85.44
292.987	98.44
293.218	81.44
293.449	88.44
293.68	82.44
293.91	89.44
294.141	83.44
294.372	89.44
294.603	98.44
294.833	91.44
295.064	86.44
295.295	89.44
295.525	87.44
295.756	120.44
295.987	118.44
296.217	131.44
296.448	104.44
296.679	85.44
296.909	90.44
297.14	93.44
297.37	98.44
297.601	86.44
297.831	81.44
298.062	97.44
298.292	101.44
298.523	89.44
298.753	92.44
298.984	84.44
299.214	91.44
299.445	85.44
299.675	89.44
299.905	85.44
300.136	89.44
300.366	87.44
300.597	87.44
300.827	89.44
301.057	87.44
301.288	110.44
301.518	86.44
301.748	99.44
301.979	106.44
302.209	91.44
302.439	101.44
302.669	85.44
302.9	94.44
303.13	94.44
303.36	103.44
303.59	93.44
303.82	100.44
304.051	91.44
304.281	85.44
304.511	87.44
304.741	97.44
304.971	90.44
305.201	81.44
305.431	90.44
305.661	73.44
305.891	102.44
306.121	82.44
306.352	97.44
306.582	85.44
306.812	83.44
307.042	85.44
307.272	102.44
307.502	103.44
307.731	92.44
307.961	95.44
308.191	90.44
308.421	93.44
308.651	102.44
308.881	85.44
309.111	87.44
309.341	92.44
309.571	102.44
309.8	77.44
310.03	102.44
310.26	93.44
310.49	90.44
310.72	100.44
310.949	103.44
311.179	94.44
311.409	93.44
311.639	81.44
311.868	80.44
312.098	102.44
312.328	95.44
312.557	95.44
312.787	99.44
313.017	92.44
313.246	95.44
313.476	94.44
313.706	98.44
313.935	103.44
314.165	105.44
314.394	91.44
314.624	96.44
314.853	96.44
315.083	97.44
315.312	89.44
315.542	85.44
315.771	101.44
316.001	98.44
316.23	79.44
316.46	98.44
316.689	89.44
316.919	79.44
317.148	89.44
317.377	99.44
317.607	99.44
317.836	85.44
318.065	93.44
318.295	98.44
318.524	90.44
318.753	98.44
318.983	107.44
319.212	83.44
319.441	99.44
319.67	102.44
319.9	83.44
320.129	105.44
320.358	103.44
320.587	87.44
320.816	95.44
321.046	108.44
321.275	95.44
321.504	86.44
321.733	89.44
321.962	99.44
322.191	114.44
322.42	100.44
322.649	97.44
322.878	94.44
323.108	107.44
323.337	108.44
323.566	127.44
323.795	144.44
324.024	196.44
324.253	355.44
324.482	737.44
324.71	1455.44
324.939	1870.44
325.168	675.44
325.397	213.44
325.626	142.44
325.855	114.44
326.084	125.44
326.313	126.44
326.542	143.44
326.77	215.44
326.999	414.44
327.228	834.44
327.457	1510.44
327.686	1151.44
327.914	340.44
328.143	166.44
328.372	143.44
328.6	126.44
328.829	117.44
329.058	122.44
329.287	120.44
329.515	103.44
329.744	102.44
329.972	97.44
330.201	99.44
330.43	96.44
330.658	122.44
330.887	121.44
331.115	122.44
331.344	102.44
331.572	93.44
331.801	117.44
332.03	103.44
332.258	109.44
332.486	92.44
332.715	97.44
332.943	100.44
333.172	79.44
333.4	94.44
333.629	99.44
333.857	106.44
334.085	92.44
334.314	100.44
334.542	98.44
334.771	85.44
334.999	99.44
335.227	85.44
335.455	94.44
335.684	90.44
335.912	96.44
336.14	100.44
336.369	87.44
336.597	109.44
336.825	103.44
337.053	90.44
337.281	85.44
337.51	77.44
337.738	95.44
337.966	111.44
338.194	92.44
338.422	87.44
338.65	97.44
338.878	86.44
339.106	105.44
339.334	86.44
339.562	100.44
339.79	95.44
340.018	82.44
340.246	107.44
340.474	95.44
340.702	85.44
340.93	92.44
341.158	91.44
341.386	104.44
341.614	94.44
341.842	84.44
342.07	82.44
342.298	88.44
342.526	81.44
342.754	100.44
342.981	95.44
343.209	97.44
343.437	84.44
343.665	90.44
343.893	96.44
344.12	96.44
344.348	95.44
344.576	84.44
344.804	93.44
345.031	85.44
345.259	91.44
345.487	86.44
345.714	91.44
345.942	82.44
346.17	102.44
346.397	92.44
346.625	99.44
346.853	82.44
347.08	93.44
347.308	105.44
347.535	83.44
347.763	101.44
347.99	113.44
348.218	104.44
348.445	86.44
348.673	100.44
348.9	86.44
349.128	106.44
349.355	92.44
349.583	112.44
349.81	100.44
350.037	91.44
350.265	87.44
350.492	98.44
350.72	101.44
350.947	108.44
351.174	94.44
351.402	101.44
351.629	99.44
351.856	92.44
352.083	96.44
352.311	101.44
352.538	113.44
352.765	117.44
352.992	104.44
353.22	110.44
353.447	100.44
353.674	108.44
353.901	96.44
354.128	110.44
354.355	102.44
354.583	96.44
354.81	118.44
355.037	90.44
355.264	95.44
355.491	91.44
355.718	92.44
355.945	99.44
356.172	99.44
356.399	100.44
356.626	95.44
356.853	89.44
357.08	90.44
357.307	102.44
357.534	89.44
357.761	91.44
357.988	91.44
358.215	107.44
358.441	109.44
358.668	107.44
358.895	95.44
359.122	94.44
359.349	105.44
359.576	83.44
359.802	88.44
360.029	102.44
360.256	110.44
360.483	98.44
360.709	92.44
360.936	104.44
361.163	103.44
361.39	93.44
361.616	102.44
361.843	103.44
362.07	77.44
362.296	108.44
362.523	99.44
362.749	91.44
362.976	87.44
363.203	96.44
363.429	91.44
363.656	87.44
363.882	109.44
364.109	93.44
364.335	96.44
364.562	94.44
364.788	96.44
365.015	95.44
365.241	101.44
365.468	90.44
365.694	113.44
365.92	101.44
366.147	94.44
366.373	89.44
366.599	93.44
366.826	97.44
367.052	89.44
367.278	101.44
367.505	78.44
367.731	99.44
367.957	94.44
368.184	109.44
368.41	105.44
368.636	99.44
368.862	125.44
369.089	94.44
369.315	100.44
369.541	95.44
369.767	85.44
369.993	90.44
370.219	94.44
370.445	98.44
370.672	99.44
370.898	98.44
371.124	96.44
371.35	94.44
371.576	97.44
371.802	96.44
372.028	83.44
372.254	88.44
372.48	101.44
372.706	81.44
372.932	101.44
373.158	87.44
373.384	92.44
373.61	93.44
373.835	82.44
374.061	101.44
374.287	84.44
374.513	86.44
374.739	80.44
374.965	82.44
375.191	97.44
375.416	85.44
375.642	81.44
375.868	84.44
376.094	97.44
376.319	91.44
376.545	107.44
376.771	85.44
376.997	90.44
377.222	94.44
377.448	101.44
377.674	89.44
377.899	101.44
378.125	97.44
378.35	106.44
378.576	92.44
378.802	101.44
379.027	99.44
379.253	93.44
379.478	109.44
379.704	111.44
379.929	108.44
380.155	106.44
380.38	95.44
380.606	92.44
380.831	105.44
381.057	96.44
381.282	102.44
381.507	85.44
381.733	95.44
381.958	99.44
382.184	100.44
382.409	105.44
382.634	91.44
382.86	82.44
383.085	86.44
383.31	108.44
383.535	91.44
383.761	93.44
383.986	97.44
384.211	99.44
384.436	108.44
384.662	103.44
384.887	106.44
385.112	98.44
385.337	101.44
385.562	102.44
385.787	116.44
386.013	103.44
386.238	111.44
386.463	99.44
386.688	110.44
386.913	97.44
387.138	99.44
387.363	97.44
387.588	101.44
387.813	98.44
388.038	116.44
388.263	117.44
388.488	104.44
388.713	105.44
388.938	108.44
389.163	102.44
389.387	98.44
389.612	95.44
389.837	85.44
390.062	90.44
390.287	98.44
390.512	82.44
390.736	91.44
390.961	90.44
391.186	81.44
391.411	93.44
391.636	80.44
391.86	87.44
392.085	92.44
392.31	87.44
392.534	93.44
392.759	99.44
392.984	81.44
393.208	90.44
393.433	85.44
393.658	94.44
393.882	87.44
394.107	86.44
394.331	98.44
394.556	78.44
394.78	98.44
395.005	92.44
395.229	83.44
395.454	83.44
395.678	85.44
395.903	99.44
396.127	85.44
396.352	88.44
396.576	77.44
396.801	97.44
397.025	100.44
397.249	104.44
397.474	80.44
397.698	96.44
397.922	92.44
398.147	93.44
398.371	91.44
398.595	79.44
398.82	91.44
399.044	89.44
399.268	85.44
399.492	94.44
399.717	98.44
399.941	99.44
400.165	94.44
400.389	103.44
400.613	83.44
400.837	90.44
401.062	94.44
401.286	95.44
401.51	100.44
401.734	102.44
401.958	106.44
402.182	111.44
402.406	133.44
402.63	101.44
402.854	83.44
403.078	88.44
403.302	102.44
403.526	80.44
403.75	92.44
403.974	106.44
404.198	97.44
404.422	99.44
404.645	82.44
404.869	91.44
405.093	102.44
405.317	92.44
405.541	97.44
405.765	115.44
405.988	128.44
406.212	147.44
406.436	205.44
406.66	131.44
406.883	102.44
407.107	94.44
407.331	92.44
407.555	89.44
407.778	78.44
408.002	101.44
408.226	86.44
408.449	91.44
408.673	75.44
408.896	98.44
409.12	101.44
409.344	85.44
409.567	82.44
409.791	85.44
410.014	101.44
410.238	87.44
410.461	92.44
410.685	94.44
410.908	95.44
411.132	111.44
411.355	101.44
411.578	67.44
411.802	92.44
412.025	110.44
412.249	91.44
412.472	81.44
412.695	87.44
412.919	85.44
413.142	100.44
413.365	91.44
413.589	93.44
413.812	79.44
414.035	86.44
414.258	85.44
414.482	94.44
414.705	98.44
414.928	103.44
415.151	116.44
415.374	101.44
415.597	96.44
415.821	94.44
416.044	91.44
416.267	91.44
416.49	96.44
416.713	85.44
416.936	81.44
417.159	83.44
417.382	87.44
417.605	89.44
417.828	96.44
418.051	90.44
418.274	92.44
418.497	66.44
418.72	87.44
418.943	102.44
419.166	101.44
419.389	94.44
419.611	87.44
419.834	82.44
420.057	103.44
420.28	88.44
420.503	87.44
420.726	89.44
420.948	89.44
421.171	91.44
421.394	102.44
421.617	89.44
421.839	83.44
422.062	92.44
422.285	96.44
422.507	73.44
422.73	92.44
422.953	102.44
423.175	82.44
423.398	100.44
423.621	96.44
423.843	91.44
424.066	98.44
424.288	83.44
424.511	88.44
424.733	106.44
424.956	101.44
425.178	87.44
425.401	95.44
425.623	92.44
425.846	80.44
426.068	107.44
426.291	94.44
426.513	91.44
426.735	90.44
426.958	89.44
427.18	95.44
427.402	137.44
427.625	139.44
427.847	121.44
428.069	93.44
428.292	89.44
428.514	80.44
428.736	89.44
428.958	84.44
429.181	82.44
429.403	84.44
429.625	87.44
429.847	89.44
430.069	104.44
430.292	90.44
430.514	86.44
430.736	86.44
430.958	79.44
431.18	92.44
431.402	97.44
431.624	81.44
431.846	92.44
432.068	64.44
432.29	89.44
432.512	86.44
432.734	82.44
432.956	89.44
433.178	95.44
433.4	95.44
433.622	95.44
433.844	79.44
434.066	93.44
434.287	100.44
434.509	86.44
434.731	87.44
434.953	87.44
435.175	86.44
435.397	91.44
435.618	92.44
435.84	102.44
436.062	116.44
436.284	114.44
436.505	89.44
436.727	96.44
436.949	82.44
437.17	90.44
437.392	89.44
437.614	89.44
437.835	86.44
438.057	115.44
438.278	108.44
438.5	95.44
438.721	107.44
438.943	97.44
439.165	82.44
439.386	81.44
439.608	94.44
439.829	112.44
440.05	128.44
440.272	127.44
440.493	97.44
440.715	98.44
440.936	92.44
441.158	89.44
441.379	93.44
441.6	93.44
441.822	95.44
442.043	90.44
442.264	114.44
442.486	95.44
442.707	101.44
442.928	108.44
443.149	118.44
443.371	121.44
443.592	93.44
443.813	102.44
444.034	98.44
444.255	106.44
444.476	75.44
444.698	103.44
444.919	91.44
445.14	132.44
445.361	109.44
445.582	107.44
445.803	119.44
446.024	126.44
446.245	122.44
446.466	103.44
446.687	90.44
446.908	93.44
447.129	102.44
447.35	81.44
447.571	88.44
447.792	107.44
448.013	96.44
448.234	102.44
448.455	89.44
448.675	103.44
448.896	114.44
449.117	101.44
449.338	83.44
449.559	124.44
449.779	123.44
450	110.44
450.221	99.44
450.442	101.44
450.662	98.44
450.883	106.44
451.104	121.44
451.324	95.44
451.545	85.44
451.766	95.44
451.986	90.44
452.207	82.44
452.428	105.44
452.648	93.44
452.869	99.44
453.089	106.44
453.31	115.44
453.53	87.44
453.751	92.44
453.971	95.44
454.192	102.44
454.412	109.44
454.633	85.44
454.853	79.44
455.073	94.44
455.294	88.44
455.514	98.44
455.734	85.44
455.955	87.44
456.175	79.44
456.395	86.44
456.616	87.44
456.836	69.44
457.056	83.44
457.276	87.44
457.497	78.44
457.717	91.44
457.937	101.44
458.157	83.44
458.377	98.44
458.598	95.44
458.818	129.44
459.038	154.44
459.258	113.44
459.478	81.44
459.698	82.44
459.918	84.44
460.138	92.44
460.358	78.44
460.578	81.44
460.798	71.44
461.018	87.44
461.238	81.44
461.458	89.44
461.678	93.44
461.898	90.44
462.118	101.44
462.338	106.44
462.558	98.44
462.777	86.44
462.997	94.44
463.217	83.44
463.437	100.44
463.657	85.44
463.876	92.44
464.096	99.44
464.316	104.44
464.536	97.44
464.755	97.44
464.975	113.44
465.195	159.44
465.414	143.44
465.634	92.44
465.854	107.44
466.073	95.44
466.293	94.44
466.512	87.44
466.732	81.44
466.951	89.44
467.171	94.44
467.391	92.44
467.61	94.44
467.829	95.44
468.049	106.44
468.268	77.44
468.488	93.44
468.707	91.44
468.927	95.44
469.146	89.44
469.365	93.44
469.585	97.44
469.804	95.44
470.023	98.44
470.243	86.44
470.462	97.44
470.681	102.44
470.901	93.44
471.12	90.44
471.339	89.44
471.558	82.44
471.777	87.44
471.997	80.44
472.216	99.44
472.435	95.44
472.654	90.44
472.873	87.44
473.092	93.44
473.311	81.44
473.53	72.44
473.749	88.44
473.968	94.44
474.187	100.44
474.406	103.44
474.625	89.44
474.844	75.44
475.063	87.44
475.282	86.44
475.501	74.44
475.72	86.44
475.939	92.44
476.158	94.44
476.377	98.44
476.596	83.44
476.814	89.44
477.033	94.44
477.252	83.44
477.471	93.44
477.69	89.44
477.908	92.44
478.127	84.44
478.346	79.44
478.564	103.44
478.783	104.44
479.002	97.44
479.22	87.44
479.439	92.44
479.658	110.44
479.876	83.44
480.095	83.44
480.313	91.44
480.532	86.44
480.751	97.44
480.969	99.44
481.188	95.44
481.406	92.44
481.624	105.44
481.843	97.44
482.061	87.44
482.28	101.44
482.498	91.44
482.717	98.44
482.935	85.44
483.153	84.44
483.372	88.44
483.59	95.44
483.808	100.44
484.027	87.44
484.245	80.44
484.463	96.44
484.681	96.44
484.9	87.44
485.118	103.44
485.336	100.44
485.554	103.44
485.772	119.44
485.99	100.44
486.209	103.44
486.427	110.44
486.645	107.44
486.863	81.44
487.081	90.44
487.299	86.44
487.517	83.44
487.735	85.44
487.953	86.44
488.171	87.44
488.389	109.44
488.607	90.44
488.825	93.44
489.043	109.44
489.261	89.44
489.479	87.44
489.696	106.44
489.914	88.44
490.132	91.44
490.35	81.44
490.568	94.44
490.786	89.44
491.003	100.44
491.221	83.44
491.439	98.44
491.657	93.44
491.874	78.44
492.092	88.44
492.31	112.44
492.527	96.44
492.745	73.44
492.963	110.44
493.18	98.44
493.398	87.44
493.615	96.44
493.833	91.44
494.05	85.44
494.268	97.44
494.485	98.44
494.703	75.44
494.92	96.44
495.138	81.44
495.355	90.44
495.573	89.44
495.79	98.44
496.008	98.44
496.225	102.44
496.442	82.44
496.66	88.44
496.877	94.44
497.094	101.44
497.312	84.44
497.529	99.44
497.746	93.44
497.963	87.44
498.181	101.44
498.398	89.44
498.615	116.44
498.832	118.44
499.049	85.44
499.267	97.44
499.484	78.44
499.701	81.44
499.918	92.44
500.135	83.44
500.352	101.44
500.569	85.44
500.786	101.44
501.003	91.44
501.22	92.44
501.437	93.44
501.654	97.44
501.871	101.44
502.088	96.44
502.305	88.44
502.522	100.44
502.739	93.44
502.956	88.44
503.172	99.44
503.389	97.44
503.606	92.44
503.823	97.44
504.04	94.44
504.256	86.44
504.473	83.44
504.69	86.44
504.907	103.44
505.123	98.44
505.34	93.44
505.557	96.44
505.773	90.44
505.99	86.44
506.207	84.44
506.423	86.44
506.64	81.44
506.856	86.44
507.073	100.44
507.289	106.44
507.506	93.44
507.722	98.44
507.939	101.44
508.155	104.44
508.372	110.44
508.588	99.44
508.805	93.44
509.021	79.44
509.238	89.44
509.454	103.44
509.67	95.44
509.887	107.44
510.103	138.44
510.319	187.44
510.536	710.44
510.752	2143.44
510.968	587.44
511.184	149.44
511.401	107.44
511.617	106.44
511.833	85.44
512.049	92.44
512.265	97.44
512.481	87.44
512.698	90.44
512.914	95.44
513.13	108.44
513.346	86.44
513.562	105.44
513.778	97.44
513.994	91.44
514.21	79.44
514.426	103.44
514.642	128.44
514.858	122.44
515.074	163.44
515.29	414.44
515.506	1301.44
