Data from Uncirc_1992_H10_HRD10591_00080.txt Node
Date: Wed Jan 03 11:46:32 EST 2024
User: Yrep
Spectrometer: HR+D1059
Trigger mode: 1
Integration Time (sec): 1.000000E-1
Scans to average: 1
Electric dark correction enabled: true
Nonlinearity correction enabled: false
Boxcar width: 0
XAxis mode: Wavelengths
Number of Pixels in Spectrum: 2048
>>>>>Begin Spectral Data<<<<<
223.165	-30.88
223.4	-30.88
223.635	-30.88
223.869	-31.88
224.104	-27.88
224.338	-0.88
224.573	-17.88
224.808	-15.88
225.042	-2.88
225.277	-2.88
225.511	-7.88
225.746	21.12
225.98	13.12
226.215	11.12
226.449	16.12
226.683	18.12
226.918	13.12
227.152	46.12
227.387	35.12
227.621	36.12
227.856	46.12
228.09	52.12
228.324	43.12
228.559	61.12
228.793	52.12
229.027	66.12
229.262	63.12
229.496	72.12
229.73	82.12
229.964	81.12
230.199	88.12
230.433	73.12
230.667	86.12
230.901	82.12
231.136	81.12
231.37	78.12
231.604	88.12
231.838	79.12
232.072	92.12
232.306	93.12
232.541	79.12
232.775	86.12
233.009	77.12
233.243	77.12
233.477	91.12
233.711	84.12
233.945	84.12
234.179	75.12
234.413	75.12
234.647	78.12
234.881	85.12
235.115	73.12
235.349	58.12
235.583	74.12
235.817	75.12
236.051	83.12
236.285	77.12
236.519	85.12
236.753	77.12
236.987	79.12
237.221	72.12
237.455	80.12
237.689	76.12
237.922	76.12
238.156	81.12
238.39	80.12
238.624	78.12
238.858	71.12
239.091	77.12
239.325	84.12
239.559	69.12
239.793	75.12
240.027	82.12
240.26	83.12
240.494	85.12
240.728	88.12
240.961	74.12
241.195	76.12
241.429	76.12
241.662	69.12
241.896	64.12
242.13	76.12
242.363	80.12
242.597	74.12
242.83	78.12
243.064	73.12
243.298	68.12
243.531	70.12
243.765	76.12
243.998	68.12
244.232	80.12
244.465	81.12
244.699	82.12
244.932	80.12
245.166	66.12
245.399	81.12
245.633	87.12
245.866	83.12
246.099	72.12
246.333	73.12
246.566	76.12
246.8	82.12
247.033	90.12
247.266	83.12
247.5	70.12
247.733	89.12
247.966	84.12
248.2	68.12
248.433	60.12
248.666	85.12
248.899	82.12
249.133	85.12
249.366	84.12
249.599	87.12
249.832	92.12
250.066	90.12
250.299	92.12
250.532	73.12
250.765	84.12
250.998	80.12
251.231	77.12
251.465	69.12
251.698	74.12
251.931	72.12
252.164	92.12
252.397	86.12
252.63	79.12
252.863	85.12
253.096	88.12
253.329	83.12
253.562	72.12
253.795	68.12
254.028	91.12
254.261	94.12
254.494	81.12
254.727	89.12
254.96	67.12
255.193	85.12
255.426	72.12
255.659	72.12
255.892	98.12
256.124	76.12
256.357	88.12
256.59	88.12
256.823	76.12
257.056	80.12
257.289	76.12
257.521	99.12
257.754	69.12
257.987	75.12
258.22	76.12
258.452	83.12
258.685	79.12
258.918	76.12
259.151	89.12
259.383	73.12
259.616	73.12
259.849	92.12
260.081	84.12
260.314	81.12
260.547	79.12
260.779	89.12
261.012	80.12
261.244	89.12
261.477	92.12
261.71	88.12
261.942	100.12
262.175	116.12
262.407	78.12
262.64	101.12
262.872	81.12
263.105	81.12
263.337	83.12
263.57	79.12
263.802	88.12
264.035	85.12
264.267	77.12
264.499	83.12
264.732	82.12
264.964	84.12
265.197	79.12
265.429	86.12
265.661	76.12
265.894	84.12
266.126	81.12
266.358	66.12
266.591	69.12
266.823	74.12
267.055	82.12
267.287	83.12
267.52	78.12
267.752	95.12
267.984	96.12
268.216	72.12
268.448	76.12
268.681	79.12
268.913	87.12
269.145	80.12
269.377	72.12
269.609	93.12
269.841	75.12
270.073	77.12
270.306	78.12
270.538	85.12
270.77	75.12
271.002	67.12
271.234	96.12
271.466	101.12
271.698	84.12
271.93	79.12
272.162	72.12
272.394	89.12
272.626	91.12
272.858	78.12
273.09	83.12
273.322	82.12
273.553	88.12
273.785	82.12
274.017	83.12
274.249	84.12
274.481	74.12
274.713	79.12
274.945	83.12
275.176	95.12
275.408	100.12
275.64	69.12
275.872	85.12
276.104	83.12
276.335	94.12
276.567	97.12
276.799	97.12
277.031	95.12
277.262	98.12
277.494	90.12
277.726	76.12
277.957	100.12
278.189	77.12
278.421	77.12
278.652	66.12
278.884	87.12
279.115	81.12
279.347	80.12
279.579	94.12
279.81	79.12
280.042	82.12
280.273	90.12
280.505	90.12
280.736	100.12
280.968	93.12
281.199	69.12
281.431	84.12
281.662	84.12
281.894	100.12
282.125	78.12
282.356	113.12
282.588	133.12
282.819	116.12
283.051	84.12
283.282	100.12
283.513	93.12
283.745	81.12
283.976	86.12
284.207	88.12
284.439	94.12
284.67	104.12
284.901	67.12
285.132	74.12
285.364	88.12
285.595	81.12
285.826	86.12
286.057	96.12
286.288	75.12
286.52	94.12
286.751	92.12
286.982	95.12
287.213	94.12
287.444	89.12
287.675	93.12
287.906	101.12
288.138	90.12
288.369	92.12
288.6	86.12
288.831	95.12
289.062	86.12
289.293	86.12
289.524	94.12
289.755	85.12
289.986	78.12
290.217	94.12
290.448	86.12
290.679	83.12
290.91	94.12
291.141	86.12
291.371	87.12
291.602	84.12
291.833	74.12
292.064	77.12
292.295	93.12
292.526	84.12
292.757	85.12
292.987	85.12
293.218	81.12
293.449	84.12
293.68	86.12
293.91	92.12
294.141	83.12
294.372	74.12
294.603	93.12
294.833	107.12
295.064	97.12
295.295	94.12
295.525	93.12
295.756	91.12
295.987	104.12
296.217	126.12
296.448	113.12
296.679	84.12
296.909	82.12
297.14	76.12
297.37	95.12
297.601	85.12
297.831	78.12
298.062	89.12
298.292	76.12
298.523	85.12
298.753	98.12
298.984	90.12
299.214	85.12
299.445	92.12
299.675	90.12
299.905	92.12
300.136	91.12
300.366	91.12
300.597	99.12
300.827	94.12
301.057	108.12
301.288	114.12
301.518	91.12
301.748	105.12
301.979	108.12
302.209	90.12
302.439	82.12
302.669	96.12
302.9	84.12
303.13	99.12
303.36	104.12
303.59	102.12
303.82	101.12
304.051	89.12
304.281	94.12
304.511	78.12
304.741	76.12
304.971	86.12
305.201	95.12
305.431	104.12
305.661	94.12
305.891	87.12
306.121	100.12
306.352	103.12
306.582	99.12
306.812	100.12
307.042	91.12
307.272	99.12
307.502	81.12
307.731	108.12
307.961	93.12
308.191	90.12
308.421	94.12
308.651	89.12
308.881	89.12
309.111	73.12
309.341	88.12
309.571	113.12
309.8	88.12
310.03	85.12
310.26	88.12
310.49	95.12
310.72	84.12
310.949	107.12
311.179	109.12
311.409	86.12
311.639	74.12
311.868	93.12
312.098	100.12
312.328	95.12
312.557	86.12
312.787	92.12
313.017	99.12
313.246	111.12
313.476	102.12
313.706	85.12
313.935	96.12
314.165	93.12
314.394	101.12
314.624	96.12
314.853	85.12
315.083	103.12
315.312	94.12
315.542	87.12
315.771	88.12
316.001	103.12
316.23	84.12
316.46	78.12
316.689	94.12
316.919	93.12
317.148	95.12
317.377	94.12
317.607	89.12
317.836	93.12
318.065	85.12
318.295	81.12
318.524	79.12
318.753	89.12
318.983	99.12
319.212	91.12
319.441	90.12
319.67	108.12
319.9	91.12
320.129	84.12
320.358	89.12
320.587	94.12
320.816	99.12
321.046	98.12
321.275	84.12
321.504	80.12
321.733	90.12
321.962	93.12
322.191	94.12
322.42	123.12
322.649	118.12
322.878	105.12
323.108	113.12
323.337	121.12
323.566	119.12
323.795	141.12
324.024	180.12
324.253	378.12
324.482	796.12
324.71	1542.12
324.939	2013.12
325.168	715.12
325.397	233.12
325.626	140.12
325.855	126.12
326.084	133.12
326.313	129.12
326.542	144.12
326.77	218.12
326.999	421.12
327.228	881.12
327.457	1541.12
327.686	1218.12
327.914	341.12
328.143	182.12
328.372	132.12
328.6	115.12
328.829	103.12
329.058	124.12
329.287	131.12
329.515	108.12
329.744	101.12
329.972	92.12
330.201	100.12
330.43	105.12
330.658	118.12
330.887	119.12
331.115	115.12
331.344	98.12
331.572	107.12
331.801	107.12
332.03	97.12
332.258	106.12
332.486	84.12
332.715	89.12
332.943	99.12
333.172	92.12
333.4	90.12
333.629	101.12
333.857	99.12
334.085	91.12
334.314	99.12
334.542	99.12
334.771	102.12
334.999	82.12
335.227	92.12
335.455	104.12
335.684	112.12
335.912	100.12
336.14	95.12
336.369	101.12
336.597	96.12
336.825	100.12
337.053	94.12
337.281	88.12
337.51	89.12
337.738	102.12
337.966	99.12
338.194	99.12
338.422	93.12
338.65	80.12
338.878	95.12
339.106	85.12
339.334	72.12
339.562	98.12
339.79	81.12
340.018	87.12
340.246	103.12
340.474	96.12
340.702	88.12
340.93	91.12
341.158	85.12
341.386	93.12
341.614	105.12
341.842	90.12
342.07	77.12
342.298	69.12
342.526	88.12
342.754	81.12
342.981	90.12
343.209	76.12
343.437	106.12
343.665	108.12
343.893	91.12
344.12	77.12
344.348	93.12
344.576	94.12
344.804	89.12
345.031	95.12
345.259	92.12
345.487	97.12
345.714	86.12
345.942	82.12
346.17	88.12
346.397	84.12
346.625	81.12
346.853	82.12
347.08	85.12
347.308	107.12
347.535	107.12
347.763	100.12
347.99	89.12
348.218	86.12
348.445	103.12
348.673	96.12
348.9	101.12
349.128	85.12
349.355	98.12
349.583	84.12
349.81	102.12
350.037	82.12
350.265	95.12
350.492	96.12
350.72	83.12
350.947	88.12
351.174	108.12
351.402	91.12
351.629	100.12
351.856	99.12
352.083	107.12
352.311	118.12
352.538	90.12
352.765	105.12
352.992	112.12
353.22	112.12
353.447	117.12
353.674	94.12
353.901	96.12
354.128	100.12
354.355	99.12
354.583	78.12
354.81	81.12
355.037	105.12
355.264	86.12
355.491	77.12
355.718	78.12
355.945	102.12
356.172	84.12
356.399	101.12
356.626	92.12
356.853	89.12
357.08	87.12
357.307	100.12
357.534	92.12
357.761	101.12
357.988	104.12
358.215	101.12
358.441	100.12
358.668	84.12
358.895	101.12
359.122	86.12
359.349	92.12
359.576	74.12
359.802	96.12
360.029	101.12
360.256	109.12
360.483	107.12
360.709	87.12
360.936	97.12
361.163	83.12
361.39	90.12
361.616	81.12
361.843	87.12
362.07	92.12
362.296	88.12
362.523	92.12
362.749	92.12
362.976	91.12
363.203	99.12
363.429	83.12
363.656	96.12
363.882	78.12
364.109	87.12
364.335	93.12
364.562	93.12
364.788	97.12
365.015	94.12
365.241	100.12
365.468	96.12
365.694	94.12
365.92	101.12
366.147	82.12
366.373	86.12
366.599	98.12
366.826	95.12
367.052	89.12
367.278	93.12
367.505	92.12
367.731	90.12
367.957	76.12
368.184	86.12
368.41	91.12
368.636	115.12
368.862	109.12
369.089	118.12
369.315	74.12
369.541	89.12
369.767	92.12
369.993	80.12
370.219	88.12
370.445	77.12
370.672	86.12
370.898	88.12
371.124	80.12
371.35	90.12
371.576	97.12
371.802	84.12
372.028	83.12
372.254	83.12
372.48	73.12
372.706	91.12
372.932	82.12
373.158	81.12
373.384	77.12
373.61	94.12
373.835	86.12
374.061	93.12
374.287	91.12
374.513	87.12
374.739	81.12
374.965	88.12
375.191	84.12
375.416	98.12
375.642	91.12
375.868	82.12
376.094	84.12
376.319	90.12
376.545	84.12
376.771	101.12
376.997	92.12
377.222	88.12
377.448	99.12
377.674	94.12
377.899	94.12
378.125	107.12
378.35	89.12
378.576	82.12
378.802	89.12
379.027	89.12
379.253	93.12
379.478	102.12
379.704	90.12
379.929	83.12
380.155	98.12
380.38	101.12
380.606	88.12
380.831	96.12
381.057	99.12
381.282	87.12
381.507	84.12
381.733	90.12
381.958	92.12
382.184	94.12
382.409	82.12
382.634	92.12
382.86	93.12
383.085	96.12
383.31	84.12
383.535	89.12
383.761	99.12
383.986	78.12
384.211	91.12
384.436	82.12
384.662	107.12
384.887	92.12
385.112	101.12
385.337	108.12
385.562	101.12
385.787	78.12
386.013	93.12
386.238	102.12
386.463	104.12
386.688	112.12
386.913	94.12
387.138	106.12
387.363	97.12
387.588	96.12
387.813	98.12
388.038	106.12
388.263	99.12
388.488	113.12
388.713	83.12
388.938	97.12
389.163	101.12
389.387	94.12
389.612	91.12
389.837	97.12
390.062	94.12
390.287	89.12
390.512	82.12
390.736	82.12
390.961	100.12
391.186	76.12
391.411	104.12
391.636	85.12
391.86	88.12
392.085	88.12
392.31	96.12
392.534	74.12
392.759	82.12
392.984	97.12
393.208	87.12
393.433	93.12
393.658	96.12
393.882	81.12
394.107	97.12
394.331	78.12
394.556	88.12
394.78	99.12
395.005	86.12
395.229	93.12
395.454	91.12
395.678	80.12
395.903	88.12
396.127	97.12
396.352	81.12
396.576	72.12
396.801	88.12
397.025	96.12
397.249	101.12
397.474	85.12
397.698	89.12
397.922	89.12
398.147	73.12
398.371	79.12
398.595	90.12
398.82	100.12
399.044	86.12
399.268	95.12
399.492	77.12
399.717	86.12
399.941	78.12
400.165	80.12
400.389	81.12
400.613	91.12
400.837	83.12
401.062	76.12
401.286	100.12
401.51	99.12
401.734	82.12
401.958	91.12
402.182	128.12
402.406	160.12
402.63	124.12
402.854	80.12
403.078	90.12
403.302	85.12
403.526	90.12
403.75	88.12
403.974	80.12
404.198	89.12
404.422	88.12
404.645	86.12
404.869	107.12
405.093	91.12
405.317	86.12
405.541	91.12
405.765	96.12
405.988	116.12
406.212	162.12
406.436	216.12
406.66	148.12
406.883	101.12
407.107	92.12
407.331	92.12
407.555	101.12
407.778	92.12
408.002	81.12
408.226	98.12
408.449	89.12
408.673	84.12
408.896	90.12
409.12	97.12
409.344	81.12
409.567	98.12
409.791	98.12
410.014	100.12
410.238	112.12
410.461	79.12
410.685	84.12
410.908	84.12
411.132	103.12
411.355	102.12
411.578	95.12
411.802	81.12
412.025	90.12
412.249	96.12
412.472	90.12
412.695	103.12
412.919	93.12
413.142	84.12
413.365	80.12
413.589	90.12
413.812	92.12
414.035	93.12
414.258	88.12
414.482	81.12
414.705	85.12
414.928	73.12
415.151	82.12
415.374	94.12
415.597	83.12
415.821	100.12
416.044	92.12
416.267	87.12
416.49	91.12
416.713	99.12
416.936	89.12
417.159	86.12
417.382	90.12
417.605	82.12
417.828	92.12
418.051	81.12
418.274	80.12
418.497	101.12
418.72	88.12
418.943	86.12
419.166	94.12
419.389	85.12
419.611	99.12
419.834	84.12
420.057	87.12
420.28	83.12
420.503	101.12
420.726	92.12
420.948	86.12
421.171	80.12
421.394	84.12
421.617	90.12
421.839	102.12
422.062	92.12
422.285	93.12
422.507	92.12
422.73	93.12
422.953	85.12
423.175	88.12
423.398	83.12
423.621	80.12
423.843	101.12
424.066	104.12
424.288	83.12
424.511	86.12
424.733	89.12
424.956	101.12
425.178	93.12
425.401	109.12
425.623	87.12
425.846	75.12
426.068	81.12
426.291	85.12
426.513	83.12
426.735	98.12
426.958	96.12
427.18	80.12
427.402	116.12
427.625	142.12
427.847	110.12
428.069	92.12
428.292	82.12
428.514	83.12
428.736	97.12
428.958	88.12
429.181	78.12
429.403	70.12
429.625	88.12
429.847	85.12
430.069	92.12
430.292	93.12
430.514	93.12
430.736	88.12
430.958	87.12
431.18	81.12
431.402	89.12
431.624	78.12
431.846	90.12
432.068	99.12
432.29	97.12
432.512	101.12
432.734	93.12
432.956	100.12
433.178	96.12
433.4	96.12
433.622	97.12
433.844	89.12
434.066	91.12
434.287	94.12
434.509	104.12
434.731	90.12
434.953	89.12
435.175	85.12
435.397	97.12
435.618	99.12
435.84	94.12
436.062	117.12
436.284	106.12
436.505	93.12
436.727	106.12
436.949	88.12
437.17	93.12
437.392	82.12
437.614	87.12
437.835	90.12
438.057	113.12
438.278	96.12
438.5	100.12
438.721	116.12
438.943	105.12
439.165	72.12
439.386	99.12
439.608	93.12
439.829	99.12
440.05	107.12
440.272	132.12
440.493	101.12
440.715	98.12
440.936	102.12
441.158	93.12
441.379	83.12
441.6	88.12
441.822	97.12
442.043	77.12
442.264	102.12
442.486	99.12
442.707	84.12
442.928	110.12
443.149	107.12
443.371	119.12
443.592	104.12
443.813	103.12
444.034	108.12
444.255	104.12
444.476	86.12
444.698	99.12
444.919	90.12
445.14	121.12
445.361	118.12
445.582	111.12
445.803	130.12
446.024	123.12
446.245	124.12
446.466	94.12
446.687	83.12
446.908	97.12
447.129	87.12
447.35	81.12
447.571	85.12
447.792	91.12
448.013	80.12
448.234	102.12
448.455	100.12
448.675	97.12
448.896	110.12
449.117	97.12
449.338	108.12
449.559	118.12
449.779	121.12
450	92.12
450.221	92.12
450.442	102.12
450.662	97.12
450.883	88.12
451.104	95.12
451.324	92.12
451.545	92.12
451.766	82.12
451.986	86.12
452.207	94.12
452.428	89.12
452.648	99.12
452.869	82.12
453.089	106.12
453.31	106.12
453.53	100.12
453.751	88.12
453.971	91.12
454.192	101.12
454.412	96.12
454.633	84.12
454.853	96.12
455.073	77.12
455.294	96.12
455.514	88.12
455.734	93.12
455.955	90.12
456.175	104.12
456.395	76.12
456.616	85.12
456.836	86.12
457.056	100.12
457.276	82.12
457.497	76.12
457.717	74.12
457.937	75.12
458.157	90.12
458.377	89.12
458.598	109.12
458.818	147.12
459.038	147.12
459.258	116.12
459.478	88.12
459.698	99.12
459.918	95.12
460.138	87.12
460.358	85.12
460.578	91.12
460.798	95.12
461.018	85.12
461.238	95.12
461.458	75.12
461.678	83.12
461.898	99.12
462.118	89.12
462.338	85.12
462.558	81.12
462.777	95.12
462.997	80.12
463.217	87.12
463.437	90.12
463.657	97.12
463.876	80.12
464.096	78.12
464.316	84.12
464.536	102.12
464.755	94.12
464.975	98.12
465.195	139.12
465.414	141.12
465.634	93.12
465.854	86.12
466.073	91.12
466.293	88.12
466.512	87.12
466.732	93.12
466.951	90.12
467.171	75.12
467.391	84.12
467.61	100.12
467.829	101.12
468.049	97.12
468.268	92.12
468.488	77.12
468.707	78.12
468.927	83.12
469.146	94.12
469.365	86.12
469.585	97.12
469.804	102.12
470.023	92.12
470.243	83.12
470.462	100.12
470.681	93.12
470.901	89.12
471.12	83.12
471.339	95.12
471.558	74.12
471.777	80.12
471.997	84.12
472.216	97.12
472.435	89.12
472.654	79.12
472.873	93.12
473.092	92.12
473.311	95.12
473.53	88.12
473.749	93.12
473.968	96.12
474.187	105.12
474.406	97.12
474.625	95.12
474.844	80.12
475.063	74.12
475.282	94.12
475.501	94.12
475.72	82.12
475.939	72.12
476.158	83.12
476.377	81.12
476.596	77.12
476.814	90.12
477.033	83.12
477.252	92.12
477.471	73.12
477.69	83.12
477.908	91.12
478.127	100.12
478.346	89.12
478.564	79.12
478.783	102.12
479.002	105.12
479.22	90.12
479.439	81.12
479.658	112.12
479.876	90.12
480.095	98.12
480.313	89.12
480.532	93.12
480.751	82.12
480.969	106.12
481.188	100.12
481.406	94.12
481.624	112.12
481.843	86.12
482.061	88.12
482.28	77.12
482.498	105.12
482.717	85.12
482.935	102.12
483.153	96.12
483.372	89.12
483.59	81.12
483.808	106.12
484.027	94.12
484.245	95.12
484.463	104.12
484.681	93.12
484.9	105.12
485.118	96.12
485.336	93.12
485.554	92.12
485.772	104.12
485.99	99.12
486.209	96.12
486.427	111.12
486.645	132.12
486.863	121.12
487.081	105.12
487.299	90.12
487.517	98.12
487.735	86.12
487.953	92.12
488.171	91.12
488.389	104.12
488.607	106.12
488.825	102.12
489.043	94.12
489.261	73.12
489.479	75.12
489.696	90.12
489.914	96.12
490.132	91.12
490.35	85.12
490.568	81.12
490.786	96.12
491.003	91.12
491.221	77.12
491.439	92.12
491.657	88.12
491.874	92.12
492.092	108.12
492.31	93.12
492.527	91.12
492.745	88.12
492.963	92.12
493.18	82.12
493.398	92.12
493.615	98.12
493.833	86.12
494.05	92.12
494.268	84.12
494.485	104.12
494.703	90.12
494.92	98.12
495.138	79.12
495.355	102.12
495.573	80.12
495.79	77.12
496.008	102.12
496.225	88.12
496.442	94.12
496.66	93.12
496.877	82.12
497.094	98.12
497.312	90.12
497.529	96.12
497.746	94.12
497.963	74.12
498.181	89.12
498.398	84.12
498.615	115.12
498.832	98.12
499.049	88.12
499.267	99.12
499.484	104.12
499.701	89.12
499.918	84.12
500.135	87.12
500.352	90.12
500.569	91.12
500.786	85.12
501.003	88.12
501.22	91.12
501.437	81.12
501.654	85.12
501.871	94.12
502.088	97.12
502.305	92.12
502.522	93.12
502.739	92.12
502.956	100.12
503.172	85.12
503.389	95.12
503.606	100.12
503.823	84.12
504.04	102.12
504.256	98.12
504.473	84.12
504.69	84.12
504.907	82.12
505.123	97.12
505.34	81.12
505.557	90.12
505.773	80.12
505.99	99.12
506.207	95.12
506.423	106.12
506.64	94.12
506.856	100.12
507.073	81.12
507.289	104.12
507.506	109.12
507.722	126.12
507.939	105.12
508.155	91.12
508.372	81.12
508.588	90.12
508.805	107.12
509.021	101.12
509.238	107.12
509.454	110.12
509.67	96.12
509.887	102.12
510.103	144.12
510.319	202.12
510.536	760.12
510.752	2236.12
510.968	600.12
511.184	156.12
511.401	110.12
511.617	112.12
511.833	93.12
512.049	92.12
512.265	90.12
512.481	98.12
512.698	81.12
512.914	99.12
513.13	102.12
513.346	101.12
513.562	95.12
513.778	89.12
513.994	98.12
514.21	94.12
514.426	109.12
514.642	128.12
514.858	121.12
515.074	163.12
515.29	421.12
515.506	1374.12
515.721	480.12
515.937	148.12
