Data from Uncirc_1992_H10_HRD10591_00002.txt Node
Date: Wed Jan 03 11:46:16 EST 2024
User: Yrep
Spectrometer: HR+D1059
Trigger mode: 1
Integration Time (sec): 1.000000E-1
Scans to average: 1
Electric dark correction enabled: true
Nonlinearity correction enabled: false
Boxcar width: 0
XAxis mode: Wavelengths
Number of Pixels in Spectrum: 2048
>>>>>Begin Spectral Data<<<<<
223.165	-10.88
223.4	-10.88
223.635	-10.88
223.869	-26.88
224.104	-9.88
224.338	-22.88
224.573	-7.88
224.808	-0.88
225.042	-14.88
225.277	-7.88
225.511	-18.88
225.746	12.12
225.98	2.12
226.215	18.12
226.449	13.12
226.683	25.12
226.918	11.12
227.152	39.12
227.387	42.12
227.621	34.12
227.856	34.12
228.09	51.12
228.324	51.12
228.559	51.12
228.793	69.12
229.027	73.12
229.262	52.12
229.496	67.12
229.73	65.12
229.964	63.12
230.199	68.12
230.433	91.12
230.667	84.12
230.901	79.12
231.136	68.12
231.37	71.12
231.604	89.12
231.838	83.12
232.072	68.12
232.306	79.12
232.541	75.12
232.775	78.12
233.009	87.12
233.243	83.12
233.477	85.12
233.711	82.12
233.945	88.12
234.179	90.12
234.413	89.12
234.647	98.12
234.881	80.12
235.115	85.12
235.349	95.12
235.583	93.12
235.817	90.12
236.051	88.12
236.285	83.12
236.519	79.12
236.753	83.12
236.987	81.12
237.221	86.12
237.455	86.12
237.689	80.12
237.922	81.12
238.156	79.12
238.39	67.12
238.624	76.12
238.858	89.12
239.091	83.12
239.325	86.12
239.559	65.12
239.793	84.12
240.027	72.12
240.26	73.12
240.494	79.12
240.728	77.12
240.961	81.12
241.195	80.12
241.429	88.12
241.662	97.12
241.896	85.12
242.13	89.12
242.363	90.12
242.597	72.12
242.83	81.12
243.064	81.12
243.298	83.12
243.531	76.12
243.765	76.12
243.998	95.12
244.232	85.12
244.465	87.12
244.699	83.12
244.932	81.12
245.166	81.12
245.399	83.12
245.633	77.12
245.866	85.12
246.099	85.12
246.333	80.12
246.566	75.12
246.8	69.12
247.033	72.12
247.266	83.12
247.5	71.12
247.733	83.12
247.966	88.12
248.2	105.12
248.433	88.12
248.666	73.12
248.899	79.12
249.133	92.12
249.366	96.12
249.599	101.12
249.832	86.12
250.066	87.12
250.299	80.12
250.532	82.12
250.765	82.12
250.998	76.12
251.231	85.12
251.465	88.12
251.698	75.12
251.931	63.12
252.164	79.12
252.397	88.12
252.63	83.12
252.863	80.12
253.096	85.12
253.329	88.12
253.562	78.12
253.795	75.12
254.028	79.12
254.261	86.12
254.494	70.12
254.727	78.12
254.96	75.12
255.193	68.12
255.426	83.12
255.659	81.12
255.892	79.12
256.124	77.12
256.357	81.12
256.59	92.12
256.823	73.12
257.056	71.12
257.289	86.12
257.521	80.12
257.754	82.12
257.987	76.12
258.22	79.12
258.452	81.12
258.685	88.12
258.918	96.12
259.151	83.12
259.383	83.12
259.616	78.12
259.849	87.12
260.081	85.12
260.314	85.12
260.547	80.12
260.779	98.12
261.012	87.12
261.244	87.12
261.477	84.12
261.71	86.12
261.942	103.12
262.175	111.12
262.407	67.12
262.64	83.12
262.872	83.12
263.105	92.12
263.337	84.12
263.57	84.12
263.802	86.12
264.035	92.12
264.267	81.12
264.499	79.12
264.732	88.12
264.964	80.12
265.197	81.12
265.429	72.12
265.661	85.12
265.894	91.12
266.126	88.12
266.358	79.12
266.591	95.12
266.823	92.12
267.055	74.12
267.287	77.12
267.52	78.12
267.752	95.12
267.984	94.12
268.216	85.12
268.448	74.12
268.681	96.12
268.913	92.12
269.145	70.12
269.377	91.12
269.609	88.12
269.841	87.12
270.073	93.12
270.306	95.12
270.538	94.12
270.77	91.12
271.002	74.12
271.234	92.12
271.466	93.12
271.698	96.12
271.93	85.12
272.162	84.12
272.394	89.12
272.626	81.12
272.858	95.12
273.09	88.12
273.322	87.12
273.553	80.12
273.785	87.12
274.017	93.12
274.249	95.12
274.481	76.12
274.713	84.12
274.945	93.12
275.176	91.12
275.408	86.12
275.64	93.12
275.872	101.12
276.104	93.12
276.335	103.12
276.567	88.12
276.799	103.12
277.031	96.12
277.262	92.12
277.494	85.12
277.726	84.12
277.957	79.12
278.189	87.12
278.421	95.12
278.652	84.12
278.884	92.12
279.115	79.12
279.347	88.12
279.579	87.12
279.81	113.12
280.042	95.12
280.273	94.12
280.505	80.12
280.736	69.12
280.968	93.12
281.199	83.12
281.431	95.12
281.662	88.12
281.894	103.12
282.125	91.12
282.356	116.12
282.588	106.12
282.819	121.12
283.051	93.12
283.282	89.12
283.513	87.12
283.745	97.12
283.976	89.12
284.207	93.12
284.439	93.12
284.67	88.12
284.901	91.12
285.132	94.12
285.364	84.12
285.595	84.12
285.826	81.12
286.057	99.12
286.288	71.12
286.52	98.12
286.751	86.12
286.982	81.12
287.213	91.12
287.444	100.12
287.675	79.12
287.906	84.12
288.138	79.12
288.369	94.12
288.6	95.12
288.831	85.12
289.062	98.12
289.293	92.12
289.524	88.12
289.755	79.12
289.986	92.12
290.217	78.12
290.448	80.12
290.679	91.12
290.91	91.12
291.141	81.12
291.371	92.12
291.602	79.12
291.833	83.12
292.064	91.12
292.295	82.12
292.526	97.12
292.757	84.12
292.987	97.12
293.218	93.12
293.449	101.12
293.68	81.12
293.91	99.12
294.141	94.12
294.372	79.12
294.603	77.12
294.833	96.12
295.064	102.12
295.295	92.12
295.525	88.12
295.756	92.12
295.987	95.12
296.217	102.12
296.448	99.12
296.679	87.12
296.909	101.12
297.14	103.12
297.37	85.12
297.601	92.12
297.831	91.12
298.062	92.12
298.292	97.12
298.523	91.12
298.753	90.12
298.984	75.12
299.214	90.12
299.445	78.12
299.675	81.12
299.905	95.12
300.136	97.12
300.366	92.12
300.597	85.12
300.827	84.12
301.057	102.12
301.288	120.12
301.518	111.12
301.748	95.12
301.979	95.12
302.209	112.12
302.439	91.12
302.669	89.12
302.9	87.12
303.13	102.12
303.36	87.12
303.59	89.12
303.82	95.12
304.051	71.12
304.281	98.12
304.511	91.12
304.741	85.12
304.971	88.12
305.201	88.12
305.431	93.12
305.661	83.12
305.891	75.12
306.121	94.12
306.352	91.12
306.582	104.12
306.812	80.12
307.042	98.12
307.272	79.12
307.502	89.12
307.731	99.12
307.961	96.12
308.191	96.12
308.421	93.12
308.651	91.12
308.881	97.12
309.111	101.12
309.341	89.12
309.571	111.12
309.8	91.12
310.03	99.12
310.26	86.12
310.49	100.12
310.72	97.12
310.949	98.12
311.179	92.12
311.409	88.12
311.639	90.12
311.868	96.12
312.098	91.12
312.328	99.12
312.557	95.12
312.787	104.12
313.017	91.12
313.246	100.12
313.476	84.12
313.706	85.12
313.935	77.12
314.165	102.12
314.394	83.12
314.624	88.12
314.853	91.12
315.083	96.12
315.312	96.12
315.542	92.12
315.771	97.12
316.001	84.12
316.23	95.12
316.46	87.12
316.689	81.12
316.919	95.12
317.148	77.12
317.377	94.12
317.607	89.12
317.836	97.12
318.065	86.12
318.295	85.12
318.524	82.12
318.753	97.12
318.983	84.12
319.212	97.12
319.441	102.12
319.67	100.12
319.9	96.12
320.129	104.12
320.358	88.12
320.587	88.12
320.816	100.12
321.046	99.12
321.275	105.12
321.504	102.12
321.733	92.12
321.962	103.12
322.191	104.12
322.42	119.12
322.649	103.12
322.878	104.12
323.108	116.12
323.337	122.12
323.566	123.12
323.795	126.12
324.024	164.12
324.253	320.12
324.482	613.12
324.71	1229.12
324.939	1583.12
325.168	600.12
325.397	201.12
325.626	139.12
325.855	128.12
326.084	109.12
326.313	114.12
326.542	158.12
326.77	195.12
326.999	359.12
327.228	719.12
327.457	1296.12
327.686	1001.12
327.914	288.12
328.143	161.12
328.372	150.12
328.6	113.12
328.829	101.12
329.058	122.12
329.287	118.12
329.515	112.12
329.744	87.12
329.972	100.12
330.201	91.12
330.43	102.12
330.658	110.12
330.887	107.12
331.115	108.12
331.344	85.12
331.572	102.12
331.801	97.12
332.03	82.12
332.258	101.12
332.486	103.12
332.715	106.12
332.943	103.12
333.172	88.12
333.4	87.12
333.629	98.12
333.857	111.12
334.085	94.12
334.314	96.12
334.542	96.12
334.771	97.12
334.999	96.12
335.227	93.12
335.455	89.12
335.684	103.12
335.912	109.12
336.14	87.12
336.369	101.12
336.597	114.12
336.825	89.12
337.053	91.12
337.281	104.12
337.51	92.12
337.738	93.12
337.966	101.12
338.194	103.12
338.422	99.12
338.65	100.12
338.878	72.12
339.106	96.12
339.334	95.12
339.562	89.12
339.79	86.12
340.018	90.12
340.246	93.12
340.474	96.12
340.702	110.12
340.93	104.12
341.158	96.12
341.386	92.12
341.614	94.12
341.842	80.12
342.07	79.12
342.298	83.12
342.526	81.12
342.754	99.12
342.981	89.12
343.209	102.12
343.437	108.12
343.665	91.12
343.893	94.12
344.12	95.12
344.348	98.12
344.576	84.12
344.804	82.12
345.031	87.12
345.259	89.12
345.487	90.12
345.714	94.12
345.942	95.12
346.17	97.12
346.397	89.12
346.625	96.12
346.853	91.12
347.08	85.12
347.308	99.12
347.535	105.12
347.763	98.12
347.99	101.12
348.218	106.12
348.445	118.12
348.673	86.12
348.9	101.12
349.128	95.12
349.355	86.12
349.583	97.12
349.81	96.12
350.037	100.12
350.265	104.12
350.492	110.12
350.72	100.12
350.947	87.12
351.174	81.12
351.402	95.12
351.629	91.12
351.856	99.12
352.083	103.12
352.311	116.12
352.538	99.12
352.765	91.12
352.992	108.12
353.22	96.12
353.447	100.12
353.674	103.12
353.901	102.12
354.128	122.12
354.355	105.12
354.583	101.12
354.81	101.12
355.037	101.12
355.264	88.12
355.491	92.12
355.718	95.12
355.945	105.12
356.172	88.12
356.399	98.12
356.626	100.12
356.853	103.12
357.08	69.12
357.307	90.12
357.534	94.12
357.761	97.12
357.988	104.12
358.215	105.12
358.441	109.12
358.668	93.12
358.895	96.12
359.122	102.12
359.349	102.12
359.576	101.12
359.802	110.12
360.029	118.12
360.256	100.12
360.483	94.12
360.709	103.12
360.936	99.12
361.163	84.12
361.39	104.12
361.616	91.12
361.843	97.12
362.07	95.12
362.296	93.12
362.523	93.12
362.749	81.12
362.976	64.12
363.203	88.12
363.429	96.12
363.656	88.12
363.882	83.12
364.109	94.12
364.335	83.12
364.562	90.12
364.788	101.12
365.015	83.12
365.241	123.12
365.468	109.12
365.694	92.12
365.92	100.12
366.147	96.12
366.373	98.12
366.599	87.12
366.826	103.12
367.052	91.12
367.278	91.12
367.505	87.12
367.731	99.12
367.957	101.12
368.184	103.12
368.41	98.12
368.636	95.12
368.862	109.12
369.089	99.12
369.315	87.12
369.541	91.12
369.767	102.12
369.993	101.12
370.219	82.12
370.445	88.12
370.672	83.12
370.898	91.12
371.124	97.12
371.35	96.12
371.576	83.12
371.802	93.12
372.028	89.12
372.254	102.12
372.48	91.12
372.706	84.12
372.932	88.12
373.158	102.12
373.384	81.12
373.61	95.12
373.835	96.12
374.061	92.12
374.287	91.12
374.513	90.12
374.739	92.12
374.965	93.12
375.191	96.12
375.416	92.12
375.642	103.12
375.868	94.12
376.094	93.12
376.319	99.12
376.545	92.12
376.771	94.12
376.997	94.12
377.222	89.12
377.448	91.12
377.674	92.12
377.899	89.12
378.125	98.12
378.35	110.12
378.576	91.12
378.802	92.12
379.027	103.12
379.253	81.12
379.478	80.12
379.704	116.12
379.929	81.12
380.155	86.12
380.38	107.12
380.606	97.12
380.831	111.12
381.057	93.12
381.282	80.12
381.507	108.12
381.733	103.12
381.958	95.12
382.184	96.12
382.409	108.12
382.634	112.12
382.86	91.12
383.085	95.12
383.31	100.12
383.535	113.12
383.761	108.12
383.986	104.12
384.211	100.12
384.436	98.12
384.662	115.12
384.887	89.12
385.112	108.12
385.337	113.12
385.562	107.12
385.787	115.12
386.013	130.12
386.238	110.12
386.463	97.12
386.688	117.12
386.913	117.12
387.138	122.12
387.363	117.12
387.588	99.12
387.813	106.12
388.038	107.12
388.263	112.12
388.488	120.12
388.713	105.12
388.938	102.12
389.163	100.12
389.387	103.12
389.612	104.12
389.837	91.12
390.062	96.12
390.287	93.12
390.512	92.12
390.736	92.12
390.961	111.12
391.186	98.12
391.411	88.12
391.636	85.12
391.86	84.12
392.085	94.12
392.31	95.12
392.534	92.12
392.759	87.12
392.984	98.12
393.208	87.12
393.433	107.12
393.658	96.12
393.882	81.12
394.107	84.12
394.331	90.12
394.556	102.12
394.78	99.12
395.005	79.12
395.229	86.12
395.454	95.12
395.678	70.12
395.903	90.12
396.127	89.12
396.352	84.12
396.576	87.12
396.801	92.12
397.025	104.12
397.249	104.12
397.474	92.12
397.698	110.12
397.922	89.12
398.147	95.12
398.371	81.12
398.595	92.12
398.82	89.12
399.044	94.12
399.268	94.12
399.492	103.12
399.717	106.12
399.941	90.12
400.165	99.12
400.389	100.12
400.613	87.12
400.837	85.12
401.062	80.12
401.286	84.12
401.51	100.12
401.734	72.12
401.958	79.12
402.182	101.12
402.406	131.12
402.63	91.12
402.854	96.12
403.078	73.12
403.302	96.12
403.526	101.12
403.75	95.12
403.974	81.12
404.198	83.12
404.422	94.12
404.645	104.12
404.869	96.12
405.093	96.12
405.317	92.12
405.541	93.12
405.765	107.12
405.988	101.12
406.212	136.12
406.436	166.12
406.66	126.12
406.883	93.12
407.107	80.12
407.331	104.12
407.555	105.12
407.778	100.12
408.002	94.12
408.226	95.12
408.449	84.12
408.673	81.12
408.896	97.12
409.12	106.12
409.344	93.12
409.567	96.12
409.791	100.12
410.014	109.12
410.238	76.12
410.461	83.12
410.685	102.12
410.908	105.12
411.132	99.12
411.355	87.12
411.578	91.12
411.802	96.12
412.025	86.12
412.249	101.12
412.472	87.12
412.695	92.12
412.919	90.12
413.142	92.12
413.365	92.12
413.589	86.12
413.812	93.12
414.035	95.12
414.258	95.12
414.482	91.12
414.705	89.12
414.928	85.12
415.151	107.12
415.374	112.12
415.597	84.12
415.821	97.12
416.044	86.12
416.267	95.12
416.49	83.12
416.713	88.12
416.936	100.12
417.159	93.12
417.382	88.12
417.605	94.12
417.828	99.12
418.051	88.12
418.274	103.12
418.497	96.12
418.72	75.12
418.943	83.12
419.166	94.12
419.389	103.12
419.611	91.12
419.834	104.12
420.057	100.12
420.28	84.12
420.503	81.12
420.726	95.12
420.948	90.12
421.171	88.12
421.394	98.12
421.617	79.12
421.839	97.12
422.062	96.12
422.285	87.12
422.507	105.12
422.73	119.12
422.953	89.12
423.175	79.12
423.398	102.12
423.621	83.12
423.843	88.12
424.066	91.12
424.288	93.12
424.511	82.12
424.733	100.12
424.956	102.12
425.178	98.12
425.401	79.12
425.623	90.12
425.846	89.12
426.068	107.12
426.291	98.12
426.513	110.12
426.735	94.12
426.958	90.12
427.18	107.12
427.402	120.12
427.625	134.12
427.847	105.12
428.069	102.12
428.292	92.12
428.514	84.12
428.736	86.12
428.958	86.12
429.181	103.12
429.403	97.12
429.625	94.12
429.847	87.12
430.069	92.12
430.292	91.12
430.514	93.12
430.736	77.12
430.958	79.12
431.18	95.12
431.402	93.12
431.624	87.12
431.846	91.12
432.068	87.12
432.29	84.12
432.512	101.12
432.734	100.12
432.956	89.12
433.178	106.12
433.4	90.12
433.622	92.12
433.844	80.12
434.066	84.12
434.287	94.12
434.509	94.12
434.731	80.12
434.953	93.12
435.175	89.12
435.397	100.12
435.618	101.12
435.84	98.12
436.062	125.12
436.284	109.12
436.505	93.12
436.727	107.12
436.949	89.12
437.17	99.12
437.392	88.12
437.614	102.12
437.835	90.12
438.057	95.12
438.278	110.12
438.5	99.12
438.721	113.12
438.943	100.12
439.165	95.12
439.386	86.12
439.608	88.12
439.829	110.12
440.05	123.12
440.272	116.12
440.493	94.12
440.715	72.12
440.936	87.12
441.158	99.12
441.379	93.12
441.6	92.12
441.822	97.12
442.043	88.12
442.264	102.12
442.486	97.12
442.707	97.12
442.928	88.12
443.149	109.12
443.371	111.12
443.592	99.12
443.813	97.12
444.034	99.12
444.255	97.12
444.476	85.12
444.698	92.12
444.919	98.12
445.14	135.12
445.361	111.12
445.582	111.12
445.803	126.12
446.024	126.12
446.245	116.12
446.466	97.12
446.687	91.12
446.908	80.12
447.129	78.12
447.35	92.12
447.571	101.12
447.792	100.12
448.013	90.12
448.234	102.12
448.455	104.12
448.675	89.12
448.896	119.12
449.117	96.12
449.338	98.12
449.559	136.12
449.779	122.12
450	96.12
450.221	93.12
450.442	103.12
450.662	103.12
450.883	92.12
451.104	86.12
451.324	93.12
451.545	87.12
451.766	87.12
451.986	93.12
452.207	87.12
452.428	78.12
452.648	89.12
452.869	107.12
453.089	97.12
453.31	102.12
453.53	89.12
453.751	83.12
453.971	106.12
454.192	109.12
454.412	105.12
454.633	100.12
454.853	97.12
455.073	87.12
455.294	92.12
455.514	92.12
455.734	99.12
455.955	85.12
456.175	98.12
456.395	68.12
456.616	79.12
456.836	79.12
457.056	75.12
457.276	86.12
457.497	87.12
457.717	86.12
457.937	99.12
458.157	89.12
458.377	93.12
458.598	100.12
458.818	128.12
459.038	126.12
459.258	98.12
459.478	81.12
459.698	81.12
459.918	88.12
460.138	94.12
460.358	96.12
460.578	95.12
460.798	90.12
461.018	91.12
461.238	76.12
461.458	91.12
461.678	88.12
461.898	87.12
462.118	72.12
462.338	87.12
462.558	87.12
462.777	82.12
462.997	93.12
463.217	83.12
463.437	92.12
463.657	101.12
463.876	72.12
464.096	87.12
464.316	97.12
464.536	93.12
464.755	91.12
464.975	100.12
465.195	139.12
465.414	113.12
465.634	90.12
465.854	108.12
466.073	97.12
466.293	88.12
466.512	87.12
466.732	97.12
466.951	93.12
467.171	101.12
467.391	94.12
467.61	111.12
467.829	98.12
468.049	92.12
468.268	91.12
468.488	70.12
468.707	73.12
468.927	78.12
469.146	87.12
469.365	92.12
469.585	101.12
469.804	101.12
470.023	94.12
470.243	96.12
470.462	90.12
470.681	112.12
470.901	97.12
471.12	94.12
471.339	88.12
471.558	90.12
471.777	97.12
471.997	93.12
472.216	98.12
472.435	80.12
472.654	89.12
472.873	91.12
473.092	97.12
473.311	89.12
473.53	80.12
473.749	100.12
473.968	93.12
474.187	101.12
474.406	87.12
474.625	89.12
474.844	97.12
475.063	98.12
475.282	102.12
475.501	100.12
475.72	93.12
475.939	99.12
476.158	92.12
476.377	79.12
476.596	99.12
476.814	75.12
477.033	80.12
477.252	71.12
477.471	95.12
477.69	106.12
477.908	85.12
478.127	86.12
478.346	88.12
478.564	91.12
478.783	109.12
479.002	83.12
479.22	112.12
479.439	107.12
479.658	100.12
479.876	91.12
480.095	92.12
480.313	97.12
480.532	86.12
480.751	75.12
480.969	101.12
481.188	98.12
481.406	98.12
481.624	112.12
481.843	102.12
482.061	79.12
482.28	95.12
482.498	81.12
482.717	87.12
482.935	91.12
483.153	100.12
483.372	84.12
483.59	97.12
483.808	93.12
484.027	93.12
484.245	98.12
484.463	92.12
484.681	94.12
484.9	100.12
485.118	116.12
485.336	96.12
485.554	104.12
485.772	96.12
485.99	89.12
486.209	99.12
486.427	113.12
486.645	121.12
486.863	120.12
487.081	93.12
487.299	94.12
487.517	100.12
487.735	90.12
487.953	86.12
488.171	91.12
488.389	93.12
488.607	102.12
488.825	94.12
489.043	103.12
489.261	100.12
489.479	93.12
489.696	90.12
489.914	93.12
490.132	91.12
490.35	83.12
490.568	92.12
490.786	90.12
491.003	80.12
491.221	87.12
491.439	87.12
491.657	83.12
491.874	84.12
492.092	103.12
492.31	94.12
492.527	85.12
492.745	91.12
492.963	110.12
493.18	94.12
493.398	99.12
493.615	92.12
493.833	93.12
494.05	72.12
494.268	88.12
494.485	96.12
494.703	100.12
494.92	104.12
495.138	87.12
495.355	107.12
495.573	96.12
495.79	95.12
496.008	94.12
496.225	76.12
496.442	76.12
496.66	94.12
496.877	88.12
497.094	101.12
497.312	95.12
497.529	85.12
497.746	91.12
497.963	98.12
498.181	103.12
498.398	77.12
498.615	112.12
498.832	106.12
499.049	101.12
499.267	88.12
499.484	99.12
499.701	97.12
499.918	90.12
500.135	91.12
500.352	82.12
500.569	87.12
500.786	96.12
501.003	95.12
501.22	83.12
501.437	95.12
501.654	93.12
501.871	105.12
502.088	100.12
502.305	95.12
502.522	89.12
502.739	85.12
502.956	107.12
503.172	105.12
503.389	100.12
503.606	99.12
503.823	97.12
504.04	93.12
504.256	97.12
504.473	92.12
504.69	101.12
504.907	92.12
505.123	95.12
505.34	101.12
505.557	92.12
505.773	99.12
505.99	92.12
506.207	91.12
506.423	92.12
506.64	85.12
506.856	94.12
507.073	88.12
507.289	98.12
507.506	109.12
507.722	109.12
507.939	100.12
508.155	113.12
508.372	93.12
508.588	99.12
508.805	87.12
509.021	106.12
509.238	105.12
509.454	100.12
509.67	95.12
509.887	110.12
510.103	137.12
510.319	196.12
510.536	559.12
510.752	1608.12
510.968	462.12
511.184	139.12
511.401	107.12
511.617	91.12
511.833	92.12
512.049	88.12
512.265	91.12
512.481	99.12
512.698	98.12
512.914	94.12
513.13	88.12
513.346	99.12
513.562	111.12
513.778	112.12
513.994	102.12
514.21	99.12
514.426	118.12
514.642	122.12
514.858	123.12
515.074	136.12
515.29	349.12
